Dividing Wavelength (nm)	Counts (n)	Blue Motor Position (mm): 42.600000	Red Motor Position (mm): 0.000000	
326.493990	2132.002264
326.888308	2132.002264
327.282561	2132.002264
327.676750	2096.719228
328.070874	2098.085381
328.464933	2096.479773
328.858929	2107.119129
329.252859	2115.439553
329.646726	2128.319701
330.040528	2141.721609
330.434265	2155.476397
330.827938	2176.639161
331.221547	2190.595595
331.615091	2209.875488
332.008571	2230.748386
332.401986	2251.578433
332.795338	2269.872781
333.188625	2291.277520
333.581847	2307.769655
333.975006	2324.982674
334.368100	2343.077896
334.761129	2360.865608
335.154095	2377.193905
335.546996	2400.952863
335.939833	2426.488828
336.332606	2441.612289
336.725315	2450.671243
337.117960	2462.316308
337.510540	2468.779067
337.903056	2481.651654
338.295508	2489.881337
338.687896	2497.569097
339.080220	2506.239882
339.472480	2512.954698
339.864676	2516.544000
340.256807	2518.938548
340.648875	2523.699918
341.040879	2527.528674
341.432818	2529.043541
341.824694	2529.192255
342.216506	2530.722245
342.608253	2534.303985
342.999937	2529.466998
343.391557	2531.750641
343.783113	2529.111597
344.174605	2527.667306
344.566033	2525.776873
344.957397	2526.205371
345.348697	2524.229239
345.739934	2519.730009
346.131106	2519.331758
346.522215	2519.006604
346.913260	2516.165913
347.304241	2516.533918
347.695159	2514.141890
348.086012	2511.215500
348.476802	2509.340191
348.867528	2506.512104
349.258191	2504.750221
349.648789	2507.565705
350.039324	2503.540344
350.429796	2502.632936
350.820203	2502.486743
351.210548	2499.174704
351.600828	2502.390961
351.991045	2500.049345
352.381198	2500.629077
352.771288	2498.577328
353.161314	2499.303254
353.551276	2496.386946
353.941175	2497.488438
354.331010	2498.297544
354.720782	2497.183449
355.110490	2498.184118
355.500135	2494.957779
355.889717	2495.003150
356.279235	2496.676813
356.668689	2500.916423
357.058080	2497.674961
357.447408	2495.867707
357.836672	2492.490134
358.225873	2496.676813
358.615010	2496.850732
359.004084	2500.785353
359.393095	2499.799808
359.782043	2503.457165
360.170927	2504.278873
360.559748	2502.148985
360.948505	2504.810714
361.337199	2504.442710
361.725830	2506.154182
362.114398	2507.578308
362.502903	2506.199552
362.891344	2508.092506
363.279722	2507.162413
363.668037	2507.117042
364.056289	2509.302383
364.444478	2509.685510
364.832603	2508.276508
365.220665	2510.726508
365.608665	2511.240706
365.996601	2510.633247
366.384474	2513.673063
366.772284	2510.131652
367.160031	2511.573422
367.547715	2510.512259
367.935336	2514.797240
368.322893	2515.639113
368.710388	2514.794720
369.097820	2516.896881
369.485189	2516.057529
369.872495	2513.909997
370.259738	2519.646830
370.646918	2514.744308
371.034035	2515.508043
371.421090	2517.821933
371.808081	2516.107940
372.195010	2517.032992
372.581875	2519.493075
372.968678	2519.349402
373.355418	2521.237314
373.742096	2520.549197
374.128710	2518.759587
374.515262	2520.115657
374.901751	2520.518950
375.288177	2520.939886
375.674540	2520.019876
376.060841	2522.427027
376.447079	2520.115658
376.833254	2524.657737
377.219367	2520.040040
377.605417	2521.819568
377.991404	2518.792355
378.377329	2523.347037
378.763191	2521.673374
379.148991	2525.847449
379.534727	2524.811492
379.920402	2530.392050
380.306013	2530.177801
380.691563	2536.091074
381.077049	2539.614841
381.462474	2544.461910
381.847835	2552.149670
382.233134	2556.341389
382.618371	2563.446895
383.003545	2574.227403
383.388657	2585.254927
383.773706	2598.888727
384.158693	2612.230141
384.543618	2625.213633
384.928480	2641.158802
385.313280	2659.743016
385.698017	2671.284738
386.082692	2695.711649
386.467305	2712.052549
386.851856	2734.342011
387.236344	2756.084507
387.620770	2783.939403
388.005133	2809.442600
388.389435	2836.911848
388.773674	2860.970754
389.157851	2899.407032
389.541965	2928.403749
389.926018	2937.830706
390.310008	2989.285764
390.693936	3021.904550
391.077802	3065.172773
391.461606	3086.892584
391.845348	3145.783344
392.229027	3170.873166
392.612645	3207.154351
392.996200	3279.625978
393.379694	3325.901250
393.763125	3392.605798
394.146494	3404.543250
394.529801	3476.220896
394.913047	3537.733055
395.296230	3545.667831
395.679351	3613.100826
396.062410	3657.412568
396.445408	3675.079292
396.828343	3729.090214
397.211217	3773.906072
397.594028	3738.297882
397.976778	3816.748318
398.359466	3864.974516
398.742092	3910.352462
399.124656	3868.170607
399.507158	3959.415492
399.889598	3997.882017
400.271977	4070.134354
400.654294	4062.809558
401.036549	4088.431222
401.418742	4075.052000
401.800874	4187.341181
402.182944	4221.525245
402.564952	4291.002428
402.946898	4292.918066
403.328783	4298.876710
403.710606	4230.574116
404.092367	4422.450514
404.474067	4396.816247
404.855705	4410.626488
405.237282	4348.743804
405.618797	4460.430567
406.000250	4500.527905
406.381642	4579.134617
406.762972	4552.650915
407.144240	4562.355136
407.525447	4569.591713
407.906593	4627.486844
408.287677	4675.120707
408.668700	4605.769553
409.049661	4658.011030
409.430560	4701.490982
409.811399	4628.951299
410.192176	4789.776710
410.572891	4728.544334
410.953545	4835.305891
411.334138	4715.107139
411.714669	4784.896873
412.095139	4684.346018
412.475547	4822.599662
412.855894	4798.991939
413.236180	4814.647242
413.616405	4767.192340
413.996568	4853.718705
414.376670	4792.940034
414.756711	4751.156430
415.136691	4784.188591
415.516609	4862.558368
415.896466	4902.174276
416.276262	4934.432619
416.655997	4912.286830
417.035670	5096.795582
417.415283	5183.415208
417.794834	5127.221466
418.174324	5080.739507
418.553753	4992.088296
418.933121	5171.419782
419.312428	5242.618518
419.691674	5180.919837
420.070859	5312.294826
420.449983	5218.907451
420.829045	5338.113096
421.208047	5237.355554
421.586988	5313.781967
421.965867	5328.655891
422.344686	5456.333195
422.723444	5313.522347
423.102141	5131.047702
423.480777	5426.345891
423.859352	5196.038257
424.237866	5461.228155
424.616319	5447.806083
424.994712	5552.944387
425.373044	5436.080359
425.751314	5578.429941
426.129524	5382.918871
426.507673	5573.030865
426.885762	5657.777702
427.263789	5590.228761
427.641756	5470.859279
428.019662	5592.978711
428.397508	5599.169248
428.775292	5548.906423
429.153016	5648.633049
429.530679	5579.113017
429.908282	5653.134800
430.285824	5528.517477
430.663305	5801.264064
431.040726	5540.941400
431.418086	5537.626842
431.795385	5646.099869
432.172624	5654.339635
432.549802	5650.326877
432.926920	5665.289022
433.303977	5671.073746
433.680974	5710.097317
434.057910	5726.168516
434.434786	5736.134877
434.811601	5699.949475
435.188355	5937.919663
435.565050	5810.663296
435.941683	5792.474813
436.318257	6005.708058
436.694770	5985.792980
437.071222	6025.625657
437.447614	5953.199400
437.823946	5868.581112
438.200218	6022.371593
438.576429	5890.457199
438.952580	5985.712322
439.328670	6031.193612
439.704700	5937.521412
440.080670	5924.981541
440.456580	6198.070927
440.832429	6078.265386
441.208218	5927.582777
441.583947	6081.423669
441.959616	6085.900213
442.335224	6014.789697
442.710773	6147.485469
443.086261	6169.011196
443.461689	5969.066432
443.837057	6119.179390
444.212365	6267.641371
444.587612	6169.374159
444.962800	6321.218754
445.337927	6302.725281
445.712995	5915.320170
446.088002	6490.480536
446.462949	6324.044321
446.837837	6252.709473
447.212664	6420.882366
447.587431	6566.738070
447.962139	7105.985256
448.336786	8031.838530
448.711374	7769.401102
449.085901	6843.517581
449.460369	6763.857268
449.834776	6696.104160
450.209124	7094.282217
450.583412	7239.399392
450.957640	7385.534881
451.331808	7150.838922
451.705917	6707.073711
452.079965	6623.990454
452.453954	6847.641245
452.827883	6718.978396
453.201752	6812.998435
453.575562	6608.924966
453.949311	6816.738972
454.323001	6698.856630
454.696632	6779.978878
455.070202	6917.688077
455.443713	7073.626089
455.817164	7170.328023
456.190556	7252.420693
456.563888	7329.862898
456.937160	7371.144907
457.310373	7028.870725
457.683526	7049.095835
458.056619	6939.642302
458.429653	6933.802126
458.802628	6865.602876
459.175542	6982.015721
459.548398	7328.224523
459.921194	7486.093297
460.293930	7492.170408
460.666607	8022.242694
461.039224	8332.465219
461.411782	8457.337120
461.784280	8469.498904
462.156719	8362.278603
462.529099	8240.935509
462.901419	7830.159609
463.273680	7719.644913
463.645882	7735.378355
464.018024	7600.862726
464.390106	7769.154085
464.762130	8158.260586
465.134094	8638.407805
465.505999	9650.699223
465.877845	10868.939421
466.249631	11519.560818
466.621358	11127.961467
466.993026	10504.337969
467.364634	10244.665614
467.736184	9885.412826
468.107674	9550.430673
468.479105	9586.248072
468.850477	9340.983334
469.221790	9124.566599
469.593043	8798.403946
469.964238	8655.298191
470.335373	8661.725662
470.706449	8724.165393
471.077467	8703.511786
471.448425	10019.613383
471.819324	11079.483211
472.190164	11102.213774
472.560945	9860.285195
472.931667	9078.684538
473.302330	8944.584804
473.672934	8592.097245
474.043479	8944.272253
474.413965	8884.411071
474.784393	8765.817927
475.154761	8923.285929
475.525070	9010.117284
475.895321	8836.174791
476.265513	9017.948716
476.635645	9183.613634
477.005719	9186.282925
477.375734	9302.559659
477.745691	9537.482470
478.115588	9668.996091
478.485427	9917.651005
478.855207	10451.448703
479.224928	11264.629668
479.594591	11890.309958
479.964194	11698.753673
480.333739	11635.582974
480.703226	11557.987014
481.072653	11644.762915
481.442022	11887.842313
481.811333	12074.969943
482.180584	11879.635314
482.549777	11584.216137
482.918912	11409.076370
483.287988	11435.902870
483.657005	11439.325814
484.025964	11131.086983
484.394864	11259.386868
484.763706	11226.155582
485.132489	10990.940385
485.501213	10956.486619
485.869879	11030.936900
486.238487	10865.070335
486.607036	10982.264559
486.975527	10758.765003
487.343959	10944.690319
487.712333	10998.663433
488.080648	10926.849676
488.448905	10971.743671
488.817104	10912.852912
489.185244	11179.908037
489.553326	11332.821357
489.921350	11870.977133
490.289315	12933.130604
490.657222	13274.832614
491.025070	13177.750074
491.392861	13052.328687
491.760593	12676.205678
492.128267	12324.991010
492.495883	11991.412818
492.863440	11661.393682
493.230939	11317.448358
493.598380	11251.903276
493.965763	11124.425098
494.333088	11023.775941
494.700354	10942.588158
495.067563	11006.653662
495.434713	10842.654845
495.801805	10959.241610
496.168839	10890.704602
496.535815	10827.302011
496.902733	10826.770169
497.269593	10758.404561
497.636395	10860.752587
498.003139	10843.816831
498.369825	10710.006963
498.736453	10872.445543
499.103023	10798.327979
499.469535	10830.001548
499.835989	10817.862450
500.202385	10776.865266
500.568723	10634.369491
500.935003	10857.392658
501.301226	10655.635599
501.667390	10923.668707
502.033497	11015.339570
502.399546	10872.311953
502.765537	10783.512028
503.131470	10854.809067
503.497345	11025.016064
503.863163	10647.373147
504.228923	10951.889087
504.594625	11011.581389
504.960269	10765.449573
505.325856	10975.645524
505.691385	10779.632860
506.056856	10931.527866
506.422270	10947.493201
506.787625	10840.545122
507.152924	10962.349481
507.518164	10939.565986
507.883347	10864.525891
508.248472	10779.189238
508.613540	11017.587924
508.978550	10899.113247
509.343503	10871.812878
509.708398	10988.870991
510.073236	11106.768456
510.438016	11111.592841
510.802738	11066.328320
511.167403	11119.792277
511.532010	11011.591472
511.896561	11240.137222
512.261053	11314.514406
512.625488	11186.254850
512.989866	11163.814153
513.354186	11152.557257
513.718449	11058.885057
514.082655	11246.736093
514.446803	11137.716100
514.810894	11265.451377
515.174927	11134.774587
515.538904	11158.374748
515.902822	11313.120527
516.266684	11187.086640
516.630488	11135.661830
516.994235	11189.214007
517.357925	11251.323543
517.721558	11344.191679
518.085133	11350.137720
518.448651	11363.272446
518.812112	11253.534089
519.175516	11255.391754
519.538863	11384.195755
519.902152	11298.823815
520.265385	11460.233999
520.628560	11372.588499
520.991678	11357.079389
521.354739	11410.838253
521.717743	11346.760147
522.080690	11320.218472
522.443580	11470.031482
522.806413	11414.669530
523.169189	11450.257556
523.531908	11509.473470
523.894569	11332.544093
524.257174	11332.947385
524.619722	11449.551794
524.982213	11400.019937
525.344647	11449.501383
525.707025	11398.399206
526.069345	11492.010913
526.431608	11409.890517
526.793815	11520.253977
527.155964	11311.832513
527.518057	11362.228927
527.880093	11306.718262
528.242072	11378.922708
528.603995	11281.842688
528.965860	11197.471417
529.327669	11253.798749
529.689421	11203.346882
530.051117	11174.972747
530.412755	11284.310333
530.774337	11167.602580
531.135862	11144.809003
531.497331	11168.998980
531.858743	11025.739470
532.220098	11193.647702
532.581396	11062.098792
532.942638	11047.093798
533.303824	11014.348983
533.664953	11020.310147
534.026025	10932.815881
534.387040	11034.921932
534.747999	11043.418797
535.108902	11096.948289
535.469748	10851.580208
535.830537	10959.768410
536.191270	10937.052971
536.551947	10961.807557
536.912567	10960.285128
537.273131	10880.823941
537.633638	10862.522032
537.994089	10847.993427
538.354483	10794.312700
538.714821	10947.614188
539.075103	10955.564088
539.435328	10918.806515
539.795497	10746.973745
540.155609	10910.614640
540.515665	10990.095992
540.875665	10724.742256
541.235609	10800.788062
541.595496	10790.713316
541.955328	10951.684920
542.315102	10826.200518
542.674821	10779.882397
543.034483	10777.026583
543.394090	10787.630650
543.753640	10711.244567
544.113134	10934.544997
544.472571	10783.116297
544.831953	10935.217991
545.191278	10739.507796
545.550548	10765.867989
545.909761	10903.809082
546.268918	10875.014011
546.628019	10956.491660
546.987064	10822.507873
547.346053	10747.006512
547.704986	10843.801707
548.063863	10832.897691
548.422684	10825.063738
548.781449	10741.332693
549.140158	10850.725732
549.498811	10728.044212
549.857408	10580.953425
550.215949	10808.143105
550.574434	10659.174489
550.932864	10760.148800
551.291237	10816.581997
551.649555	10767.110634
552.007817	10778.669999
552.366022	10736.788093
552.724173	10730.297608
553.082267	10714.735566
553.440305	10853.465599
553.798288	10651.945474
554.156215	10809.569752
554.514086	10781.321646
554.871902	10635.889399
555.229661	10675.129741
555.587365	10652.089147
555.945014	10534.897443
556.302606	10669.445840
556.660143	10561.960878
557.017625	10711.930164
557.375050	10608.324370
557.732421	10750.184960
558.089735	10658.057873
558.446994	10656.048973
558.804197	10697.487258
559.161345	10695.044819
559.518437	10547.510410
559.875474	10637.479883
560.232455	10656.663994
560.589381	10612.558939
560.946251	10610.643301
561.303065	10713.676923
561.659825	10654.163582
562.016528	10583.216903
562.373177	10461.503285
562.729770	10580.923178
563.086307	10496.647689
563.442789	10587.751421
563.799216	10467.661054
564.155587	10514.831131
564.511904	10468.190375
564.868164	10461.591505
565.224370	10472.268669
565.580520	10399.444160
565.936615	10404.797866
566.292654	10278.554770
566.648638	10406.204347
567.004567	10359.520742
567.360441	10345.922230
567.716260	10262.455846
568.072023	10354.472027
568.427732	10299.936824
568.783385	10215.850378
569.138982	10285.564495
569.494525	10297.564962
569.850013	10179.211272
570.205445	10254.342108
570.560823	10154.227314
570.916145	10071.960724
571.271412	10137.606629
571.626625	10087.285832
571.981782	10056.134022
572.336884	10034.925887
572.691931	10039.967041
573.046923	9980.405808
573.401860	9937.319067
573.756743	9871.925219
574.111570	9920.746273
574.466342	9904.607019
574.821059	9931.085680
575.175722	9823.174741
575.530330	9829.095576
575.884882	9831.285957
576.239380	9750.352753
576.593823	9734.437830
576.948211	9749.304193
577.302544	9628.666861
577.656823	9643.162698
578.011047	9654.472527
578.365216	9619.164286
578.719330	9536.512048
579.073389	9550.171054
579.427394	9501.218930
579.781344	9478.833686
580.135239	9431.099000
580.489080	9438.741389
580.842866	9337.835133
581.196597	9347.216721
581.550273	9382.318275
581.903895	9352.870375
582.257463	9417.626517
582.610975	9298.864494
582.964434	9328.075460
583.317837	9242.209486
583.671186	9231.224812
584.024481	9224.336075
584.377721	9137.958425
584.730906	9120.347154
585.084037	9148.562492
585.437113	9091.317669
585.790135	9103.610523
586.143103	9005.149227
586.496016	8979.399013
586.848874	9037.185759
587.201679	9026.294346
587.554428	8910.120956
587.907124	8953.421947
588.259765	8927.880941
588.612352	8929.579810
588.964884	8806.449627
589.317362	8819.097882
589.669786	8824.446546
590.022155	8869.587558
590.374470	8885.343685
590.726731	8819.269281
591.078937	8673.703443
591.431090	8789.571844
591.783188	8657.695259
592.135232	8649.193353
592.487222	8654.337851
592.839157	8704.782157
593.191038	8631.095611
593.542866	8584.469979
593.894639	8478.537693
594.246358	8534.648256
594.598022	8552.173827
594.949633	8451.759084
595.301190	8428.347965
595.652692	8452.835370
596.004141	8570.228720
596.355535	8341.103236
596.706876	8321.677150
597.058162	8248.280470
597.409395	8333.788522
597.760573	8396.508038
598.111698	8296.857029
598.462768	8286.568034
598.813785	8251.093434
599.164748	8221.184268
599.515657	8211.716982
599.866511	8125.785473
600.217312	8248.703927
600.568060	8104.877287
600.918753	8209.624903
601.269392	8186.165893
601.619978	8093.131399
601.970510	8150.865213
602.320988	8153.660533
602.671412	8211.595994
603.021783	8143.351374
603.372100	8120.404041
603.722363	8125.878734
604.072572	8095.263807
604.422728	8106.288811
604.772830	8039.380096
605.122878	8042.656846
605.472872	8036.602420
605.822813	8067.030825
606.172701	8012.969491
606.522534	8087.192920
606.872314	8085.864576
607.222041	8054.271665
607.571714	8114.155531
607.921333	8069.127945
608.270899	8082.055984
608.620411	8167.112852
608.969870	8072.255981
609.319276	8059.917757
609.668627	8077.990293
610.017926	8113.727033
610.367171	8158.006008
610.716362	8135.885425
611.065500	8128.764795
611.414585	8155.772777
611.763616	8148.692476
612.112594	8128.966441
612.461518	8143.830283
612.810389	8203.371351
613.159207	8140.029253
613.507971	8092.019825
613.856682	8210.134059
614.205340	8168.219386
614.553945	8244.948268
614.902496	8141.700396
615.250994	8194.897172
615.599439	8175.269439
615.947830	8194.004888
616.296169	8168.700816
616.644454	8180.872682
616.992686	8168.330291
617.340864	8233.343532
617.688990	8141.990262
618.037063	8229.499652
618.385082	8177.197681
618.733048	8263.756813
619.080961	8199.421607
619.428821	8223.152839
619.776628	8223.417500
620.124382	8177.870675
620.472083	8156.760843
620.819731	8181.467538
621.167326	8074.811846
621.514868	8086.199812
621.862357	7974.278635
622.209793	7990.758167
622.557176	7924.351048
622.904506	7895.460195
623.251783	7825.776325
623.599007	7788.670912
623.946179	7789.432127
624.293297	7744.268429
624.640363	7660.940677
624.987376	7644.874520
625.334336	7591.871828
625.681243	7538.440638
626.028097	7529.863115
626.374899	7506.920824
626.721647	7506.678849
627.068343	7432.137827
627.414987	7404.885350
627.761577	7361.516303
628.108115	7392.887403
628.454600	7294.516848
628.801032	7342.130546
629.147412	7299.348794
629.493739	7287.600385
629.840014	7228.664255
630.186236	7282.382791
630.532405	7166.867271
630.878521	7226.730973
631.224585	7172.374731
631.570597	7097.422856
631.916556	7130.613813
632.262462	7129.051055
632.608316	7088.600837
632.954117	7066.712147
633.299866	7053.910137
633.645562	7045.887140
633.991206	6967.335881
634.336797	6909.135760
634.682336	6862.968873
635.027823	6831.537279
635.373257	6824.751886
635.718639	6758.841320
636.063968	6768.411950
636.409245	6660.213665
636.754470	6662.207442
637.099642	6618.530885
637.444762	6565.266053
637.789829	6571.998514
638.134845	6517.589341
638.479808	6502.657443
638.824719	6506.319841
639.169577	6433.628923
639.514383	6451.187262
639.859137	6382.524226
640.203839	6394.154168
640.548489	6377.780500
640.893086	6352.098342
641.237632	6324.818138
641.582125	6348.682960
641.926566	6318.277241
642.270955	6329.077913
642.615292	6326.995917
642.959576	6342.673905
643.303809	6323.857798
643.647990	6331.346432
643.992118	6325.251677
644.336195	6272.904336
644.680219	6299.751001
645.024192	6283.977230
645.368112	6384.018928
645.711981	6406.971302
646.055797	6485.018446
646.399562	6438.670077
646.743274	6562.075003
647.086935	6616.791687
647.430544	6615.944773
647.774101	6634.166023
648.117606	6644.581047
648.461059	6629.558409
648.804460	6594.303099
649.147810	6506.178689
649.491108	6476.324976
649.834354	6451.426717
650.177548	6361.658890
650.520690	6280.771056
650.863781	6255.726604
651.206820	6277.280057
651.549807	6199.837852
651.892742	6136.851155
652.235626	6146.802393
652.578458	6128.422346
652.921238	6038.775507
653.263967	6081.406025
653.606644	6022.595924
653.949269	6023.488208
654.291843	5966.374456
654.634365	6015.248442
654.976836	5969.958716
655.319255	5967.912008
655.661622	5943.361588
656.003938	5939.873110
656.346203	5899.695114
656.688416	5935.593170
657.030577	5888.675151
657.372687	5856.510069
657.714746	5844.819633
658.056753	5886.023504
658.398708	5826.815153
658.740612	5820.475902
659.082465	5869.090269
659.424266	5857.387230
659.766016	5855.695923
660.107715	5830.510318
660.449362	5840.892575
660.790958	5840.849725
661.132503	5830.666594
661.473996	5867.013313
661.815438	5850.609399
662.156829	5852.686354
662.498168	5842.946845
662.839456	5815.132278
663.180693	5849.810376
663.521879	5854.463361
663.863013	5841.850394
664.204097	5862.292273
664.545129	5902.651750
664.886110	5899.105299
665.227040	5929.957160
665.567918	5895.442900
665.908746	5924.003558
666.249522	5929.067397
666.590248	5916.893010
666.930922	5948.125479
667.271545	5958.752231
667.612118	5958.013702
667.952639	5930.176450
668.293109	5952.937260
668.633528	5912.648358
668.973896	5913.160036
669.314213	5902.717285
669.654480	5886.636005
669.994695	5884.226333
670.334859	5872.477924
670.674973	5858.599628
671.015035	5868.127408
671.355047	5867.298138
671.695008	5849.356672
672.034918	5823.571170
672.374777	5839.307132
672.714585	5823.855995
673.054342	5830.845555
673.394049	5819.664276
673.733705	5852.550243
674.073310	5836.899981
674.412864	5797.856244
674.752368	5786.435510
675.091820	5794.665194
675.431223	5727.564916
675.770574	5725.714812
676.109875	5679.384088
676.449125	5685.672927
676.788324	5652.479450
677.127473	5598.075317
677.466571	5585.117031
677.805619	5578.397173
678.144616	5565.869906
678.483562	5543.456936
678.822458	5513.149519
679.161303	5509.010732
679.500098	5495.520604
679.838842	5481.722966
680.177535	5485.201362
680.516179	5498.905739
680.854771	5512.821844
681.193314	5588.008133
681.531805	5702.089445
681.870247	5853.742476
682.208638	5955.271314
682.546978	5966.936544
682.885268	5943.210354
683.223508	5856.903279
683.561697	5801.647192
683.899836	5775.982678
684.237925	5729.606583
684.575963	5691.558474
684.913951	5650.699922
685.251889	5712.007915
685.589776	5683.459861
685.927614	5656.048587
686.265401	5724.653649
686.603137	5707.629673
686.940824	5783.831754
687.278460	5807.812523
687.616046	5819.003885
687.953582	5884.470829
688.291068	5869.244024
688.628504	5933.324651
688.965889	5891.873763
689.303224	5838.878634
689.640510	5790.329802
689.977745	5718.750458
690.314930	5612.561073
690.652065	5559.555861
690.989150	5468.048836
691.326185	5391.390530
691.663170	5339.698539
692.000105	5261.114512
692.336990	5184.514179
692.673825	5159.867978
693.010610	5093.533955
693.347345	5025.954767
693.684030	5008.797200
694.020665	4970.035768
694.357251	4877.880955
694.693786	4889.021905
695.030272	4856.536710
695.366707	4816.976255
695.703093	4786.913334
696.039429	4809.722035
696.375716	4786.991472
696.711952	4764.281074
697.048139	4757.273870
697.384276	4733.280498
697.720363	4746.614350
698.056400	4756.111884
698.392388	4701.007032
698.728326	4682.944577
699.064214	4661.486906
699.400053	4653.559692
699.735842	4618.208600
700.071581	4595.215898
700.407270	4571.547680
700.742910	4551.289803
701.078501	4499.126464
701.414042	4497.036906
701.749533	4465.297801
702.084974	4402.684150
702.420366	4460.269250
702.755709	4401.060898
703.091002	4345.252805
703.426246	4394.003283
703.761440	4347.239019
704.096584	4313.818690
704.431679	4330.769570
704.766725	4319.575688
705.101721	4305.067247
705.436668	4335.283923
705.771565	4284.154020
706.106413	4310.882218
706.441212	4343.874049
706.775961	4350.041901
707.110661	4332.042461
707.445311	4361.419785
707.779913	4384.520872
708.114465	4399.528388
708.448967	4420.673507
708.783421	4485.812777
709.117825	4519.833003
709.452180	4523.119836
709.786485	4575.237805
710.120742	4657.585053
710.454949	4646.257580
710.789107	4706.355696
711.123216	4783.220689
711.457275	4777.816572
711.791286	4850.560422
712.125247	4868.350654
712.459159	4766.179068
712.793023	4843.407025
713.126837	4799.468328
713.460602	4796.857010
713.794318	4715.132345
714.127985	4721.438828
714.461602	4637.370026
714.795171	4608.267445
715.128691	4545.061458
715.462162	4481.671469
715.795584	4435.721352
716.128957	4416.479267
716.462281	4364.391545
716.795556	4341.159388
717.128782	4302.317297
717.461960	4233.447574
717.795088	4245.848813
718.128167	4201.521947
718.461198	4142.396774
718.794180	4139.452740
719.127113	4118.700830
719.459997	4100.777008
719.792833	4058.953075
720.125619	4046.095612
720.458357	4012.501363
720.791046	4019.793392
721.123686	3988.190398
721.456278	3946.953760
721.788821	3961.837767
722.121315	3937.945218
722.453761	3911.232144
722.786158	3923.008279
723.118506	3949.383596
723.450805	3897.273189
723.783056	3924.550872
724.115259	3936.057306
724.447412	3942.368830
724.779518	3933.108231
725.111574	3941.564766
725.443582	3966.599136
725.775542	3958.049339
726.107453	4003.424765
726.439315	4007.046834
726.771129	4022.876057
727.102895	4055.832601
727.434612	4107.353193
727.766281	4114.191518
728.097901	4117.916931
728.429473	4122.164103
728.760996	4127.507726
729.092471	4123.676449
729.423897	4105.112400
729.755276	4114.967856
730.086606	4115.620685
730.417887	4151.420439
730.749120	4218.780337
731.080305	4281.865336
731.411442	4308.480108
731.742530	4278.147485
732.073570	4285.195018
732.404562	4335.586392
732.735506	4328.019620
733.066401	4290.876399
733.397249	4226.503385
733.728048	4147.405160
734.058798	4061.473652
734.389501	3995.865555
734.720156	3933.085546
735.050762	3887.606776
735.381320	3881.030591
735.711831	3825.777024
736.042293	3799.989002
736.372707	3826.082014
736.703073	3790.471303
737.033391	3784.174902
737.363661	3803.606030
737.693883	3826.649144
738.024056	3835.577027
738.354182	3831.012263
738.684260	3895.791089
739.014290	3914.765992
739.344272	3914.256836
739.674207	3955.959781
740.004093	3959.806182
740.333931	3956.221921
740.663722	3956.390800
740.993464	3950.727063
741.323159	3930.138991
741.652806	3899.458529
741.982405	3872.851319
742.311956	3840.172039
742.641460	3831.864217
742.970915	3807.233140
743.300323	3765.749485
743.629683	3732.263620
743.958996	3721.447825
744.288260	3694.349102
744.617477	3662.788959
744.946647	3649.757576
745.275768	3620.871764
745.604842	3623.982156
745.933869	3573.767223
746.262847	3566.013928
746.591778	3600.124896
746.920662	3572.340576
747.249498	3543.545506
747.578286	3587.887495
747.907027	3608.057151
748.235720	3606.839713
748.564365	3626.273361
748.892963	3632.158908
749.221514	3611.487657
749.550017	3590.392948
749.878473	3584.157041
750.206881	3558.028741
750.535242	3552.319634
750.863555	3554.983884
751.191821	3552.218811
751.520039	3529.026983
751.848210	3510.944364
752.176334	3545.262018
752.504411	3550.305693
752.832440	3509.182480
753.160421	3492.748319
753.488356	3502.054289
753.816243	3512.456710
754.144082	3465.586582
754.471875	3456.693987
754.799620	3475.434476
755.127318	3468.621357
755.454969	3467.071202
755.782572	3471.608240
756.110129	3451.763738
756.437638	3440.088426
756.765100	3452.340950
757.092515	3460.227835
757.419882	3466.980461
757.747203	3439.349897
758.074477	3443.183694
758.401703	3460.290850
758.728882	3483.918738
759.056014	3489.164058
759.383099	3491.931652
759.710138	3486.759428
760.037129	3504.779032
760.364073	3534.962941
760.690970	3520.608256
761.017820	3498.553208
761.344623	3517.303779
761.671379	3562.926222
761.998088	3613.408336
762.324751	3740.702512
762.651366	3989.672497
762.977935	4465.393583
763.304456	4908.823558
763.630931	5002.989791
763.957359	4643.673989
764.283740	4297.840753
764.610074	4104.515023
764.936362	3907.655445
765.262602	3750.179881
765.588796	3633.552787
765.914943	3545.105743
766.241044	3459.320428
766.567097	3431.652055
766.893104	3382.778068
767.219064	3349.254395
767.544978	3323.799089
767.870845	3269.095008
768.196665	3252.139087
768.522438	3261.167793
768.848165	3253.432143
769.173846	3216.162892
769.499479	3201.072198
769.825066	3182.608972
770.150607	3166.283196
770.476101	3183.705423
770.801548	3175.584125
771.126949	3130.228863
771.452303	3116.138838
771.777611	3121.759725
772.102872	3127.173924
772.428087	3102.724328
772.753256	3092.573965
773.078378	3086.829570
773.403453	3052.307748
773.728482	3036.334853
774.053465	3059.584654
774.378401	3048.579815
774.703291	3017.753159
775.028135	3017.412882
775.352932	3012.243178
775.677683	3003.186745
776.002388	2997.903616
776.327046	2999.993174
776.651658	2990.503202
776.976224	2977.703713
777.300743	2976.138434
777.625216	2969.088381
777.949643	2961.236784
778.274024	2965.806590
778.598359	2952.437450
778.922647	2957.937348
779.246889	2954.700928
779.571086	2944.195163
779.895236	2939.156530
780.219339	2949.130453
780.543397	2958.012966
780.867409	2962.721403
781.191374	2956.251083
781.515294	2952.359312
781.839167	2954.559775
782.162995	2942.846654
782.486776	2955.779735
782.810511	2951.784620
783.134201	2937.636622
783.457844	2943.070986
783.781441	2935.665531
784.104993	2914.170051
784.428498	2913.267684
784.751958	2927.024993
785.075372	2923.216401
785.398739	2907.044380
785.722061	2924.701021
786.045337	2936.378854
786.368568	2921.741864
786.691752	2912.219124
787.014891	2962.527319
787.337983	2989.661330
787.661030	3018.753828
787.984031	3085.496185
788.306987	3134.990233
788.629897	3123.647637
788.952760	3108.284721
789.275579	3091.669078
789.598351	3034.958618
789.921078	2989.099241
790.243759	2982.959116
790.566395	2961.536732
790.888984	2939.670728
791.211529	2922.215732
791.534027	2911.780544
791.856480	2900.942063
792.178888	2886.854559
792.501249	2879.312993
792.823566	2876.830224
793.145836	2874.279400
793.468062	2867.688092
793.790241	2868.209851
794.112375	2873.931561
794.434464	2887.325907
794.756507	2892.513254
795.078505	2899.001219
795.400457	2912.317427
795.722364	2947.711368
796.044226	2970.502424
796.366042	2973.738845
796.687812	2963.669140
797.009538	2984.506750
797.331218	2972.675162
797.652852	2957.481124
797.974442	2938.095367
798.295986	2936.363731
798.617484	2930.664706
798.938938	2916.083169
799.260346	2901.403329
799.581709	2891.678943
799.903026	2885.773231
800.224299	2880.094371
800.545526	2873.069523
800.866708	2855.465814
801.187845	2848.191429
801.508936	2846.590863
801.829983	2856.085876
802.150984	2840.307065
802.471940	2826.859787
802.792851	2825.392811
803.113717	2826.935404
803.434538	2831.938749
803.755314	2825.286947
804.076045	2818.478868
804.396731	2819.880309
804.717372	2821.405258
805.037967	2817.508446
805.358518	2819.885350
805.679024	2835.056703
805.999485	2832.531085
806.319901	2834.691219
806.640272	2824.949189
806.960598	2832.495797
807.280879	2838.719101
807.601115	2848.572036
807.921306	2832.105107
808.241453	2831.830364
808.561554	2836.926971
808.881611	2840.332270
809.201623	2834.580314
809.521590	2833.844305
809.841513	2826.295177
810.161390	2833.574604
810.481223	2824.213181
810.801011	2814.390493
811.120755	2814.176244
811.440453	2816.669094
811.760107	2816.694300
812.079716	2812.079124
812.399281	2802.543781
812.718801	2797.522792
813.038276	2791.801082
813.357707	2797.910961
813.677093	2805.593679
813.996434	2797.961372
814.315731	2794.321659
814.634983	2790.893675
814.954191	2793.184879
815.273354	2804.845068
815.592473	2813.946871
815.911547	2813.760348
816.230577	2824.858449
816.549562	2833.690550
816.868502	2833.241887
817.187399	2842.608351
817.506250	2859.536546
817.825058	2851.374918
818.143821	2863.939994
818.462539	2881.904146
818.781213	2909.123856
819.099843	2946.115843
819.418429	2999.380674
819.736970	3065.273596
820.055466	3140.036428
820.373919	3243.422932
820.692327	3383.950137
821.010691	3558.363977
821.329011	4006.724200
821.647286	4911.974279
821.965517	6308.966230
822.283704	7066.838176
822.601847	7053.325363
822.919945	6406.492392
823.237999	5890.915944
823.556010	5302.076408
823.873976	4741.742075
824.191897	4324.266481
824.509775	4032.373591
824.827609	3757.771859
825.145398	3631.140595
825.463144	3619.775313
825.780845	3710.997513
826.098502	3816.350067
826.416116	4106.138275
826.733685	4422.679887
827.051210	4494.004652
827.368692	4374.047875
827.686129	4103.595013
828.003522	3774.243829
828.320872	3512.323119
828.638177	3315.062769
828.955439	3176.670493
829.272656	3094.449274
829.589830	3024.702390
829.906960	2972.864205
830.224046	2930.037083
830.541088	2893.408059
830.858086	2879.431460
831.175041	2862.321783
831.491952	2863.685416
831.808819	2875.753938
832.125642	2898.444171
832.442421	2949.190947
832.759157	3025.153573
833.075849	3208.853219
833.392497	3489.963081
833.709101	3700.189279
834.025662	3649.238337
834.342179	3488.778410
834.658653	3306.573466
834.975083	3155.968995
835.291469	3058.876372
835.607811	2974.915955
835.924110	2912.430853
836.240366	2860.438912
836.556578	2817.410144
836.872746	2795.201341
837.188871	2771.954060
837.504952	2755.729106
837.820990	2746.410533
838.136984	2734.460478
838.452935	2725.378839
838.768842	2724.484034
839.084706	2742.753176
839.400526	2824.102276
839.716303	2954.685804
840.032037	3040.884494
840.347727	3021.801206
840.663373	2961.874490
840.978977	2886.337840
841.294537	2809.384627
841.610054	2762.660692
841.925527	2742.233937
842.240957	2721.277861
842.556344	2696.145188
842.871687	2682.518949
843.186987	2671.294820
843.502244	2668.812052
843.817458	2661.484735
844.132629	2653.197078
844.447756	2642.222486
844.762840	2634.302833
845.077881	2637.791312
845.392879	2637.372896
845.707833	2633.082874
846.022745	2626.052985
846.337613	2629.478449
846.652438	2624.533077
846.967221	2628.918881
847.281960	2622.483848
847.596656	2624.268417
847.911309	2623.648355
848.225919	2618.070318
848.540485	2614.778444
848.855009	2618.836573
849.169490	2614.445728
849.483928	2617.878754
849.798323	2613.266098
850.112675	2613.399689
850.426984	2614.755759
850.741251	2611.602517
851.055474	2610.546396
851.369654	2617.667026
851.683792	2616.368928
851.997887	2615.612755
852.311938	2612.073865
852.625947	2617.084772
852.939914	2615.983280
853.253837	2617.573764
853.567718	2614.629730
853.881555	2616.210132
854.195350	2617.742643
854.509103	2614.823815
854.822812	2612.943464
855.136479	2611.980604
855.450103	2615.307766
855.763685	2617.485544
856.077224	2612.260388
856.390720	2612.658639
856.704173	2617.412447
857.017584	2616.442025
857.330953	2617.793054
857.644278	2620.800103
857.957561	2622.009980
858.270802	2617.490585
858.584000	2617.752725
858.897155	2617.059567
859.210268	2620.333796
859.523339	2615.239710
859.836367	2613.059411
860.149352	2612.073865
860.462295	2612.179730
860.775195	2612.870368
861.088054	2609.656632
861.400869	2609.606221
861.713642	2607.632609
862.026373	2605.222937
862.339062	2606.926847
862.651708	2617.553600
862.964312	2616.900770
863.276873	2615.015379
863.589392	2617.525873
863.901869	2621.916718
864.214303	2630.774026
864.526696	2629.440640
864.839045	2630.310239
865.151353	2634.935498
865.463619	2634.847278
865.775842	2633.115642
866.088023	2633.085395
866.400162	2635.512710
866.712258	2636.515900
867.024313	2629.846453
867.336325	2628.760085
867.648296	2631.373923
867.960224	2637.156126
868.272110	2637.388019
868.583954	2628.114817
868.895755	2630.527009
869.207515	2633.612195
869.519233	2641.887249
869.830909	2639.913637
870.142542	2632.664458
870.454134	2635.805097
870.765684	2640.536220
871.077191	2643.878505
871.388657	2645.862199
871.700081	2645.582415
872.011463	2645.221972
872.322803	2647.107364
872.634101	2650.600884
872.945357	2657.494662
873.256571	2663.291988
873.567744	2659.896771
873.878874	2658.787717
874.189963	2661.227636
874.501010	2663.786022
874.812015	2668.993533
875.122979	2666.546053
875.433900	2659.236380
875.744780	2661.714107
876.055618	2666.341887
876.366415	2670.757937
876.677169	2669.301044
876.987882	2663.322235
877.298554	2663.173521
877.609183	2673.820438
877.919771	2680.615914
878.230317	2688.951462
878.540822	2700.581403
878.851285	2712.203784
879.161707	2734.452916
879.472087	2774.739297
879.782425	2827.137050
880.092722	2944.490071
880.402977	3137.972076
880.713191	3405.448137
881.023363	3705.684137
881.333494	3897.313518
881.643583	4075.987134
881.953631	4076.665169
882.263637	3894.651789
882.573602	3671.583252
882.883526	3537.294475
883.193408	3415.157399
883.503248	3311.463385
883.813048	3196.217567
884.122806	3076.412026
884.432522	2991.277019
884.742197	2922.218253
885.051831	2884.570916
885.361424	2847.881398
885.670975	2811.380924
885.980485	2779.263733
886.289954	2760.366967
886.599382	2746.133270
886.908768	2734.349572
887.218113	2716.892057
887.527417	2701.589634
887.836680	2691.865248
888.145901	2689.896678
888.455082	2681.631706
888.764221	2668.275169
889.073319	2660.892399
889.382376	2659.831236
889.691392	2658.974240
890.000366	2661.683860
890.309300	2662.334169
890.618193	2663.284427
890.927044	2664.708553
891.235855	2665.905827
891.544625	2662.094714
891.853353	2664.275013
892.162041	2671.377999
892.470687	2692.719724
892.779293	2703.815304
893.087858	2715.866182
893.396381	2738.621950
893.704864	2780.461007
894.013306	2852.042871
894.321707	2950.093313
894.630068	3000.467043
894.938387	3024.137781
895.246665	3015.507325
895.554903	2972.050059
895.863100	2923.574323
896.171256	2863.065354
896.479371	2805.210552
896.787446	2761.286978
897.095480	2741.765110
897.403473	2736.696230
897.711425	2718.795092
898.019336	2703.185159
898.327207	2687.640762
898.635038	2684.490040
898.942827	2682.314782
899.250576	2673.833041
899.558284	2659.090187
899.865952	2658.427275
900.173579	2654.916111
900.481165	2653.360915
900.788711	2642.633340
901.096216	2636.538585
901.403681	2633.634880
901.711105	2634.486835
902.018489	2631.376443
902.325832	2638.187042
902.633135	2638.053452
902.940397	2651.961995
903.247619	2692.734847
903.554800	2761.425610
903.861941	2892.871176
904.169041	3028.200951
904.476101	3091.482555
904.783121	3084.520722
905.090100	3024.546114
905.397039	2949.513580
905.703938	2869.984337
906.010796	2806.259112
906.317614	2753.541245
906.624391	2715.384752
906.931129	2687.179496
907.237826	2664.111176
907.544483	2645.234575
907.851099	2630.305198
908.157675	2621.490741
908.464211	2613.132508
908.770707	2602.304109
909.077163	2598.946701
909.383578	2594.245825
909.689954	2594.865887
909.996289	2592.057964
910.302584	2589.524784
910.608839	2587.228539
910.915054	2589.623087
911.221229	2588.871955
911.527363	2595.644745
911.833458	2592.055443
912.139513	2592.947728
912.445527	2594.323963
912.751502	2599.259252
913.057436	2606.294183
913.363331	2614.400358
913.669186	2621.049640
913.975000	2637.879532
914.280775	2654.724547
914.586510	2674.866478
914.892205	2714.134546
915.197859	2781.875050
915.503475	2866.694984
915.809050	2939.733742
916.114585	2955.676391
916.420081	2966.691312
916.725536	2979.430308
917.030952	2950.569702
917.336328	2902.111611
917.641665	2851.654702
917.946961	2798.795683
918.252218	2764.500714
918.557435	2736.335787
918.862612	2712.294524
919.167750	2694.900023
919.472848	2679.700944
919.777906	2661.615805
920.082925	2648.518887
920.387904	2635.986579
920.692843	2631.439458
920.997743	2628.724797
921.302603	2622.814044
921.607423	2611.572271
921.912204	2607.206631
922.216946	2604.686054
922.521647	2605.986672
922.826310	2598.883686
923.130932	2593.245156
923.435516	2589.300453
923.740059	2588.819023
924.044564	2585.262489
924.349028	2582.036150
924.653454	2572.495767
924.957840	2574.923082
925.262186	2568.293965
925.566493	2569.662638
925.870761	2566.146433
926.174989	2568.293965
926.479178	2565.579303
926.783328	2563.308264
927.087438	2563.479663
927.391509	2561.536298
927.695541	2560.747357
927.999533	2558.446071
928.303486	2558.824157
928.607400	2556.537994
928.911275	2554.887016
929.215110	2555.174362
929.518906	2554.549259
929.822663	2555.040771
930.126381	2555.406255
930.430060	2556.805175
930.733699	2555.529763
931.037299	2559.524878
931.340861	2557.357182
931.644383	2559.464384
931.947866	2557.372305
932.251309	2557.699980
932.554714	2557.493293
932.858080	2557.276523
933.161407	2555.592778
933.464694	2556.716955
933.767943	2555.577654
934.071153	2552.220246
934.374323	2554.332489
934.677455	2556.326266
934.980548	2555.471790
935.283602	2554.130843
935.586617	2552.976419
935.889593	2553.147818
936.192530	2553.972047
936.495428	2551.179248
936.798287	2555.713765
937.101108	2553.336861
937.403890	2558.768705
937.706632	2561.692574
938.009336	2568.828327
938.312002	2573.345201
938.614628	2572.495767
938.917216	2579.427353
939.219765	2576.231262
939.522275	2580.894329
939.824747	2578.519945
940.127179	2574.139183
940.429573	2570.832186
940.731929	2568.513255
941.034246	2563.845147
941.336524	2570.254974
941.638763	2569.017370
941.940964	2567.762123
942.243126	2565.118038
942.545250	2564.908830
942.847335	2562.421021
943.149381	2564.336659
943.451389	2559.424055
943.753359	2559.897923
944.055290	2556.139743
944.357182	2558.400700
944.659036	2557.936914
944.960851	2557.500854
945.262628	2556.913560
945.564367	2558.453632
945.866067	2559.608057
946.167729	2557.578992
946.469352	2557.352140
946.770937	2560.210475
947.072484	2555.759136
947.373992	2558.410783
947.675462	2558.163766
947.976893	2555.202088
948.278286	2553.470452
948.579641	2553.944320
948.880958	2554.387942
949.182236	2550.975081
949.483476	2551.103630
949.784678	2554.403065
950.085841	2553.278888
950.386967	2557.102603
950.688054	2552.537838
950.989103	2555.683518
951.290114	2556.767367
951.591087	2559.575289
951.892021	2560.427244
952.192917	2562.572255
952.493776	2559.943293
952.794596	2562.579817
953.095378	2561.332131
953.396122	2562.869683
953.696828	2561.188458
953.997496	2559.570248
954.298126	2557.674774
954.598718	2559.179559
954.899272	2555.113868
955.199788	2554.534135
955.500266	2550.886861
955.800706	2549.366953
956.101108	2543.940151
956.401472	2546.932075
956.701798	2545.636499
957.002087	2540.464275
957.302337	2546.735470
957.602550	2546.211190
957.902724	2544.056097
958.202861	2543.367980
958.502960	2543.206663
958.803022	2544.514842
959.103045	2542.536189
959.403031	2539.803884
959.702979	2542.652136
960.002889	2539.019984
960.302762	2539.874460
960.602596	2540.733977
960.902393	2540.466796
961.202153	2540.391178
961.501875	2538.029398
961.801559	2537.772299
962.101205	2539.839172
962.400814	2540.066024
962.700385	2538.379758
962.999918	2540.471837
963.299414	2537.096784
963.598873	2537.089223
963.898293	2534.803059
964.197677	2536.320447
964.497022	2536.217103
964.796331	2537.076620
965.095601	2537.646270
965.394835	2540.812115
965.694030	2538.513348
965.993189	2537.575694
966.292309	2536.126362
966.591393	2533.943543
966.890439	2538.684748
967.189447	2535.899510
967.488419	2539.108205
967.787353	2536.998482
968.086249	2537.442103
968.385108	2539.105684
968.683930	2539.221631
968.982714	2538.150385
969.281462	2538.162988
969.580172	2537.169881
969.878844	2536.194418
970.177480	2541.285983
970.476078	2537.270704
970.774639	2538.236085
971.073162	2540.897814
971.371649	2536.638039
971.670098	2534.495549
971.968510	2535.506300
972.266885	2535.680220
972.565223	2542.032074
972.863524	2538.717515
973.161788	2538.067206
973.460014	2540.711292
973.758204	2538.236085
974.056356	2537.663914
974.354471	2534.850950
974.652550	2539.062834
974.950591	2539.932433
975.248595	2538.770447
975.546563	2538.460416
975.844493	2536.501928
976.142386	2540.146682
976.440243	2536.713657
976.738062	2537.719367
977.035845	2539.017464
977.333590	2535.972607
977.631299	2533.820034
977.928971	2536.822041
978.226606	2536.607792
978.524204	2536.907741
978.821765	2537.434542
979.119290	2534.435055
979.416777	2536.567463
979.714228	2533.026052
980.011642	2535.060158
980.309020	2537.961342
980.606360	2536.839685
980.903664	2537.623585
981.200931	2539.955118
981.498162	2539.254398
981.795356	2541.757331
982.092513	2543.057949
982.389633	2547.791592
982.686717	2548.308310
982.983764	2554.894578
983.280775	2554.098076
983.577749	2553.233518
983.874686	2553.324258
984.171587	2548.714123
984.468451	2547.917621
984.765279	2546.281767
985.062070	2545.684390
985.358824	2540.325643
985.655543	2538.775488
985.952224	2539.902186
986.248869	2537.230375
986.545478	2534.440096
986.842050	2534.740045
987.138586	2534.876156
987.435086	2531.579241
987.731549	2529.905578
988.027975	2533.930940
988.324366	2533.961187
988.620719	2533.177287
988.917037	2532.103521
989.213318	2538.546116
989.509563	2533.885569
989.805772	2534.324150
990.101944	2536.149047
990.398080	2535.309695
990.694180	2534.359438
990.990244	2535.531506
991.286271	2532.675692
991.582262	2532.857174
991.878217	2532.821886
992.174136	2535.987730
992.470019	2534.803059
992.765865	2535.670138
993.061676	2532.751310
993.357450	2536.310364
993.653188	2534.520755
993.948890	2532.597554
994.244556	2534.460261
994.540186	2536.272556
994.835780	2535.597041
995.131337	2534.707277
995.426859	2537.094264
995.722345	2537.679038
996.017795	2539.085519
996.313208	2539.806404
996.608586	2540.189532
996.903928	2538.122659
997.199234	2540.307999
997.494504	2534.583769
997.789738	2536.701054
998.084936	2533.462112
998.380099	2535.123172
998.675225	2536.688451
998.970316	2532.897503
999.265371	2534.072092
999.560390	2536.401105
999.855373	2532.736186
1000.150320	2537.298430
1000.445232	2535.763399
1000.740108	2534.177956
1001.034948	2535.899510
1001.329752	2533.441948
1001.624521	2535.155940
1001.919254	2529.106555
1002.213951	2530.124868
1002.508613	2529.214940
1002.803239	2531.954807
1003.097829	2525.925587
1003.392384	2533.704088
1003.686903	2532.153933
1003.981386	2533.562935
1004.275834	2534.999664
1004.570246	2532.605116
1004.864623	2531.884231
1005.158964	2535.541588
1005.453270	2533.240302
1005.747540	2531.559077
1006.041775	2531.848943
1006.335974	2530.639066
1006.630138	2528.158818
1006.924266	2531.806093
1007.218359	2531.939684
1007.512416	2532.123686
1007.806438	2532.269879
1008.100425	2531.506145
1008.394376	2530.142512
1008.688292	2532.121165
1008.982172	2532.678213
1009.276017	2532.025383
1009.569827	2530.654190
1009.863602	2530.303829
1010.157341	2529.749303
1010.451045	2532.539581
1010.744714	2530.502955
1011.038347	2530.772657
1011.331945	2528.909950
1011.625508	2531.619571
1011.919036	2531.148223
1012.212528	2532.889941
1012.505986	2531.256608
1012.799408	2531.571680
1013.092795	2528.569673
1013.386147	2532.572349
1013.679464	2528.577234
1013.972745	2531.866587
1014.265992	2527.659744
1014.559204	2532.408511
1014.852380	2530.790301
1015.145521	2529.633356
1015.438628	2533.600744
1015.731699	2531.821217
1016.024736	2531.622091
1016.317737	2531.102852
1016.610703	2531.070085
1016.903635	2527.790814
1017.196531	2525.202182
1017.489393	2530.901206
1017.782219	2525.754188
1018.075011	2527.400125
1018.367768	2529.472039
1018.660490	2531.412883
1018.953177	2531.412883
1019.245829	2531.412883
