Dividing Wavelength (nm)	Counts (n)	Blue Motor Position (mm): 12.000000	Red Motor Position (mm): 0.000000	
326.493990	2061.680688
326.888308	2061.680688
327.282561	2061.680688
327.676750	2034.539116
328.070874	2037.800743
328.464933	2044.293749
328.858929	2050.948072
329.252859	2063.606409
329.646726	2074.802812
330.040528	2094.556573
330.434265	2108.407143
330.827938	2131.513272
331.221547	2153.076808
331.615091	2172.487771
332.008571	2191.266069
332.401986	2210.399768
332.795338	2234.415825
333.188625	2252.357292
333.581847	2271.881680
333.975006	2285.573454
334.368100	2306.877370
334.761129	2324.551656
335.154095	2336.345435
335.546996	2377.728267
335.939833	2447.633948
336.332606	2457.587706
336.725315	2472.093626
337.117960	2478.742908
337.510540	2491.222284
337.903056	2499.983810
338.295508	2505.024963
338.687896	2516.919566
339.080220	2516.367560
339.472480	2523.084897
339.864676	2527.823582
340.256807	2529.320804
340.648875	2531.788449
341.040879	2530.770136
341.432818	2534.508152
341.824694	2535.581918
342.216506	2532.136289
342.608253	2531.158305
342.999937	2534.409849
343.391557	2530.276103
343.783113	2529.971113
344.174605	2527.314425
344.566033	2526.780063
344.957397	2523.735206
345.348697	2523.087418
345.739934	2518.615914
346.131106	2521.202026
346.522215	2517.348064
346.913260	2518.376459
347.304241	2514.862775
347.695159	2515.450070
348.086012	2513.259688
348.476802	2511.764986
348.867528	2506.373472
349.258191	2504.987155
349.648789	2502.380878
350.039324	2497.785867
350.429796	2505.692916
350.820203	2503.784840
351.210548	2502.340549
351.600828	2503.091681
351.991045	2501.329798
352.381198	2500.203100
352.771288	2499.451968
353.161314	2500.843326
353.551276	2499.777122
353.941175	2497.470794
354.331010	2498.549601
354.720782	2504.140241
355.110490	2504.074706
355.500135	2499.613285
355.889717	2499.446927
356.279235	2501.297030
356.668689	2501.264263
357.058080	2501.458347
357.447408	2500.137565
357.836672	2502.685868
358.225873	2502.229644
358.615010	2503.862978
359.004084	2505.216527
359.393095	2506.353308
359.782043	2506.771723
360.170927	2505.992865
360.559748	2507.066631
360.948505	2509.027640
361.337199	2506.033194
361.725830	2506.630571
362.114398	2511.177692
362.502903	2506.950684
362.891344	2509.441014
363.279722	2507.467403
363.668037	2510.040912
364.056289	2507.918586
364.444478	2509.370438
364.832603	2509.798936
365.220665	2510.320696
365.608665	2511.013854
365.996601	2513.811695
366.384474	2511.331447
366.772284	2509.577125
367.160031	2512.299348
367.547715	2515.071983
367.935336	2510.560150
368.322893	2510.514780
368.710388	2511.351612
369.097820	2510.945799
369.485189	2509.801457
369.872495	2513.569719
370.259738	2511.969153
370.646918	2513.481499
371.034035	2512.601818
371.421090	2515.089627
371.808081	2514.028464
372.195010	2515.319000
372.581875	2513.610048
372.968678	2517.635410
373.355418	2516.775893
373.742096	2515.397138
374.128710	2517.511902
374.515262	2514.497292
374.901751	2516.743126
375.288177	2516.332272
375.674540	2515.964267
376.060841	2517.849659
376.447079	2519.477952
376.833254	2518.313445
377.219367	2516.150790
377.605417	2517.519463
377.991404	2518.714217
378.377329	2517.159021
378.763191	2521.116327
379.148991	2516.251613
379.534727	2521.645648
379.920402	2517.960564
380.306013	2521.814526
380.691563	2521.403672
381.077049	2519.329237
381.462474	2516.168434
381.847835	2519.513240
382.233134	2521.517098
382.618371	2521.023065
383.003545	2519.155318
383.388657	2521.121368
383.773706	2522.608508
384.158693	2521.156656
384.543618	2520.700431
384.928480	2519.820750
385.313280	2524.166225
385.698017	2523.097500
386.082692	2522.893333
386.467305	2521.265041
386.851856	2523.767973
387.236344	2524.869466
387.620770	2520.080369
388.005133	2519.936697
388.389435	2522.568179
388.773674	2520.060205
389.157851	2524.287212
389.541965	2522.419465
389.926018	2525.739065
390.310008	2523.873838
390.693936	2524.065402
391.077802	2523.228570
391.461606	2525.340813
391.845348	2524.289733
392.229027	2521.945596
392.612645	2523.520957
392.996200	2525.595392
393.379694	2529.540095
393.763125	2526.923736
394.146494	2524.178828
394.529801	2528.373068
394.913047	2527.979858
395.296230	2529.872811
395.679351	2528.400794
396.062410	2528.748633
396.445408	2527.715197
396.828343	2528.247039
397.211217	2528.385670
397.594028	2530.538243
397.976778	2527.944569
398.359466	2529.119158
398.742092	2529.056144
399.124656	2527.879034
399.507158	2528.088242
399.889598	2527.911802
400.271977	2529.966072
400.654294	2529.411545
401.036549	2531.158305
401.418742	2529.212420
401.800874	2530.344159
402.182944	2529.625794
402.564952	2533.119314
402.946898	2529.860208
403.328783	2533.247863
403.710606	2532.592513
404.092367	2533.515044
404.474067	2530.369364
404.855705	2532.655528
405.237282	2531.942204
405.618797	2533.532688
406.000250	2531.702750
406.381642	2534.132586
406.762972	2531.110414
407.144240	2528.385670
407.525447	2532.015301
407.906593	2525.393746
408.287677	2536.764068
408.668700	2533.608306
409.049661	2535.289531
409.430560	2533.900693
409.811399	2536.272556
410.192176	2535.095446
410.572891	2533.310878
410.953545	2537.414377
411.334138	2534.303985
411.714669	2535.496218
412.095139	2537.003523
412.475547	2534.712318
412.855894	2532.645445
413.236180	2535.632329
413.616405	2536.300282
413.996568	2534.946732
414.376670	2534.707277
414.756711	2537.290869
415.136691	2535.672658
415.516609	2537.933616
415.896466	2537.384130
416.276262	2539.173740
416.655997	2534.656866
417.035670	2535.987730
417.415283	2539.496373
417.794834	2534.959335
418.174324	2536.388502
418.553753	2534.987061
418.933121	2535.534027
419.312428	2535.546629
419.691674	2536.869932
420.070859	2535.536547
420.449983	2538.223482
420.829045	2535.765920
421.208047	2536.428831
421.586988	2538.226003
421.965867	2536.572504
422.344686	2540.905376
422.723444	2535.763399
423.102141	2537.300951
423.480777	2537.752134
423.859352	2537.298430
424.237866	2536.806918
424.616319	2537.069058
424.994712	2537.661393
425.373044	2536.164171
425.751314	2534.772812
426.129524	2534.399767
426.507673	2536.393543
426.885762	2529.199817
427.263789	2538.977135
427.641756	2536.406146
428.019662	2538.944367
428.397508	2536.615354
428.775292	2537.076620
429.153016	2535.201310
429.530679	2538.921682
429.908282	2538.339429
430.285824	2537.464788
430.663305	2536.895138
431.040726	2535.909593
431.418086	2538.021836
431.795385	2538.626774
432.172624	2537.699202
432.549802	2536.627957
432.926920	2537.351362
433.303977	2538.533513
433.680974	2538.162988
434.057910	2537.381609
434.434786	2537.091743
434.811601	2540.003009
435.188355	2539.181301
435.565050	2534.762730
435.941683	2537.986548
436.318257	2538.946888
436.694770	2536.060827
437.071222	2539.239275
437.447614	2537.124511
437.823946	2538.641898
438.200218	2537.633667
438.576429	2538.684748
438.952580	2538.689789
439.328670	2536.113759
439.704700	2539.917310
440.080670	2536.877494
440.456580	2541.144831
440.832429	2538.778009
441.208218	2540.141641
441.583947	2538.692309
441.959616	2538.152906
442.335224	2539.904707
442.710773	2538.442772
443.086261	2540.847403
443.461689	2536.890097
443.837057	2539.939995
444.212365	2538.493184
444.587612	2539.640046
444.962800	2533.893131
445.337927	2537.951260
445.712995	2530.737369
446.088002	2538.881353
446.462949	2538.289017
446.837837	2537.744572
447.212664	2540.587783
447.587431	2541.066693
447.962139	2540.038298
448.336786	2541.979142
448.711374	2536.713657
449.085901	2538.750283
449.460369	2537.084181
449.834776	2537.331198
450.209124	2540.494522
450.583412	2539.188863
450.957640	2538.036959
451.331808	2538.546116
451.705917	2536.532175
452.079965	2540.313040
452.453954	2538.720036
452.827883	2537.119469
453.201752	2540.456713
453.575562	2540.683565
453.949311	2541.008720
454.323001	2538.873791
454.696632	2541.104502
455.070202	2539.234233
455.443713	2537.860519
455.817164	2537.595858
456.190556	2539.687937
456.563888	2539.229192
456.937160	2537.058976
457.310373	2537.673996
457.683526	2539.133410
458.056619	2541.419574
458.429653	2541.220448
458.802628	2541.051569
459.175542	2538.725077
459.548398	2540.229861
459.921194	2538.528472
460.293930	2541.943854
460.666607	2540.789429
461.039224	2541.671631
461.411782	2539.927392
461.784280	2537.926054
462.156719	2539.826569
462.529099	2540.640715
462.901419	2539.534182
463.273680	2540.444110
463.645882	2536.380940
464.018024	2539.955118
464.390106	2537.116949
464.762130	2539.761034
465.134094	2541.026364
465.505999	2541.621220
465.877845	2541.275901
466.249631	2543.589790
466.621358	2541.036446
466.993026	2543.098278
467.364634	2545.512991
467.736184	2544.605583
468.107674	2542.725232
468.479105	2541.732125
468.850477	2541.538041
469.221790	2540.108874
469.593043	2542.248843
469.964238	2542.178267
470.335373	2543.317568
470.706449	2543.436035
471.077467	2545.031560
471.448425	2543.501570
471.819324	2546.125491
472.190164	2539.831610
472.560945	2543.408309
472.931667	2541.777496
473.302330	2543.360418
473.672934	2542.614327
474.043479	2542.407640
474.413965	2544.953423
474.784393	2542.445448
475.154761	2544.524924
475.525070	2544.247661
475.895321	2545.707075
476.265513	2542.727753
476.635645	2544.592980
477.005719	2543.607434
477.375734	2542.546272
477.745691	2544.978628
478.115588	2546.160779
478.485427	2546.415357
478.855207	2548.467107
479.224928	2547.214380
479.594591	2546.450645
479.964194	2546.642209
480.333739	2546.430481
480.703226	2545.397044
481.072653	2546.778320
481.442022	2545.606252
481.811333	2547.413506
482.180584	2543.786395
482.549777	2544.159441
482.918912	2541.636343
483.287988	2546.755635
483.657005	2548.096582
484.025964	2549.911397
484.394864	2544.287990
484.763706	2546.682538
485.132489	2547.080789
485.501213	2547.300080
485.869879	2547.756304
486.238487	2549.455173
486.607036	2549.661860
486.975527	2548.081458
487.343959	2548.091541
487.712333	2548.237734
488.080648	2549.150183
488.448905	2545.810419
488.817104	2547.990718
489.185244	2547.627755
489.553326	2549.787889
489.921350	2550.803682
490.289315	2549.147662
490.657222	2553.152859
491.025070	2551.282591
491.392861	2551.101110
491.760593	2553.127653
492.128267	2552.817622
492.495883	2552.076573
492.863440	2551.940462
493.230939	2549.399720
493.598380	2547.610111
493.965763	2549.321582
494.333088	2551.968188
494.700354	2549.490461
495.067563	2549.576161
495.434713	2549.903836
495.801805	2549.893753
496.168839	2548.711603
496.535815	2548.628424
496.902733	2548.898125
497.269593	2548.908208
497.636395	2552.583209
498.003139	2549.760163
498.369825	2550.886861
498.736453	2551.154042
499.103023	2553.052036
499.469535	2552.121943
499.835989	2551.887530
500.202385	2549.581202
500.568723	2547.458876
500.935003	2548.411654
501.301226	2547.698331
501.667390	2551.040616
502.033497	2551.446429
502.399546	2551.965668
502.765537	2552.875596
503.131470	2553.215874
503.497345	2553.024310
503.863163	2550.304607
504.228923	2553.009186
504.594625	2553.893909
504.960269	2554.677808
505.325856	2557.891544
505.691385	2553.543549
506.056856	2552.547921
506.422270	2555.045812
506.787625	2556.013714
507.152924	2556.112017
507.518164	2557.946997
507.883347	2556.749723
508.248472	2556.316183
508.613540	2557.785680
508.978550	2558.352809
509.343503	2561.226267
509.708398	2560.147460
510.073236	2561.012018
510.438016	2561.720300
510.802738	2559.066133
511.167403	2561.057388
511.532010	2565.518810
511.896561	2565.347410
512.261053	2564.848336
512.625488	2567.542833
512.989866	2564.054354
513.354186	2567.210117
513.718449	2567.593244
514.082655	2572.987279
514.446803	2569.856722
514.810894	2572.243709
515.174927	2574.728998
515.538904	2575.780078
515.902822	2573.393092
516.266684	2572.236147
516.630488	2575.661611
516.994235	2575.787640
517.357925	2579.427353
517.721558	2579.727302
518.085133	2582.459607
518.448651	2577.703278
518.812112	2578.340984
519.175516	2579.306365
519.538863	2580.478434
519.902152	2587.483117
520.265385	2586.157293
520.628560	2589.073601
520.991678	2589.280288
521.354739	2590.641400
521.717743	2590.326328
522.080690	2593.305650
522.443580	2596.834457
522.806413	2598.631629
523.169189	2595.238932
523.531908	2601.255549
523.894569	2599.546598
524.257174	2599.806218
524.619722	2602.498194
524.982213	2604.270159
525.344647	2604.766713
525.707025	2605.265787
526.069345	2610.624534
526.431608	2610.879112
526.793815	2613.555965
527.155964	2613.855913
527.518057	2614.067642
527.880093	2615.378342
528.242072	2618.874382
528.603995	2617.341871
528.965860	2617.818260
529.327669	2620.404372
529.689421	2622.466204
530.051117	2624.845629
530.412755	2625.339662
530.774337	2627.144395
531.135862	2629.337297
531.497331	2630.045579
531.858743	2630.965589
532.220098	2633.448358
532.581396	2633.692854
532.942638	2635.550519
533.303824	2637.103194
533.664953	2639.911117
534.026025	2640.856333
534.387040	2642.172074
534.747999	2645.267343
535.108902	2645.068217
535.469748	2646.820018
535.830537	2649.829587
536.191270	2646.739360
536.551947	2649.416212
536.912567	2650.184988
537.273131	2651.800678
537.633638	2647.944196
537.994089	2657.293015
538.354483	2658.286123
538.714821	2659.818633
539.075103	2663.599499
539.435328	2664.620332
539.795497	2662.329128
540.155609	2665.966321
540.515665	2668.391116
540.875665	2666.173008
541.235609	2668.388595
541.595496	2670.957063
541.955328	2672.161899
542.315102	2668.759120
542.674821	2672.696261
543.034483	2670.841116
543.394090	2677.165244
543.753640	2677.689524
544.113134	2681.336799
544.472571	2679.877385
544.831953	2682.183712
545.191278	2684.353929
545.550548	2683.133970
545.909761	2683.723785
546.268918	2687.078673
546.628019	2689.301822
546.987064	2688.008766
547.346053	2685.294104
547.704986	2691.451874
548.063863	2688.984229
548.422684	2691.391380
548.781449	2691.182172
549.140158	2692.467666
549.498811	2695.378933
549.857408	2693.780887
550.215949	2695.179807
550.574434	2693.740558
550.932864	2693.312060
551.291237	2699.474870
551.649555	2699.837833
552.007817	2699.895807
552.366022	2699.517720
552.724173	2701.072916
553.082267	2701.577031
553.440305	2706.424101
553.798288	2703.351517
554.156215	2701.476208
554.514086	2704.944522
554.871902	2699.865560
555.229661	2704.175746
555.587365	2703.991744
555.945014	2707.112218
556.302606	2707.848227
556.660143	2708.962322
557.017625	2712.271839
557.375050	2708.954760
557.732421	2713.660677
558.089735	2717.232335
558.446994	2712.700337
558.804197	2715.472972
559.161345	2718.043960
559.518437	2715.843497
559.875474	2715.916593
560.232455	2719.538662
560.589381	2719.934393
560.946251	2718.918601
561.303065	2725.404045
561.659825	2726.069477
562.016528	2725.131823
562.373177	2725.915722
562.729770	2729.096690
563.086307	2727.231463
563.442789	2730.440158
563.799216	2731.869325
564.155587	2733.870663
564.511904	2735.012484
564.868164	2738.437948
565.224370	2741.170254
565.580520	2742.574215
565.936615	2745.064545
566.292654	2747.423805
566.648638	2752.200298
567.004567	2754.602408
567.360441	2756.933942
567.716260	2758.811772
568.072023	2762.408635
568.427732	2763.245466
568.783385	2768.604213
569.138982	2772.208638
569.494525	2775.624020
569.850013	2778.696603
570.205445	2781.559978
570.560823	2784.443518
570.916145	2791.057512
571.271412	2792.776546
571.626625	2798.652010
571.981782	2798.672175
572.336884	2804.504790
572.691931	2809.823207
573.046923	2811.587611
573.401860	2815.554999
573.756743	2824.949189
574.111570	2832.737772
574.466342	2836.977382
574.821059	2844.077848
575.175722	2846.434587
575.530330	2852.408354
575.884882	2859.173583
576.239380	2865.149871
576.593823	2873.601365
576.948211	2878.710575
577.302544	2886.426061
577.656823	2894.504510
578.011047	2902.424162
578.365216	2908.818866
578.719330	2919.478386
579.073389	2929.157401
579.427394	2936.540171
579.781344	2945.024433
580.135239	2953.801082
580.489080	2966.623257
580.842866	2970.444451
581.196597	2989.726865
581.550273	2998.874038
581.903895	3009.072293
582.257463	3030.739172
582.610975	3037.504400
582.964434	3054.349416
583.317837	3062.480797
583.671186	3077.415215
584.024481	3096.990016
584.377721	3103.762806
584.730906	3121.137143
585.084037	3140.868219
585.437113	3152.684683
585.790135	3166.530212
586.143103	3178.830628
586.496016	3197.245963
586.848874	3213.665001
587.201679	3239.132910
587.554428	3246.026688
587.907124	3268.127106
588.259765	3288.538738
588.612352	3312.196873
588.964884	3321.865806
589.317362	3350.217256
589.669786	3369.716439
590.022155	3385.878378
590.374470	3416.763007
590.726731	3432.428393
591.078937	3440.277469
591.431090	3470.562201
591.783188	3486.807319
592.135232	3504.746265
592.487222	3530.400697
592.839157	3561.343299
593.191038	3580.179571
593.542866	3599.739247
593.894639	3609.806432
594.246358	3645.275990
594.598022	3670.837161
594.949633	3685.164120
595.301190	3710.014488
595.652692	3738.360896
596.004141	3779.234571
596.355535	3774.024539
596.706876	3805.582162
597.058162	3824.788958
597.409395	3866.630535
597.760573	3900.592788
598.111698	3920.749842
598.462768	3946.779840
598.813785	3978.196311
599.164748	3998.643231
599.515657	4039.400960
599.866511	4056.397210
600.217312	4115.925675
600.568060	4105.457719
600.918753	4173.977082
601.269392	4207.329356
601.619978	4228.250144
601.970510	4271.984675
602.320988	4316.102332
602.671412	4364.194940
603.021783	4397.635434
603.372100	4414.813166
603.722363	4457.234476
604.072572	4496.253006
604.422728	4536.819171
604.772830	4565.422678
605.122878	4610.246098
605.472872	4646.396212
605.822813	4699.683729
606.172701	4732.015169
606.522534	4793.144200
606.872314	4845.554556
607.222041	4880.139392
607.571714	4945.838230
607.921333	4956.512873
608.270899	5016.253067
608.620411	5082.687913
608.969870	5121.487153
609.319276	5169.869627
609.668627	5218.776381
610.017926	5298.192198
610.367171	5363.081931
610.716362	5414.209313
611.065500	5460.547599
611.414585	5524.973545
611.763616	5595.456438
612.112594	5643.586854
612.461518	5706.616401
612.810389	5796.099402
613.159207	5836.947872
613.507971	5889.605244
613.856682	5989.505790
614.205340	6043.365478
614.553945	6157.199773
614.902496	6163.949878
615.250994	6259.144506
615.599439	6324.447613
615.947830	6403.452576
616.296169	6469.975642
616.644454	6541.242434
616.992686	6629.104705
617.340864	6744.647951
617.688990	6775.267919
618.037063	6912.692294
618.385082	6972.992056
618.733048	7082.770742
619.080961	7142.231152
619.428821	7215.940383
619.776628	7284.190044
620.124382	7339.415885
620.472083	7415.280209
620.819731	7493.022363
621.167326	7507.402254
621.514868	7570.283087
621.862357	7570.872902
622.209793	7642.071638
622.557176	7650.984398
622.904506	7687.177362
623.251783	7705.491874
623.599007	7728.045996
623.946179	7777.119108
624.293297	7812.815519
624.640363	7808.253275
624.987376	7850.477979
625.334336	7887.832929
625.681243	7901.592759
626.028097	7961.796738
626.374899	8008.359356
626.721647	8065.972183
627.068343	8113.656457
627.414987	8146.887743
627.761577	8180.865120
628.108115	8304.890108
628.454600	8263.421576
628.801032	8374.505922
629.147412	8433.575642
629.493739	8495.528902
629.840014	8504.991148
630.186236	8648.908528
630.532405	8644.792426
630.878521	8753.184796
631.224585	8808.849216
631.570597	8832.643462
631.916556	8936.017363
632.262462	9000.145881
632.608316	9062.174759
632.954117	9116.699879
633.299866	9184.092544
633.645562	9250.809695
633.991206	9220.378769
634.336797	9215.110764
634.682336	9264.597250
635.027823	9286.483420
635.373257	9331.291716
635.718639	9336.249691
636.063968	9380.445486
636.409245	9321.844593
636.754470	9383.976815
637.099642	9403.614629
637.444762	9361.221046
637.789829	9468.522006
638.134845	9459.397517
638.479808	9506.852419
638.824719	9568.825844
639.169577	9536.494404
639.514383	9626.305080
639.859137	9616.721847
640.203839	9724.514319
640.548489	9730.573786
640.893086	9806.722935
641.237632	9816.734667
641.582125	9909.645653
641.926566	9932.131719
642.270955	10009.740283
642.615292	10077.785777
642.959576	10124.635741
643.303809	10193.518067
643.647990	10296.108068
643.992118	10360.972595
644.336195	10401.319469
644.680219	10498.091979
645.024192	10636.522064
645.368112	10855.887873
645.711981	10940.904413
646.055797	11219.226516
646.399562	11268.481110
646.743274	11590.326016
647.086935	11794.845627
647.430544	11877.709593
647.774101	11975.583595
648.117606	12149.581541
648.461059	12273.621652
648.804460	12240.196281
649.147810	12171.089624
649.491108	12140.454532
649.834354	12173.005262
650.177548	12002.052174
650.520690	11928.451328
650.863781	12004.683656
651.206820	12023.282993
651.549807	11975.641569
651.892742	11868.539735
652.235626	11908.979871
652.578458	11940.865169
652.921238	11807.035137
653.263967	11976.982516
653.606644	11963.840228
653.949269	12004.681135
654.291843	11957.566512
654.634365	12149.387457
654.976836	12069.858213
655.319255	12170.527535
655.661622	12204.194881
656.003938	12222.776574
656.346203	12243.236097
656.688416	12396.169581
657.030577	12395.713357
657.372687	12403.882547
657.714746	12532.588246
658.056753	12692.044983
658.398708	12526.518696
658.740612	12632.297228
659.082465	12782.894137
659.424266	12818.935866
659.766016	12898.311354
660.107715	12922.571907
660.449362	13030.961756
660.790958	13101.200153
661.132503	13152.897185
661.473996	13252.333945
661.815438	13370.836348
662.156829	13486.561076
662.498168	13479.526146
662.839456	13549.383935
663.180693	13670.530424
663.521879	13775.083955
663.863013	13838.673069
664.204097	13903.998861
664.545129	14144.857630
664.886110	14195.183469
665.227040	14311.866016
665.567918	14387.506009
665.908746	14494.254962
666.249522	14602.564153
666.590248	14684.828222
666.930922	14798.039934
667.271545	14876.084557
667.612118	14972.451254
667.952639	14976.370752
668.293109	15061.246138
668.633528	15068.276027
668.973896	15120.905673
669.314213	15194.360326
669.654480	15189.984605
669.994695	15245.081896
670.334859	15288.196364
670.674973	15284.332319
671.015035	15445.934068
671.355047	15487.989894
671.695008	15521.906777
672.034918	15545.612803
672.374777	15674.903275
672.714585	15678.737073
673.054342	15809.187011
673.394049	15807.425128
673.733705	15985.927344
674.073310	15917.755821
674.412864	16019.602252
674.752368	15939.193327
675.091820	16120.183353
675.431223	15995.626524
675.770574	15970.052751
676.109875	15950.525841
676.449125	15912.190387
676.788324	15932.236535
677.127473	15746.669142
677.466571	15770.712925
677.805619	15695.138467
678.144616	15734.986267
678.483562	15761.941317
678.822458	15672.728017
679.161303	15696.413879
679.500098	15712.858123
679.838842	15741.630508
680.177535	15850.416088
680.516179	16032.646238
680.854771	16167.736558
681.193314	16637.015049
681.531805	17256.219976
681.870247	17731.704127
682.208638	18211.906798
682.546978	18435.731508
682.885268	18583.674250
683.223508	18401.953257
683.561697	18307.149318
683.899836	18279.294422
684.237925	18112.102034
684.575963	18083.231346
684.913951	17932.480682
685.251889	18096.519828
685.589776	18164.358635
685.927614	18232.290704
686.265401	18391.850785
686.603137	18518.308129
686.940824	18861.595583
687.278460	19108.302090
687.616046	19252.443802
687.953582	19693.456543
688.291068	19707.239058
688.628504	19953.358271
688.965889	20013.244658
689.303224	19936.639284
689.640510	19831.768161
689.977745	19515.140849
690.314930	19140.762080
690.652065	18958.509245
690.989150	18619.559704
691.326185	18160.297986
691.663170	17836.343357
692.000105	17441.721834
692.336990	17117.300899
692.673825	16903.442550
693.010610	16667.496385
693.347345	16396.914973
693.684030	16049.128290
694.020665	15979.237733
694.357251	15604.480877
694.693786	15641.654345
695.030272	15545.459048
695.366707	15277.005002
695.703093	15138.859743
696.039429	15221.070880
696.375716	15105.270535
696.711952	15142.696061
697.048139	15092.269399
697.384276	15025.433781
697.720363	15136.039217
698.056400	15094.061529
698.392388	15018.459345
698.728326	15060.200099
699.064214	14990.349871
699.400053	15039.291913
699.735842	14831.213247
700.071581	14744.059259
700.407270	14617.354898
700.742910	14542.105595
701.078501	14420.875927
701.414042	14314.305935
701.749533	14146.062466
702.084974	13975.875633
702.420366	14157.533612
702.755709	13924.637345
703.091002	13753.986726
703.426246	13825.077077
703.761440	13816.948217
704.096584	13681.217670
704.431679	13663.876101
704.766725	13673.454293
705.101721	13649.536539
705.436668	13758.354886
705.771565	13596.538888
706.106413	13838.415970
706.441212	13922.003342
706.775961	14016.608156
707.110661	14093.914250
707.445311	14379.735070
707.779913	14319.944465
708.114465	14550.909970
708.448967	14801.256190
708.783421	15268.334218
709.117825	15546.177412
709.452180	15733.468880
709.786485	16066.144705
710.120742	16621.684900
710.454949	16721.903038
710.789107	17083.268069
711.123216	17608.740302
711.457275	17774.609387
711.791286	18196.639664
712.125247	18334.331219
712.459159	18164.005754
712.793023	18751.627852
713.126837	18048.835554
713.460602	18286.586451
713.794318	18088.322912
714.127985	17938.048636
714.461602	17321.608782
714.795171	17357.937857
715.128691	16683.239909
715.462162	16339.095459
715.795584	16065.310394
716.128957	15901.656896
716.462281	15657.402910
716.795556	15478.764582
717.128782	15157.693494
717.461960	14734.266818
717.795088	14726.667278
718.128167	14511.278939
718.461198	14193.103993
718.794180	14122.593374
719.127113	13894.420669
719.459997	13771.532462
719.792833	13501.931554
720.125619	13560.025811
720.458357	13319.252742
720.791046	13227.297054
721.123686	13129.710398
721.456278	12961.565232
721.788821	12974.392448
722.121315	12789.611474
722.453761	12879.568344
722.786158	12808.102427
723.118506	12888.662586
723.450805	12811.888333
723.783056	12963.576652
724.115259	12903.712951
724.447412	12904.930389
724.779518	13093.590531
725.111574	13144.806133
725.443582	13370.412891
725.775542	13348.183923
726.107453	13769.631947
726.439315	13715.565572
726.771129	14040.304100
727.102895	14384.872006
727.434612	14594.402525
727.766281	14733.006529
728.097901	14998.130892
728.429473	15077.786164
728.760996	15105.295741
729.092471	15229.542539
729.423897	15176.819631
729.755276	15097.451705
730.086606	15200.094639
730.417887	15675.959397
730.749120	16145.749565
731.080305	16329.824777
731.411442	16682.002306
731.742530	16811.776729
732.073570	16972.140874
732.404562	17246.624139
732.735506	17140.354096
733.066401	16992.126528
733.397249	16619.544930
733.728048	16148.907848
734.058798	15485.244985
734.389501	14898.442075
734.720156	14505.862219
735.050762	14054.250452
735.381320	13766.350156
735.711831	13550.427454
736.042293	13253.551383
736.372707	13292.920274
736.703073	13115.580044
737.033391	13294.848516
737.363661	13298.400009
737.693883	13414.243203
738.024056	13577.143049
738.354182	13753.182662
738.684260	14055.921594
739.014290	14280.373928
739.344272	14463.193893
739.674207	14751.628551
740.004093	14904.362910
740.333931	14964.118227
740.663722	15046.941864
740.993464	15107.544095
741.323159	14998.239277
741.652806	14773.633188
741.982405	14665.076981
742.311956	14383.931831
742.641460	14319.906657
742.970915	14067.012133
743.300323	13796.778560
743.629683	13627.287406
743.958996	13373.901370
744.288260	13122.214202
744.617477	12870.151469
744.946647	12846.034589
745.275768	12584.297881
745.604842	12418.292685
745.933869	12272.290787
746.262847	12256.859815
746.591778	12188.012777
746.920662	12099.694283
747.249498	12113.711211
747.578286	12255.574321
747.907027	12411.963516
748.235720	12657.129951
748.564365	12721.056823
748.892963	12657.896207
749.221514	12763.026950
749.550017	12645.822643
749.878473	12629.080971
750.206881	12442.059205
750.535242	12384.708518
750.863555	12326.911689
751.191821	12243.956982
751.520039	12268.361208
751.848210	12212.537991
752.176334	12262.074889
752.504411	12198.478213
752.832440	12051.241232
753.160421	12155.215030
753.488356	12070.644633
753.816243	11994.003972
754.144082	11856.302334
754.471875	11815.416055
754.799620	11800.680763
755.127318	11777.708225
755.454969	11781.910026
755.782572	11759.744073
756.110129	11783.092177
756.437638	11711.364119
756.765100	11715.928884
757.092515	11745.833009
757.419882	11779.429779
757.747203	11790.928651
758.074477	11864.489167
758.401703	11855.100018
758.728882	12022.368024
759.056014	12066.697410
759.383099	12219.429248
759.710138	12330.382524
760.037129	12451.347531
760.364073	12502.346364
760.690970	12536.991693
761.017820	12568.584605
761.344623	12780.466821
761.671379	13147.581288
761.998088	13787.923773
762.324751	15352.624831
762.651366	18348.209516
762.977935	22295.216208
763.304456	24944.627379
763.630931	25888.805248
763.957359	24895.534103
764.283740	22916.495570
764.610074	20919.689490
764.936362	18598.069265
765.262602	16919.990137
765.588796	15242.919241
765.914943	14097.843830
766.241044	13119.192031
766.567097	12398.168399
766.893104	11763.648447
767.219064	11359.352949
767.544978	10943.183014
767.870845	10597.390107
768.196665	10403.484645
768.522438	10199.393532
768.848165	10020.488023
769.173846	9841.068316
769.499479	9726.155214
769.825066	9582.610879
770.150607	9384.125529
770.476101	9312.183222
770.801548	9200.914874
771.126949	9068.950070
771.452303	8971.796953
771.777611	8784.543293
772.102872	8788.954303
772.428087	8664.762957
772.753256	8524.054271
773.078378	8446.294473
773.403453	8279.712065
773.728482	8181.301180
774.053465	8123.093497
774.378401	8022.928291
774.703291	7909.562823
775.028135	7806.975342
775.352932	7780.496682
775.677683	7681.415323
776.002388	7582.281033
776.327046	7597.719567
776.651658	7506.192377
776.976224	7420.863287
777.300743	7419.129130
777.625216	7341.414702
777.949643	7304.526059
778.274024	7321.734038
778.598359	7238.817139
778.922647	7260.156343
779.246889	7216.573048
779.571086	7217.523305
779.895236	7226.667958
780.219339	7232.918989
780.543397	7240.768066
780.867409	7311.593757
781.191374	7325.998854
781.515294	7296.452651
781.839167	7389.298102
782.162995	7367.361521
782.486776	7318.840415
782.810511	7277.132429
783.134201	7201.147117
783.457844	7203.314813
783.781441	7152.830178
784.104993	7100.137517
784.428498	7072.267498
784.751958	7063.929430
785.075372	7043.553086
785.398739	6986.797255
785.722061	7035.686365
786.045337	7042.822119
786.368568	7192.831734
786.691752	7206.994855
787.014891	7526.558639
787.337983	7855.622477
787.661030	8400.281341
787.984031	8978.690731
788.306987	9361.664668
788.629897	9561.672447
788.952760	9521.983442
789.275579	9328.473711
789.598351	8964.255387
789.921078	8643.557343
790.243759	8261.591637
790.566395	7995.040627
790.888984	7753.307218
791.211529	7561.992909
791.534027	7358.579831
791.856480	7170.496902
792.178888	7107.449711
792.501249	7011.440936
792.823566	6868.993052
793.145836	6872.131170
793.468062	6844.755184
793.790241	6799.936806
794.112375	6870.858279
794.434464	7006.341809
794.756507	7052.296967
795.078505	7194.893566
795.400457	7478.443346
795.722364	7814.146383
796.044226	8077.438287
796.366042	8339.142227
796.687812	8297.290568
797.009538	8377.444914
797.331218	8284.569216
797.652852	8214.512301
797.974442	8067.260197
798.295986	7987.559555
798.617484	7809.064900
798.938938	7671.549785
799.260346	7577.139056
799.581709	7390.422279
799.903026	7321.401321
800.224299	7226.425983
800.545526	7063.211065
800.866708	6975.447097
801.187845	6909.896974
801.508936	6813.535318
801.829983	6774.680625
802.150984	6634.294573
802.471940	6592.480722
802.792851	6578.297436
803.113717	6544.229318
803.434538	6515.280492
803.755314	6458.554908
804.076045	6465.942719
804.396731	6411.967085
804.717372	6440.444563
805.037967	6439.764007
805.358518	6485.928374
805.679024	6557.409415
805.999485	6567.695889
806.319901	6608.680470
806.640272	6624.403829
806.960598	6708.918773
807.280879	6703.791920
807.601115	6784.369723
807.921306	6735.173102
808.241453	6749.716831
808.561554	6772.066787
808.881611	6740.070583
809.201623	6754.458036
809.521590	6703.454162
809.841513	6688.098808
810.161390	6727.460137
810.481223	6597.600014
810.801011	6588.500731
811.120755	6570.128246
811.440453	6492.774261
811.760107	6469.753832
812.079716	6444.540501
812.399281	6381.584051
812.718801	6373.036775
813.038276	6330.638150
813.357707	6276.765860
813.677093	6321.206151
813.996434	6228.627882
814.315731	6266.638182
814.634983	6259.489825
814.954191	6279.004132
815.273354	6382.418362
815.592473	6443.640655
815.911547	6556.139044
816.230577	6643.381253
816.549562	6784.715042
816.868502	6884.398818
817.187399	6977.135884
817.506250	7123.709953
817.825058	7156.885786
818.143821	7422.320180
818.462539	7683.852721
818.781213	8035.717698
819.099843	8567.262001
819.418429	9521.486889
819.736970	10455.577408
820.055466	11592.947416
820.373919	13075.782655
820.692327	15368.882552
821.010691	19347.769501
821.329011	27840.190531
821.647286	39981.509621
821.965517	52948.438641
822.283704	58759.991700
822.601847	61025.776105
822.919945	58282.985120
823.237999	53920.365541
823.556010	47774.485679
823.873976	41352.055679
824.191897	35106.338286
824.509775	30498.438845
824.827609	26187.833891
825.145398	23723.987593
825.463144	22435.816509
825.780845	22721.481054
826.098502	24435.924545
826.416116	28034.035499
826.733685	31496.846926
827.051210	32590.495006
827.368692	30885.848998
827.686129	27101.691740
828.003522	23174.032996
828.320872	19632.055289
828.638177	16894.262609
828.955439	14823.409541
829.272656	13066.625399
829.589830	11657.491829
829.906960	10434.102093
830.224046	9523.049646
830.541088	8806.671438
830.858086	8363.347328
831.175041	7998.604723
831.491952	7891.787714
831.808819	7930.695340
832.125642	8328.596133
832.442421	9201.923105
832.759157	10937.978023
833.075849	13746.656888
833.392497	16823.709140
833.709101	18925.991282
834.025662	18770.751470
834.342179	17141.755536
834.658653	15042.334250
834.975083	13191.318339
835.291469	11629.435287
835.607811	10350.300472
835.924110	9468.741296
836.240366	8623.954817
836.556578	7840.032708
836.872746	7222.380457
837.188871	6740.534369
837.504952	6331.651422
837.820990	6031.115474
838.136984	5812.939377
838.452935	5726.488629
838.768842	5752.294296
839.084706	6169.154869
839.400526	7336.940678
839.716303	8864.019604
840.032037	9919.428012
840.347727	9852.184060
840.663373	8910.912417
840.978977	7904.423367
841.294537	7121.199458
841.610054	6543.878958
841.925527	6116.154698
842.240957	5765.597901
842.556344	5443.372388
842.871687	5164.805788
843.186987	4893.543820
843.502244	4671.728010
843.817458	4512.793032
844.132629	4379.295717
844.447756	4289.732057
844.762840	4214.318916
845.077881	4138.436947
845.392879	4076.188780
845.707833	4030.447870
846.022745	3985.432887
846.337613	3961.691573
846.652438	3916.207762
846.967221	3899.602202
847.281960	3868.873848
847.596656	3852.807691
847.911309	3831.407993
848.225919	3807.865805
848.540485	3795.686377
848.855009	3781.460241
849.169490	3759.425357
849.483928	3747.203080
849.798323	3741.501535
850.112675	3721.949420
850.426984	3727.519895
850.741251	3714.407853
851.055474	3707.642625
851.369654	3712.928275
851.683792	3710.392574
851.997887	3712.454406
852.311938	3712.714026
852.625947	3718.697875
852.939914	3709.820403
853.253837	3719.501939
853.567718	3718.453379
853.881555	3708.731514
854.195350	3720.840366
854.509103	3715.947926
854.822812	3715.025395
855.136479	3706.100032
855.450103	3721.440263
855.763685	3703.090463
856.077224	3708.086247
856.390720	3723.867579
856.704173	3739.283427
857.017584	3754.918566
857.330953	3767.055144
857.644278	3785.399902
857.957561	3793.876603
858.270802	3795.502375
858.584000	3799.565545
858.897155	3789.074904
859.210268	3774.773150
859.523339	3751.735077
859.836367	3756.136004
860.149352	3744.001947
860.462295	3737.463571
860.775195	3730.206830
861.088054	3722.173751
861.400869	3723.285325
861.713642	3722.844224
862.026373	3732.278744
862.339062	3739.469950
862.651708	3755.707506
862.964312	3787.358391
863.276873	3803.522851
863.589392	3857.800954
863.901869	3901.873242
864.214303	3946.764717
864.526696	3982.249398
864.839045	4024.353115
865.151353	4053.022157
865.463619	4058.995925
865.775842	4066.494641
866.088023	4083.284204
866.400162	4073.776588
866.712258	4080.410746
867.024313	4086.903752
867.336325	4084.297476
867.648296	4090.621603
867.960224	4088.002724
868.272110	4103.779015
868.583954	4102.362451
868.895755	4118.433649
869.207515	4111.476857
869.519233	4152.227024
869.830909	4166.231349
870.142542	4190.973332
870.454134	4204.675188
870.765684	4234.528902
871.077191	4270.152215
871.388657	4293.270947
871.700081	4330.038602
872.011463	4373.029562
872.322803	4406.235643
872.634101	4438.148667
872.945357	4473.111590
873.256571	4529.320455
873.567744	4556.968663
873.878874	4575.129420
874.189963	4616.361017
874.501010	4625.568685
874.812015	4624.351246
875.122979	4665.797092
875.433900	4662.719468
875.744780	4678.762940
876.055618	4705.539029
876.366415	4707.951221
876.677169	4726.099375
876.987882	4772.830871
877.298554	4825.105116
877.609183	4906.282816
877.919771	5013.611502
878.230317	5154.541999
878.540822	5363.490264
878.851285	5677.556669
879.161707	6134.002903
879.472087	6881.293467
879.782425	8101.114066
880.092722	10242.525644
880.402977	13453.317187
880.713191	17062.803505
881.023363	20613.933427
881.333494	22723.253019
881.643583	23937.374594
881.953631	23983.009639
882.263637	23196.226676
882.573602	21794.856483
882.883526	20288.640372
883.193408	18667.606941
883.503248	17019.308430
883.813048	15513.074675
884.122806	14117.869813
884.432522	12666.788802
884.742197	11447.749582
885.051831	10390.365042
885.361424	9405.764682
885.670975	8601.957742
885.980485	7927.108559
886.289954	7355.892896
886.599382	6899.219810
886.908768	6528.629468
887.218113	6172.108985
887.527417	5889.161623
887.836680	5623.190346
888.145901	5414.249642
888.455082	5249.681175
888.764221	5100.647023
889.073319	4971.573320
889.382376	4895.890477
889.691392	4837.813865
890.000366	4816.101615
890.309300	4793.232421
890.618193	4798.346671
890.927044	4789.338129
891.235855	4810.669772
891.544625	4841.042724
891.853353	4902.164193
892.162041	5019.045866
892.470687	5201.941448
892.779293	5443.894147
893.087858	5815.578421
893.396381	6385.420369
893.704864	7171.563106
894.013306	8300.637894
894.321707	9442.492008
894.630068	10231.785466
894.938387	10438.659296
895.246665	10201.430158
895.554903	9606.052244
895.863100	8934.434441
896.171256	8389.717603
896.479371	7896.309629
896.787446	7410.009683
897.095480	6984.533777
897.403473	6676.967940
897.711425	6359.471030
898.019336	6097.452017
898.327207	5831.775648
898.635038	5606.715855
898.942827	5366.837590
899.250576	5179.425134
899.558284	4987.105115
899.865952	4872.103793
900.173579	4720.009661
900.481165	4616.199700
900.788711	4530.910939
901.096216	4458.663643
901.403681	4393.461359
901.711105	4367.179303
902.018489	4351.173640
902.325832	4424.575360
902.633135	4543.486097
902.940397	4885.868664
903.247619	5663.499412
903.554800	7075.713127
903.861941	8954.251217
904.169041	10442.929153
904.476101	11052.878522
904.783121	10697.837618
905.090100	9988.186829
905.397039	9171.048558
905.703938	8436.970859
906.010796	7750.325376
906.317614	7206.931841
906.624391	6684.706111
906.931129	6266.890239
907.237826	5873.143356
907.544483	5503.631821
907.851099	5138.334689
908.157675	4785.078354
908.464211	4467.112617
908.770707	4236.492431
909.077163	4040.298285
909.383578	3898.704876
909.689954	3785.155407
909.996289	3716.409192
910.302584	3656.469872
910.608839	3620.894450
910.915054	3590.019903
911.221229	3574.039445
911.527363	3581.979263
911.833458	3599.434258
912.139513	3627.843680
912.445527	3657.750325
912.751502	3737.917274
913.057436	3842.843851
913.363331	3973.084581
913.669186	4173.127648
913.975000	4426.778345
914.280775	4843.734700
914.586510	5417.705353
914.892205	6203.727102
915.197859	7219.665796
915.503475	8406.547495
915.809050	9441.345145
916.114585	10064.525022
916.420081	10322.006996
916.725536	10287.709506
917.030952	9852.877219
917.336328	9456.151014
917.641665	9053.330054
917.946961	8586.040299
918.252218	8176.562495
918.557435	7677.810898
918.862612	7258.465036
919.167750	6888.814869
919.472848	6466.401464
919.777906	6109.933914
920.082925	5758.343680
920.387904	5394.309358
920.692843	5133.278412
920.997743	4890.607348
921.302603	4664.294829
921.607423	4502.604860
921.912204	4343.266590
922.216946	4221.641192
922.521647	4103.441258
922.826310	4002.610619
923.130932	3911.287596
923.435516	3812.780930
923.740059	3744.266608
924.044564	3672.805731
924.349028	3610.260136
924.653454	3547.585990
924.957840	3479.769868
925.262186	3434.301181
925.566493	3374.061913
925.870761	3320.552586
926.174989	3282.698562
926.479178	3247.647419
926.783328	3203.721325
927.087438	3177.252747
927.391509	3139.839823
927.695541	3115.909466
927.999533	3089.309818
928.303486	3063.791497
928.607400	3051.508726
928.911275	3037.799308
929.215110	3020.966895
929.518906	3013.536234
929.822663	3007.068434
930.126381	3008.210255
930.430060	3015.154445
930.733699	3017.624610
931.037299	3028.884027
931.340861	3024.248686
931.644383	3033.892413
931.947866	3030.235056
932.251309	3026.565096
932.554714	3025.274561
932.858080	3019.464631
933.161407	3013.684948
933.464694	3004.711694
933.767943	2999.027793
934.071153	2994.266424
934.374323	2981.378714
934.677455	2977.547437
934.980548	2968.738021
935.283602	2965.272227
935.586617	2964.858853
935.889593	2972.319760
936.192530	2979.284114
936.495428	2989.832729
936.798287	3012.969104
937.101108	3042.714433
937.403890	3097.113524
937.706632	3153.665188
938.009336	3230.457084
938.312002	3300.246818
938.614628	3362.449615
938.917216	3418.192174
939.219765	3445.994137
939.522275	3480.616782
939.824747	3484.208604
940.127179	3483.155003
940.429573	3476.672079
940.731929	3472.387098
941.034246	3462.816468
941.336524	3450.957153
941.638763	3433.882765
941.940964	3423.603853
942.243126	3378.944271
942.545250	3359.739995
942.847335	3322.006959
943.149381	3285.476237
943.451389	3257.041609
943.753359	3223.432236
944.055290	3195.204295
944.357182	3173.963394
944.659036	3158.025786
944.960851	3150.665701
945.262628	3136.605923
945.564367	3136.099287
945.866067	3129.954121
946.167729	3125.049078
946.469352	3123.219139
946.770937	3121.676546
947.072484	3103.200717
947.373992	3106.933692
947.675462	3099.157712
947.976893	3084.611462
948.278286	3077.382448
948.579641	3068.159657
948.880958	3061.094480
949.182236	3067.166549
949.483476	3062.125396
949.784678	3059.662792
950.085841	3059.516598
950.386967	3073.354566
950.688054	3086.022985
950.989103	3107.377313
951.290114	3127.791466
951.591087	3152.329282
951.892021	3181.656194
952.192917	3208.812890
952.493776	3233.650655
952.794596	3241.847571
953.095378	3246.871081
953.396122	3240.841861
953.696828	3238.654000
953.997496	3225.665467
954.298126	3198.964996
954.598718	3185.608459
954.899272	3155.984118
955.199788	3129.739872
955.500266	3099.593772
955.800706	3063.899882
956.101108	3028.861342
956.401472	2995.655262
956.701798	2966.761888
957.002087	2927.037596
957.302337	2899.737227
957.602550	2870.901827
957.902724	2840.007116
958.202861	2818.902325
958.502960	2797.490024
958.803022	2777.600152
959.103045	2758.753798
959.403031	2739.040366
959.702979	2728.128789
960.002889	2714.290821
960.302762	2703.185159
960.602596	2692.361802
960.902393	2680.804957
961.202153	2672.096364
961.501875	2663.511279
961.801559	2660.872235
962.101205	2655.274033
962.400814	2648.700369
962.700385	2641.201652
962.999918	2634.088584
963.299414	2627.973665
963.598873	2626.594909
963.898293	2620.427057
964.197677	2622.572068
964.497022	2620.386728
964.796331	2617.679628
965.095601	2613.775255
965.394835	2612.267950
965.694030	2611.511777
965.993189	2606.253853
966.292309	2609.575974
966.591393	2608.444235
966.890439	2606.374841
967.189447	2608.439193
967.488419	2607.196549
967.787353	2608.338370
968.086249	2608.045983
968.385108	2610.072527
968.683930	2614.483537
968.982714	2617.931686
969.281462	2619.202057
969.580172	2626.630197
969.878844	2629.302009
970.177480	2641.017650
970.476078	2648.733136
970.774639	2655.248827
971.073162	2663.455826
971.371649	2670.001764
971.670098	2676.580470
971.968510	2678.654905
972.266885	2683.035667
972.565223	2688.709486
972.863524	2687.615556
973.161788	2693.138140
973.460014	2696.246011
973.758204	2702.413863
974.056356	2698.612833
974.354471	2704.405119
974.652550	2702.980993
974.950591	2702.212217
975.248595	2701.171218
975.546563	2699.608461
975.844493	2695.257945
976.142386	2692.709642
976.440243	2685.646985
976.738062	2683.590194
977.035845	2675.821776
977.333590	2668.544871
977.631299	2664.154026
977.928971	2656.925011
978.226606	2650.691624
978.524204	2648.491161
978.821765	2645.605100
979.119290	2648.546613
979.416777	2644.531334
979.714228	2651.057108
980.011642	2652.609783
980.309020	2661.071360
980.606360	2672.608041
980.903664	2698.552339
981.200931	2734.137844
981.498162	2780.791202
981.795356	2856.002697
982.092513	2940.167281
982.389633	3043.301727
982.686717	3140.601037
982.983764	3213.738097
983.280775	3256.159407
983.577749	3266.869338
983.874686	3253.850559
984.171587	3220.503326
984.468451	3182.412367
984.765279	3140.575832
985.062070	3097.990685
985.358824	3048.947819
985.655543	2994.216012
985.952224	2943.229782
986.248869	2879.837273
986.545478	2824.024138
986.842050	2769.952722
987.138586	2723.836246
987.435086	2688.449867
987.731549	2656.249497
988.027975	2637.929943
988.324366	2617.619135
988.620719	2599.271855
988.917037	2591.231215
989.213318	2583.329206
989.509563	2576.833679
989.805772	2569.733214
990.101944	2565.849005
990.398080	2566.340518
990.694180	2565.821279
990.990244	2565.450754
991.286271	2563.759447
991.582262	2562.889848
991.878217	2566.254818
992.174136	2573.206569
992.470019	2573.430901
992.765865	2576.362332
993.061676	2580.523804
993.357450	2591.947059
993.653188	2593.666092
993.948890	2614.894391
994.244556	2634.219654
994.540186	2655.185813
994.835780	2688.293591
995.131337	2725.769529
995.426859	2764.314191
995.722345	2810.372693
996.017795	2861.348841
996.313208	2897.667834
996.608586	2926.644386
996.903928	2939.736263
997.199234	2935.912547
997.494504	2933.810386
997.789738	2920.930238
998.084936	2894.769170
998.380099	2865.837988
998.675225	2836.153154
998.970316	2804.620737
999.265371	2772.276693
999.560390	2734.848647
999.855373	2708.566591
1000.150320	2678.211283
1000.445232	2653.799496
1000.740108	2632.956845
1001.034948	2615.055708
1001.329752	2601.069027
1001.624521	2588.146029
1001.919254	2575.588514
1002.213951	2570.068451
1002.508613	2561.049827
1002.803239	2554.977757
1003.097829	2548.628424
1003.392384	2545.986859
1003.686903	2540.411343
1003.981386	2537.926054
1004.275834	2533.434386
1004.570246	2531.301978
1004.864623	2527.148067
1005.158964	2527.589168
1005.453270	2525.812161
1005.747540	2528.554549
1006.041775	2522.464835
1006.335974	2520.657582
1006.630138	2520.483662
1006.924266	2519.082221
1007.218359	2518.613394
1007.512416	2515.021572
1007.806438	2513.398320
1008.100425	2514.754390
1008.394376	2512.934534
1008.688292	2517.201871
1008.982172	2518.162210
1009.276017	2514.696417
1009.569827	2513.806653
1009.863602	2513.897394
1010.157341	2514.343536
1010.451045	2509.682990
1010.744714	2511.689369
1011.038347	2512.753052
1011.331945	2507.979080
1011.625508	2510.129132
1011.919036	2510.040912
1012.212528	2507.565705
1012.505986	2506.610406
1012.799408	2504.604027
1013.092795	2505.831548
1013.386147	2504.677124
1013.679464	2502.481701
1013.972745	2504.422546
1014.265992	2505.294665
1014.559204	2503.978924
1014.852380	2506.098729
1015.145521	2503.152175
1015.438628	2507.429594
1015.731699	2504.906496
1016.024736	2507.018740
1016.317737	2507.172495
1016.610703	2508.891528
1016.903635	2508.160561
1017.196531	2512.758093
1017.489393	2512.785820
1017.782219	2513.221880
1018.075011	2513.395799
1018.367768	2515.631551
1018.660490	2515.908815
1018.953177	2515.908815
1019.245829	2515.908815
