Dividing Wavelength (nm)	Counts (n)	Blue Motor Position (mm): 37.900000	Red Motor Position (mm): 0.000000	
326.493990	2128.342386
326.888308	2128.342386
327.282561	2128.342386
327.676750	2096.328539
328.070874	2097.314084
328.464933	2098.047572
328.858929	2105.188367
329.252859	2113.349995
329.646726	2125.965482
330.040528	2139.193470
330.434265	2156.310708
330.827938	2176.069510
331.221547	2193.022911
331.615091	2210.747608
332.008571	2229.760319
332.401986	2250.807137
332.795338	2269.356062
333.188625	2290.481018
333.581847	2306.050621
333.975006	2327.094918
334.368100	2341.774758
334.761129	2360.805114
335.154095	2378.587784
335.546996	2400.042935
335.939833	2426.632501
336.332606	2439.411826
336.725315	2451.636624
337.117960	2462.288582
337.510540	2469.245374
337.903056	2480.524956
338.295508	2486.700369
338.687896	2498.337873
339.080220	2502.811897
339.472480	2508.931858
339.864676	2513.509225
340.256807	2520.503826
340.648875	2525.847449
341.040879	2526.588499
341.432818	2526.359127
341.824694	2527.266534
342.216506	2530.021525
342.608253	2528.070598
342.999937	2527.594209
343.391557	2526.921215
343.783113	2527.329549
344.174605	2527.924405
344.566033	2523.803262
344.957397	2524.259486
345.348697	2523.271420
345.739934	2520.592047
346.131106	2519.699762
346.522215	2517.741274
346.913260	2513.723474
347.304241	2512.309431
347.695159	2509.037722
348.086012	2509.985459
348.476802	2506.686024
348.867528	2508.914214
349.258191	2505.067813
349.648789	2502.910199
350.039324	2501.554129
350.429796	2500.823162
350.820203	2498.279900
351.210548	2499.905672
351.600828	2498.930208
351.991045	2498.300064
352.381198	2496.414673
352.771288	2495.701349
353.161314	2495.948366
353.551276	2496.429796
353.941175	2493.783190
354.331010	2497.377533
354.720782	2494.657831
355.110490	2493.974754
355.500135	2495.661020
355.889717	2497.589262
356.279235	2494.647748
356.668689	2494.390649
357.058080	2498.262256
357.447408	2495.782008
357.836672	2493.538694
358.225873	2496.349138
358.615010	2492.502737
359.004084	2502.791732
359.393095	2499.658655
359.782043	2499.081443
360.170927	2501.286948
360.559748	2501.637308
360.948505	2501.397853
361.337199	2501.140754
361.725830	2499.109169
362.114398	2503.366424
362.502903	2501.513800
362.891344	2502.098574
363.279722	2504.109994
363.668037	2506.144100
364.056289	2502.527072
364.444478	2506.917917
364.832603	2506.817094
365.220665	2507.117042
365.608665	2506.096209
365.996601	2505.463544
366.384474	2507.031343
366.772284	2507.411950
367.160031	2507.669049
367.547715	2508.490757
367.935336	2508.495798
368.322893	2508.195849
368.710388	2509.393123
369.097820	2509.589728
369.485189	2508.904131
369.872495	2509.345232
370.259738	2508.526045
370.646918	2510.603000
371.034035	2511.008813
371.421090	2513.428567
371.808081	2511.112157
372.195010	2511.374297
372.581875	2511.361694
372.968678	2512.984945
373.355418	2511.802795
373.742096	2514.973681
374.128710	2516.135667
374.515262	2516.556603
374.901751	2513.741118
375.288177	2514.456962
375.674540	2516.617097
376.060841	2516.002076
376.447079	2515.883609
376.833254	2518.033661
377.219367	2514.623320
377.605417	2514.043588
377.991404	2514.081396
378.377329	2515.008969
378.763191	2512.132990
379.148991	2518.893178
379.534727	2519.094824
379.920402	2521.194464
380.306013	2520.491223
380.691563	2522.464835
381.077049	2520.466018
381.462474	2522.530370
381.847835	2521.237314
382.233134	2521.113806
382.618371	2523.515916
383.003545	2522.235463
383.388657	2522.953827
383.773706	2521.852335
384.158693	2521.464166
384.543618	2523.800741
384.928480	2524.231760
385.313280	2524.347706
385.698017	2524.551873
386.082692	2524.836698
386.467305	2525.809641
386.851856	2529.179652
387.236344	2527.987419
387.620770	2528.680578
388.005133	2528.665454
388.389435	2527.410207
388.773674	2529.227543
389.157851	2529.119158
389.541965	2530.177801
389.926018	2529.194776
390.310008	2530.651669
390.693936	2531.700229
391.077802	2529.421627
391.461606	2531.284334
391.845348	2533.028573
392.229027	2535.297092
392.612645	2534.939170
392.996200	2534.712318
393.379694	2537.827752
393.763125	2540.479398
394.146494	2547.239586
394.529801	2548.933413
394.913047	2553.208312
395.296230	2560.407080
395.679351	2566.295147
396.062410	2574.968452
396.445408	2583.258630
396.828343	2595.233891
397.211217	2602.200766
397.594028	2611.882302
397.976778	2629.924591
398.359466	2644.173412
398.742092	2662.954231
399.124656	2677.291273
399.507158	2701.720704
399.889598	2721.308107
400.271977	2748.046387
400.654294	2767.424583
401.036549	2791.498613
401.418742	2809.913948
401.800874	2849.083713
402.182944	2880.006151
402.564952	2920.552152
402.946898	2947.184567
403.328783	2976.408136
403.710606	2985.799806
404.092367	3068.499935
404.474067	3089.569437
404.855705	3126.327010
405.237282	3137.460399
405.618797	3209.218703
406.000250	3259.801641
406.381642	3327.335458
406.762972	3354.353522
407.144240	3393.170407
407.525447	3437.083898
407.906593	3498.054133
408.287677	3560.599729
408.668700	3566.533167
409.049661	3631.947179
409.430560	3699.428065
409.811399	3701.893189
410.192176	3834.510823
410.572891	3833.132068
410.953545	3939.092080
411.334138	3907.489087
411.714669	3989.155779
412.095139	3962.488075
412.475547	4094.435236
412.855894	4119.683855
413.236180	4165.858304
413.616405	4173.160415
413.996568	4272.824027
414.376670	4260.984877
414.756711	4261.085700
415.136691	4319.043846
415.516609	4410.258483
415.896466	4471.470694
416.276262	4528.798696
416.655997	4540.615160
417.035670	4719.399681
417.415283	4829.077545
417.794834	4809.205317
418.174324	4788.788643
418.553753	4730.235642
418.933121	4919.225979
419.312428	5003.035161
419.691674	4973.191531
420.070859	5105.287405
420.449983	5047.152819
420.829045	5167.777548
421.208047	5095.434470
421.586988	5177.643087
421.965867	5204.958579
422.344686	5341.233570
422.723444	5216.495259
423.102141	5053.582811
423.480777	5348.737327
423.859352	5137.823012
424.237866	5396.986211
424.616319	5395.332713
424.994712	5508.486452
425.373044	5389.895828
425.751314	5540.074322
426.129524	5352.014077
426.507673	5549.304674
426.885762	5633.832222
427.263789	5564.039967
427.641756	5454.465447
428.019662	5580.206947
428.397508	5586.750365
428.775292	5537.684815
429.153016	5638.996884
429.530679	5563.939144
429.908282	5653.180170
430.285824	5521.527917
430.663305	5797.727695
431.040726	5532.283218
431.418086	5533.462848
431.795385	5643.266741
432.172624	5652.282845
432.549802	5648.562473
432.926920	5659.405995
433.303977	5670.307490
433.680974	5711.539087
434.057910	5725.182970
434.434786	5732.699331
434.811601	5697.963260
435.188355	5934.121153
435.565050	5811.643800
435.941683	5789.866015
436.318257	6004.077245
436.694770	5988.926057
437.071222	6026.694382
437.447614	5957.191994
437.823946	5871.421802
438.200218	6024.740935
438.576429	5890.174895
438.952580	5992.076778
439.328670	6033.852820
439.704700	5942.257576
440.080670	5926.899700
440.456580	6193.541451
440.832429	6078.608184
441.208218	5927.174443
441.583947	6082.079019
441.959616	6085.073464
442.335224	6015.644173
442.710773	6158.134907
443.086261	6175.655437
443.461689	5970.624148
443.837057	6121.397498
444.212365	6271.671774
444.587612	6168.164282
444.962800	6320.230688
445.337927	6296.128932
445.712995	5916.925778
446.088002	6489.038766
446.462949	6323.005843
446.837837	6253.173260
447.212664	6422.107366
447.587431	6568.580612
447.962139	7108.452901
448.336786	8033.759210
448.711374	7779.185982
449.085901	6849.811461
449.460369	6768.769872
449.834776	6708.921294
450.209124	7094.322546
450.583412	7242.860144
450.957640	7389.071250
451.331808	7158.067937
451.705917	6706.990532
452.079965	6631.519418
452.453954	6842.098496
452.827883	6721.423355
453.201752	6817.570762
453.575562	6614.253466
453.949311	6815.884496
454.323001	6711.217539
454.696632	6780.677078
455.070202	6916.420227
455.443713	7076.817140
455.817164	7169.483630
456.190556	7256.793894
456.563888	7330.346849
456.937160	7368.082406
457.310373	7033.085130
457.683526	7054.704118
458.056619	6945.643796
458.429653	6931.006806
458.802628	6869.575305
459.175542	6979.696790
459.548398	7331.823907
459.921194	7493.478587
460.293930	7496.263825
460.666607	8027.301492
461.039224	8333.486053
461.411782	8459.739230
461.784280	8480.965008
462.156719	8369.343780
462.529099	8248.572857
462.901419	7840.965322
463.273680	7730.049855
463.645882	7742.430929
464.018024	7607.159127
464.390106	7777.920652
464.762130	8156.259248
465.134094	8632.938153
465.505999	9649.905242
465.877845	10860.896260
466.249631	11511.762153
466.621358	11130.242589
466.993026	10510.349545
467.364634	10253.651470
467.736184	9886.327795
468.107674	9556.157424
468.479105	9594.203012
468.850477	9357.813226
469.221790	9126.635993
469.593043	8796.752968
469.964238	8664.694902
470.335373	8675.997168
470.706449	8727.535405
471.077467	8711.733908
471.448425	10015.053659
471.819324	11087.176012
472.190164	11112.812800
472.560945	9863.829126
472.931667	9077.091533
473.302330	8945.971122
473.672934	8587.966019
474.043479	8945.323333
474.413965	8880.781441
474.784393	8773.021736
475.154761	8925.584695
475.525070	9013.003344
475.895321	8838.045059
476.265513	9011.554013
476.635645	9190.885499
477.005719	9189.287453
477.375734	9300.384402
477.745691	9528.521819
478.115588	9672.628243
478.485427	9917.330892
478.855207	10450.415267
479.224928	11260.818556
479.594591	11883.547250
479.964194	11701.498581
480.333739	11639.386525
480.703226	11560.505070
481.072653	11646.214768
481.442022	11884.386602
481.811333	12072.366187
482.180584	11883.030531
482.549777	11592.130749
482.918912	11412.375805
483.287988	11435.275247
483.657005	11442.897471
484.025964	11131.429781
484.394864	11260.508525
484.763706	11235.643034
485.132489	10997.020017
485.501213	10952.655342
485.869879	11031.607373
486.238487	10871.238187
486.607036	10981.906637
486.975527	10763.183575
487.343959	10954.260950
487.712333	11001.189051
488.080648	10926.998390
488.448905	10977.200720
488.817104	10917.455485
489.185244	11175.953252
489.553326	11329.111067
489.921350	11874.047195
490.289315	12933.148248
490.657222	13270.882870
491.025070	13189.637114
491.392861	13052.227863
491.760593	12677.518898
492.128267	12325.149806
492.495883	12000.134015
492.863440	11667.042295
493.230939	11328.191057
493.598380	11255.974007
493.965763	11129.335182
494.333088	11026.611590
494.700354	10950.366658
495.067563	11007.674495
495.434713	10843.874804
495.801805	10968.718979
496.168839	10892.015303
496.535815	10823.294293
496.902733	10826.593728
497.269593	10756.614951
497.636395	10859.908194
498.003139	10851.091216
498.369825	10722.871988
498.736453	10874.227591
499.103023	10802.633124
499.469535	10833.205202
499.835989	10825.197329
500.202385	10788.522935
500.568723	10630.291198
500.935003	10857.443069
501.301226	10666.970633
501.667390	10926.655591
502.033497	11020.282421
502.399546	10878.333611
502.765537	10786.095619
503.131470	10857.120436
503.497345	11033.074349
503.863163	10641.646397
504.228923	10949.310537
504.594625	11020.821824
504.960269	10764.789182
505.325856	10982.244395
505.691385	10776.761923
506.056856	10933.277147
506.422270	10954.550816
506.787625	10841.104690
507.152924	10958.341764
507.518164	10945.058323
507.883347	10868.798268
508.248472	10783.592686
508.613540	11025.041270
508.978550	10908.015925
509.343503	10871.747343
509.708398	10995.719399
510.073236	11109.886410
510.438016	11117.601896
510.802738	11067.417209
511.167403	11120.014088
511.532010	11015.261432
511.896561	11245.846329
512.261053	11324.137969
512.625488	11183.812411
512.989866	11162.397589
513.354186	11157.237968
513.718449	11052.878522
514.082655	11248.480332
514.446803	11148.075671
514.810894	11259.676735
515.174927	11130.918104
515.538904	11164.214925
515.902822	11314.479118
516.266684	11193.042763
516.630488	11144.806483
516.994235	11194.756756
517.357925	11258.242527
517.721558	11346.561021
518.085133	11360.555264
518.448651	11369.518436
518.812112	11256.657084
519.175516	11270.603436
519.538863	11382.975796
519.902152	11305.888992
520.265385	11461.650564
520.628560	11375.429189
520.991678	11353.628719
521.354739	11419.682958
521.717743	11359.882270
522.080690	11336.012407
522.443580	11466.651388
522.806413	11420.960890
523.169189	11454.991199
523.531908	11508.220743
523.894569	11333.295225
524.257174	11340.410814
524.619722	11450.023142
524.982213	11392.483412
525.344647	11452.455499
525.707025	11399.951882
526.069345	11498.352684
526.431608	11409.756926
526.793815	11522.388906
527.155964	11309.750516
527.518057	11363.655574
527.880093	11318.267545
528.242072	11382.983358
528.603995	11286.629264
528.965860	11207.790659
529.327669	11259.901066
529.689421	11203.762777
530.051117	11183.399036
530.412755	11282.319077
530.774337	11176.253200
531.135862	11150.233285
531.497331	11180.235712
531.858743	11030.337002
532.220098	11197.431088
532.581396	11069.836963
532.942638	11058.874974
533.303824	11016.539364
533.664953	11029.699296
534.026025	10946.558067
534.387040	11043.091122
534.747999	11045.770495
535.108902	11107.554876
535.469748	10861.614624
535.830537	10968.925666
536.191270	10942.308374
536.551947	10969.356685
536.912567	10963.607249
537.273131	10891.934644
537.633638	10866.509585
537.994089	10862.569923
538.354483	10809.968003
538.714821	10946.709301
539.075103	10958.061980
539.435328	10920.414643
539.795497	10758.356670
540.155609	10916.359034
540.515665	10995.565644
540.875665	10731.789789
541.235609	10801.846704
541.595496	10801.145984
541.955328	10954.049221
542.315102	10833.847949
542.674821	10787.151741
543.034483	10786.211566
543.394090	10790.171392
543.753640	10718.700433
544.113134	10942.079001
544.472571	10791.585436
544.831953	10943.402304
545.191278	10743.049206
545.550548	10774.294278
545.909761	10908.484752
546.268918	10879.306554
546.628019	10974.309618
546.987064	10830.810654
547.346053	10756.047822
547.704986	10849.924188
548.063863	10843.902530
548.422684	10828.532052
548.781449	10748.375185
549.140158	10856.510456
549.498811	10729.170910
549.857408	10583.937788
550.215949	10811.399691
550.574434	10667.474748
550.932864	10762.603842
551.291237	10823.947123
551.649555	10779.678230
552.007817	10789.274067
552.366022	10739.162477
552.724173	10738.789431
553.082267	10726.839376
553.440305	10857.541372
553.798288	10659.426546
554.156215	10815.992182
554.514086	10793.919490
554.871902	10637.454677
555.229661	10675.996819
555.587365	10653.283900
555.945014	10548.785822
556.302606	10678.134268
556.660143	10569.998998
557.017625	10721.278983
557.375050	10622.487492
557.732421	10759.435477
558.089735	10665.622124
558.446994	10668.369553
558.804197	10703.203926
559.161345	10710.107787
559.518437	10561.668491
559.875474	10644.877776
560.232455	10672.039513
560.589381	10625.335743
560.946251	10622.341298
561.303065	10724.568336
561.659825	10667.091621
562.016528	10592.613614
562.373177	10478.313012
562.729770	10587.333005
563.086307	10502.379481
563.442789	10591.985990
563.799216	10473.410490
564.155587	10521.992090
564.511904	10481.834258
564.868164	10468.863369
565.224370	10484.906841
565.580520	10403.766950
565.936615	10412.702395
566.292654	10285.902252
566.648638	10419.039125
567.004567	10367.584068
567.360441	10360.710455
567.716260	10265.478017
568.072023	10362.452173
568.427732	10309.797321
568.783385	10226.698941
569.138982	10288.858889
569.494525	10308.534512
569.850013	10184.653198
570.205445	10268.245611
570.560823	10162.338530
570.916145	10081.387682
571.271412	10143.996292
571.626625	10087.885729
571.981782	10067.801772
572.336884	10041.733966
572.691931	10044.902331
573.046923	9994.553807
573.401860	9949.085120
573.756743	9886.209328
574.111570	9933.457543
574.466342	9917.096478
574.821059	9945.349625
575.175722	9833.690588
575.530330	9847.266415
575.884882	9831.439712
576.239380	9764.465463
576.593823	9745.288914
576.948211	9758.829453
577.302544	9637.902254
577.656823	9652.319954
578.011047	9647.462803
578.365216	9629.155852
578.719330	9550.352536
579.073389	9558.224297
579.427394	9505.362758
579.781344	9487.335592
580.135239	9437.571842
580.489080	9441.216596
580.842866	9348.058593
581.196597	9352.225107
581.550273	9391.475531
581.903895	9363.113999
582.257463	9422.352598
582.610975	9304.576121
582.964434	9328.693001
583.317837	9250.910518
583.671186	9240.883663
584.024481	9231.129030
584.377721	9150.460486
584.730906	9130.152198
585.084037	9156.202360
585.437113	9095.884955
585.790135	9110.436245
586.143103	9010.634002
586.496016	8987.595929
586.848874	9041.591728
587.201679	9031.900109
587.554428	8916.074559
587.907124	8961.752454
588.259765	8932.140716
588.612352	8939.982231
588.964884	8812.768713
589.317362	8828.658430
589.669786	8825.061567
590.022155	8876.191470
590.374470	8885.996514
590.726731	8830.231270
591.078937	8683.737860
591.431090	8793.130899
591.783188	8661.723141
592.135232	8656.654261
592.487222	8660.392277
592.839157	8712.807674
593.191038	8644.011047
593.542866	8590.605063
593.894639	8490.780135
594.246358	8539.422228
594.598022	8562.946773
594.949633	8456.452398
595.301190	8434.261239
595.652692	8462.461453
596.004141	8572.542609
596.355535	8349.363167
596.706876	8322.498858
597.058162	8264.142461
597.409395	8337.087957
597.760573	8400.261177
598.111698	8314.606932
598.462768	8295.684961
598.813785	8264.979293
599.164748	8231.536278
599.515657	8217.073208
599.866511	8129.609188
600.217312	8253.407324
600.568060	8114.813402
600.918753	8222.172335
601.269392	8187.355606
601.619978	8100.095753
601.970510	8161.497007
602.320988	8153.403434
602.671412	8214.048515
603.021783	8150.802199
603.372100	8126.334959
603.722363	8135.366186
604.072572	8101.693799
604.422728	8115.803988
604.772830	8046.989718
605.122878	8051.972898
605.472872	8049.066673
605.822813	8075.482319
606.172701	8018.403855
606.522534	8093.862366
606.872314	8095.223478
607.222041	8062.271976
607.571714	8119.045450
607.921333	8076.525838
608.270899	8081.110768
608.620411	8174.157865
608.969870	8077.045077
609.319276	8074.474089
609.668627	8086.383815
610.017926	8122.221377
610.367171	8169.464551
610.716362	8144.813308
611.065500	8140.689644
611.414585	8165.298037
611.763616	8152.087693
612.112594	8132.878377
612.461518	8151.409658
612.810389	8209.413174
613.159207	8152.112899
613.507971	8097.287830
613.856682	8212.261426
614.205340	8174.593925
614.553945	8252.464628
614.902496	8146.040829
615.250994	8206.421249
615.599439	8181.530552
615.947830	8199.275414
616.296169	8168.516814
616.644454	8186.017179
616.992686	8180.812188
617.340864	8241.895849
617.688990	8146.759194
618.037063	8233.812359
618.385082	8183.771345
618.733048	8264.268490
619.080961	8206.022998
619.428821	8224.919763
619.776628	8231.097698
620.124382	8182.402672
620.472083	8160.319897
620.819731	8191.272582
621.167326	8081.100685
621.514868	8090.623425
621.862357	7980.184347
622.209793	7996.288313
622.557176	7931.035618
622.904506	7900.377841
623.251783	7837.623037
623.599007	7787.619832
623.946179	7792.303064
624.293297	7751.187413
624.640363	7667.239599
624.987376	7650.233266
625.334336	7599.582273
625.681243	7549.962196
626.028097	7539.801750
626.374899	7509.524580
626.721647	7506.512491
627.068343	7444.264323
627.414987	7408.025988
627.761577	7366.469237
628.108115	7402.170688
628.454600	7293.717825
628.801032	7350.597164
629.147412	7306.489588
629.493739	7296.324102
629.840014	7230.814307
630.186236	7294.675644
630.532405	7171.525297
630.878521	7223.691157
631.224585	7184.218922
631.570597	7103.134483
631.916556	7141.298538
632.262462	7133.966180
632.608316	7094.758606
632.954117	7069.313382
633.299866	7060.186373
633.645562	7055.024232
633.991206	6976.868703
634.336797	6918.630773
634.682336	6871.695110
635.027823	6838.476427
635.373257	6829.866136
635.718639	6761.886177
636.063968	6774.781448
636.409245	6666.217679
636.754470	6668.236662
637.099642	6625.880887
637.444762	6569.601445
637.789829	6580.437406
638.134845	6518.307705
638.479808	6507.575088
638.824719	6511.920563
639.169577	6438.029851
639.514383	6459.628674
639.859137	6386.771398
640.203839	6396.037039
640.548489	6382.188989
640.893086	6360.975814
641.237632	6331.064128
641.582125	6348.688002
641.926566	6315.063505
642.270955	6333.657801
642.615292	6328.162944
642.959576	6345.280182
643.303809	6333.214180
643.647990	6339.477813
643.992118	6329.569426
644.336195	6279.301560
644.680219	6304.829963
645.024192	6291.291944
645.368112	6384.825513
645.711981	6412.040182
646.055797	6488.539692
646.399562	6446.645183
646.743274	6568.227731
647.086935	6622.215968
647.430544	6616.224557
647.774101	6638.871940
648.117606	6645.498537
648.461059	6636.709285
648.804460	6601.408606
649.147810	6507.370922
649.491108	6481.484597
649.834354	6453.138189
650.177548	6368.285487
650.520690	6286.787673
650.863781	6265.655157
651.206820	6283.750378
651.549807	6207.260951
651.892742	6147.603936
652.235626	6154.956459
652.578458	6140.639582
652.921238	6045.389501
653.263967	6082.515078
653.606644	6025.270256
653.949269	6026.764958
654.291843	5966.334126
654.634365	6015.467732
654.976836	5974.120188
655.319255	5973.946269
655.661622	5949.799142
656.003938	5945.700684
656.346203	5904.206946
656.688416	5937.269354
657.030577	5888.181118
657.372687	5853.883628
657.714746	5844.819633
658.056753	5890.167333
658.398708	5829.164330
658.740612	5822.210058
659.082465	5868.525659
659.424266	5862.627509
659.766016	5862.289752
660.107715	5838.566082
660.449362	5850.707701
660.790958	5847.869532
661.132503	5832.562068
661.473996	5870.950454
661.815438	5855.227096
662.156829	5852.640984
662.498168	5847.546898
662.839456	5819.523123
663.180693	5855.348083
663.521879	5860.389237
663.863013	5846.145457
664.204097	5866.786461
664.545129	5906.150311
664.886110	5898.485237
665.227040	5937.370177
665.567918	5903.392800
665.908746	5923.348208
666.249522	5934.567295
666.590248	5919.337970
666.930922	5949.373164
667.271545	5961.071162
667.612118	5965.061235
667.952639	5936.581236
668.293109	5953.166633
668.633528	5915.259676
668.973896	5920.625984
669.314213	5910.382360
669.654480	5889.811932
669.994695	5883.860849
670.334859	5874.776690
670.674973	5867.272933
671.015035	5869.856524
671.355047	5872.127564
671.695008	5856.439493
672.034918	5829.900339
672.374777	5836.287481
672.714585	5821.496735
673.054342	5826.943702
673.394049	5826.610986
673.733705	5854.407908
674.073310	5838.346792
674.412864	5800.918745
674.752368	5789.994565
675.091820	5794.387930
675.431223	5734.062963
675.770574	5734.186471
676.109875	5684.934398
676.449125	5691.341705
676.788324	5657.208052
677.127473	5598.821408
677.466571	5592.409060
677.805619	5578.233336
678.144616	5567.863682
678.483562	5545.576741
678.822458	5512.574827
679.161303	5508.100803
679.500098	5499.011603
679.838842	5484.425024
680.177535	5490.439121
680.516179	5507.271534
680.854771	5514.283779
681.193314	5596.273105
681.531805	5702.240679
681.870247	5854.990161
682.208638	5950.293175
682.546978	5970.717410
682.885268	5946.424089
683.223508	5859.118866
683.561697	5811.779911
683.899836	5776.292709
684.237925	5730.481223
684.575963	5693.887487
684.913951	5654.269059
685.251889	5718.654676
685.589776	5690.464544
685.927614	5654.334594
686.265401	5728.159772
686.603137	5710.412390
686.940824	5785.303771
687.278460	5810.388553
687.616046	5816.339635
687.953582	5887.823196
688.291068	5867.741760
688.628504	5932.807933
688.965889	5894.356532
689.303224	5840.978274
689.640510	5794.473630
689.977745	5716.502103
690.314930	5619.729594
690.652065	5561.264812
690.989150	5471.925483
691.326185	5390.820880
691.663170	5342.340103
692.000105	5259.889512
692.336990	5183.654663
692.673825	5163.119522
693.010610	5094.267443
693.347345	5024.412174
693.684030	5012.184856
694.020665	4969.019976
694.357251	4880.840113
694.693786	4888.797574
695.030272	4856.372872
695.366707	4818.851564
695.703093	4782.517448
696.039429	4807.221622
696.375716	4792.665291
696.711952	4766.597484
697.048139	4749.855812
697.384276	4734.679419
697.720363	4743.738372
698.056400	4755.058283
698.392388	4703.089028
698.728326	4682.692520
699.064214	4660.473634
699.400053	4655.112367
699.735842	4620.620792
700.071581	4598.659006
700.407270	4571.832505
700.742910	4553.555802
701.078501	4502.065457
701.414042	4497.223428
701.749533	4466.916012
702.084974	4401.532246
702.420366	4460.939724
702.755709	4402.674068
703.091002	4346.989482
703.426246	4392.548910
703.761440	4350.498125
704.096584	4314.693330
704.431679	4334.452133
704.766725	4319.893280
705.101721	4305.379798
705.436668	4337.570086
705.771565	4287.372797
706.106413	4312.422290
706.441212	4344.902444
706.775961	4353.243033
707.110661	4335.261238
707.445311	4357.724619
707.779913	4381.614647
708.114465	4397.209457
708.448967	4418.057148
708.783421	4481.177436
709.117825	4519.013816
709.452180	4524.695196
709.786485	4568.341506
710.120742	4656.581863
710.454949	4640.072084
710.789107	4705.254204
711.123216	4779.044093
711.457275	4773.506386
711.791286	4845.010112
712.125247	4863.009552
712.459159	4764.306280
712.793023	4840.639431
713.126837	4803.216426
713.460602	4796.788955
713.794318	4714.509762
714.127985	4722.847831
714.461602	4634.476404
714.795171	4611.473619
715.128691	4540.915109
715.462162	4485.500225
715.795584	4432.731947
716.128957	4417.860543
716.462281	4365.982029
716.795556	4340.743493
717.128782	4300.696566
717.461960	4234.458325
717.795088	4245.367382
718.128167	4203.994633
718.461198	4141.572545
718.794180	4136.690188
719.127113	4118.915079
719.459997	4098.266513
719.792833	4055.305800
720.125619	4046.549316
720.458357	4009.209489
720.791046	4015.705016
721.123686	3988.228207
721.456278	3948.511476
721.788821	3966.357161
722.121315	3937.383129
722.453761	3913.122576
722.786158	3923.116664
723.118506	3949.343267
723.450805	3897.235380
723.783056	3920.689348
724.115259	3936.337090
724.447412	3940.843881
724.779518	3934.308025
725.111574	3938.308181
725.443582	3967.067964
725.775542	3955.352322
726.107453	4002.373685
726.439315	4002.610619
726.771129	4019.284235
727.102895	4056.188002
727.434612	4103.216926
727.766281	4114.408288
728.097901	4111.224799
728.429473	4120.765183
728.760996	4127.437150
729.092471	4121.254175
729.423897	4105.989561
729.755276	4113.374851
730.086606	4112.444758
730.417887	4149.623268
730.749120	4211.947053
731.080305	4283.173516
731.411442	4307.434068
731.742530	4275.848719
732.073570	4280.481539
732.404562	4332.357533
732.735506	4326.635823
733.066401	4287.418167
733.397249	4224.615473
733.728048	4145.575221
734.058798	4063.986667
734.389501	3996.929238
734.720156	3931.484979
735.050762	3885.310531
735.381320	3880.697875
735.711831	3826.991942
736.042293	3797.745688
736.372707	3822.316272
736.703073	3790.811581
737.033391	3783.070889
737.363661	3800.367088
737.693883	3825.608146
738.024056	3834.021831
738.354182	3828.499247
738.684260	3893.351171
739.014290	3915.323040
739.344272	3907.821803
739.674207	3949.844862
740.004093	3957.066314
740.333931	3951.130356
740.663722	3956.657981
740.993464	3955.241417
741.323159	3924.429884
741.652806	3896.522057
741.982405	3871.649004
742.311956	3837.848067
742.641460	3828.809278
742.970915	3806.393788
743.300323	3763.513733
743.629683	3726.012590
743.958996	3718.884398
744.288260	3693.965975
744.617477	3662.690656
744.946647	3646.989983
745.275768	3619.951754
745.604842	3621.088534
745.933869	3573.069023
746.262847	3563.624421
746.591778	3602.968107
746.920662	3573.641194
747.249498	3539.678941
747.578286	3586.725509
747.907027	3604.745113
748.235720	3601.768312
748.564365	3626.230511
748.892963	3627.402579
749.221514	3607.147223
749.550017	3587.441353
749.878473	3588.283225
750.206881	3557.605284
750.535242	3552.967422
750.863555	3555.089748
751.191821	3549.995662
751.520039	3532.412117
751.848210	3505.462109
752.176334	3541.569373
752.504411	3545.085578
752.832440	3506.830782
753.160421	3489.055674
753.488356	3500.378105
753.816243	3510.445289
754.144082	3470.463898
754.471875	3452.373718
754.799620	3470.678147
755.127318	3464.684215
755.454969	3464.943835
755.782572	3470.257211
756.110129	3446.326854
756.437638	3436.030297
756.765100	3452.945889
757.092515	3461.150367
757.419882	3468.714618
757.747203	3438.210596
758.074477	3440.287551
758.401703	3457.815643
758.728882	3479.865650
759.056014	3486.882936
759.383099	3490.225221
759.710138	3487.369408
760.037129	3503.065040
760.364073	3532.734751
760.690970	3516.978625
761.017820	3497.376098
761.344623	3515.846886
761.671379	3559.621745
761.998088	3608.571349
762.324751	3737.851739
762.651366	3984.691837
762.977935	4454.895380
763.304456	4897.705293
763.630931	4996.708513
763.957359	4636.036641
764.283740	4294.132984
764.610074	4102.624591
764.936362	3902.810896
765.262602	3746.547730
765.588796	3633.245277
765.914943	3548.160682
766.241044	3458.276909
766.567097	3425.776590
766.893104	3379.743294
767.219064	3351.626258
767.544978	3324.527536
767.870845	3270.047786
768.196665	3248.688417
768.522438	3257.991867
768.848165	3253.041453
769.173846	3216.364539
769.499479	3197.934080
769.825066	3183.387831
770.150607	3164.236487
770.476101	3182.903880
770.801548	3175.100174
771.126949	3131.330356
771.452303	3113.401492
771.777611	3119.264354
772.102872	3125.666619
772.428087	3101.297682
772.753256	3090.789396
773.078378	3083.648602
773.403453	3050.313972
773.728482	3035.258566
774.053465	3060.199675
774.378401	3046.349105
774.703291	3015.807274
775.028135	3015.083868
775.352932	3009.268898
775.677683	2997.800273
776.002388	2997.437309
776.327046	2998.236332
776.651658	2986.860969
776.976224	2974.749597
777.300743	2975.921665
777.625216	2966.151909
777.949643	2958.814509
778.274024	2964.039665
778.598359	2951.046091
778.922647	2956.293932
779.246889	2953.906946
779.571086	2939.925306
779.895236	2934.599327
780.219339	2946.221707
780.543397	2957.864252
780.867409	2958.887606
781.191374	2952.641616
781.515294	2951.008283
781.839167	2953.453242
782.162995	2943.859926
782.486776	2951.638427
782.810511	2949.014506
783.134201	2936.555294
783.457844	2942.171140
783.781441	2934.899275
784.104993	2915.614341
784.428498	2915.321954
784.751958	2928.718821
785.075372	2922.654313
785.398739	2904.238978
785.722061	2922.424940
786.045337	2935.554625
786.368568	2917.542583
786.691752	2906.850295
787.014891	2958.564972
787.337983	2985.580516
787.661030	3012.984228
787.984031	3083.935948
788.306987	3129.606281
788.629897	3122.042030
788.952760	3105.128958
789.275579	3092.873913
789.598351	3031.018956
789.921078	2986.326606
790.243759	2978.086840
790.566395	2957.644962
790.888984	2939.577466
791.211529	2920.254723
791.534027	2908.861716
791.856480	2901.184038
792.178888	2883.875237
792.501249	2877.291490
792.823566	2875.723691
793.145836	2874.899462
793.468062	2868.562732
793.790241	2865.898482
794.112375	2871.151364
794.434464	2884.122253
794.756507	2888.835732
795.078505	2894.053326
795.400457	2909.416243
795.722364	2945.861264
796.044226	2968.453195
796.366042	2971.742548
796.687812	2959.207719
797.009538	2980.115905
797.331218	2970.257928
797.652852	2955.275619
797.974442	2933.172680
798.295986	2932.852567
798.617484	2928.123965
798.938938	2911.583939
799.260346	2895.479973
799.581709	2893.135836
799.903026	2885.256513
800.224299	2879.857437
800.545526	2868.615664
800.866708	2852.345340
801.187845	2842.441993
801.508936	2844.695389
801.829983	2850.248220
802.150984	2837.468895
802.471940	2823.764518
802.792851	2827.774756
803.113717	2826.390959
803.434538	2832.077381
803.755314	2822.821822
804.076045	2818.052891
804.396731	2816.979125
804.717372	2818.781338
805.037967	2811.270018
805.358518	2817.601708
805.679024	2828.808193
805.999485	2827.389108
806.319901	2831.366578
806.640272	2823.507419
806.960598	2831.779953
807.280879	2838.502332
807.601115	2844.052642
807.921306	2832.621826
808.241453	2828.001608
808.561554	2833.400684
808.881611	2835.185252
809.201623	2831.608554
809.521590	2830.078563
809.841513	2826.126299
810.161390	2830.691064
810.481223	2823.474652
810.801011	2813.682211
811.120755	2810.090388
811.440453	2812.555513
811.760107	2811.580049
812.079716	2814.115750
812.399281	2800.040848
812.718801	2796.131433
813.038276	2789.378808
813.357707	2794.697225
813.677093	2802.304326
813.996434	2797.638738
814.315731	2791.647327
814.634983	2787.291770
814.954191	2790.303860
815.273354	2801.999337
815.592473	2812.091727
815.911547	2813.036943
816.230577	2821.526246
816.549562	2829.750888
816.868502	2829.448419
817.187399	2837.383195
817.506250	2857.462111
817.825058	2848.526666
818.143821	2861.860518
818.462539	2877.046994
818.781213	2906.507497
819.099843	2939.912703
819.418429	2998.783298
819.736970	3058.853687
820.055466	3133.959317
820.373919	3239.072416
820.692327	3380.247409
821.010691	3546.333264
821.329011	3988.515553
821.647286	4892.938882
821.965517	6273.751250
822.283704	7019.355548
822.601847	7003.874164
822.919945	6371.158945
823.237999	5865.929465
823.556010	5281.914313
823.873976	4729.663471
824.191897	4311.519924
824.509775	4017.355994
824.827609	3744.057400
825.145398	3623.518370
825.463144	3610.590331
825.780845	3700.955534
826.098502	3808.748007
826.416116	4088.650512
826.733685	4409.252773
827.051210	4471.415241
827.368692	4359.113457
827.686129	4089.031119
828.003522	3764.378291
828.320872	3507.387830
828.638177	3308.809218
828.955439	3169.824606
829.272656	3087.941144
829.589830	3020.646782
829.906960	2971.475367
830.224046	2925.134560
830.541088	2892.803120
830.858086	2874.682693
831.175041	2858.843387
831.491952	2857.078983
831.808819	2870.528782
832.125642	2894.126423
832.442421	2940.994030
832.759157	3023.240455
833.075849	3200.182435
833.392497	3484.145590
833.709101	3687.014223
834.025662	3635.339876
834.342179	3478.708705
834.658653	3301.701191
834.975083	3151.714261
835.291469	3051.700289
835.607811	2966.741724
835.924110	2910.424473
836.240366	2854.913808
836.556578	2815.857468
836.872746	2792.577420
837.188871	2767.747217
837.504952	2754.738519
837.820990	2744.532703
838.136984	2730.535940
838.452935	2724.438664
838.768842	2720.927500
839.084706	2739.267218
839.400526	2818.594815
839.716303	2952.457614
840.032037	3030.940818
840.347727	3016.911287
840.663373	2956.450208
840.978977	2881.372304
841.294537	2807.345480
841.610054	2761.586927
841.925527	2737.404512
842.240957	2718.691749
842.556344	2695.101669
842.871687	2681.021727
843.186987	2668.454130
843.502244	2666.339366
843.817458	2662.072029
844.132629	2648.647437
844.447756	2641.816673
844.762840	2632.563635
845.077881	2635.679068
845.392879	2633.647483
845.707833	2629.473408
846.022745	2623.093828
846.337613	2621.810854
846.652438	2623.602984
846.967221	2624.230608
847.281960	2620.913529
847.596656	2622.186420
847.911309	2616.890688
848.225919	2616.454628
848.540485	2613.719802
848.855009	2612.590584
849.169490	2613.162755
849.483928	2616.643671
849.798323	2614.354987
850.112675	2612.797271
850.426984	2612.424226
850.741251	2612.658639
851.055474	2610.435490
851.369654	2616.164762
851.683792	2612.479678
851.997887	2614.707868
852.311938	2609.974225
852.625947	2611.131170
852.939914	2615.620317
853.253837	2616.247941
853.567718	2610.206118
853.881555	2610.216200
854.195350	2616.449587
854.509103	2615.849690
854.822812	2611.922631
855.136479	2610.710233
855.450103	2609.414657
855.763685	2613.460183
856.077224	2611.912548
856.390720	2608.897938
856.704173	2614.352467
857.017584	2616.164762
857.330953	2615.269957
857.644278	2619.194495
857.957561	2619.814557
858.270802	2612.209977
858.584000	2616.578136
858.897155	2619.996039
859.210268	2619.927983
859.523339	2614.107971
859.836367	2610.163268
860.149352	2608.633278
860.462295	2614.722992
860.775195	2609.568412
861.088054	2609.356683
861.400869	2606.258894
861.713642	2606.284100
862.026373	2606.536158
862.339062	2608.366097
862.651708	2615.844648
862.964312	2616.018568
863.276873	2613.976901
863.589392	2613.666870
863.901869	2619.386059
864.214303	2625.513582
864.526696	2627.194806
864.839045	2630.690847
865.151353	2632.636732
865.463619	2631.300826
865.775842	2628.674385
866.088023	2631.683954
866.400162	2634.491877
866.712258	2632.427524
867.024313	2630.184211
867.336325	2626.874693
867.648296	2626.249590
867.960224	2633.995323
868.272110	2632.520785
868.583954	2626.917543
868.895755	2628.268572
869.207515	2632.213275
869.519233	2640.412712
869.830909	2634.007926
870.142542	2628.508027
870.454134	2632.293933
870.765684	2636.896507
871.077191	2639.510345
871.388657	2642.479585
871.700081	2639.969090
872.011463	2640.677372
872.322803	2641.380613
872.634101	2648.188692
872.945357	2654.676657
873.256571	2662.545898
873.567744	2658.853252
873.878874	2654.825371
874.189963	2656.057933
874.501010	2665.381547
874.812015	2666.351969
875.122979	2663.644869
875.433900	2657.436688
875.744780	2657.192192
876.055618	2665.736948
876.366415	2666.059582
876.677169	2665.971362
876.987882	2663.125630
877.298554	2660.305105
877.609183	2670.258863
877.919771	2678.251612
878.230317	2687.411389
878.540822	2695.265507
878.851285	2709.703371
879.161707	2734.276476
879.472087	2772.556477
879.782425	2815.650781
880.092722	2935.083278
880.402977	3123.677884
880.713191	3384.476937
881.023363	3679.906197
881.333494	3871.717059
881.643583	4042.907082
881.953631	4044.774830
882.263637	3865.279506
882.573602	3644.376144
882.883526	3510.921678
883.193408	3396.752147
883.503248	3294.779687
883.813048	3180.882377
884.122806	3067.252249
884.432522	2980.564568
884.742197	2915.281625
885.051831	2877.455327
885.361424	2841.529544
885.670975	2806.092753
885.980485	2774.310799
886.289954	2758.257245
886.599382	2740.454410
886.908768	2728.340517
887.218113	2712.765872
887.527417	2698.335569
887.836680	2686.433405
888.145901	2684.865606
888.455082	2674.674914
888.764221	2663.735610
889.073319	2657.560197
889.382376	2658.848211
889.691392	2658.729744
890.000366	2658.848211
890.309300	2656.221770
890.618193	2660.065650
890.927044	2660.947852
891.235855	2660.680671
891.544625	2661.444406
891.853353	2660.355516
892.162041	2665.862977
892.470687	2686.539269
892.779293	2699.071578
893.087858	2711.377034
893.396381	2732.378481
893.704864	2773.768875
894.013306	2844.501305
894.321707	2939.033022
894.630068	2990.326762
894.938387	3010.624968
895.246665	3001.555932
895.554903	2960.097483
895.863100	2913.749114
896.171256	2855.927080
896.479371	2795.067750
896.787446	2758.174066
897.095480	2738.062382
897.403473	2728.222050
897.711425	2715.132694
898.019336	2697.856660
898.327207	2681.094823
898.635038	2679.456448
898.942827	2681.172961
899.250576	2668.484377
899.558284	2657.534991
899.865952	2654.180103
900.173579	2650.361429
900.481165	2648.332364
900.788711	2640.332053
901.096216	2633.153450
901.403681	2630.413583
901.711105	2629.039869
902.018489	2630.098511
902.325832	2633.294602
902.633135	2636.946918
902.940397	2649.448980
903.247619	2686.801409
903.554800	2755.156935
903.861941	2886.441184
904.169041	3014.670494
904.476101	3074.115780
904.783121	3068.648649
905.090100	3011.058507
905.397039	2934.097732
905.703938	2863.287164
906.010796	2798.478091
906.317614	2745.072107
906.624391	2708.538865
906.931129	2682.231603
907.237826	2659.165804
907.544483	2641.569657
907.851099	2625.546349
908.157675	2619.451594
908.464211	2612.598145
908.770707	2599.919643
909.077163	2595.753130
909.383578	2593.570310
909.689954	2592.834302
909.996289	2590.583427
910.302584	2588.471183
910.608839	2586.547983
910.915054	2584.813826
911.221229	2587.639393
911.527363	2588.909763
911.833458	2590.394383
912.139513	2591.178283
912.445527	2590.356575
912.751502	2596.834457
913.057436	2603.314861
913.363331	2609.124790
913.669186	2620.782459
913.975000	2633.650004
914.280775	2648.700369
914.586510	2669.056548
914.892205	2704.236240
915.197859	2775.301386
915.503475	2857.378932
915.809050	2925.850404
916.114585	2941.667024
916.420081	2953.957358
916.725536	2963.031434
917.030952	2937.971859
917.336328	2890.758932
917.641665	2841.675738
917.946961	2790.858387
918.252218	2754.564599
918.557435	2730.722462
918.862612	2705.783874
919.167750	2690.307532
919.472848	2672.847496
919.777906	2655.067346
920.082925	2642.461941
920.387904	2632.735034
920.692843	2628.485342
920.997743	2624.482666
921.302603	2616.555451
921.607423	2611.841972
921.912204	2605.336363
922.216946	2605.888370
922.521647	2602.772937
922.826310	2594.835640
923.130932	2591.939497
923.435516	2586.094279
923.740059	2583.787951
924.044564	2585.025554
924.349028	2579.704617
924.653454	2571.868143
924.957840	2570.123904
925.262186	2567.648697
925.566493	2569.879408
925.870761	2562.426062
926.174989	2564.054354
926.479178	2562.844477
926.783328	2564.903789
927.087438	2560.034034
927.391509	2561.687533
927.695541	2560.742316
927.999533	2556.800134
928.303486	2557.838612
928.607400	2555.219732
928.911275	2556.268292
929.215110	2553.646892
929.518906	2555.658313
929.822663	2554.629917
930.126381	2554.476162
930.430060	2556.921122
930.733699	2553.946841
931.037299	2556.608570
931.340861	2555.872562
931.644383	2560.462532
931.947866	2553.049516
932.251309	2552.888199
932.554714	2554.922304
932.858080	2556.364074
933.161407	2554.723179
933.464694	2555.227294
933.767943	2551.496840
934.071153	2553.210832
934.374323	2550.412992
934.677455	2552.560524
934.980548	2552.903322
935.283602	2552.469783
935.586617	2549.193033
935.889593	2552.258054
936.192530	2550.491130
936.495428	2551.534649
936.798287	2553.493137
937.101108	2554.571944
937.403890	2557.621842
937.706632	2560.507903
938.009336	2564.480332
938.312002	2569.282031
938.614628	2570.680951
938.917216	2573.776220
939.219765	2576.201015
939.522275	2575.815366
939.824747	2574.088771
940.127179	2570.396126
940.429573	2569.740776
940.731929	2567.605847
941.034246	2565.347410
941.336524	2564.465208
941.638763	2564.480332
941.940964	2564.308933
942.243126	2562.428582
942.545250	2561.506051
942.847335	2563.116700
943.149381	2559.391287
943.451389	2557.236194
943.753359	2559.300546
944.055290	2558.090669
944.357182	2554.093034
944.659036	2554.193857
944.960851	2554.745864
945.262628	2555.360885
945.564367	2555.325597
945.866067	2553.659495
946.167729	2554.173693
946.469352	2555.355843
946.770937	2558.125957
947.072484	2555.214691
947.373992	2554.776111
947.675462	2552.253013
947.976893	2553.921635
948.278286	2552.931048
948.579641	2553.147818
948.880958	2552.089176
949.182236	2553.581357
949.483476	2550.488609
949.784678	2553.271326
950.085841	2553.077242
950.386967	2553.777962
950.688054	2552.961295
950.989103	2556.658982
951.290114	2552.890719
951.591087	2557.803324
951.892021	2554.425751
952.192917	2560.344065
952.493776	2559.340876
952.794596	2560.611246
953.095378	2563.073850
953.396122	2560.825495
953.696828	2557.223591
953.997496	2558.375495
954.298126	2556.520350
954.598718	2553.190668
954.899272	2551.741336
955.199788	2553.346944
955.500266	2550.831408
955.800706	2546.649771
956.101108	2541.051569
956.401472	2544.313196
956.701798	2543.549461
957.002087	2543.703216
957.302337	2544.056097
957.602550	2545.477703
957.902724	2542.687424
958.202861	2540.320602
958.502960	2541.492670
958.803022	2544.353525
959.103045	2540.383617
959.403031	2541.714481
959.702979	2541.328833
960.002889	2540.673483
960.302762	2538.528472
960.602596	2539.970242
960.902393	2537.404295
961.202153	2539.123328
961.501875	2536.501928
961.801559	2537.139634
962.101205	2540.116435
962.400814	2537.273225
962.700385	2538.916641
962.999918	2539.506456
963.299414	2534.641742
963.598873	2535.886907
963.898293	2537.071578
964.197677	2536.045704
964.497022	2537.265663
964.796331	2538.493184
965.095601	2538.319264
965.394835	2536.343132
965.694030	2535.420601
965.993189	2535.937319
966.292309	2533.855322
966.591393	2537.870601
966.890439	2534.021680
967.189447	2536.050745
967.488419	2534.855991
967.787353	2534.253573
968.086249	2534.737524
968.385108	2536.171732
968.683930	2535.639891
968.982714	2537.827752
969.281462	2536.428831
969.580172	2534.677030
969.878844	2534.959335
970.177480	2537.293389
970.476078	2536.885056
970.774639	2538.364634
971.073162	2537.719367
971.371649	2535.150899
971.670098	2535.791125
971.968510	2534.440096
972.266885	2533.782226
972.565223	2536.696013
972.863524	2536.731301
973.161788	2540.161806
973.460014	2537.399253
973.758204	2536.902700
974.056356	2540.257588
974.354471	2537.016126
974.652550	2536.035621
974.950591	2537.797505
975.248595	2539.904707
975.546563	2538.962011
975.844493	2535.881866
976.142386	2539.098122
976.440243	2536.335570
976.738062	2537.668955
977.035845	2536.048224
977.333590	2534.447658
977.631299	2535.617206
977.928971	2535.453368
978.226606	2535.319777
978.524204	2536.469161
978.821765	2534.326670
979.119290	2534.487987
979.416777	2536.827083
979.714228	2536.166691
980.011642	2536.544778
980.309020	2539.254398
980.606360	2534.324150
980.903664	2534.777853
981.200931	2535.811290
981.498162	2539.506456
981.795356	2540.187012
982.092513	2541.419574
982.389633	2543.625078
982.686717	2549.235883
982.983764	2549.518187
983.280775	2551.355688
983.577749	2551.736295
983.874686	2548.724206
984.171587	2546.866540
984.468451	2545.510470
984.765279	2544.623227
985.062070	2541.361600
985.358824	2539.962680
985.655543	2539.496373
985.952224	2537.520241
986.248869	2535.801208
986.545478	2531.294416
986.842050	2534.185518
987.138586	2530.843233
987.435086	2532.138809
987.731549	2527.831143
988.027975	2534.293903
988.324366	2533.184849
988.620719	2534.634181
988.917037	2531.864067
989.213318	2532.227030
989.509563	2533.116793
989.805772	2534.583769
990.101944	2534.303985
990.398080	2535.944881
990.694180	2531.216278
990.990244	2533.532688
991.286271	2532.335414
991.582262	2531.571680
991.878217	2529.900537
992.174136	2532.660569
992.470019	2533.850281
992.765865	2531.831299
993.061676	2529.973634
993.357450	2534.805580
993.653188	2531.831299
993.948890	2533.419262
994.244556	2531.518748
994.540186	2534.785415
994.835780	2532.592513
995.131337	2533.252904
995.426859	2534.319108
995.722345	2534.188038
996.017795	2534.813142
996.313208	2536.544778
996.608586	2537.742052
996.903928	2541.311189
997.199234	2536.567463
997.494504	2536.028060
997.789738	2538.493184
998.084936	2534.039324
998.380099	2534.316588
998.675225	2533.928419
998.970316	2534.798018
999.265371	2534.455220
999.560390	2534.167874
999.855373	2534.366999
1000.150320	2536.592669
1000.445232	2532.370703
1000.740108	2533.179808
1001.034948	2531.117976
1001.329752	2530.013963
1001.624521	2533.068902
1001.919254	2527.833664
1002.213951	2528.781401
1002.508613	2528.675537
1002.803239	2529.895496
1003.097829	2524.992974
1003.392384	2528.728469
1003.686903	2529.688809
1003.981386	2531.244005
1004.275834	2532.075795
1004.570246	2533.746937
1004.864623	2531.543953
1005.158964	2530.031607
1005.453270	2530.984385
1005.747540	2530.939015
1006.041775	2527.546318
1006.335974	2530.329035
1006.630138	2530.578572
1006.924266	2529.164529
1007.218359	2530.197965
1007.512416	2530.472708
1007.806438	2530.409694
1008.100425	2530.150074
1008.394376	2529.547656
1008.688292	2532.768954
1008.982172	2531.090249
1009.276017	2530.744930
1009.569827	2529.875331
1009.863602	2533.933460
1010.157341	2532.101001
1010.451045	2530.765095
1010.744714	2529.091432
1011.038347	2530.482790
1011.331945	2529.708973
1011.625508	2531.720394
1011.919036	2530.714683
1012.212528	2528.869621
1012.505986	2528.466329
1012.799408	2530.392050
1013.092795	2530.334076
1013.386147	2531.092770
1013.679464	2531.218799
1013.972745	2532.161495
1014.265992	2530.850795
1014.559204	2533.081505
1014.852380	2528.357944
1015.145521	2530.326515
1015.438628	2529.174611
1015.731699	2532.416073
1016.024736	2527.770650
1016.317737	2530.024045
1016.610703	2528.678057
1016.903635	2526.946421
1017.196531	2528.746113
1017.489393	2525.678571
1017.782219	2526.472553
1018.075011	2529.088911
1018.367768	2531.566638
1018.660490	2529.260311
1018.953177	2529.260311
1019.245829	2529.260311
