Dividing Wavelength (nm)	Counts (n)	Blue Motor Position (mm): 0.600000	Red Motor Position (mm): 0.000000	
326.493990	2062.628425
326.888308	2062.628425
327.282561	2062.628425
327.676750	2037.309230
328.070874	2039.446679
328.464933	2045.735519
328.858929	2051.729451
329.252859	2065.040618
329.646726	2076.219376
330.040528	2094.523806
330.434265	2112.180447
330.827938	2133.749024
331.221547	2153.840543
331.615091	2172.482729
332.008571	2196.539116
332.401986	2215.385469
332.795338	2233.921792
333.188625	2255.109762
333.581847	2273.383944
333.975006	2289.853394
334.368100	2308.987093
334.761129	2322.898157
335.154095	2338.679489
335.546996	2355.121213
335.939833	2368.996989
336.332606	2382.719009
336.725315	2393.935577
337.117960	2402.341701
337.510540	2411.251940
337.903056	2421.135122
338.295508	2432.563418
338.687896	2435.537699
339.080220	2441.324943
339.472480	2446.754266
339.864676	2446.726540
340.256807	2451.815585
340.648875	2452.780966
341.040879	2457.343210
341.432818	2458.054013
341.824694	2458.548046
342.216506	2454.532767
342.608253	2455.293981
342.999937	2454.328600
343.391557	2454.401697
343.783113	2452.549073
344.174605	2452.402879
344.566033	2450.688887
344.957397	2451.825667
345.348697	2447.654112
345.739934	2446.822322
346.131106	2443.391817
346.522215	2444.105140
346.913260	2440.115067
347.304241	2438.806887
347.695159	2437.503749
348.086012	2436.414860
348.476802	2432.979313
348.867528	2430.738520
349.258191	2429.873962
349.648789	2429.261462
350.039324	2425.856163
350.429796	2429.634508
350.820203	2428.603592
351.210548	2427.993612
351.600828	2427.234918
351.991045	2428.853129
352.381198	2425.442788
352.771288	2422.586975
353.161314	2427.227357
353.551276	2424.253076
353.941175	2426.146029
354.331010	2425.778025
354.720782	2425.904054
355.110490	2428.555701
355.500135	2426.622418
355.889717	2424.757191
356.279235	2427.378591
356.668689	2427.290371
357.058080	2428.132244
357.447408	2429.589137
357.836672	2427.615526
358.225873	2428.553180
358.615010	2430.010074
359.004084	2431.063675
359.393095	2431.179621
359.782043	2429.488314
360.170927	2429.090063
360.559748	2433.206165
360.948505	2435.492328
361.337199	2435.220106
361.725830	2432.691967
362.114398	2435.870415
362.502903	2432.966710
362.891344	2433.851433
363.279722	2433.523758
363.668037	2436.329160
364.056289	2435.933429
364.444478	2437.561722
364.832603	2436.901331
365.220665	2437.299582
365.608665	2437.652463
365.996601	2438.872422
366.384474	2437.264294
366.772284	2438.272525
367.160031	2440.041970
367.547715	2440.765375
367.935336	2437.503749
368.322893	2436.835796
368.710388	2434.073244
369.097820	2438.012905
369.485189	2434.766402
369.872495	2437.715477
370.259738	2439.686568
370.646918	2438.869902
371.034035	2438.915272
371.421090	2442.655808
371.808081	2439.275714
372.195010	2441.501384
372.581875	2441.178750
372.968678	2441.224120
373.355418	2443.212856
373.742096	2443.190170
374.128710	2442.791919
374.515262	2442.035746
374.901751	2444.541200
375.288177	2442.726384
375.674540	2442.857454
376.060841	2446.298042
376.447079	2441.382917
376.833254	2444.067331
377.219367	2445.405758
377.605417	2445.957764
377.991404	2445.582198
378.377329	2443.464913
378.763191	2444.158072
379.148991	2444.878957
379.534727	2447.207970
379.920402	2446.678649
380.306013	2448.042281
380.691563	2445.967846
381.077049	2445.665377
381.462474	2446.711416
381.847835	2443.938782
382.233134	2445.246961
382.618371	2445.433484
383.003545	2448.208639
383.388657	2446.643361
383.773706	2448.790892
384.158693	2446.325768
384.543618	2448.748042
384.928480	2449.247117
385.313280	2448.150666
385.698017	2452.985132
386.082692	2450.209977
386.467305	2451.601336
386.851856	2451.795420
387.236344	2450.635955
387.620770	2448.823660
388.005133	2447.598659
388.389435	2448.201077
388.773674	2446.217383
389.157851	2450.681325
389.541965	2452.365070
389.926018	2450.852724
390.310008	2453.108641
390.693936	2451.049329
391.077802	2451.283743
391.461606	2451.679473
391.845348	2450.867848
392.229027	2454.542849
392.612645	2452.912036
392.996200	2453.753908
393.379694	2451.561006
393.763125	2451.906325
394.146494	2453.864814
394.529801	2456.695422
394.913047	2454.091666
395.296230	2456.942438
395.679351	2453.930349
396.062410	2454.598302
396.445408	2453.159052
396.828343	2455.974537
397.211217	2454.663837
397.594028	2455.356995
397.976778	2455.520833
398.359466	2457.504527
398.742092	2454.389094
399.124656	2455.092335
399.507158	2452.765842
399.889598	2456.319856
400.271977	2456.095524
400.654294	2456.334979
401.036549	2457.640638
401.418742	2458.633745
401.800874	2456.193827
402.182944	2462.016359
402.564952	2458.429578
402.946898	2457.600309
403.328783	2456.219032
403.710606	2457.776749
404.092367	2457.398662
404.474067	2459.011832
404.855705	2456.914712
405.237282	2458.628704
405.618797	2458.873200
406.000250	2460.279682
406.381642	2460.415793
406.762972	2456.375308
407.144240	2456.035030
407.525447	2458.822788
407.906593	2456.952520
408.287677	2461.706328
408.668700	2460.753550
409.049661	2462.059209
409.430560	2460.556945
409.811399	2457.534774
410.192176	2458.575772
410.572891	2460.017542
410.953545	2461.416462
411.334138	2461.948304
411.714669	2462.376802
412.095139	2464.224385
412.475547	2460.894703
412.855894	2461.741617
413.236180	2459.765484
413.616405	2463.359827
413.996568	2462.061730
414.376670	2462.066771
414.756711	2463.432924
415.136691	2462.782615
415.516609	2462.885958
415.896466	2461.161884
416.276262	2466.069447
416.655997	2465.804787
417.035670	2461.534929
417.415283	2464.665486
417.794834	2462.795218
418.174324	2460.892182
418.553753	2461.857563
418.933121	2464.983078
419.312428	2462.296143
419.691674	2465.144395
420.070859	2464.287399
420.449983	2463.753037
420.829045	2466.167750
421.208047	2464.957873
421.586988	2463.367389
421.965867	2465.663634
422.344686	2466.402163
422.723444	2464.819241
423.102141	2468.126238
423.480777	2464.287399
423.859352	2469.099181
424.237866	2463.720269
424.616319	2465.346042
424.994712	2464.489045
425.373044	2467.095322
425.751314	2463.821092
426.129524	2464.095835
426.507673	2466.901238
426.885762	2463.274127
427.263789	2469.247895
427.641756	2466.013994
428.019662	2468.027935
428.397508	2465.214972
428.775292	2469.227730
429.153016	2465.391412
429.530679	2467.024746
429.908282	2468.736217
430.285824	2468.748820
430.663305	2468.337966
431.040726	2465.255301
431.418086	2467.576752
431.795385	2468.716053
432.172624	2468.310240
432.549802	2467.034828
432.926920	2467.977524
433.303977	2470.722432
433.680974	2470.495580
434.057910	2470.248564
434.434786	2468.557257
434.811601	2469.704119
435.188355	2468.121197
435.565050	2470.941722
435.941683	2468.380816
436.318257	2472.897690
436.694770	2468.683285
437.071222	2467.561629
437.447614	2469.384006
437.823946	2468.869808
438.200218	2469.134469
438.576429	2467.513738
438.952580	2469.966259
439.328670	2473.873153
439.704700	2472.799388
440.080670	2467.856536
440.456580	2468.663121
440.832429	2473.137145
441.208218	2472.018009
441.583947	2471.065231
441.959616	2472.567494
442.335224	2467.697740
442.710773	2471.050107
443.086261	2472.081023
443.461689	2471.203862
443.837057	2472.020529
444.212365	2470.793008
444.587612	2469.578090
444.962800	2469.081537
445.337927	2472.295272
445.712995	2466.409725
446.088002	2470.931640
446.462949	2469.605817
446.837837	2471.854171
447.212664	2472.854840
447.587431	2473.815180
447.962139	2475.365335
448.336786	2472.345684
448.711374	2473.585807
449.085901	2470.669500
449.460369	2473.545478
449.834776	2474.024388
450.209124	2472.716208
450.583412	2472.050776
450.957640	2471.345015
451.331808	2472.895169
451.705917	2472.668318
452.079965	2474.306692
452.453954	2472.567494
452.827883	2476.983545
453.201752	2473.789974
453.575562	2473.810139
453.949311	2473.732001
454.323001	2473.663945
454.696632	2473.253091
455.070202	2472.917855
455.443713	2476.434059
455.817164	2470.054479
456.190556	2473.757207
456.563888	2471.879377
456.937160	2476.449183
457.310373	2472.733853
457.683526	2475.861888
458.056619	2473.326188
458.429653	2475.221662
458.802628	2474.594038
459.175542	2473.026239
459.548398	2475.874491
459.921194	2474.528503
460.293930	2475.844244
460.666607	2475.423308
461.039224	2474.339460
461.411782	2473.883236
461.784280	2476.323154
462.156719	2473.971456
462.529099	2476.154275
462.901419	2476.066055
463.273680	2473.217803
463.645882	2468.045579
464.018024	2471.589511
464.390106	2470.364510
464.762130	2476.958339
465.134094	2476.318113
465.505999	2476.441621
465.877845	2472.731332
466.249631	2474.825931
466.621358	2474.170581
466.993026	2478.122846
467.364634	2476.983545
467.736184	2474.170581
468.107674	2476.350880
468.479105	2477.545634
468.850477	2475.748463
469.221790	2475.350211
469.593043	2475.715695
469.964238	2475.476240
470.335373	2479.254585
470.706449	2478.173257
471.077467	2474.495736
471.448425	2476.121508
471.819324	2475.219141
472.190164	2473.598410
472.560945	2476.335757
472.931667	2476.658391
473.302330	2475.877012
473.672934	2475.410705
474.043479	2477.038998
474.413965	2478.836169
474.784393	2480.875316
475.154761	2479.554534
475.525070	2475.650160
475.895321	2479.436067
476.265513	2475.214100
476.635645	2477.517907
477.005719	2478.498412
477.375734	2478.158134
477.745691	2477.681745
478.115588	2476.068576
478.485427	2480.381283
478.855207	2478.828608
479.224928	2476.751652
479.594591	2479.352888
479.964194	2481.432363
480.333739	2477.394399
480.703226	2478.500933
481.072653	2475.561940
481.442022	2481.109730
481.811333	2473.394244
482.180584	2472.678400
482.549777	2476.915490
482.918912	2473.603452
483.287988	2480.303145
483.657005	2477.404482
484.025964	2479.534369
484.394864	2479.229379
484.763706	2476.948257
485.132489	2478.911787
485.501213	2479.345326
485.869879	2476.605459
486.238487	2479.163844
486.607036	2480.172075
486.975527	2478.929431
487.343959	2480.235089
487.712333	2477.298617
488.080648	2482.105358
488.448905	2476.978504
488.817104	2478.085037
489.185244	2481.424802
489.553326	2479.647795
489.921350	2477.999338
490.289315	2481.145018
490.657222	2478.810963
491.025070	2479.504122
491.392861	2477.638895
491.760593	2478.221148
492.128267	2479.337764
492.495883	2482.803557
492.863440	2478.747949
493.230939	2480.729123
493.598380	2480.595532
493.965763	2478.674852
494.333088	2476.406333
494.700354	2478.286683
495.067563	2481.830615
495.434713	2479.478916
495.801805	2480.076293
496.168839	2480.328351
496.535815	2479.809112
496.902733	2480.580408
497.269593	2480.555203
497.636395	2480.446818
498.003139	2480.877837
498.369825	2481.621407
498.736453	2478.967239
499.103023	2481.298773
499.469535	2479.983032
499.835989	2480.106540
500.202385	2479.773824
500.568723	2473.878194
500.935003	2477.165027
501.301226	2477.656539
501.667390	2482.506129
502.033497	2479.912456
502.399546	2479.181488
502.765537	2480.020840
503.131470	2481.079483
503.497345	2479.625110
503.863163	2479.995635
504.228923	2482.425471
504.594625	2478.606797
504.960269	2482.450677
505.325856	2480.867754
505.691385	2481.636530
506.056856	2479.753659
506.422270	2482.851448
506.787625	2481.162662
507.152924	2478.168216
507.518164	2482.203660
507.883347	2483.766418
508.248472	2482.286839
508.613540	2479.925058
508.978550	2481.444966
509.343503	2478.316930
509.708398	2481.248361
510.073236	2479.945223
510.438016	2478.873978
510.802738	2481.588639
511.167403	2480.285501
511.532010	2479.824235
511.896561	2480.424133
512.261053	2481.830615
512.625488	2480.721561
512.989866	2479.526807
513.354186	2483.211891
513.718449	2481.160141
514.082655	2483.322796
514.446803	2483.264823
514.810894	2483.463948
515.174927	2481.550831
515.538904	2482.533856
515.902822	2482.548979
516.266684	2483.786582
516.630488	2480.731643
516.994235	2482.307004
517.357925	2478.243834
517.721558	2483.920173
518.085133	2480.547641
518.448651	2480.008238
518.812112	2477.865747
519.175516	2477.170068
519.538863	2476.000520
519.902152	2485.571151
520.265385	2480.436736
520.628560	2483.000162
520.991678	2482.889257
521.354739	2484.043681
521.717743	2481.739874
522.080690	2480.953454
522.443580	2483.501757
522.806413	2480.963536
523.169189	2483.642909
523.531908	2482.259113
523.894569	2482.740543
524.257174	2483.053094
524.619722	2481.848259
524.982213	2479.879688
525.344647	2484.525111
525.707025	2482.382621
526.069345	2482.712817
526.431608	2483.312714
526.793815	2482.506129
527.155964	2481.901191
527.518057	2482.279277
527.880093	2484.535194
528.242072	2483.716006
528.603995	2485.109885
528.965860	2483.181644
529.327669	2484.056284
529.689421	2481.986890
530.051117	2481.936479
530.412755	2481.313896
530.774337	2483.237097
531.135862	2483.335399
531.497331	2482.987559
531.858743	2483.224494
532.220098	2481.376911
532.581396	2482.443115
532.942638	2482.175934
533.303824	2484.527632
533.664953	2482.909422
534.026025	2482.828763
534.387040	2482.014617
534.747999	2483.607621
535.108902	2484.885554
535.469748	2484.507467
535.830537	2481.666777
536.191270	2481.911273
536.551947	2479.967908
536.912567	2480.265336
537.273131	2483.804226
537.633638	2476.534883
537.994089	2485.132570
538.354483	2481.795327
538.714821	2482.919504
539.075103	2483.184164
539.435328	2481.039153
539.795497	2481.651654
540.155609	2482.231386
540.515665	2482.853969
540.875665	2482.440594
541.235609	2482.107878
541.595496	2483.647951
541.955328	2483.411016
542.315102	2484.731799
542.674821	2483.713486
543.034483	2479.350367
543.394090	2482.755666
543.753640	2485.132570
544.113134	2481.795327
544.472571	2485.861017
544.831953	2480.212404
545.191278	2483.723568
545.550548	2480.156952
545.909761	2483.113588
546.268918	2483.889926
546.628019	2484.489823
546.987064	2480.335912
547.346053	2485.959320
547.704986	2482.806078
548.063863	2485.470328
548.422684	2484.779690
548.781449	2486.178610
549.140158	2485.311531
549.498811	2483.768938
549.857408	2483.642909
550.215949	2482.488485
550.574434	2483.610142
550.932864	2481.964205
551.291237	2484.860348
551.649555	2486.455873
552.007817	2484.608290
552.366022	2483.952940
552.724173	2485.157776
553.082267	2484.247848
553.440305	2484.822539
553.798288	2483.189206
554.156215	2485.051912
554.514086	2479.317599
554.871902	2480.288022
555.229661	2481.530666
555.587365	2479.068062
555.945014	2484.353712
556.302606	2482.556541
556.660143	2483.312714
557.017625	2481.732312
557.375050	2482.513691
557.732421	2481.891108
558.089735	2483.141315
558.446994	2483.017806
558.804197	2484.527632
559.161345	2481.581078
559.518437	2484.772128
559.875474	2485.392190
560.232455	2483.862200
560.589381	2483.416058
560.946251	2484.893116
561.303065	2484.575523
561.659825	2483.128712
562.016528	2483.138794
562.373177	2483.156438
562.729770	2482.256592
563.086307	2484.308342
563.442789	2483.103506
563.799216	2485.341778
564.155587	2483.597539
564.511904	2484.341109
564.868164	2483.605101
565.224370	2484.308342
565.580520	2483.993270
565.936615	2484.998980
566.292654	2482.707775
566.648638	2486.090390
567.004567	2484.333547
567.360441	2483.630307
567.716260	2483.234576
568.072023	2483.350522
568.427732	2482.808598
568.783385	2484.154587
569.138982	2482.332209
569.494525	2485.072077
569.850013	2482.642240
570.205445	2483.773979
570.560823	2483.227014
570.916145	2483.206850
571.271412	2484.812457
571.626625	2482.929586
571.981782	2485.611480
572.336884	2483.058136
572.691931	2479.675521
573.046923	2482.440594
573.401860	2480.151910
573.756743	2483.148876
574.111570	2483.375728
574.466342	2484.376397
574.821059	2485.309011
575.175722	2482.485965
575.530330	2484.762046
575.884882	2485.581233
576.239380	2483.544607
576.593823	2486.591984
576.948211	2485.823208
577.302544	2485.414875
577.656823	2483.716006
578.011047	2486.811275
578.365216	2485.278764
578.719330	2484.749443
579.073389	2483.237097
579.427394	2483.363125
579.781344	2482.425471
580.135239	2483.373208
580.489080	2482.700214
580.842866	2482.859010
581.196597	2486.032416
581.550273	2485.026706
581.903895	2482.246510
582.257463	2483.025368
582.610975	2484.252889
582.964434	2482.266674
583.317837	2482.765749
583.671186	2487.179279
584.024481	2483.852117
584.377721	2483.171562
584.730906	2480.101499
585.084037	2482.601911
585.437113	2484.343630
585.790135	2483.620224
586.143103	2484.089052
586.496016	2486.564258
586.848874	2485.455204
587.201679	2483.907570
587.554428	2483.786582
587.907124	2485.767756
588.259765	2482.891778
588.612352	2483.630307
588.964884	2484.162148
589.317362	2484.953609
589.669786	2482.523773
590.022155	2482.125522
590.374470	2478.112764
590.726731	2485.485451
591.078937	2478.979842
591.431090	2483.259782
591.783188	2482.574185
592.135232	2483.305152
592.487222	2484.704072
592.839157	2484.739360
593.191038	2483.668115
593.542866	2485.394710
593.894639	2484.794813
594.246358	2483.763897
594.598022	2482.475882
594.949633	2484.598208
595.301190	2485.823208
595.652692	2485.182982
596.004141	2484.852786
596.355535	2482.985039
596.706876	2482.478403
597.058162	2485.868579
597.409395	2482.932107
597.760573	2484.179792
598.111698	2483.872282
598.462768	2483.960502
598.813785	2483.716006
599.164748	2485.188023
599.515657	2483.592498
599.866511	2483.579895
600.217312	2482.886736
600.568060	2484.540235
600.918753	2485.485451
601.269392	2484.719196
601.619978	2484.356233
601.970510	2483.983187
602.320988	2485.898826
602.671412	2483.902529
603.021783	2484.555358
603.372100	2484.603249
603.722363	2484.620893
604.072572	2485.001500
604.422728	2482.206181
604.772830	2484.862869
605.122878	2483.048053
605.472872	2484.152066
605.822813	2483.836994
606.172701	2482.914463
606.522534	2483.131232
606.872314	2484.794813
607.222041	2484.235245
607.571714	2484.452015
607.921333	2480.144349
608.270899	2484.230204
608.620411	2480.575367
608.969870	2485.235914
609.319276	2486.884371
609.668627	2483.403455
610.017926	2484.179792
610.367171	2484.739360
610.716362	2482.866572
611.065500	2484.678867
611.414585	2487.474186
611.763616	2485.004021
612.112594	2486.118116
612.461518	2484.290698
612.810389	2484.192395
613.159207	2482.123002
613.507971	2482.221304
613.856682	2480.971098
614.205340	2484.005872
614.553945	2484.714155
614.902496	2485.172900
615.250994	2481.447487
615.599439	2481.283649
615.947830	2485.061994
616.296169	2483.277426
616.644454	2485.893785
616.992686	2485.724906
617.340864	2481.780203
617.688990	2482.745584
618.037063	2484.252889
618.385082	2482.891777
618.733048	2484.583085
619.080961	2483.900008
619.428821	2486.125678
619.776628	2484.575523
620.124382	2484.202478
620.472083	2483.927735
620.819731	2483.960502
621.167326	2482.412868
621.514868	2483.196767
621.862357	2483.889926
622.209793	2485.689618
622.557176	2484.600729
622.904506	2485.180461
623.251783	2482.715337
623.599007	2487.239773
623.946179	2482.874133
624.293297	2485.215749
624.640363	2483.224494
624.987376	2480.681232
625.334336	2478.137969
625.681243	2484.361274
626.028097	2481.278608
626.374899	2485.145173
626.721647	2483.569813
627.068343	2483.647951
627.414987	2482.140646
627.761577	2482.843887
628.108115	2482.228866
628.454600	2485.152735
628.801032	2483.146356
629.147412	2486.130719
629.493739	2482.314565
629.840014	2483.716006
630.186236	2483.940338
630.532405	2483.055615
630.878521	2482.677528
631.224585	2484.610811
631.570597	2483.436222
631.916556	2484.875472
632.262462	2485.417396
632.608316	2485.087200
632.954117	2480.635861
633.299866	2484.550317
633.645562	2484.136943
633.991206	2484.865389
634.336797	2484.144504
634.682336	2481.981849
635.027823	2481.981849
635.373257	2482.712817
635.718639	2482.609473
636.063968	2486.062663
636.409245	2483.010245
636.754470	2483.569813
637.099642	2482.143166
637.444762	2484.961171
637.789829	2483.572333
638.134845	2484.250368
638.479808	2481.795327
638.824719	2482.460759
639.169577	2483.693321
639.514383	2484.996459
639.859137	2483.534525
640.203839	2482.160810
640.548489	2484.860348
640.893086	2485.329175
641.237632	2483.612663
641.582125	2486.624752
641.926566	2483.305152
642.270955	2481.439925
642.615292	2479.773824
642.959576	2482.722899
643.303809	2478.919348
643.647990	2481.475213
643.992118	2484.724237
644.336195	2483.995790
644.680219	2484.414206
645.024192	2484.043681
645.368112	2482.725419
645.711981	2484.204998
646.055797	2482.738022
646.399562	2484.968733
646.743274	2484.817498
647.086935	2483.917652
647.430544	2482.208701
647.774101	2484.431850
648.117606	2484.769607
648.461059	2487.174238
648.804460	2483.690800
649.147810	2483.952940
649.491108	2482.186016
649.834354	2485.036788
650.177548	2483.151397
650.520690	2482.962354
650.863781	2484.532673
651.206820	2482.513691
651.549807	2485.036788
651.892742	2484.462097
652.235626	2483.902529
652.578458	2485.616521
652.921238	2483.716006
653.263967	2484.126860
653.606644	2482.793475
653.949269	2481.533187
654.291843	2484.751963
654.634365	2483.710965
654.976836	2480.819863
655.319255	2483.768938
655.661622	2483.035450
656.003938	2483.307673
656.346203	2483.847076
656.688416	2483.100985
657.030577	2483.411016
657.372687	2485.122488
657.714746	2483.584936
658.056753	2484.653661
658.398708	2481.129894
658.740612	2484.348671
659.082465	2482.947230
659.424266	2481.165182
659.766016	2478.248875
660.107715	2484.729278
660.449362	2478.019502
660.790958	2485.145173
661.132503	2482.531335
661.473996	2484.331027
661.815438	2483.312714
662.156829	2487.143991
662.498168	2483.093424
662.839456	2484.084010
663.180693	2484.603249
663.521879	2484.540235
663.863013	2483.174082
664.204097	2482.627117
664.545129	2483.209370
664.886110	2484.411685
665.227040	2483.534525
665.567918	2483.083341
665.908746	2483.549648
666.249522	2481.369349
666.590248	2483.179123
666.930922	2483.993270
667.271545	2483.630307
667.612118	2483.194247
667.952639	2485.460245
668.293109	2484.068887
668.633528	2485.591315
668.973896	2485.359422
669.314213	2482.044864
669.654480	2482.047384
669.994695	2483.567292
670.334859	2485.273723
670.674973	2482.339771
671.015035	2482.440594
671.355047	2480.643423
671.695008	2483.040492
672.034918	2479.723412
672.374777	2484.656181
672.714585	2482.748105
673.054342	2485.717344
673.394049	2484.058805
673.733705	2482.685090
674.073310	2482.344812
674.412864	2483.055615
674.752368	2482.186016
675.091820	2483.075780
675.431223	2486.493682
675.770574	2484.930924
676.109875	2482.523773
676.449125	2478.548823
676.788324	2477.890953
677.127473	2480.650985
677.466571	2475.672845
677.805619	2482.584267
678.144616	2481.649133
678.483562	2484.217601
678.822458	2485.417396
679.161303	2482.228866
679.500098	2483.660553
679.838842	2478.957157
680.177535	2481.840697
680.516179	2482.813640
680.854771	2483.819350
681.193314	2482.433032
681.531805	2479.940182
681.870247	2483.100985
682.208638	2481.266005
682.546978	2482.969915
682.885268	2482.596870
683.223508	2484.207519
683.561697	2485.009062
683.899836	2483.348002
684.237925	2482.433033
684.575963	2481.858341
684.913951	2482.982518
685.251889	2484.048722
685.589776	2482.707775
685.927614	2483.539566
686.265401	2482.692652
686.603137	2481.255923
686.940824	2482.150728
687.278460	2482.740543
687.616046	2484.300780
687.953582	2483.327837
688.291068	2481.082003
688.628504	2482.528814
688.965889	2484.038640
689.303224	2484.404124
689.640510	2482.095275
689.977745	2482.107878
690.314930	2481.628968
690.652065	2483.421099
690.989150	2483.713486
691.326185	2481.729792
691.663170	2482.843887
692.000105	2484.941007
692.336990	2481.737353
692.673825	2483.355564
693.010610	2481.631489
693.347345	2478.727784
693.684030	2479.103350
694.020665	2482.238948
694.357251	2478.989924
694.693786	2484.000831
695.030272	2485.228352
695.366707	2483.758856
695.703093	2482.364977
696.039429	2482.150728
696.375716	2483.020327
696.711952	2484.573002
697.048139	2482.637199
697.384276	2481.013948
697.720363	2481.172744
698.056400	2484.094093
698.392388	2484.827581
698.728326	2484.215080
699.064214	2480.794658
699.400053	2479.640233
699.735842	2484.535194
700.071581	2481.782724
700.407270	2482.992601
700.742910	2481.452528
701.078501	2481.238279
701.414042	2481.122333
701.749533	2484.310862
702.084974	2482.175934
702.420366	2483.403455
702.755709	2482.667446
703.091002	2484.373877
703.426246	2479.564616
703.761440	2483.779021
704.096584	2482.329689
704.431679	2484.363794
704.766725	2481.432363
705.101721	2479.383134
705.436668	2481.709627
705.771565	2478.752990
706.106413	2483.370687
706.441212	2483.194247
706.775961	2480.756849
707.110661	2484.222642
707.445311	2482.243989
707.779913	2484.542755
708.114465	2483.557210
708.448967	2480.746767
708.783421	2481.931438
709.117825	2480.419092
709.452180	2482.743063
709.786485	2482.196098
710.120742	2481.492857
710.454949	2479.516725
710.789107	2479.670480
711.123216	2477.442290
711.457275	2481.666777
711.791286	2484.724237
712.125247	2479.892291
712.459159	2484.222642
712.793023	2480.159472
713.126837	2483.617704
713.460602	2482.193578
713.794318	2482.740543
714.127985	2481.374390
714.461602	2480.671149
714.795171	2484.066366
715.128691	2484.331027
715.462162	2481.543269
715.795584	2482.546458
716.128957	2482.400265
716.462281	2480.028402
716.795556	2484.411685
717.128782	2478.521097
717.461960	2484.426809
717.795088	2481.069400
718.128167	2484.512508
718.461198	2484.187354
718.794180	2482.811119
719.127113	2480.275419
719.459997	2481.835656
719.792833	2483.181644
720.125619	2482.014617
720.458357	2482.763228
720.791046	2483.486634
721.123686	2482.768269
721.456278	2481.180306
721.788821	2481.649133
722.121315	2482.385142
722.453761	2480.270378
722.786158	2482.228866
723.118506	2477.780048
723.450805	2482.460759
723.783056	2481.238279
724.115259	2481.971767
724.447412	2481.787765
724.779518	2481.182826
725.111574	2484.144504
725.443582	2482.488485
725.775542	2480.870275
726.107453	2479.211735
726.439315	2482.256592
726.771129	2482.967395
727.102895	2476.499594
727.434612	2481.674339
727.766281	2477.313741
728.097901	2482.382621
728.429473	2482.039822
728.760996	2480.983701
729.092471	2480.088896
729.423897	2479.340285
729.755276	2481.586119
730.086606	2483.716006
730.417887	2480.850110
730.749120	2480.971098
731.080305	2482.115440
731.411442	2481.475213
731.742530	2480.260295
732.073570	2481.064359
732.404562	2481.830615
732.735506	2482.092755
733.066401	2478.911787
733.397249	2481.137456
733.728048	2483.842035
734.058798	2480.958495
734.389501	2482.017137
734.720156	2480.708958
735.050762	2480.885398
735.381320	2481.165182
735.711831	2480.446818
736.042293	2481.029071
736.372707	2482.788434
736.703073	2481.747436
737.033391	2479.065542
737.363661	2483.284988
737.693883	2481.394555
738.024056	2481.553351
738.354182	2479.715851
738.684260	2482.985039
739.014290	2480.903042
739.344272	2479.025213
739.674207	2482.412868
740.004093	2480.693834
740.333931	2485.218270
740.663722	2480.794657
740.993464	2481.245841
741.323159	2480.414050
741.652806	2480.562764
741.982405	2482.755666
742.311956	2481.455049
742.641460	2482.400265
742.970915	2482.914463
743.300323	2482.352374
743.629683	2479.254585
743.958996	2480.580408
744.288260	2474.296610
744.617477	2484.101654
744.946647	2479.541931
745.275768	2480.673670
745.604842	2479.688124
745.933869	2479.171406
746.262847	2483.237097
746.591778	2479.607466
746.920662	2479.247023
747.249498	2480.305666
747.578286	2481.107209
747.907027	2482.052425
748.235720	2482.271716
748.564365	2482.405306
748.892963	2480.615697
749.221514	2483.133753
749.550017	2478.758031
749.878473	2481.142497
750.206881	2481.258444
750.535242	2480.041005
750.863555	2483.801706
751.191821	2479.577219
751.520039	2482.959833
751.848210	2479.494040
752.176334	2482.349853
752.504411	2480.605614
752.832440	2480.880357
753.160421	2478.173257
753.488356	2482.700214
753.816243	2482.067549
754.144082	2479.824235
754.471875	2484.172231
754.799620	2478.450521
755.127318	2480.482106
755.454969	2481.891108
755.782572	2481.606283
756.110129	2478.039667
756.437638	2481.921355
756.765100	2481.273567
757.092515	2481.409678
757.419882	2478.558906
757.747203	2483.179123
758.074477	2482.145687
758.401703	2480.587970
758.728882	2481.886067
759.056014	2481.888588
759.383099	2479.960347
759.710138	2479.783906
760.037129	2476.325675
760.364073	2477.966570
760.690970	2476.207208
761.017820	2481.394555
761.344623	2478.737867
761.671379	2482.869092
761.998088	2478.783237
762.324751	2480.794657
762.651366	2479.746098
762.977935	2482.314565
763.304456	2479.050418
763.630931	2481.654174
763.957359	2481.507981
764.283740	2480.275419
764.610074	2484.537714
764.936362	2480.459421
765.262602	2480.898001
765.588796	2481.409678
765.914943	2482.211222
766.241044	2479.587301
766.567097	2479.776344
766.893104	2480.020840
767.219064	2481.540748
767.544978	2479.857003
767.870845	2482.296921
768.196665	2479.221818
768.522438	2478.432877
768.848165	2479.554534
769.173846	2481.991932
769.499479	2480.247692
769.825066	2481.142497
770.150607	2482.301963
770.476101	2478.684935
770.801548	2481.208032
771.126949	2477.843062
771.452303	2477.888432
771.777611	2481.543269
772.102872	2480.303145
772.428087	2479.252064
772.753256	2481.213073
773.078378	2481.051756
773.403453	2480.192240
773.728482	2478.967239
774.053465	2480.703917
774.378401	2481.278608
774.703291	2480.666108
775.028135	2479.080665
775.352932	2481.875985
775.677683	2483.007724
776.002388	2479.118474
776.327046	2473.792495
776.651658	2479.461272
776.976224	2474.430201
777.300743	2479.559575
777.625216	2478.624441
777.949643	2480.010758
778.274024	2480.708958
778.598359	2483.111068
778.922647	2481.616366
779.246889	2478.831128
779.571086	2479.932620
779.895236	2479.831797
780.219339	2476.192084
780.543397	2479.988073
780.867409	2477.366673
781.191374	2480.867754
781.515294	2481.918835
781.839167	2478.009420
782.162995	2480.751808
782.486776	2478.823566
782.810511	2479.998155
783.134201	2479.862044
783.457844	2482.720378
783.781441	2480.184678
784.104993	2480.605614
784.428498	2481.336582
784.751958	2481.291211
785.075372	2477.686786
785.398739	2479.330202
785.722061	2478.876498
786.045337	2477.235603
786.368568	2480.769452
786.691752	2478.823566
787.014891	2481.810450
787.337983	2478.526138
787.661030	2478.589153
787.984031	2481.260964
788.306987	2479.584781
788.629897	2480.424133
788.952760	2480.456900
789.275579	2480.328351
789.598351	2480.736684
789.921078	2481.404637
790.243759	2480.497229
790.566395	2476.199646
790.888984	2479.299955
791.211529	2476.610500
791.534027	2480.124184
791.856480	2478.188381
792.178888	2480.514873
792.501249	2476.562609
792.823566	2478.019502
793.145836	2474.271404
793.468062	2475.914821
793.790241	2479.171406
794.112375	2481.550831
794.434464	2479.773824
794.756507	2478.964719
795.078505	2478.826087
795.400457	2479.804071
795.722364	2477.848103
796.044226	2478.838690
796.366042	2480.537559
796.687812	2480.867754
797.009538	2480.766931
797.331218	2478.606797
797.652852	2478.533700
797.974442	2480.366159
798.295986	2478.977322
798.617484	2481.520584
798.938938	2478.566468
799.260346	2479.786427
799.581709	2480.391365
799.903026	2479.282311
800.224299	2479.146200
800.545526	2479.494040
800.866708	2478.884060
801.187845	2481.013948
801.508936	2479.136118
801.829983	2479.728453
802.150984	2478.783237
802.471940	2480.298104
802.792851	2479.473875
803.113717	2479.453711
803.434538	2478.511015
803.755314	2477.369193
804.076045	2480.330871
804.396731	2476.849955
804.717372	2478.402630
805.037967	2480.446818
805.358518	2479.473875
805.679024	2478.994966
805.999485	2481.397075
806.319901	2477.341467
806.640272	2480.837507
806.960598	2477.959008
807.280879	2478.412712
807.601115	2477.853144
807.921306	2479.415902
808.241453	2475.703092
808.561554	2476.502115
808.881611	2478.747949
809.201623	2474.997331
809.521590	2478.939513
809.841513	2477.245685
810.161390	2479.007568
810.481223	2479.287353
810.801011	2479.650316
811.120755	2478.543782
811.440453	2476.091261
811.760107	2478.664770
812.079716	2482.193578
812.399281	2479.131077
812.718801	2479.080665
813.038276	2479.181488
813.357707	2480.661067
813.677093	2477.527990
813.996434	2478.584112
814.315731	2479.040336
814.634983	2477.323823
814.954191	2479.743577
815.273354	2477.487661
815.592473	2477.217959
815.911547	2480.789616
816.230577	2478.029585
816.549562	2479.796509
816.868502	2479.723412
817.187399	2477.482619
817.506250	2476.950778
817.825058	2478.513535
818.143821	2481.321458
818.462539	2476.567650
818.781213	2478.475727
819.099843	2479.103350
819.418429	2477.555716
819.736970	2479.710809
820.055466	2477.679224
820.373919	2477.497743
820.692327	2478.584112
821.010691	2477.275932
821.329011	2477.069245
821.647286	2481.681901
821.965517	2477.802733
822.283704	2478.861375
822.601847	2479.133597
822.919945	2478.263998
823.237999	2479.690645
823.556010	2480.547641
823.873976	2481.949082
824.191897	2475.904738
824.509775	2475.677886
824.827609	2476.063535
825.145398	2471.251753
825.463144	2479.839359
825.780845	2476.978504
826.098502	2480.771972
826.416116	2479.320120
826.733685	2480.303145
827.051210	2477.230562
827.368692	2479.826756
827.686129	2475.813997
828.003522	2481.790285
828.320872	2478.977322
828.638177	2478.662249
828.955439	2482.115440
829.272656	2479.236941
829.589830	2479.201653
829.906960	2481.636530
830.224046	2476.439101
830.541088	2480.406489
830.858086	2478.478247
831.175041	2480.101499
831.491952	2480.666108
831.808819	2479.015130
832.125642	2479.471355
832.442421	2479.725933
832.759157	2479.660398
833.075849	2476.363483
833.392497	2476.950778
833.709101	2477.709471
834.025662	2476.842393
834.342179	2476.494553
834.658653	2478.082517
834.975083	2477.578401
835.291469	2483.073259
835.607811	2478.427836
835.924110	2477.895994
836.240366	2478.193422
836.556578	2477.656539
836.872746	2479.673001
837.188871	2479.012610
837.504952	2477.001189
837.820990	2479.741056
838.136984	2475.062866
838.452935	2475.597228
838.768842	2478.143011
839.084706	2479.269708
839.400526	2479.393217
839.716303	2476.587815
840.032037	2475.960191
840.347727	2473.127062
840.663373	2475.004892
840.978977	2472.761579
841.294537	2478.899184
841.610054	2477.666622
841.925527	2480.409009
842.240957	2481.049236
842.556344	2478.032105
842.871687	2479.778865
843.186987	2477.475058
843.502244	2476.834831
843.817458	2475.657722
844.132629	2478.274081
844.447756	2477.822897
844.762840	2476.660911
845.077881	2477.971611
845.392879	2477.381796
845.707833	2479.380614
846.022745	2478.626961
846.337613	2477.233082
846.652438	2476.146714
846.967221	2476.333236
847.281960	2478.553865
847.596656	2478.271560
847.911309	2479.594863
848.225919	2476.708802
848.540485	2477.717033
848.855009	2477.767445
849.169490	2476.822228
849.483928	2477.996817
849.798323	2478.614358
850.112675	2478.659729
850.426984	2478.611838
850.741251	2477.487661
851.055474	2477.472537
851.369654	2476.088740
851.683792	2480.000676
851.997887	2477.575881
852.311938	2479.368011
852.625947	2477.916159
852.939914	2478.513535
853.253837	2475.526652
853.567718	2477.538072
853.881555	2478.947075
854.195350	2480.535038
854.509103	2477.447331
854.822812	2478.866416
855.136479	2477.676704
855.450103	2478.054790
855.763685	2476.418936
856.077224	2474.215952
856.390720	2473.732001
856.704173	2471.370220
857.017584	2474.588997
857.330953	2477.278453
857.644278	2478.400109
857.957561	2480.789616
858.270802	2477.654019
858.584000	2477.104533
858.897155	2478.213587
859.210268	2475.551858
859.523339	2482.286839
859.836367	2477.812815
860.149352	2478.327013
860.462295	2477.081848
860.775195	2478.427836
861.088054	2476.756693
861.400869	2478.271560
861.713642	2477.495222
862.026373	2476.587815
862.339062	2477.396920
862.651708	2476.464306
862.964312	2477.240644
863.276873	2473.273256
863.589392	2478.606797
863.901869	2476.391210
864.214303	2475.506487
864.526696	2475.148565
864.839045	2476.744090
865.151353	2478.309369
865.463619	2476.779378
865.775842	2476.920531
866.088023	2476.179481
866.400162	2478.730305
866.712258	2478.702579
867.024313	2478.768114
867.336325	2477.820377
867.648296	2475.897177
867.960224	2478.904225
868.272110	2478.473206
868.583954	2477.444811
868.895755	2479.236941
869.207515	2479.357929
869.519233	2476.050932
869.830909	2478.062352
870.142542	2476.527321
870.454134	2478.689976
870.765684	2477.472537
871.077191	2479.567137
871.388657	2476.577732
871.700081	2472.917855
872.011463	2475.987917
872.322803	2471.287041
872.634101	2476.996148
872.945357	2476.640747
873.256571	2476.391210
873.567744	2478.500932
873.878874	2477.850624
874.189963	2476.313072
874.501010	2477.699389
874.812015	2477.706951
875.122979	2477.608648
875.433900	2477.918679
875.744780	2479.521766
876.055618	2478.707620
876.366415	2477.235603
876.677169	2478.523618
876.987882	2478.758031
877.298554	2478.153093
877.609183	2474.460448
877.919771	2478.377424
878.230317	2476.769296
878.540822	2479.080665
878.851285	2478.589153
879.161707	2476.923051
879.472087	2478.342136
879.782425	2474.836014
880.092722	2477.417084
880.402977	2476.333236
880.713191	2476.103864
881.023363	2479.055459
881.333494	2478.155613
881.643583	2477.452372
881.953631	2477.752321
882.263637	2477.396920
882.573602	2477.379276
882.883526	2476.744090
883.193408	2477.472537
883.503248	2475.216621
883.813048	2479.405820
884.122806	2476.678555
884.432522	2474.031950
884.742197	2475.940026
885.051831	2476.907928
885.361424	2477.391879
885.670975	2474.324337
885.980485	2477.971611
886.289954	2477.991776
886.599382	2477.956488
886.908768	2471.798718
887.218113	2470.823255
887.527417	2475.874491
887.836680	2470.724953
888.145901	2476.333236
888.455082	2475.682927
888.764221	2477.270891
889.073319	2475.854327
889.382376	2478.158134
889.691392	2474.339460
890.000366	2479.980511
890.309300	2475.972794
890.618193	2474.803246
890.927044	2478.087558
891.235855	2478.054790
891.544625	2477.220479
891.853353	2473.661425
892.162041	2477.477578
892.470687	2477.049080
892.779293	2478.296766
893.087858	2473.875674
893.396381	2476.701241
893.704864	2479.221818
894.013306	2474.364666
894.321707	2477.157465
894.630068	2475.221662
894.938387	2476.734008
895.246665	2476.179481
895.554903	2474.926754
895.863100	2481.230717
896.171256	2475.695530
896.479371	2477.376755
896.787446	2474.946919
897.095480	2475.546816
897.403473	2474.848617
897.711425	2477.265850
898.019336	2478.634523
898.327207	2474.301651
898.635038	2477.268370
898.942827	2475.798874
899.250576	2475.377938
899.558284	2474.972125
899.865952	2475.456076
900.173579	2475.942547
900.481165	2476.101343
900.788711	2477.550675
901.096216	2474.362145
901.403681	2474.765437
901.711105	2479.476396
902.018489	2476.325675
902.325832	2475.738380
902.633135	2472.232258
902.940397	2475.236785
903.247619	2469.666310
903.554800	2477.775006
903.861941	2477.134780
904.169041	2477.885912
904.476101	2474.848617
904.783121	2475.985397
905.090100	2476.701241
905.397039	2476.877681
905.703938	2476.620582
906.010796	2476.106384
906.317614	2476.484471
906.624391	2475.786271
906.931129	2476.411374
907.237826	2476.592856
907.544483	2477.064204
907.851099	2475.980356
908.157675	2476.537403
908.464211	2474.223513
908.770707	2476.187043
909.077163	2476.184522
909.383578	2476.456745
909.689954	2478.705099
909.996289	2477.472537
910.302584	2476.020685
910.608839	2475.970273
910.915054	2475.839203
911.221229	2475.763586
911.527363	2474.410036
911.833458	2475.277115
912.139513	2474.241158
912.445527	2475.660242
912.751502	2478.594194
913.057436	2476.169399
913.363331	2478.586632
913.669186	2476.030767
913.975000	2476.550006
914.280775	2474.195787
914.586510	2476.494553
914.892205	2474.662094
915.197859	2478.213587
915.503475	2476.668473
915.809050	2477.369193
916.114585	2475.463637
916.420081	2473.903400
916.725536	2479.050418
917.030952	2477.089409
917.336328	2476.439101
917.641665	2473.381641
917.946961	2472.222175
918.252218	2475.501446
918.557435	2473.363997
918.862612	2475.816518
919.167750	2476.880202
919.472848	2476.698720
919.777906	2478.873978
920.082925	2474.972125
920.387904	2476.731487
920.692843	2476.620582
920.997743	2475.297279
921.302603	2475.705613
921.607423	2475.556899
921.912204	2477.505305
922.216946	2477.321302
922.521647	2475.629995
922.826310	2476.928093
923.130932	2477.311220
923.435516	2476.731487
923.740059	2472.930457
924.044564	2474.838534
924.349028	2477.785089
924.653454	2475.138483
924.957840	2477.943885
925.262186	2477.527990
925.566493	2476.759214
925.870761	2473.490026
926.174989	2475.118318
926.479178	2479.383134
926.783328	2475.703092
927.087438	2475.491364
927.391509	2475.987917
927.695541	2473.681589
927.999533	2478.143011
928.303486	2474.349542
928.607400	2474.752835
928.911275	2475.839203
929.215110	2474.437763
929.518906	2477.149903
929.822663	2474.919193
930.126381	2473.888277
930.430060	2479.350367
930.733699	2472.542289
931.037299	2477.177630
931.340861	2474.989769
931.644383	2475.161168
931.947866	2474.546147
932.251309	2476.575212
932.554714	2476.363483
932.858080	2473.447176
933.161407	2471.322329
933.464694	2475.322485
933.767943	2471.828965
934.071153	2472.562453
934.374323	2474.026908
934.677455	2477.777527
934.980548	2476.723926
935.283602	2474.014306
935.586617	2475.816518
935.889593	2477.447331
936.192530	2472.466671
936.495428	2474.407516
936.798287	2475.382979
937.101108	2474.518421
937.403890	2473.973976
937.706632	2474.866261
938.009336	2476.164358
938.312002	2474.059676
938.614628	2475.272073
938.917216	2475.486323
939.219765	2475.889615
939.522275	2474.218472
939.824747	2474.178143
940.127179	2472.658235
940.429573	2475.740901
940.731929	2475.186374
941.034246	2476.582773
941.336524	2474.727629
941.638763	2473.535396
941.940964	2474.679738
942.243126	2472.247381
942.545250	2477.099492
942.847335	2473.275777
943.149381	2473.464820
943.451389	2474.185705
943.753359	2474.566312
944.055290	2473.527834
944.357182	2475.657722
944.659036	2473.797536
944.960851	2474.536065
945.262628	2476.544965
945.564367	2474.367186
945.866067	2477.888432
946.167729	2475.206538
946.469352	2476.096302
946.770937	2477.338947
947.072484	2475.438432
947.373992	2475.589666
947.675462	2475.687969
947.976893	2472.741414
948.278286	2469.421814
948.579641	2473.847948
948.880958	2472.000365
949.182236	2473.306023
949.483476	2476.040849
949.784678	2473.026239
950.085841	2474.193267
950.386967	2474.107567
950.688054	2475.415746
950.989103	2476.008082
951.290114	2473.278297
951.591087	2473.926085
951.892021	2475.514049
952.192917	2474.536065
952.493776	2471.738225
952.794596	2473.162351
953.095378	2475.766107
953.396122	2475.942547
953.696828	2476.744090
953.997496	2475.960191
954.298126	2473.822742
954.598718	2475.075468
954.899272	2475.536734
955.199788	2476.844913
955.500266	2477.787609
955.800706	2475.738380
956.101108	2473.694192
956.401472	2474.810808
956.701798	2474.742752
957.002087	2475.430870
957.302337	2477.202835
957.602550	2472.655715
957.902724	2475.471199
958.202861	2472.804429
958.502960	2471.410550
958.803022	2476.418936
959.103045	2474.415077
959.403031	2475.657722
959.702979	2475.851806
960.002889	2477.555716
960.302762	2474.916672
960.602596	2476.212249
960.902393	2474.709985
961.202153	2474.394913
961.501875	2476.900366
961.801559	2474.679738
962.101205	2473.371558
962.400814	2476.113946
962.700385	2475.221662
962.999918	2472.990951
963.299414	2469.880559
963.598873	2473.333750
963.898293	2466.800414
964.197677	2474.641929
964.497022	2474.883905
964.796331	2476.121508
965.095601	2472.665797
965.394835	2474.954481
965.694030	2474.059676
965.993189	2474.100005
966.292309	2475.198977
966.591393	2475.367855
966.890439	2474.485653
967.189447	2472.713688
967.488419	2471.629840
967.787353	2473.081692
968.086249	2475.370376
968.385108	2474.329378
968.683930	2474.273925
968.982714	2473.028760
969.281462	2474.407516
969.580172	2474.185705
969.878844	2474.110088
970.177480	2474.241157
970.476078	2473.321147
970.774639	2474.972125
971.073162	2473.459779
971.371649	2472.509521
971.670098	2473.200159
971.968510	2476.028247
972.266885	2473.946250
972.565223	2476.585294
972.863524	2474.916672
973.161788	2474.906590
973.460014	2474.120170
973.758204	2473.038842
974.056356	2471.997844
974.354471	2476.781899
974.652550	2471.990282
974.950591	2474.190746
975.248595	2475.854327
975.546563	2475.072948
975.844493	2474.674697
976.142386	2474.226034
976.440243	2474.336939
976.738062	2473.437093
977.035845	2476.514718
977.333590	2475.075468
977.631299	2475.357773
977.928971	2469.273100
978.226606	2469.356279
978.524204	2469.623461
978.821765	2468.668162
979.119290	2474.841055
979.416777	2473.479943
979.714228	2472.370889
980.011642	2476.391210
980.309020	2474.861219
980.606360	2475.942547
980.903664	2476.083699
981.200931	2473.326188
981.498162	2474.248719
981.795356	2474.863740
982.092513	2474.750314
982.389633	2473.880715
982.686717	2475.241827
982.983764	2474.399954
983.280775	2475.088071
983.577749	2471.450879
983.874686	2473.434573
984.171587	2473.316106
984.468451	2475.330047
984.765279	2474.720067
985.062070	2474.004223
985.358824	2474.783082
985.655543	2474.142855
985.952224	2473.744604
986.248869	2474.861219
986.545478	2470.823255
986.842050	2473.598410
987.138586	2474.528503
987.435086	2478.100161
987.731549	2474.004223
988.027975	2472.847278
988.324366	2474.339460
988.620719	2472.481795
988.917037	2473.880715
989.213318	2470.946763
989.509563	2473.006075
989.805772	2474.578915
990.101944	2473.699233
990.398080	2477.321303
990.694180	2475.516569
990.990244	2475.012454
991.286271	2471.168574
991.582262	2470.848461
991.878217	2473.973976
992.174136	2474.452886
992.470019	2472.431383
992.765865	2468.952987
993.061676	2468.388378
993.357450	2471.980200
993.653188	2470.190590
993.948890	2475.304841
994.244556	2474.558750
994.540186	2476.166878
994.835780	2474.959522
995.131337	2475.090592
995.426859	2473.396764
995.722345	2471.516414
996.017795	2473.174953
996.313208	2473.308544
996.608586	2472.685962
996.903928	2473.311065
997.199234	2473.477423
997.494504	2471.644963
997.789738	2473.540437
998.084936	2475.196456
998.380099	2476.461786
998.675225	2473.525314
998.970316	2472.151599
999.265371	2472.287710
999.560390	2473.069089
999.855373	2473.681589
1000.150320	2472.940540
1000.445232	2472.650673
1000.740108	2471.634881
1001.034948	2472.330560
1001.329752	2470.934161
1001.624521	2472.209573
1001.919254	2470.934161
1002.213951	2473.084213
1002.508613	2472.262505
1002.803239	2474.331898
1003.097829	2473.245530
1003.392384	2472.075982
1003.686903	2473.091774
1003.981386	2475.309882
1004.275834	2473.968935
1004.570246	2472.257463
1004.864623	2473.842906
1005.158964	2474.636888
1005.453270	2471.466002
1005.747540	2471.450879
1006.041775	2473.444655
1006.335974	2473.515231
1006.630138	2473.419449
1006.924266	2473.467340
1007.218359	2474.727629
1007.512416	2470.936681
1007.806438	2468.489201
1008.100425	2471.748307
1008.394376	2468.244705
1008.688292	2473.585808
1008.982172	2470.031794
1009.276017	2474.626806
1009.569827	2472.796867
1009.863602	2478.024543
1010.157341	2471.566825
1010.451045	2473.671507
1010.744714	2474.871302
1011.038347	2475.758545
1011.331945	2474.969604
1011.625508	2472.285190
1011.919036	2474.233596
1012.212528	2470.460292
1012.505986	2471.851651
1012.799408	2472.829634
1013.092795	2472.814511
1013.386147	2473.066569
1013.679464	2474.331898
1013.972745	2474.266363
1014.265992	2475.365335
1014.559204	2473.275777
1014.852380	2473.094295
1015.145521	2474.662094
1015.438628	2472.290231
1015.731699	2473.008595
1016.024736	2472.839717
1016.317737	2474.417598
1016.610703	2471.617237
1016.903635	2471.503811
1017.196531	2473.893318
1017.489393	2472.058338
1017.782219	2473.101857
1018.075011	2473.603452
1018.367768	2470.793008
1018.660490	2471.781074
1018.953177	2471.781074
1019.245829	2471.781074
