Dividing Wavelength (nm)	Counts (n)	Blue Motor Position (mm): 24.000000	Red Motor Position (mm): 0.000000	
326.493990	2055.943855
326.888308	2055.943855
327.282561	2055.943855
327.676750	2032.114321
328.070874	2035.272604
328.464933	2038.902235
328.858929	2048.440098
329.252859	2062.139433
329.646726	2071.503377
330.040528	2090.997519
330.434265	2106.451176
330.827938	2129.010339
331.221547	2151.055305
331.615091	2168.447286
332.008571	2190.169618
332.401986	2212.199460
332.795338	2230.513972
333.188625	2249.584657
333.581847	2267.263983
333.975006	2287.252158
334.368100	2304.056845
334.761129	2321.721048
335.154095	2337.378872
335.546996	2385.368136
335.939833	2484.114257
336.332606	2495.648417
336.725315	2507.333812
337.117960	2516.833866
337.510540	2529.401463
337.903056	2535.350024
338.295508	2545.434853
338.687896	2552.018600
339.080220	2555.693601
339.472480	2559.713921
339.864676	2560.913716
340.256807	2568.689695
340.648875	2567.434448
341.040879	2569.738255
341.432818	2570.993503
341.824694	2571.971487
342.216506	2570.060889
342.608253	2571.406877
342.999937	2569.221537
343.391557	2571.127093
343.783113	2566.201886
344.174605	2566.655590
344.566033	2562.552091
344.957397	2562.809189
345.348697	2561.712738
345.739934	2561.261555
346.131106	2558.715772
346.522215	2557.208468
346.913260	2554.466080
347.304241	2552.187478
347.695159	2552.540359
348.086012	2550.367622
348.476802	2549.545914
348.867528	2544.865202
349.258191	2540.713812
349.648789	2541.994265
350.039324	2540.111394
350.429796	2541.442259
350.820203	2541.729605
351.210548	2541.386806
351.600828	2538.142824
351.991045	2537.452186
352.381198	2539.655170
352.771288	2538.886394
353.161314	2538.538554
353.551276	2538.493184
353.941175	2539.009902
354.331010	2540.101312
354.720782	2542.752959
355.110490	2542.039636
355.500135	2537.338760
355.889717	2539.692978
356.279235	2540.575180
356.668689	2542.682383
357.058080	2539.335057
357.447408	2540.774306
357.836672	2539.733308
358.225873	2539.667773
358.615010	2542.626930
359.004084	2544.706406
359.393095	2543.642722
359.782043	2542.591642
360.170927	2543.269677
360.559748	2545.674307
360.948505	2543.647764
361.337199	2546.858979
361.725830	2545.059287
362.114398	2544.010727
362.502903	2545.351674
362.891344	2546.856458
363.279722	2545.243289
363.668037	2549.770245
364.056289	2548.721685
364.444478	2548.318393
364.832603	2548.003321
365.220665	2550.279402
365.608665	2552.759649
365.996601	2551.058260
366.384474	2551.484237
366.772284	2550.299566
367.160031	2551.189330
367.547715	2551.426264
367.935336	2552.051367
368.322893	2548.615821
368.710388	2549.351829
369.097820	2549.185471
369.485189	2549.193033
369.872495	2555.234856
370.259738	2552.391645
370.646918	2554.972716
371.034035	2555.960782
371.421090	2553.099927
371.808081	2553.069680
372.195010	2555.943138
372.581875	2555.446584
372.968678	2553.384752
373.355418	2555.605381
373.742096	2552.895760
374.128710	2554.145967
374.515262	2557.488252
374.901751	2557.372305
375.288177	2558.798952
375.674540	2558.420865
376.060841	2559.734086
376.447079	2556.613611
376.833254	2558.090669
377.219367	2559.865156
377.605417	2562.728531
377.991404	2556.991698
378.377329	2557.765515
378.763191	2559.751730
379.148991	2560.187789
379.534727	2561.425393
379.920402	2563.237687
380.306013	2559.446740
380.691563	2563.837585
381.077049	2562.350444
381.462474	2561.644683
381.847835	2562.085784
382.233134	2560.669220
382.618371	2561.929508
383.003545	2565.153326
383.388657	2563.386402
383.773706	2563.971175
384.158693	2564.061916
384.543618	2565.239026
384.928480	2566.307750
385.313280	2563.565363
385.698017	2562.408418
386.082692	2561.848850
386.467305	2565.120558
386.851856	2565.904458
387.236344	2565.546536
387.620770	2561.218705
388.005133	2560.976730
388.389435	2565.481001
388.773674	2561.344734
389.157851	2563.620815
389.541965	2567.928481
389.926018	2567.741958
390.310008	2566.998388
390.693936	2568.384706
391.077802	2567.391598
391.461606	2568.082236
391.845348	2571.023750
392.229027	2568.931671
392.612645	2567.981413
392.996200	2569.302196
393.379694	2570.391085
393.763125	2571.364027
394.146494	2570.542319
394.529801	2569.423183
394.913047	2569.776064
395.296230	2572.231106
395.679351	2570.229768
396.062410	2571.250602
396.445408	2569.549212
396.828343	2570.544840
397.211217	2573.045252
397.594028	2571.540468
397.976778	2572.241188
398.359466	2573.700602
398.742092	2574.522310
399.124656	2573.521641
399.507158	2573.682958
399.889598	2573.751014
400.271977	2574.146744
400.654294	2573.929975
401.036549	2574.905438
401.418742	2574.691189
401.800874	2576.747980
402.182944	2575.470047
402.564952	2575.122208
402.946898	2574.184553
403.328783	2577.244533
403.710606	2577.269739
404.092367	2576.347208
404.474067	2575.543144
404.855705	2577.783937
405.237282	2577.514235
405.618797	2576.311920
406.000250	2580.939699
406.381642	2579.263516
406.762972	2575.878381
407.144240	2576.470716
407.525447	2578.923238
407.906593	2573.647670
408.287677	2579.986921
408.668700	2579.961715
409.049661	2581.544638
409.430560	2584.418095
409.811399	2582.981367
410.192176	2581.504308
410.572891	2582.749473
410.953545	2583.019175
411.334138	2581.950451
411.714669	2582.341140
412.095139	2585.275092
412.475547	2585.017993
412.855894	2581.597570
413.236180	2581.393403
413.616405	2585.973291
413.996568	2583.104875
414.376670	2584.276943
414.756711	2583.545976
415.136691	2584.534042
415.516609	2585.393559
415.896466	2586.789958
416.276262	2583.382138
416.655997	2586.532859
417.035670	2586.333734
417.415283	2587.984712
417.794834	2584.730647
418.174324	2583.500605
418.553753	2586.469845
418.933121	2585.229721
419.312428	2586.164855
419.691674	2586.331213
420.070859	2587.387335
420.449983	2587.299115
420.829045	2587.480596
421.208047	2586.784917
421.586988	2586.318610
421.965867	2587.646954
422.344686	2588.844228
422.723444	2587.200812
423.102141	2588.317428
423.480777	2589.154259
423.859352	2590.152408
424.237866	2589.663416
424.616319	2590.676688
424.994712	2592.322625
425.373044	2591.417737
425.751314	2588.425813
426.129524	2584.027406
426.507673	2587.977150
426.885762	2589.073601
427.263789	2592.181472
427.641756	2592.909919
428.019662	2589.834815
428.397508	2591.142995
428.775292	2590.951431
429.153016	2590.613673
429.530679	2590.727099
429.908282	2592.375557
430.285824	2593.794642
430.663305	2590.535536
431.040726	2592.231884
431.418086	2594.525609
431.795385	2594.029055
432.172624	2594.190372
432.549802	2593.310691
432.926920	2594.838160
433.303977	2593.862697
433.680974	2594.777667
434.057910	2591.614342
434.434786	2593.776997
434.811601	2594.553335
435.188355	2594.386977
435.565050	2595.178438
435.941683	2593.434199
436.318257	2597.988882
436.694770	2596.688264
437.071222	2599.292020
437.447614	2600.491814
437.823946	2599.241608
438.200218	2599.463419
438.576429	2598.099787
438.952580	2599.304623
439.328670	2598.742534
439.704700	2601.749582
440.080670	2599.229005
440.456580	2599.957452
440.832429	2600.791763
441.208218	2602.412494
441.583947	2603.181270
441.959616	2603.256887
442.335224	2601.328646
442.710773	2603.261928
443.086261	2601.273193
443.461689	2604.522217
443.837057	2606.447938
444.212365	2608.867692
444.587612	2603.622371
444.962800	2605.532968
445.337927	2606.826024
445.712995	2602.750251
446.088002	2608.905500
446.462949	2609.996910
446.837837	2610.937085
447.212664	2610.518669
447.587431	2613.445059
447.962139	2614.443208
448.336786	2616.842797
448.711374	2619.267592
449.085901	2617.099896
449.460369	2618.443363
449.834776	2619.436471
450.209124	2619.267592
450.583412	2621.440329
450.957640	2619.096193
451.331808	2623.398817
451.705917	2623.000566
452.079965	2624.283540
452.453954	2624.149949
452.827883	2626.055506
453.201752	2625.430402
453.575562	2630.635394
453.949311	2629.047430
454.323001	2634.002885
454.696632	2633.876856
455.070202	2636.074799
455.443713	2638.691158
455.817164	2642.149389
456.190556	2645.771458
456.563888	2650.736995
456.937160	2651.480565
457.310373	2653.340751
457.683526	2653.817140
458.056619	2656.746050
458.429653	2663.715445
458.802628	2669.086795
459.175542	2674.203566
459.548398	2683.927952
459.921194	2691.242666
460.293930	2699.860518
460.666607	2717.282746
461.039224	2732.391084
461.411782	2740.600603
461.784280	2746.034967
462.156719	2751.423961
462.529099	2759.736823
462.901419	2758.479055
463.273680	2763.989037
463.645882	2777.932868
464.018024	2790.021555
464.390106	2805.011426
464.762130	2851.440453
465.134094	2903.694533
465.505999	2980.998107
465.877845	3044.962787
466.249631	3086.141453
466.621358	3087.777307
466.993026	3090.393666
467.364634	3100.178545
467.736184	3103.296499
468.107674	3119.748305
468.479105	3142.274701
468.850477	3165.534584
469.221790	3179.100329
469.593043	3184.005372
469.964238	3205.268959
470.335373	3240.567118
470.706449	3316.680980
471.077467	3412.420053
471.448425	3568.650452
471.819324	3685.363246
472.190164	3705.177501
472.560945	3661.533711
472.931667	3626.981643
473.302330	3657.357115
473.672934	3681.297555
474.043479	3761.277981
474.413965	3796.853404
474.784393	3837.918643
475.154761	3937.564611
475.525070	4002.043489
475.895321	4048.185170
476.265513	4146.091940
476.635645	4257.503960
477.005719	4331.480372
477.375734	4428.061318
477.745691	4566.287236
478.115588	4704.974420
478.485427	4924.814098
478.855207	5225.506322
479.224928	5520.910375
479.594591	5754.099029
479.964194	5782.034583
480.333739	5922.158495
480.703226	6069.937400
481.072653	6264.203304
481.442022	6458.948118
481.811333	6622.838551
482.180584	6669.844790
482.549777	6770.866992
482.918912	6864.924841
483.287988	6994.800087
483.657005	7102.476613
484.025964	7173.824063
484.394864	7342.319589
484.763706	7468.948333
485.132489	7514.180086
485.501213	7677.538676
485.869879	7860.376285
486.238487	8001.763006
486.607036	8211.013741
486.975527	8314.962333
487.343959	8535.207824
487.712333	8773.241026
488.080648	8934.966283
488.448905	9203.500986
488.817104	9363.353454
489.185244	9769.415876
489.553326	10277.528896
489.921350	11017.303099
490.289315	11891.713919
490.657222	12306.094244
491.025070	12661.230930
491.392861	12778.152932
491.760593	12766.558278
492.128267	12667.766786
492.495883	12595.920261
492.863440	12549.282027
493.230939	12475.925676
493.598380	12532.764686
493.965763	12720.255280
494.333088	12782.553859
494.700354	12937.183692
495.067563	13156.519254
495.434713	13347.392462
495.801805	13676.804140
496.168839	13851.091952
496.535815	14027.703736
496.902733	14315.334330
497.269593	14457.845229
497.636395	14751.928500
498.003139	15114.203459
498.369825	15245.122225
498.736453	15656.921480
499.103023	15822.999773
499.469535	16107.784636
499.835989	16415.443734
500.202385	16578.910709
500.568723	16851.679982
500.935003	17262.501253
501.301226	17456.144575
501.667390	18063.855672
502.033497	18436.717054
502.399546	18551.526812
502.765537	18581.483869
503.131470	19093.181149
503.497345	19585.570810
503.863163	19243.710003
504.228923	19921.362068
504.594625	20406.966335
504.960269	20346.779999
505.325856	20990.941158
505.691385	21033.244001
506.056856	21464.156791
506.422270	22016.584073
506.787625	21955.273560
507.152924	22501.785048
507.518164	22860.488350
507.883347	22801.668167
508.248472	23137.605618
508.613540	23828.221010
508.978550	24223.074426
509.343503	24355.409756
509.708398	24833.575801
510.073236	25491.209444
510.438016	25781.055625
510.802738	25795.874097
511.167403	26416.654385
511.532010	26823.004152
511.896561	27396.982367
512.261053	28189.789509
512.625488	28237.115862
512.989866	28414.922399
513.354186	28674.650207
513.718449	28851.254429
514.082655	29756.751524
514.446803	29722.159126
514.810894	30395.851364
515.174927	30616.603491
515.538904	30811.083645
515.902822	31534.690868
516.266684	31467.320888
516.630488	31944.014916
516.994235	32134.061375
517.357925	32812.116732
517.721558	33201.525702
518.085133	33698.084397
518.448651	34031.692835
518.812112	34110.128148
519.175516	34425.182619
519.538863	34966.297552
519.902152	35176.226322
520.265385	35814.166697
520.628560	35984.681206
520.991678	36109.447243
521.354739	36457.233926
521.717743	36929.612727
522.080690	36990.156984
522.443580	37734.561487
522.806413	37893.574603
523.169189	38157.060591
523.531908	38496.383177
523.894569	38523.431488
524.257174	38825.678908
524.619722	39262.187379
524.982213	39502.494141
525.344647	39658.830404
525.707025	39905.340307
526.069345	40437.489548
526.431608	40449.058996
526.793815	40929.561616
527.155964	40602.569693
527.518057	40951.248660
527.880093	40897.005845
528.242072	41594.898142
528.603995	41445.669906
528.965860	41463.649181
529.327669	41756.535178
529.689421	41885.800445
530.051117	41920.319746
530.412755	42275.968109
530.774337	42434.519959
531.135862	42436.823766
531.497331	42662.949763
531.858743	42727.519382
532.220098	43189.611708
532.581396	42997.208510
532.942638	42811.444512
533.303824	43137.077844
533.664953	43251.070936
534.026025	42988.925894
534.387040	43606.255512
534.747999	43733.718567
535.108902	44082.579016
535.469748	43489.323428
535.830537	43799.954287
536.191270	44084.696300
536.551947	43863.155233
536.912567	44182.177092
537.273131	44383.858534
537.633638	44042.249785
537.994089	44290.254389
538.354483	44068.040328
538.714821	44740.744500
539.075103	45044.930244
539.435328	44938.214058
539.795497	44740.999078
540.155609	44886.527107
540.515665	45493.323234
540.875665	44846.815418
541.235609	45152.546275
541.595496	45298.885930
541.955328	45893.971457
542.315102	45355.682090
542.674821	45281.330112
543.034483	45179.990317
543.394090	45217.267129
543.753640	45219.694445
544.113134	46286.831097
544.472571	45433.620849
544.831953	46558.566933
545.191278	45853.770775
545.550548	45550.245423
545.909761	46203.515947
546.268918	46375.111783
546.628019	46786.225441
546.987064	46243.583038
547.346053	45548.256688
547.704986	46468.723489
548.063863	46136.266955
548.422684	46331.820874
548.781449	45957.963864
549.140158	46502.065681
549.498811	46284.219779
549.857408	45681.436411
550.215949	46537.958696
550.574434	46357.908845
550.932864	46294.526418
551.291237	47045.912919
551.649555	46804.091290
552.007817	46990.843355
552.366022	46657.756676
552.724173	46746.163391
553.082267	47150.627767
553.440305	47491.608893
553.798288	46757.243847
554.156215	47161.804005
554.514086	47365.436373
554.871902	46994.225969
555.229661	47164.077565
555.587365	46848.450923
555.945014	46993.142121
556.302606	47011.595264
556.660143	47123.541647
557.017625	47348.324177
557.375050	47057.263077
557.732421	47451.317470
558.089735	47524.827576
558.446994	47402.602280
558.804197	47881.973161
559.161345	47743.590968
559.518437	47092.770444
559.875474	47368.246817
560.232455	47591.776619
560.589381	47652.661155
560.946251	47435.568906
561.303065	48120.631467
561.659825	47810.040937
562.016528	47605.521325
562.373177	47199.781537
562.729770	47840.562603
563.086307	47361.993265
563.442789	47906.105165
563.799216	47772.055843
564.155587	47648.550094
564.511904	47623.387175
564.868164	47673.851645
565.224370	48008.309518
565.580520	47746.557687
565.936615	47922.924974
566.292654	47590.080271
566.648638	47958.260942
567.004567	47910.533818
567.360441	47999.111932
567.716260	47725.508349
568.072023	48076.964992
568.427732	48020.776291
568.783385	47547.338848
569.138982	47960.486612
569.494525	48108.462121
569.850013	47710.019403
570.205445	47826.346549
570.560823	47612.576420
570.916145	47482.502048
571.271412	47723.391064
571.626625	47369.774286
571.981782	47461.966908
572.336884	47038.114254
572.691931	47377.159577
573.046923	47046.843012
573.401860	46890.458858
573.756743	46893.639826
574.111570	47046.028866
574.466342	46950.700647
574.821059	47100.543903
575.175722	46610.763040
575.530330	46715.931591
575.884882	46359.446397
576.239380	46253.985459
576.593823	46346.840992
576.948211	46281.711805
577.302544	45820.156362
577.656823	45805.690771
578.011047	46101.674557
578.365216	45889.162196
578.719330	45632.953113
579.073389	45612.007119
579.427394	45659.923287
579.781344	45595.136898
580.135239	45346.038363
580.489080	45408.581438
580.842866	44902.106793
581.196597	45396.210447
581.550273	45379.436007
581.903895	45318.846379
582.257463	45756.990704
582.610975	45195.446495
582.964434	45525.236259
583.317837	45037.292896
583.671186	44988.917983
584.024481	45270.695798
584.377721	44822.176779
584.730906	45026.487182
585.084037	45146.645605
585.437113	44846.192836
585.790135	44982.465306
586.143103	44537.618768
586.496016	44689.619638
586.848874	44793.021265
587.201679	44821.410523
587.554428	44333.789794
587.907124	44600.628149
588.259765	44365.027304
588.612352	44537.165064
588.964884	43984.281557
589.317362	44291.272703
589.669786	44298.426100
590.022155	44144.204601
590.374470	44607.322802
590.726731	44166.032797
591.078937	43520.470197
591.431090	43839.272766
591.783188	43396.840940
592.135232	43180.996377
592.487222	43446.849186
592.839157	43588.596350
593.191038	43243.511725
593.542866	43034.129921
593.894639	42461.855616
594.246358	42748.959410
594.598022	42738.899787
594.949633	42321.893020
595.301190	42287.396405
595.652692	42229.193763
596.004141	42716.471694
596.355535	41641.070070
596.706876	41646.171718
597.058162	41366.909439
597.409395	41866.540717
597.760573	42072.751636
598.111698	41683.990454
598.462768	41599.770417
598.813785	41615.861780
599.164748	41219.896790
599.515657	41484.827068
599.866511	41001.279591
600.217312	41683.657738
600.568060	40634.996915
600.918753	41465.592546
601.269392	41374.887065
601.619978	41075.681981
601.970510	41292.534775
602.320988	41435.814450
602.671412	41695.716178
603.021783	41572.031468
603.372100	41121.256532
603.722363	41258.564960
604.072572	41282.835595
604.422728	41265.355394
604.772830	41049.193238
605.122878	41192.997193
605.472872	41063.426936
605.822813	41318.786584
606.172701	41064.919118
606.522534	41405.749008
606.872314	41606.729730
607.222041	41433.934100
607.571714	41767.265274
607.921333	41246.050296
608.270899	41480.330359
608.620411	41869.225131
608.969870	41613.167283
609.319276	41614.616615
609.668627	41637.158135
610.017926	42048.304560
610.367171	42178.872965
610.716362	42216.477452
611.065500	42104.568878
611.414585	42326.649349
611.763616	42510.260775
612.112594	42404.232707
612.461518	42527.065461
612.810389	42916.824792
613.159207	42722.432858
613.507971	42700.279508
613.856682	43169.479861
614.205340	43005.380221
614.553945	43696.406466
614.902496	43011.253165
615.250994	43440.716623
615.599439	43501.709543
615.947830	43621.681443
616.296169	43605.524545
616.644454	43647.308148
616.992686	43818.213346
617.340864	44266.324032
617.688990	43787.709324
618.037063	44461.565400
618.385082	44294.088187
618.733048	44635.913706
619.080961	44495.557900
619.428821	44513.065828
619.776628	44531.624836
620.124382	44343.909910
620.472083	44457.673629
620.819731	44545.109922
621.167326	44115.394407
621.514868	44078.162965
621.862357	43585.647275
622.209793	43654.511957
622.557176	43227.430445
622.904506	42989.475380
623.251783	42612.215591
623.599007	42294.363279
623.946179	42217.125241
624.293297	41958.889614
624.640363	41426.364807
624.987376	41259.585794
625.334336	41080.201375
625.681243	40650.599286
626.028097	40568.229353
626.374899	40389.719574
626.721647	40358.368638
627.068343	40123.092947
627.414987	39841.350421
627.761577	39591.226011
628.108115	39919.652143
628.454600	39167.033079
628.801032	39394.651258
629.147412	39280.683372
629.493739	39189.582160
629.840014	38753.310624
630.186236	39173.407618
630.532405	38621.444122
630.878521	38857.448260
631.224585	38644.381372
631.570597	38294.878176
631.916556	38457.871282
632.262462	38357.396045
632.608316	38294.532857
632.954117	38164.287085
633.299866	38113.515104
633.645562	38012.949126
633.991206	37488.596030
634.336797	37088.807324
634.682336	36984.321849
635.027823	36748.592454
635.373257	36624.441437
635.718639	36301.101830
636.063968	36186.624787
636.409245	35524.829672
636.754470	35486.922716
637.099642	35263.985249
637.444762	34703.126637
637.789829	34844.495714
638.134845	34469.746419
638.479808	34381.669900
638.824719	34322.905169
639.169577	33818.993952
639.514383	33917.709826
639.859137	33529.866134
640.203839	33689.640464
640.548489	33395.252203
640.893086	33391.907398
641.237632	33124.126347
641.582125	33231.840681
641.926566	33013.016795
642.270955	33050.419636
642.615292	32996.214629
642.959576	32870.692419
643.303809	32877.772720
643.647990	32965.224136
643.992118	32914.212700
644.336195	32773.819086
644.680219	32855.813454
645.024192	33059.125709
645.368112	33577.157199
645.711981	33596.220322
646.055797	34318.353008
646.399562	34135.873321
646.743274	35005.479921
647.086935	35406.712917
647.430544	35337.858317
647.774101	35385.676182
648.117606	35694.940888
648.461059	35823.545764
648.804460	35420.656749
649.147810	34916.858957
649.491108	34557.414605
649.834354	34416.421094
650.177548	33593.072121
650.520690	33099.744806
650.863781	33086.945316
651.206820	32898.078487
651.549807	32496.265758
651.892742	31922.158994
652.235626	31817.734013
652.578458	31703.050283
652.921238	31006.362822
653.263967	31315.307414
653.606644	31009.173265
653.949269	30930.624526
654.291843	30542.707738
654.634365	30894.882745
654.976836	30438.358374
655.319255	30517.781752
655.661622	30398.666849
656.003938	30261.973442
656.346203	30074.142570
656.688416	30320.236577
657.030577	30083.882079
657.372687	29911.053681
657.714746	30062.069007
658.056753	30259.510838
658.398708	29644.583330
658.740612	29708.442147
659.082465	29917.340000
659.424266	29806.157352
659.766016	29815.445678
660.107715	29671.142649
660.449362	29772.923545
660.790958	29770.997825
661.132503	29695.972852
661.473996	29759.352759
661.815438	29842.241931
662.156829	29967.933020
662.498168	29768.116805
662.839456	29742.089328
663.180693	29868.760921
663.521879	29952.000453
663.863013	29909.057384
664.204097	29883.753313
664.545129	30305.690328
664.886110	30228.495139
665.227040	30333.081437
665.567918	30332.375676
665.908746	30414.168397
666.249522	30495.502373
666.590248	30522.943894
666.930922	30615.955703
667.271545	30615.567534
667.612118	30660.940439
667.952639	30481.011576
668.293109	30515.798058
668.633528	30376.211029
668.973896	30340.824650
669.314213	30326.414511
669.654480	30122.905651
669.994695	30118.335845
670.334859	30038.274760
670.674973	29871.354595
671.015035	30062.424408
671.355047	29994.961167
671.695008	29921.587172
672.034918	29842.110861
672.374777	29941.000656
672.714585	29799.848348
673.054342	29948.373343
673.394049	29785.670103
673.733705	30014.939259
674.073310	29719.666276
674.412864	29779.925708
674.752368	29468.710075
675.091820	29714.799042
675.431223	29311.574789
675.770574	29106.543501
676.109875	28935.900443
676.449125	28740.507841
676.788324	28633.191758
677.127473	28148.641091
677.466571	28057.537359
677.805619	27781.231716
678.144616	27715.525317
678.483562	27656.526173
678.822458	27341.711157
679.161303	27288.726109
679.500098	27200.997429
679.838842	27138.230023
680.177535	27216.433442
680.516179	27452.924052
680.854771	27582.857271
681.193314	28357.745632
681.531805	29372.847494
681.870247	30103.686252
682.208638	30837.579950
682.546978	31100.710536
682.885268	31243.768400
683.223508	30784.683122
683.561697	30520.385508
683.899836	30361.846261
684.237925	29956.993716
684.575963	29810.472580
684.913951	29436.537432
685.251889	29625.419384
685.589776	29642.534101
685.927614	29639.663164
686.265401	29825.555712
686.603137	29938.238103
686.940824	30437.403075
687.278460	30766.570257
687.616046	30940.144745
687.953582	31590.874528
688.291068	31509.764883
688.628504	31845.346933
688.965889	31844.948682
689.303224	31577.213001
689.640510	31286.464453
689.977745	30661.983958
690.314930	29929.905076
690.652065	29483.662138
690.989150	28830.709206
691.326185	27986.729312
691.663170	27346.437238
692.000105	26609.118077
692.336990	26001.570818
692.673825	25579.059111
693.010610	25094.064823
693.347345	24589.813327
693.684030	23969.660664
694.020665	23771.535756
694.357251	23091.012754
694.693786	23085.991765
695.030272	22867.603939
695.366707	22376.708980
695.703093	22089.033016
696.039429	22151.543323
696.375716	21923.408427
696.711952	21923.325248
697.048139	21782.125049
697.384276	21618.637909
697.720363	21748.858475
698.056400	21631.026545
698.392388	21474.473512
698.728326	21465.618725
699.064214	21298.539763
699.400053	21306.139303
699.735842	20925.580078
700.071581	20720.296732
700.407270	20479.037191
700.742910	20303.421035
701.078501	20058.388191
701.414042	19849.147539
701.749533	19548.737619
702.084974	19234.325895
702.420366	19476.223142
702.755709	19048.798831
703.091002	18746.800948
703.426246	18819.580086
703.761440	18756.898379
704.096584	18513.113220
704.431679	18447.036296
704.766725	18392.324653
705.101721	18319.076688
705.436668	18438.529349
705.771565	18166.702772
706.106413	18482.273961
706.441212	18555.249704
706.775961	18661.010592
707.110661	18736.693434
707.445311	19098.030739
707.779913	18980.821392
708.114465	19263.650287
708.448967	19583.829091
708.783421	20199.048986
709.117825	20571.706202
709.452180	20804.610030
709.786485	21246.704099
710.120742	22006.171570
710.454949	22107.622270
710.789107	22610.772274
711.123216	23325.552437
711.457275	23548.368916
711.791286	24108.287353
712.125247	24258.014664
712.459159	23984.915195
712.793023	24739.253292
713.126837	23713.597775
713.460602	23971.654440
713.794318	23634.867554
714.127985	23365.427964
714.461602	22478.694043
714.795171	22447.486780
715.128691	21473.485446
715.462162	20963.108948
715.795584	20530.479646
716.128957	20264.150447
716.462281	19890.832840
716.795556	19611.172310
717.128782	19138.727974
717.461960	18537.225059
717.795088	18496.290890
718.128167	18152.602664
718.461198	17693.048559
718.794180	17569.207574
719.127113	17239.803458
719.459997	17047.417904
719.792833	16680.610947
720.125619	16723.392699
720.458357	16386.701596
720.791046	16246.592807
721.123686	16095.017913
721.456278	15871.833430
721.788821	15870.749582
722.121315	15594.307828
722.453761	15709.225971
722.786158	15600.422748
723.118506	15663.069167
723.450805	15551.936930
723.783056	15729.259517
724.115259	15617.240037
724.447412	15613.799450
724.779518	15828.267778
725.111574	15881.822476
725.443582	16139.385108
725.775542	16098.985302
726.107453	16614.105525
726.439315	16536.393618
726.771129	16951.963656
727.102895	17367.674846
727.434612	17639.677863
727.766281	17808.594326
728.097901	18120.906410
728.429473	18212.242035
728.760996	18228.172081
729.092471	18357.462554
729.423897	18244.921315
729.755276	18122.433879
730.086606	18230.884222
730.417887	18812.421647
730.749120	19365.637870
731.080305	19573.277956
731.411442	19971.251847
731.742530	20082.361398
732.073570	20249.815926
732.404562	20572.951367
732.735506	20416.804147
733.066401	20207.523166
733.397249	19722.239011
733.728048	19091.628474
734.058798	18240.467455
734.389501	17482.098956
734.720156	16964.417826
735.050762	16385.310237
735.381320	15996.591905
735.711831	15732.533746
736.042293	15359.203536
736.372707	15399.041255
736.703073	15187.375808
737.033391	15389.417692
737.363661	15380.046187
737.693883	15505.129817
738.024056	15703.965527
738.354182	15920.694813
738.684260	16286.501101
739.014290	16560.757514
739.344272	16778.018642
739.674207	17122.513452
740.004093	17300.839228
740.333931	17355.631529
740.663722	17444.043286
740.993464	17479.008729
741.323159	17315.629974
741.652806	17029.932662
741.982405	16860.875047
742.311956	16505.531674
742.641460	16402.477887
742.970915	16073.918164
743.300323	15732.075001
743.629683	15511.658111
743.958996	15197.745461
744.288260	14884.236103
744.617477	14578.023816
744.946647	14542.791192
745.275768	14237.241816
745.604842	14024.454712
745.933869	13853.768804
746.262847	13818.561386
746.591778	13733.796905
746.920662	13620.081077
747.249498	13636.522800
747.578286	13783.560655
747.907027	13964.333911
748.235720	14225.707656
748.564365	14286.110761
748.892963	14213.160224
749.221514	14324.582327
749.550017	14178.693855
749.878473	14157.145443
750.206881	13934.724694
750.535242	13858.809958
750.863555	13781.513946
751.191821	13683.622300
751.520039	13703.250033
751.848210	13626.211120
752.176334	13671.964632
752.504411	13594.461933
752.832440	13415.377463
753.160421	13533.035473
753.488356	13422.326694
753.816243	13337.587418
754.144082	13172.892922
754.471875	13115.547276
754.799620	13077.436153
755.127318	13058.748596
755.454969	13048.613356
755.782572	13019.770394
756.110129	13032.476623
756.437638	12936.480451
756.765100	12949.186679
757.092515	12973.462355
757.419882	13004.714988
757.747203	13013.126154
758.074477	13107.625103
758.401703	13090.417124
758.728882	13277.935445
759.056014	13330.872601
759.383099	13508.485054
759.710138	13614.190488
760.037129	13743.327206
760.364073	13798.404332
760.690970	13828.132017
761.017820	13845.080376
761.344623	14071.405498
761.671379	14455.256596
761.998088	15148.044725
762.324751	16918.618944
762.651366	20310.650050
762.977935	24766.750266
763.304456	27719.568322
763.630931	28755.893442
763.957359	27567.244818
764.283740	25331.951832
764.610074	23076.141350
764.936362	20450.970567
765.262602	18592.070292
765.588796	16669.112075
765.914943	15383.028029
766.241044	14283.842242
766.567097	13491.640038
766.893104	12772.806788
767.219064	12306.880664
767.544978	11834.791730
767.870845	11445.002153
768.196665	11225.951416
768.522438	10997.148566
768.848165	10794.456373
769.173846	10581.404608
769.499479	10458.402975
769.825066	10297.678388
770.150607	10061.172655
770.476101	9980.310027
770.801548	9852.950316
771.126949	9695.769659
771.452303	9586.686652
771.777611	9385.529490
772.102872	9375.976503
772.428087	9236.996933
772.753256	9077.560360
773.078378	8989.637596
773.403453	8807.770409
773.728482	8696.915436
774.053465	8627.150908
774.378401	8522.516719
774.703291	8399.517606
775.028135	8279.076879
775.352932	8242.987259
775.677683	8139.583111
776.002388	8034.439765
776.327046	8043.488637
776.651658	7944.926517
776.976224	7841.643357
777.300743	7843.233841
777.625216	7752.362002
777.949643	7713.577885
778.274024	7726.062302
778.598359	7638.709188
778.922647	7659.922364
779.246889	7603.675690
779.571086	7619.003318
779.895236	7623.036241
780.219339	7629.589741
780.543397	7630.822303
780.867409	7715.065025
781.191374	7722.798155
781.515294	7687.971344
781.839167	7784.993391
782.162995	7753.624811
782.486776	7702.537758
782.810511	7654.540932
783.134201	7566.857623
783.457844	7560.475522
783.781441	7510.036257
784.104993	7441.985721
784.428498	7413.203253
784.751958	7407.458859
785.075372	7382.467338
785.398739	7319.215981
785.722061	7363.477312
786.045337	7368.838579
786.368568	7524.559821
786.691752	7551.270375
787.014891	7892.289309
787.337983	8246.261488
787.661030	8836.232764
787.984031	9461.456829
788.306987	9862.203354
788.629897	10068.638604
788.952760	10017.838896
789.275579	9806.768305
789.598351	9402.999609
789.921078	9048.677069
790.243759	8642.133218
790.566395	8350.583126
790.888984	8101.507276
791.211529	7888.183289
791.534027	7672.767224
791.856480	7467.642674
792.178888	7397.235399
792.501249	7297.745707
792.823566	7140.192005
793.145836	7140.660832
793.468062	7110.010617
793.790241	7068.882363
794.112375	7130.966694
794.434464	7285.727596
794.756507	7327.828793
795.078505	7486.675550
795.400457	7791.093187
795.722364	8143.419429
796.044226	8427.417872
796.366042	8701.336528
796.687812	8656.019076
797.009538	8736.657373
797.331218	8629.127041
797.652852	8547.533445
797.974442	8397.632215
798.295986	8303.818862
798.617484	8118.720296
798.938938	7970.931309
799.260346	7874.660394
799.581709	7674.728233
799.903026	7590.099863
800.224299	7489.430541
800.545526	7318.421999
800.866708	7224.575879
801.187845	7158.241857
801.508936	7045.473766
801.829983	7013.165011
802.150984	6856.039807
802.471940	6814.117572
802.792851	6801.365973
803.113717	6767.176868
803.434538	6732.231589
803.755314	6674.477610
804.076045	6680.592530
804.396731	6622.972141
804.717372	6661.042935
805.037967	6657.758623
805.358518	6697.795467
805.679024	6777.682632
805.999485	6788.662265
806.319901	6832.386713
806.640272	6846.222160
806.960598	6931.936899
807.280879	6935.246416
807.601115	7012.650813
807.921306	6959.524613
808.241453	6974.275029
808.561554	6996.420818
808.881611	6957.155271
809.201623	6962.866898
809.521590	6917.650269
809.841513	6896.167392
810.161390	6939.801099
810.481223	6806.089534
810.801011	6786.892820
811.120755	6769.561333
811.440453	6687.385484
811.760107	6653.808879
812.079716	6627.683099
812.399281	6559.072996
812.718801	6549.706532
813.038276	6509.238669
813.357707	6441.785510
813.677093	6488.116235
813.996434	6394.991000
814.315731	6435.239572
814.634983	6425.389157
814.954191	6440.011024
815.273354	6546.946500
815.592473	6609.081242
815.911547	6740.325162
816.230577	6815.967675
816.549562	6966.378062
816.868502	7066.941519
817.187399	7168.916500
817.506250	7316.947462
817.825058	7347.917791
818.143821	7616.054243
818.462539	7888.402580
818.781213	8251.907581
819.099843	8804.153382
819.418429	9805.709663
819.736970	10767.715572
820.055466	11945.651744
820.373919	13481.421620
820.692327	15832.421689
821.010691	19979.841973
821.329011	28965.161821
821.647286	41972.646923
821.965517	55437.606655
822.283704	60801.074234
822.601847	62809.911027
822.919945	60111.083945
823.237999	55918.978874
823.556010	49764.340007
823.873976	43054.670102
824.191897	36530.093723
824.509775	31677.206808
824.827609	27146.726887
825.145398	24553.219592
825.463144	23174.562317
825.780845	23478.432989
826.098502	25248.508133
826.416116	29008.845939
826.733685	32623.186889
827.051210	33776.988537
827.368692	31993.335045
827.686129	28057.504591
828.003522	23941.601601
828.320872	20253.397666
828.638177	17408.437616
828.955439	15256.590850
829.272656	13447.381228
829.589830	11967.711834
829.906960	10707.269617
830.224046	9765.824054
830.541088	9011.513683
830.858086	8552.919918
831.175041	8175.145931
831.491952	8055.262251
831.808819	8104.907534
832.125642	8506.382506
832.442421	9384.916990
832.759157	11178.322594
833.075849	14089.861163
833.392497	17296.143393
833.709101	19467.600248
834.025662	19310.333892
834.342179	17629.151934
834.658653	15441.659169
834.975083	13520.717414
835.291469	11913.216961
835.607811	10588.603376
835.924110	9683.577629
836.240366	8816.554620
836.556578	8014.955706
836.872746	7371.273456
837.188871	6868.589759
837.504952	6450.756243
837.820990	6138.968440
838.136984	5923.413743
838.452935	5830.003682
838.768842	5860.512745
839.084706	6280.645028
839.400526	7483.270251
839.716303	9066.530316
840.032037	10153.385441
840.347727	10083.807436
840.663373	9111.257953
840.978977	8077.153462
841.294537	7263.551560
841.610054	6664.123080
841.925527	6231.125773
842.240957	5868.066914
842.556344	5539.454260
842.871687	5254.777782
843.186987	4972.682374
843.502244	4750.246502
843.817458	4582.300461
844.132629	4448.276345
844.447756	4354.881408
844.762840	4276.683030
845.077881	4200.042368
845.392879	4140.052637
845.707833	4092.759052
846.022745	4046.090571
846.337613	4017.416488
846.652438	3973.356803
846.967221	3958.117395
847.281960	3926.138836
847.596656	3906.427924
847.911309	3886.590984
848.225919	3862.741285
848.540485	3846.750745
848.855009	3832.796831
849.169490	3810.882935
849.483928	3798.552273
849.798323	3790.002476
850.112675	3771.362810
850.426984	3781.813122
850.741251	3766.450205
851.055474	3762.878548
851.369654	3766.742592
851.683792	3760.587343
851.997887	3766.319135
852.311938	3770.021863
852.625947	3775.937657
852.939914	3761.144391
853.253837	3772.744086
853.567718	3770.462964
853.881555	3759.722785
854.195350	3774.218623
854.509103	3773.482615
854.822812	3768.577572
855.136479	3761.129267
855.450103	3767.874331
855.763685	3755.911673
856.077224	3760.524329
856.390720	3779.100981
856.704173	3796.009011
857.017584	3810.832524
857.330953	3821.706293
857.644278	3843.572297
857.957561	3849.969522
858.270802	3846.297041
858.584000	3852.762321
858.897155	3838.921833
859.210268	3826.782734
859.523339	3802.527223
859.836367	3801.566883
860.149352	3795.948517
860.462295	3790.181437
860.775195	3781.198101
861.088054	3774.763068
861.400869	3773.510341
861.713642	3772.948253
862.026373	3782.899490
862.339062	3792.402065
862.651708	3812.566681
862.964312	3843.627750
863.276873	3852.263247
863.589392	3910.382709
863.901869	3959.218887
864.214303	4003.671782
864.526696	4034.037172
864.839045	4080.544337
865.151353	4107.063327
865.463619	4115.819811
865.775842	4123.842807
866.088023	4144.962721
866.400162	4133.196668
866.712258	4144.060355
867.024313	4142.600941
867.336325	4138.857884
867.648296	4147.929440
867.960224	4145.534892
868.272110	4158.669618
868.583954	4158.233559
868.895755	4175.537319
869.207515	4168.572965
869.519233	4211.682392
869.830909	4229.364239
870.142542	4249.382661
870.454134	4263.588633
870.765684	4293.391934
871.077191	4328.322089
871.388657	4353.540462
871.700081	4391.364239
872.011463	4435.663378
872.322803	4469.275272
872.634101	4499.885158
872.945357	4539.740520
873.256571	4594.860496
873.567744	4623.174137
873.878874	4642.300274
874.189963	4682.884083
874.501010	4688.522614
874.812015	4686.906924
875.122979	4732.262185
875.433900	4730.991815
875.744780	4743.551849
876.055618	4771.323566
876.366415	4769.493627
876.677169	4787.112460
876.987882	4834.900078
877.298554	4892.220517
877.609183	4969.861848
877.919771	5077.682047
878.230317	5224.901383
878.540822	5435.692190
878.851285	5763.047077
879.161707	6225.013374
879.472087	6988.682647
879.782425	8215.550779
880.092722	10401.216126
880.402977	13707.192215
880.713191	17474.270044
881.023363	21196.907581
881.333494	23416.537702
881.643583	24635.022395
881.953631	24640.116481
882.263637	23797.303614
882.573602	22321.591525
882.883526	20763.416241
883.193408	19088.024049
883.503248	17378.162967
883.813048	15834.740620
884.122806	14409.170368
884.432522	12931.393926
884.742197	11665.850062
885.051831	10578.886552
885.361424	9565.909536
885.670975	8745.509639
885.980485	8053.376860
886.289954	7467.927499
886.599382	7005.270564
886.908768	6623.728314
887.218113	6259.184836
887.527417	5971.922245
887.836680	5706.082038
888.145901	5486.446527
888.455082	5320.070806
888.764221	5168.432898
889.073319	5035.021283
889.382376	4963.419254
889.691392	4905.171242
890.000366	4881.324063
890.309300	4858.923696
890.618193	4866.740005
890.927044	4849.446327
891.235855	4873.169997
891.544625	4904.334410
891.853353	4966.630469
892.162041	5082.899641
892.470687	5269.296305
892.779293	5517.500035
893.087858	5888.622219
893.396381	6475.087372
893.704864	7269.840400
894.013306	8424.483921
894.321707	9594.472714
894.630068	10406.811807
894.938387	10609.425862
895.246665	10378.409946
895.554903	9773.789077
895.863100	9078.301410
896.171256	8523.940845
896.479371	8011.479830
896.787446	7518.515478
897.095480	7090.728204
897.403473	6774.587364
897.711425	6454.947963
898.019336	6184.724473
898.327207	5912.267751
898.635038	5683.903482
898.942827	5438.676553
899.250576	5243.412500
899.558284	5056.047935
899.865952	4931.755767
900.173579	4784.702788
900.481165	4677.096839
900.788711	4585.882201
901.096216	4509.196169
901.403681	4445.997744
901.711105	4424.161986
902.018489	4404.816558
902.325832	4475.022187
902.633135	4597.043316
902.940397	4942.831182
903.247619	5737.203602
903.554800	7174.965884
903.861941	9088.880271
904.169041	10609.778743
904.476101	11247.434293
904.783121	10887.448017
905.090100	10150.786726
905.397039	9314.580291
905.703938	8564.070950
906.010796	7876.697020
906.317614	7314.053840
906.624391	6781.166069
906.931129	6357.237798
907.237826	5953.741324
907.544483	5582.150312
907.851099	5205.412283
908.157675	4851.684599
908.464211	4527.364487
908.770707	4296.860248
909.077163	4092.476748
909.383578	3948.851754
909.689954	3832.822037
909.996289	3758.772528
910.302584	3699.070143
910.608839	3662.476407
910.915054	3633.172180
911.221229	3621.496867
911.527363	3629.882827
911.833458	3642.092502
912.139513	3671.114424
912.445527	3703.539126
912.751502	3782.463430
913.057436	3884.829100
913.363331	4018.999410
913.669186	4223.493816
913.975000	4480.907734
914.280775	4905.080501
914.586510	5489.133462
914.892205	6284.725842
915.197859	7323.037176
915.503475	8535.727063
915.809050	9588.677908
916.114585	10234.217822
916.420081	10495.102575
916.725536	10454.309558
917.030952	10018.035501
917.336328	9610.470816
917.641665	9200.640132
917.946961	8723.147080
918.252218	8309.820356
918.557435	7795.143754
918.862612	7363.157199
919.167750	6990.008470
919.472848	6568.134470
919.777906	6190.279824
920.082925	5830.598538
920.387904	5468.139577
920.692843	5203.456315
920.997743	4958.799036
921.302603	4725.146597
921.607423	4566.284716
921.912204	4394.920773
922.216946	4278.918782
922.521647	4155.075276
922.826310	4050.758679
923.130932	3956.650419
923.435516	3858.317672
923.740059	3789.558854
924.044564	3715.375755
924.349028	3655.769152
924.653454	3590.282043
924.957840	3517.497864
925.262186	3472.954228
925.566493	3409.380237
925.870761	3357.879809
926.174989	3316.396154
926.479178	3282.292749
926.783328	3238.643918
927.087438	3212.626523
927.391509	3178.707119
927.695541	3148.767707
927.999533	3123.330044
928.303486	3103.319184
928.607400	3085.740681
928.911275	3072.522775
929.215110	3056.207081
929.518906	3045.988662
929.822663	3048.579815
930.126381	3044.246943
930.430060	3049.356153
930.733699	3049.459497
931.037299	3062.385015
931.340861	3059.456105
931.644383	3068.764595
931.947866	3067.958011
932.251309	3060.368553
932.554714	3060.126578
932.858080	3054.803120
933.161407	3049.414126
933.464694	3037.766540
933.767943	3031.334028
934.071153	3028.352185
934.374323	3017.869106
934.677455	3013.468179
934.980548	3005.225892
935.283602	2998.556446
935.586617	2997.578462
935.889593	3008.159844
936.192530	3009.662108
936.495428	3021.034951
936.798287	3046.780123
937.101108	3077.069896
937.403890	3131.093421
937.706632	3190.032072
938.009336	3269.820934
938.312002	3342.035463
938.614628	3408.014084
938.917216	3456.361270
939.219765	3487.155159
939.522275	3524.197557
939.824747	3526.831560
940.127179	3525.679656
940.429573	3520.865354
940.731929	3514.158099
941.034246	3501.610667
941.336524	3488.559120
941.638763	3471.376347
941.940964	3459.285140
942.243126	3416.672266
942.545250	3395.958165
942.847335	3359.036754
943.149381	3322.730364
943.451389	3290.683749
943.753359	3256.350971
944.055290	3234.943711
944.357182	3204.860626
944.659036	3193.412165
944.960851	3184.088551
945.262628	3168.342507
945.564367	3170.984072
945.866067	3163.631549
946.167729	3157.612411
946.469352	3159.114675
946.770937	3153.266937
947.072484	3138.652632
947.373992	3139.741521
947.675462	3133.412352
947.976893	3119.760908
948.278286	3106.104422
948.579641	3101.287599
948.880958	3096.679985
949.182236	3098.668720
949.483476	3094.567741
949.784678	3093.060436
950.085841	3094.255190
950.386967	3102.631067
950.688054	3119.697893
950.989103	3141.256387
951.290114	3160.178358
951.591087	3191.297401
951.892021	3219.139694
952.192917	3244.587438
952.493776	3270.141047
952.794596	3278.784106
953.095378	3282.075979
953.396122	3279.683952
953.696828	3273.226233
953.997496	3262.594440
954.298126	3236.720718
954.598718	3219.348902
954.899272	3191.496527
955.199788	3165.519461
955.500266	3132.973772
955.800706	3097.511775
956.101108	3060.807134
956.401472	3027.505272
956.701798	2995.274654
957.002087	2956.513223
957.302337	2927.640014
957.602550	2899.926271
957.902724	2869.770088
958.202861	2842.192456
958.502960	2823.885506
958.803022	2808.089050
959.103045	2782.530400
959.403031	2766.219747
959.702979	2752.250710
960.002889	2742.291910
960.302762	2726.016545
960.602596	2716.327447
960.902393	2707.223124
961.202153	2699.116948
961.501875	2689.342151
961.801559	2682.589525
962.101205	2679.600121
962.400814	2675.262208
962.700385	2665.875580
962.999918	2658.061791
963.299414	2654.548107
963.598873	2653.257572
963.898293	2645.572333
964.197677	2648.193733
964.497022	2642.330871
964.796331	2641.115953
965.095601	2637.834162
965.394835	2635.618574
965.694030	2634.587658
965.993189	2633.952473
966.292309	2632.150261
966.591393	2634.769140
966.890439	2630.252266
967.189447	2630.660600
967.488419	2633.546660
967.787353	2631.028604
968.086249	2631.305867
968.385108	2634.585138
968.683930	2634.726290
968.982714	2639.926240
969.281462	2645.957981
969.580172	2650.510143
969.878844	2654.333858
970.177480	2664.975734
970.476078	2672.328257
970.774639	2679.824452
971.073162	2687.260154
971.371649	2690.962882
971.670098	2698.892617
971.968510	2703.744727
972.266885	2708.748073
972.565223	2713.491798
972.863524	2714.157231
973.161788	2715.694783
973.460014	2720.655278
973.758204	2723.657285
974.056356	2727.317163
974.354471	2728.882441
974.652550	2720.856924
974.950591	2727.324725
975.248595	2722.497820
975.546563	2724.259703
975.844493	2718.311142
976.142386	2713.915255
976.440243	2709.458875
976.738062	2704.395036
977.035845	2697.546629
977.333590	2689.049764
977.631299	2685.823426
977.928971	2683.297807
978.226606	2671.289779
978.524204	2666.972031
978.821765	2666.130158
979.119290	2669.996723
979.416777	2667.887000
979.714228	2672.739111
980.011642	2676.101560
980.309020	2680.111798
980.606360	2696.127544
980.903664	2720.917418
981.200931	2753.914291
981.498162	2803.907413
981.795356	2881.415154
982.092513	2966.300623
982.389633	3072.069072
982.686717	3169.280162
982.983764	3242.087026
983.280775	3291.800365
983.577749	3296.405459
983.874686	3287.328861
984.171587	3250.757811
984.468451	3213.435628
984.765279	3170.583300
985.062070	3123.577061
985.358824	3075.398754
985.655543	3021.962523
985.952224	2969.801704
986.248869	2905.559760
986.545478	2850.313755
986.842050	2793.212605
987.138586	2747.496902
987.435086	2710.457024
987.731549	2675.637774
988.027975	2652.377890
988.324366	2632.241001
988.620719	2621.256327
988.917037	2611.012702
989.213318	2602.924171
989.509563	2592.751123
989.805772	2590.006214
990.101944	2582.792323
990.398080	2582.217632
990.694180	2581.688311
990.990244	2583.387179
991.286271	2582.812488
991.582262	2583.291398
991.878217	2584.317272
992.174136	2586.679053
992.470019	2592.806575
992.765865	2599.226485
993.061676	2597.996443
993.357450	2606.173195
993.653188	2613.876078
993.948890	2635.273255
994.244556	2650.457211
994.540186	2674.959739
994.835780	2704.329501
995.131337	2742.833834
995.426859	2784.539300
995.722345	2830.000426
996.017795	2882.226779
996.313208	2918.732295
996.608586	2947.509722
996.903928	2957.415589
997.199234	2960.241156
997.494504	2954.932821
997.789738	2941.185594
998.084936	2916.625093
998.380099	2889.057543
998.675225	2858.687112
998.970316	2826.148984
999.265371	2790.795372
999.560390	2754.420927
999.855373	2725.179714
1000.150320	2695.847760
1000.445232	2671.536796
1000.740108	2650.429484
1001.034948	2629.561628
1001.329752	2616.986470
1001.624521	2606.248812
1001.919254	2591.465628
1002.213951	2585.244845
1002.508613	2576.997517
1002.803239	2571.091805
1003.097829	2565.241546
1003.392384	2561.193500
1003.686903	2554.544218
1003.981386	2553.220915
1004.275834	2549.213197
1004.570246	2547.668084
1004.864623	2542.926879
1005.158964	2541.961498
1005.453270	2538.324305
1005.747540	2537.222813
1006.041775	2535.095446
1006.335974	2533.129396
1006.630138	2533.172246
1006.924266	2531.861546
1007.218359	2532.882380
1007.512416	2529.530012
1007.806438	2525.260155
1008.100425	2526.863242
1008.394376	2527.200999
1008.688292	2531.125538
1008.982172	2529.769467
1009.276017	2526.240659
1009.569827	2525.688653
1009.863602	2526.137316
1010.157341	2526.850639
1010.451045	2527.072450
1010.744714	2524.274609
1011.038347	2525.169414
1011.331945	2520.476100
1011.625508	2520.891995
1011.919036	2518.875534
1012.212528	2519.727489
1012.505986	2518.157169
1012.799408	2521.118847
1013.092795	2518.850328
1013.386147	2519.359484
1013.679464	2516.402848
1013.972745	2518.048784
1014.265992	2516.077693
1014.559204	2514.698938
1014.852380	2517.295132
1015.145521	2514.656088
1015.438628	2519.394772
1015.731699	2516.304545
1016.024736	2515.906294
1016.317737	2519.021727
1016.610703	2517.315297
1016.903635	2522.283354
1017.196531	2521.960720
1017.489393	2526.033972
1017.782219	2524.672861
1018.075011	2527.347193
1018.367768	2524.788807
1018.660490	2526.280989
1018.953177	2526.280989
1019.245829	2526.280989
