Dividing Wavelength (nm)	Counts (n)	Blue Motor Position (mm): 4.800000	Red Motor Position (mm): 0.000000	
326.493990	2061.670606
326.888308	2061.670606
327.282561	2061.670606
327.676750	2036.018695
328.070874	2040.160003
328.464933	2047.472196
328.858929	2052.629297
329.252859	2067.919116
329.646726	2080.486713
330.040528	2098.289548
330.434265	2115.558020
330.827938	2138.107101
331.221547	2155.065543
331.615091	2174.239572
332.008571	2196.728159
332.401986	2214.417568
332.795338	2238.489077
333.188625	2254.242683
333.581847	2275.954933
333.975006	2293.800617
334.368100	2309.420633
334.761129	2326.434527
335.154095	2342.258709
335.546996	2355.832015
335.939833	2373.523945
336.332606	2385.738661
336.725315	2397.731566
337.117960	2405.424366
337.510540	2415.443660
337.903056	2425.508323
338.295508	2430.420928
338.687896	2440.924172
339.080220	2442.323092
339.472480	2447.263423
339.864676	2450.698969
340.256807	2452.740636
340.648875	2457.423868
341.040879	2455.609053
341.432818	2458.172480
341.824694	2460.809003
342.216506	2459.750361
342.608253	2456.725668
342.999937	2458.462346
343.391557	2459.001749
343.783113	2458.124589
344.174605	2454.767180
344.566033	2454.658795
344.957397	2452.975050
345.348697	2451.142591
345.739934	2450.837601
346.131106	2445.587239
346.522215	2444.384924
346.913260	2443.868206
347.304241	2443.641354
347.695159	2441.433328
348.086012	2438.401074
348.476802	2436.571135
348.867528	2432.429828
349.258191	2428.563262
349.648789	2431.691298
350.039324	2428.568304
350.429796	2433.120466
350.820203	2429.137954
351.210548	2428.757347
351.600828	2429.773139
351.991045	2431.764395
352.381198	2429.158119
352.771288	2426.912285
353.161314	2427.030752
353.551276	2431.502255
353.941175	2428.031421
354.331010	2428.732141
354.720782	2429.228695
355.110490	2430.005033
355.500135	2428.346493
355.889717	2427.678540
356.279235	2430.478901
356.668689	2430.151226
357.058080	2428.467481
357.447408	2431.046031
357.836672	2429.642069
358.225873	2435.578028
358.615010	2430.052923
359.004084	2432.407142
359.393095	2432.354210
359.782043	2433.165836
360.170927	2433.410332
360.559748	2435.235230
360.948505	2436.180446
361.337199	2436.654314
361.725830	2436.979469
362.114398	2437.992741
362.502903	2435.008378
362.891344	2436.956784
363.279722	2436.283790
363.668037	2439.215221
364.056289	2436.442586
364.444478	2438.822011
364.832603	2439.883173
365.220665	2442.176898
365.608665	2441.327464
365.996601	2437.198759
366.384474	2440.044490
366.772284	2440.309151
367.160031	2438.315375
367.547715	2441.080448
367.935336	2440.455344
368.322893	2441.120777
368.710388	2437.050045
369.097820	2439.164809
369.485189	2437.322267
369.872495	2442.970880
370.259738	2444.016920
370.646918	2442.396189
371.034035	2444.276539
371.421090	2443.500201
371.808081	2444.778134
372.195010	2442.648246
372.581875	2445.448607
372.968678	2446.308124
373.355418	2444.261416
373.742096	2443.560695
374.128710	2442.010540
374.515262	2444.483226
374.901751	2446.270315
375.288177	2447.061777
375.674540	2445.501539
376.060841	2444.463062
376.447079	2446.860130
376.833254	2446.363577
377.219367	2444.140428
377.605417	2447.661674
377.991404	2446.595470
378.377329	2445.632609
378.763191	2448.248968
379.148991	2449.358022
379.534727	2447.989349
379.920402	2446.842486
380.306013	2447.669236
380.691563	2448.770728
381.077049	2449.216870
381.462474	2448.092693
381.847835	2450.681325
382.233134	2448.853907
382.618371	2448.022116
383.003545	2449.199226
383.388657	2449.312652
383.773706	2451.679473
384.158693	2449.743670
384.543618	2451.797941
384.928480	2449.239555
385.313280	2450.353650
385.698017	2451.533280
386.082692	2452.964968
386.467305	2450.162086
386.851856	2453.569906
387.236344	2451.646706
387.620770	2450.323403
388.005133	2448.833742
388.389435	2451.407251
388.773674	2448.579164
389.157851	2451.608897
389.541965	2452.738116
389.926018	2455.319187
390.310008	2452.753239
390.693936	2454.426902
391.077802	2457.325566
391.461606	2454.613425
391.845348	2453.297684
392.229027	2455.825822
392.612645	2455.238528
392.996200	2451.865996
393.379694	2454.663837
393.763125	2456.529063
394.146494	2455.946810
394.529801	2456.261882
394.913047	2455.702314
395.296230	2457.764146
395.679351	2457.055864
396.062410	2457.703652
396.445408	2458.074177
396.828343	2454.540328
397.211217	2457.214660
397.594028	2458.568210
397.976778	2456.483693
398.359466	2457.103755
398.742092	2459.402521
399.124656	2461.030814
399.507158	2457.759105
399.889598	2459.357151
400.271977	2457.270113
400.654294	2459.112655
401.036549	2459.538632
401.418742	2460.456122
401.800874	2458.532922
402.182944	2461.847481
402.564952	2457.282716
402.946898	2460.793880
403.328783	2458.580813
403.710606	2460.609877
404.092367	2458.185082
404.474067	2461.555094
404.855705	2460.771194
405.237282	2461.343365
405.618797	2461.292954
406.000250	2463.581638
406.381642	2460.846812
406.762972	2461.524847
407.144240	2456.511419
407.525447	2459.599126
407.906593	2456.125771
408.287677	2463.248922
408.668700	2460.829168
409.049661	2461.960907
409.430560	2461.575258
409.811399	2464.060547
410.192176	2464.645321
410.572891	2462.351596
410.953545	2466.321505
411.334138	2461.552573
411.714669	2465.204889
412.095139	2463.032152
412.475547	2463.397636
412.855894	2465.346042
413.236180	2464.862091
413.616405	2464.138685
413.996568	2462.896041
414.376670	2463.266566
414.756711	2464.415949
415.136691	2466.974334
415.516609	2464.325208
415.896466	2465.030969
416.276262	2465.240177
416.655997	2464.294961
417.035670	2468.461475
417.415283	2464.063068
417.794834	2464.307564
418.174324	2467.065075
418.553753	2466.785291
418.933121	2465.290589
419.312428	2465.358644
419.691674	2465.973665
420.070859	2465.643470
420.449983	2467.975003
420.829045	2464.307564
421.208047	2466.117338
421.586988	2468.300158
421.965867	2468.174129
422.344686	2469.147072
422.723444	2470.026753
423.102141	2467.549026
423.480777	2465.703963
423.859352	2468.658080
424.237866	2468.128758
424.616319	2468.789150
424.994712	2467.654890
425.373044	2471.055148
425.751314	2465.323356
426.129524	2464.335290
426.507673	2466.566001
426.885762	2462.759930
427.263789	2468.385857
427.641756	2472.103708
428.019662	2471.521455
428.397508	2467.851495
428.775292	2468.950467
429.153016	2468.579942
429.530679	2469.353759
429.908282	2472.764099
430.285824	2470.316619
430.663305	2470.825776
431.040726	2468.373254
431.418086	2472.257463
431.795385	2472.630509
432.172624	2469.129428
432.549802	2470.306537
432.926920	2468.920220
433.303977	2470.896352
433.680974	2471.297124
434.057910	2470.757720
434.434786	2472.738894
434.811601	2469.583131
435.188355	2469.613378
435.565050	2470.939202
435.941683	2472.627988
436.318257	2469.762092
436.694770	2470.856023
437.071222	2470.515745
437.447614	2470.157823
437.823946	2471.526496
438.200218	2469.557926
438.576429	2473.162351
438.952580	2474.757876
439.328670	2472.252422
439.704700	2472.418780
440.080670	2473.840386
440.456580	2473.981538
440.832429	2470.977010
441.208218	2473.729480
441.583947	2474.946919
441.959616	2473.500108
442.335224	2474.130252
442.710773	2472.507001
443.086261	2472.449027
443.461689	2473.185036
443.837057	2473.875674
444.212365	2471.213945
444.587612	2474.452886
444.962800	2470.177988
445.337927	2471.778554
445.712995	2469.638584
446.088002	2477.777527
446.462949	2474.470530
446.837837	2474.788123
447.212664	2474.944398
447.587431	2475.864409
447.962139	2473.721919
448.336786	2477.278453
448.711374	2473.396764
449.085901	2477.127218
449.460369	2474.631847
449.834776	2474.735191
450.209124	2475.753504
450.583412	2473.333750
450.957640	2475.811477
451.331808	2474.367186
451.705917	2474.261322
452.079965	2476.015644
452.453954	2473.220324
452.827883	2478.541262
453.201752	2474.977166
453.575562	2475.574543
453.949311	2477.812815
454.323001	2476.822228
454.696632	2478.684935
455.070202	2476.479430
455.443713	2474.319295
455.817164	2475.637557
456.190556	2478.263998
456.563888	2476.144193
456.937160	2476.499594
457.310373	2474.568833
457.683526	2479.884729
458.056619	2475.360294
458.429653	2476.277784
458.802628	2475.980356
459.175542	2476.973463
459.548398	2477.424646
459.921194	2476.290387
460.293930	2478.460603
460.666607	2477.205356
461.039224	2477.293576
461.411782	2476.189563
461.784280	2475.382979
462.156719	2478.717702
462.529099	2475.569502
462.901419	2478.720223
463.273680	2476.040849
463.645882	2474.215952
464.018024	2474.271404
464.390106	2472.207052
464.762130	2479.778865
465.134094	2480.091417
465.505999	2478.568988
465.877845	2475.947588
466.249631	2478.836169
466.621358	2476.023205
466.993026	2478.390027
467.364634	2482.990080
467.736184	2481.344143
468.107674	2477.235603
468.479105	2476.940695
468.850477	2479.287352
469.221790	2478.619400
469.593043	2477.996817
469.964238	2480.593011
470.335373	2479.483958
470.706449	2480.393886
471.077467	2478.493371
471.448425	2480.968577
471.819324	2479.352887
472.190164	2481.318938
472.560945	2479.317599
472.931667	2482.186016
473.302330	2478.808443
473.672934	2481.271047
474.043479	2479.773824
474.413965	2477.359111
474.784393	2479.647795
475.154761	2477.643936
475.525070	2480.792137
475.895321	2480.426653
476.265513	2481.195429
476.635645	2478.296766
477.005719	2478.851293
477.375734	2480.582929
477.745691	2482.443115
478.115588	2478.589153
478.485427	2481.565954
478.855207	2480.441777
479.224928	2480.351036
479.594591	2480.779534
479.964194	2479.962867
480.333739	2481.812971
480.703226	2480.003196
481.072653	2481.437405
481.442022	2482.566623
481.811333	2477.669142
482.180584	2476.484471
482.549777	2479.211735
482.918912	2477.343988
483.287988	2481.465131
483.657005	2481.013948
484.025964	2482.947230
484.394864	2480.492188
484.763706	2480.061170
485.132489	2480.043526
485.501213	2482.997642
485.869879	2482.574185
486.238487	2480.600573
486.607036	2481.528145
486.975527	2481.084524
487.343959	2482.851448
487.712333	2481.951602
488.080648	2478.014461
488.448905	2482.813640
488.817104	2482.561582
489.185244	2482.937148
489.553326	2483.244658
489.921350	2481.533187
490.289315	2481.102168
490.657222	2480.794658
491.025070	2480.451859
491.392861	2482.344812
491.760593	2480.593011
492.128267	2482.675008
492.495883	2480.837507
492.863440	2481.573516
493.230939	2478.528659
493.598380	2485.016624
493.965763	2482.080152
494.333088	2479.176447
494.700354	2482.221304
495.067563	2482.206181
495.434713	2481.056798
495.801805	2483.710965
496.168839	2482.102837
496.535815	2483.915132
496.902733	2481.109730
497.269593	2482.977477
497.636395	2480.179637
498.003139	2484.174751
498.369825	2481.175265
498.736453	2480.610655
499.103023	2482.508650
499.469535	2483.965543
499.835989	2481.583598
500.202385	2480.650985
500.568723	2478.034626
500.935003	2480.466983
501.301226	2477.437249
501.667390	2481.266005
502.033497	2481.621407
502.399546	2485.659371
502.765537	2482.937148
503.131470	2482.798516
503.497345	2485.107365
503.863163	2481.303814
504.228923	2482.337251
504.594625	2483.549648
504.960269	2483.816829
505.325856	2482.599391
505.691385	2483.549648
506.056856	2484.769607
506.422270	2479.151241
506.787625	2486.208857
507.152924	2482.417909
507.518164	2484.409165
507.883347	2482.869092
508.248472	2485.472848
508.613540	2485.366984
508.978550	2484.434371
509.343503	2484.641058
509.708398	2482.254072
510.073236	2484.820019
510.438016	2484.204998
510.802738	2483.017806
511.167403	2484.273054
511.532010	2483.305152
511.896561	2484.734319
512.261053	2483.955461
512.625488	2483.312714
512.989866	2483.174082
513.354186	2484.885554
513.718449	2482.339771
514.082655	2482.969915
514.446803	2483.796665
514.810894	2484.026037
515.174927	2486.536532
515.538904	2483.161479
515.902822	2486.062663
516.266684	2481.916314
516.630488	2485.056953
516.994235	2484.464617
517.357925	2485.188023
517.721558	2485.861017
518.085133	2483.794144
518.448651	2482.312045
518.812112	2480.799699
519.175516	2481.641571
519.538863	2479.352888
519.902152	2481.903711
520.265385	2485.520739
520.628560	2484.464617
520.991678	2484.630976
521.354739	2485.245996
521.717743	2482.833804
522.080690	2484.081490
522.443580	2484.764566
522.806413	2483.365646
523.169189	2485.261120
523.531908	2483.983187
523.894569	2484.623414
524.257174	2484.353712
524.619722	2483.247179
524.982213	2485.500575
525.344647	2483.907570
525.707025	2485.245996
526.069345	2484.709113
526.431608	2482.937148
526.793815	2486.120637
527.155964	2486.665081
527.518057	2487.572489
527.880093	2484.320945
528.242072	2484.449494
528.603995	2485.626603
528.965860	2481.230717
529.327669	2486.012252
529.689421	2483.894967
530.051117	2487.542242
530.412755	2485.866058
530.774337	2482.836325
531.135862	2486.186172
531.497331	2484.845225
531.858743	2485.079638
532.220098	2482.627117
532.581396	2484.946048
532.942638	2483.484113
533.303824	2484.237766
533.664953	2485.366984
534.026025	2485.752632
534.387040	2485.361943
534.747999	2484.862869
535.108902	2485.142653
535.469748	2483.965543
535.830537	2485.283805
536.191270	2484.141984
536.551947	2483.993270
536.912567	2481.684421
537.273131	2483.267343
537.633638	2480.971098
537.994089	2485.283805
538.354483	2485.611480
538.714821	2487.854793
539.075103	2486.392859
539.435328	2484.268013
539.795497	2484.477220
540.155609	2486.407982
540.515665	2484.376397
540.875665	2487.191882
541.235609	2485.548466
541.595496	2487.433857
541.955328	2484.830101
542.315102	2485.586274
542.674821	2485.026706
543.034483	2485.475369
543.394090	2485.182982
543.753640	2484.832622
544.113134	2485.039309
544.472571	2485.876141
544.831953	2486.246665
545.191278	2486.813795
545.550548	2486.632314
545.909761	2485.263640
546.268918	2487.048209
546.628019	2485.840853
546.987064	2484.724237
547.346053	2486.450832
547.704986	2484.255410
548.063863	2488.495020
548.422684	2485.054433
548.781449	2488.900833
549.140158	2486.314721
549.498811	2487.423775
549.857408	2485.417396
550.215949	2486.082828
550.574434	2486.223980
550.932864	2484.467138
551.291237	2486.559217
551.649555	2487.610298
552.007817	2485.850935
552.366022	2485.916470
552.724173	2488.043837
553.082267	2485.994608
553.440305	2485.424957
553.798288	2485.097282
554.156215	2486.133239
554.514086	2485.495533
554.871902	2479.299955
555.229661	2484.131901
555.587365	2481.565954
555.945014	2486.750781
556.302606	2487.249855
556.660143	2486.778507
557.017625	2487.433857
557.375050	2485.177941
557.732421	2486.549135
558.089735	2485.828250
558.446994	2483.993270
558.804197	2485.825729
559.161345	2488.371512
559.518437	2488.333703
559.875474	2487.060812
560.232455	2486.839001
560.589381	2487.244814
560.946251	2486.571820
561.303065	2485.966881
561.659825	2485.125009
562.016528	2483.905049
562.373177	2484.542755
562.729770	2484.507467
563.086307	2484.068887
563.442789	2484.787251
563.799216	2487.597695
564.155587	2487.227170
564.511904	2485.863538
564.868164	2484.963692
565.224370	2485.117447
565.580520	2484.020996
565.936615	2489.132726
566.292654	2484.628455
566.648638	2486.612149
567.004567	2483.607621
567.360441	2487.375884
567.716260	2484.290698
568.072023	2486.942345
568.427732	2485.031747
568.783385	2485.329175
569.138982	2485.369505
569.494525	2485.276243
569.850013	2487.280102
570.205445	2487.615339
570.560823	2486.158445
570.916145	2486.007211
571.271412	2487.534680
571.626625	2490.067860
571.981782	2485.351861
572.336884	2483.930255
572.691931	2483.975626
573.046923	2484.066366
573.401860	2479.892291
573.756743	2485.959320
574.111570	2488.167345
574.466342	2485.868579
574.821059	2484.930924
575.175722	2485.883702
575.530330	2486.869248
575.884882	2486.909577
576.239380	2485.591315
576.593823	2485.435040
576.948211	2486.155925
577.302544	2486.949906
577.656823	2487.305308
578.011047	2484.636017
578.365216	2487.491830
578.719330	2486.586943
579.073389	2486.236583
579.427394	2487.060812
579.781344	2484.462097
580.135239	2484.764566
580.489080	2487.383446
580.842866	2485.616521
581.196597	2486.891933
581.550273	2487.060812
581.903895	2485.573671
582.257463	2486.607108
582.610975	2486.297077
582.964434	2487.345637
583.317837	2485.291367
583.671186	2487.937973
584.024481	2486.972592
584.377721	2484.530153
584.730906	2485.815647
585.084037	2485.684577
585.437113	2485.193064
585.790135	2486.990236
586.143103	2487.731285
586.496016	2487.464104
586.848874	2486.702890
587.201679	2485.729947
587.554428	2488.119454
587.907124	2487.542242
588.259765	2486.292036
588.612352	2486.987715
588.964884	2487.708600
589.317362	2487.794300
589.669786	2487.660709
590.022155	2485.629124
590.374470	2480.885398
590.726731	2486.546614
591.078937	2479.163844
591.431090	2487.766573
591.783188	2485.747591
592.135232	2486.241624
592.487222	2489.604074
592.839157	2484.988898
593.191038	2486.914618
593.542866	2485.666933
593.894639	2486.866727
594.246358	2486.420585
594.598022	2484.976295
594.949633	2488.202633
595.301190	2487.315390
595.652692	2487.524598
596.004141	2486.924701
596.355535	2488.522746
596.706876	2484.381438
597.058162	2486.009731
597.409395	2487.383446
597.760573	2486.591984
598.111698	2485.815647
598.462768	2486.377735
598.813785	2486.768425
599.164748	2486.392859
599.515657	2485.417396
599.866511	2482.934627
600.217312	2483.819350
600.568060	2487.091059
600.918753	2488.290853
601.269392	2486.034937
601.619978	2488.336224
601.970510	2483.635348
602.320988	2485.288846
602.671412	2488.898312
603.021783	2485.175420
603.372100	2489.152891
603.722363	2486.234063
604.072572	2485.961840
604.422728	2486.007211
604.772830	2485.261120
605.122878	2487.234732
605.472872	2486.944865
605.822813	2485.240955
606.172701	2487.459063
606.522534	2487.975781
606.872314	2485.467807
607.222041	2487.837149
607.571714	2484.056284
607.921333	2481.581078
608.270899	2486.821357
608.620411	2483.547128
608.969870	2487.166676
609.319276	2488.323621
609.668627	2489.430154
610.017926	2485.127529
610.367171	2487.207005
610.716362	2487.585092
611.065500	2487.519557
611.414585	2486.597026
611.763616	2488.832777
612.112594	2488.121975
612.461518	2486.937303
612.810389	2485.654330
613.159207	2486.453353
613.507971	2488.036275
613.856682	2486.864207
614.205340	2487.494351
614.553945	2486.710452
614.902496	2487.118785
615.250994	2483.763897
615.599439	2485.823208
615.947830	2484.323465
616.296169	2485.606439
616.644454	2483.232055
616.992686	2486.907057
617.340864	2485.762715
617.688990	2488.033754
618.037063	2483.164000
618.385082	2485.908908
618.733048	2486.798672
619.080961	2486.166007
619.428821	2484.121819
619.776628	2487.796820
620.124382	2486.304639
620.472083	2489.409989
620.819731	2488.006028
621.167326	2484.865389
621.514868	2486.241624
621.862357	2488.764722
622.209793	2487.602736
622.557176	2484.121819
622.904506	2485.072077
623.251783	2487.401090
623.599007	2487.257417
623.946179	2487.181799
624.293297	2486.856645
624.640363	2485.014103
624.987376	2484.608290
625.334336	2481.838176
625.681243	2484.197436
626.028097	2479.239462
626.374899	2486.150883
626.721647	2485.351861
627.068343	2485.830770
627.414987	2486.433188
627.761577	2488.119454
628.108115	2485.651809
628.454600	2487.660709
628.801032	2484.938486
629.147412	2486.496202
629.493739	2486.405462
629.840014	2487.532160
630.186236	2487.544763
630.532405	2486.652478
630.878521	2484.850266
631.224585	2487.879999
631.570597	2484.802375
631.916556	2488.232880
632.262462	2486.397900
632.608316	2486.375215
632.954117	2486.047540
633.299866	2488.404279
633.645562	2486.740698
633.991206	2485.664412
634.336797	2485.908908
634.682336	2486.949906
635.027823	2486.831439
635.373257	2485.435040
635.718639	2488.361429
636.063968	2487.207005
636.409245	2485.450163
636.754470	2486.350009
637.099642	2486.781028
637.444762	2485.493013
637.789829	2486.322283
638.134845	2485.243476
638.479808	2485.324134
638.824719	2488.860504
639.169577	2486.418065
639.514383	2485.535863
639.859137	2487.900164
640.203839	2485.949237
640.548489	2487.655668
640.893086	2485.117447
641.237632	2486.546614
641.582125	2485.485451
641.926566	2486.271871
642.270955	2485.084679
642.615292	2483.532004
642.959576	2483.403455
643.303809	2483.403455
643.647990	2483.637868
643.992118	2485.011583
644.336195	2484.910760
644.680219	2483.688280
645.024192	2486.909577
645.368112	2486.985194
645.711981	2483.489154
646.055797	2487.196923
646.399562	2487.252376
646.743274	2486.584423
647.086935	2486.423106
647.430544	2487.080976
647.774101	2485.944196
648.117606	2484.948568
648.461059	2485.056953
648.804460	2489.006697
649.147810	2485.472848
649.491108	2485.858497
649.834354	2487.945534
650.177548	2487.050729
650.520690	2485.006542
650.863781	2486.440750
651.206820	2485.656850
651.549807	2484.371356
651.892742	2484.900677
652.235626	2484.704072
652.578458	2484.504947
652.921238	2486.985194
653.263967	2482.937148
653.606644	2487.920328
653.949269	2484.487303
654.291843	2488.016110
654.634365	2484.278095
654.976836	2487.048209
655.319255	2485.298928
655.661622	2484.963692
656.003938	2485.130050
656.346203	2486.087869
656.688416	2485.389669
657.030577	2487.466625
657.372687	2486.677684
657.714746	2484.920842
658.056753	2489.372181
658.398708	2487.423775
658.740612	2486.758343
659.082465	2484.462097
659.424266	2485.518219
659.766016	2482.818681
660.107715	2484.394041
660.449362	2481.656695
660.790958	2485.775317
661.132503	2486.450832
661.473996	2487.726244
661.815438	2486.385297
662.156829	2484.918321
662.498168	2487.506954
662.839456	2484.225163
663.180693	2483.111068
663.521879	2486.788589
663.863013	2484.131901
664.204097	2487.640544
664.545129	2485.997128
664.886110	2487.854793
665.227040	2485.077118
665.567918	2486.937303
665.908746	2485.329175
666.249522	2483.658033
666.590248	2487.481748
666.930922	2484.784731
667.271545	2484.721716
667.612118	2487.529639
667.952639	2484.799854
668.293109	2485.341778
668.633528	2484.673825
668.973896	2484.719196
669.314213	2487.577530
669.654480	2484.089052
669.994695	2485.422437
670.334859	2484.888074
670.674973	2485.745071
671.015035	2484.227683
671.355047	2482.614514
671.695008	2483.965543
672.034918	2486.155925
672.374777	2485.916470
672.714585	2484.348671
673.054342	2485.442601
673.394049	2487.164155
673.733705	2486.844042
674.073310	2487.275061
674.412864	2487.017962
674.752368	2483.383290
675.091820	2483.859679
675.431223	2483.776500
675.770574	2486.740698
676.109875	2485.240955
676.449125	2484.275574
676.788324	2479.660398
677.127473	2482.793475
677.466571	2483.007724
677.805619	2485.876141
678.144616	2485.956799
678.483562	2485.056953
678.822458	2485.782879
679.161303	2486.927221
679.500098	2483.804226
679.838842	2485.631645
680.177535	2484.159628
680.516179	2484.883033
680.854771	2485.608959
681.193314	2485.056953
681.531805	2485.442601
681.870247	2486.029896
682.208638	2486.218939
682.546978	2485.377066
682.885268	2483.574854
683.223508	2487.345637
683.561697	2482.415388
683.899836	2485.934114
684.237925	2486.551655
684.575963	2484.857827
684.913951	2484.787251
685.251889	2483.766418
685.589776	2487.857314
685.927614	2484.656181
686.265401	2482.599391
686.603137	2486.581902
686.940824	2488.502582
687.278460	2487.496872
687.616046	2485.147694
687.953582	2486.801192
688.291068	2483.789103
688.628504	2483.564772
688.965889	2485.893785
689.303224	2488.406800
689.640510	2484.081490
689.977745	2486.226501
690.314930	2485.626603
690.652065	2489.173055
690.989150	2482.977477
691.326185	2485.273723
691.663170	2484.081490
692.000105	2486.203816
692.336990	2487.035606
692.673825	2486.627273
693.010610	2487.209526
693.347345	2482.480923
693.684030	2482.856489
694.020665	2483.862200
694.357251	2482.884216
694.693786	2487.872438
695.030272	2484.520070
695.366707	2485.992087
695.703093	2486.778507
696.039429	2484.769607
696.375716	2482.682570
696.711952	2486.382777
697.048139	2485.785400
697.384276	2484.814978
697.720363	2484.610811
698.056400	2486.186172
698.392388	2484.928404
698.728326	2486.019813
699.064214	2483.443784
699.400053	2484.925883
699.735842	2486.294556
700.071581	2485.621562
700.407270	2484.625934
700.742910	2484.283136
701.078501	2487.179279
701.414042	2485.505616
701.749533	2486.357571
702.084974	2485.435040
702.420366	2483.310193
702.755709	2486.859166
703.091002	2485.500575
703.426246	2483.290029
703.761440	2485.281284
704.096584	2484.020996
704.431679	2485.573671
704.766725	2484.487303
705.101721	2484.504947
705.436668	2486.470997
705.771565	2484.333548
706.106413	2484.136943
706.441212	2486.846563
706.775961	2485.341778
707.110661	2485.477889
707.445311	2484.386480
707.779913	2484.051243
708.114465	2484.729278
708.448967	2484.905718
708.783421	2483.627786
709.117825	2483.300111
709.452180	2484.260451
709.786485	2486.682725
710.120742	2481.626448
710.454949	2481.281129
710.789107	2482.632158
711.123216	2480.635861
711.457275	2485.281284
711.791286	2486.135760
712.125247	2484.625934
712.459159	2485.429998
712.793023	2484.013434
713.126837	2486.198774
713.460602	2486.634834
713.794318	2484.515029
714.127985	2484.275574
714.461602	2484.320945
714.795171	2482.601911
715.128691	2482.974957
715.462162	2486.934783
715.795584	2485.288846
716.128957	2484.401603
716.462281	2486.465956
716.795556	2485.666933
717.128782	2483.584936
717.461960	2485.424957
717.795088	2485.132570
718.128167	2487.262458
718.461198	2485.372025
718.794180	2485.054433
719.127113	2485.429998
719.459997	2484.787251
719.792833	2483.617704
720.125619	2482.647282
720.458357	2485.586274
720.791046	2483.811788
721.123686	2484.278095
721.456278	2485.740029
721.788821	2484.825060
722.121315	2486.612149
722.453761	2485.798003
722.786158	2486.138281
723.118506	2484.925883
723.450805	2484.653661
723.783056	2484.361274
724.115259	2484.709113
724.447412	2486.871768
724.779518	2481.535707
725.111574	2485.545945
725.443582	2483.078300
725.775542	2486.783548
726.107453	2488.230359
726.439315	2483.718527
726.771129	2488.071563
727.102895	2481.079483
727.434612	2485.440081
727.766281	2477.870788
728.097901	2485.180461
728.429473	2485.145173
728.760996	2482.559061
729.092471	2484.104175
729.423897	2483.897488
729.755276	2485.140132
730.086606	2484.368836
730.417887	2482.710296
730.749120	2485.414875
731.080305	2484.383959
731.411442	2485.818167
731.742530	2483.781541
732.073570	2485.069556
732.404562	2483.549648
732.735506	2486.465956
733.066401	2485.868579
733.397249	2486.798672
733.728048	2483.973105
734.058798	2485.780359
734.389501	2484.691469
734.720156	2487.650627
735.050762	2482.745584
735.381320	2482.180975
735.711831	2487.983343
736.042293	2486.266830
736.372707	2482.856489
736.703073	2484.701552
737.033391	2481.996973
737.363661	2485.583754
737.693883	2485.256079
738.024056	2484.630976
738.354182	2483.605101
738.684260	2485.215749
739.014290	2482.843887
739.344272	2484.809937
739.674207	2485.117447
740.004093	2485.921511
740.333931	2482.206181
740.663722	2485.402272
740.993464	2485.034268
741.323159	2485.094762
741.652806	2485.727427
741.982405	2485.820688
742.311956	2486.191213
742.641460	2485.465287
742.970915	2483.272385
743.300323	2483.148876
743.629683	2480.056128
743.958996	2482.092755
744.288260	2479.577219
744.617477	2483.373208
744.946647	2484.104175
745.275768	2485.987046
745.604842	2484.000831
745.933869	2483.201808
746.262847	2482.675008
746.591778	2483.353043
746.920662	2483.647951
747.249498	2484.570482
747.578286	2484.026037
747.907027	2485.366984
748.235720	2483.221973
748.564365	2482.939668
748.892963	2482.296921
749.221514	2482.400265
749.550017	2483.708444
749.878473	2483.610142
750.206881	2483.012765
750.535242	2484.353712
750.863555	2481.407158
751.191821	2482.843887
751.520039	2485.926552
751.848210	2483.534525
752.176334	2485.056953
752.504411	2483.511839
752.832440	2481.197950
753.160421	2482.117960
753.488356	2483.484113
753.816243	2484.303301
754.144082	2484.857828
754.471875	2484.325986
754.799620	2484.767087
755.127318	2482.642240
755.454969	2484.484782
755.782572	2483.506798
756.110129	2484.199957
756.437638	2485.334217
756.765100	2483.799185
757.092515	2485.588795
757.419882	2484.363794
757.747203	2480.272898
758.074477	2482.692652
758.401703	2482.357415
758.728882	2484.699031
759.056014	2484.250368
759.383099	2484.018475
759.710138	2478.639564
760.037129	2479.730974
760.364073	2483.695842
760.690970	2481.828094
761.017820	2482.697693
761.344623	2483.400934
761.671379	2486.241624
761.998088	2482.485965
762.324751	2486.007211
762.651366	2484.696511
762.977935	2485.954278
763.304456	2485.485451
763.630931	2483.199288
763.957359	2484.215080
764.283740	2484.958651
764.610074	2481.833135
764.936362	2482.024699
765.262602	2483.849597
765.588796	2482.158290
765.914943	2486.438229
766.241044	2483.635348
766.567097	2484.313383
766.893104	2485.480410
767.219064	2483.194247
767.544978	2482.344812
767.870845	2483.703403
768.196665	2484.081490
768.522438	2482.790954
768.848165	2483.229535
769.173846	2481.996973
769.499479	2483.186685
769.825066	2481.969246
770.150607	2485.177941
770.476101	2483.743732
770.801548	2481.780203
771.126949	2484.482262
771.452303	2485.674494
771.777611	2485.702221
772.102872	2481.223156
772.428087	2482.269195
772.753256	2483.239617
773.078378	2481.006386
773.403453	2484.504947
773.728482	2483.990749
774.053465	2482.470841
774.378401	2484.706593
774.703291	2480.870275
775.028135	2481.570995
775.352932	2483.317755
775.677683	2481.641571
776.002388	2482.415388
776.327046	2479.312558
776.651658	2481.636530
776.976224	2478.150572
777.300743	2483.438743
777.625216	2482.382621
777.949643	2483.189206
778.274024	2483.806747
778.598359	2483.302632
778.922647	2480.832466
779.246889	2483.894967
779.571086	2483.385811
779.895236	2482.831284
780.219339	2483.741212
780.543397	2482.937148
780.867409	2486.458394
781.191374	2482.700214
781.515294	2481.049236
781.839167	2482.904380
782.162995	2482.785913
782.486776	2483.194247
782.810511	2482.637199
783.134201	2483.279946
783.457844	2483.385811
783.781441	2484.502426
784.104993	2484.073928
784.428498	2483.254741
784.751958	2480.862713
785.075372	2483.234576
785.398739	2482.697693
785.722061	2482.730461
786.045337	2481.510501
786.368568	2484.691469
786.691752	2481.167703
787.014891	2482.296921
787.337983	2481.691983
787.661030	2480.943372
787.984031	2482.397744
788.306987	2485.125009
788.629897	2481.026551
788.952760	2482.939668
789.275579	2482.178454
789.598351	2481.182826
789.921078	2483.221973
790.243759	2482.390183
790.566395	2484.043681
790.888984	2482.995121
791.211529	2482.155769
791.534027	2485.243476
791.856480	2482.405306
792.178888	2479.060501
792.501249	2480.230048
792.823566	2479.705768
793.145836	2478.942033
793.468062	2480.199801
793.790241	2480.681232
794.112375	2483.080821
794.434464	2481.664257
794.756507	2484.167189
795.078505	2481.230717
795.400457	2484.426809
795.722364	2483.814309
796.044226	2480.577888
796.366042	2483.405975
796.687812	2481.336582
797.009538	2482.627117
797.331218	2482.546458
797.652852	2481.732312
797.974442	2483.312714
798.295986	2481.661736
798.617484	2484.058805
798.938938	2480.661067
799.260346	2481.069400
799.581709	2483.693321
799.903026	2482.675008
800.224299	2479.988073
800.545526	2480.918166
800.866708	2484.671305
801.187845	2485.611480
801.508936	2485.170379
801.829983	2483.199288
802.150984	2482.546458
802.471940	2483.302632
802.792851	2478.765593
803.113717	2481.818012
803.434538	2486.344968
803.755314	2481.702065
804.076045	2481.334061
804.396731	2483.627786
804.717372	2480.577888
805.037967	2484.189875
805.358518	2482.236427
805.679024	2483.088383
805.999485	2482.087713
806.319901	2482.826243
806.640272	2480.703917
806.960598	2479.690645
807.280879	2483.164000
807.601115	2482.806078
807.921306	2480.711478
808.241453	2479.645274
808.561554	2480.683752
808.881611	2481.533187
809.201623	2475.720736
809.521590	2481.253402
809.841513	2481.666777
810.161390	2481.792806
810.481223	2481.349184
810.801011	2481.177785
811.120755	2483.307673
811.440453	2481.523104
811.760107	2484.905718
812.079716	2483.219453
812.399281	2481.976808
812.718801	2482.803557
813.038276	2483.700883
813.357707	2481.583598
813.677093	2483.055615
813.996434	2482.135604
814.315731	2482.128043
814.634983	2483.277426
814.954191	2481.818012
815.273354	2480.948413
815.592473	2480.358598
815.911547	2483.176603
816.230577	2482.644761
816.549562	2480.898001
816.868502	2481.021509
817.187399	2479.715851
817.506250	2482.818681
817.825058	2482.516212
818.143821	2480.270377
818.462539	2483.471510
818.781213	2480.895481
819.099843	2484.157107
819.418429	2482.491006
819.736970	2482.223825
820.055466	2481.742394
820.373919	2483.741212
820.692327	2481.754997
821.010691	2484.162148
821.329011	2482.380100
821.647286	2487.577530
821.965517	2486.075266
822.283704	2490.365288
822.601847	2492.240597
822.919945	2488.527788
823.237999	2486.828919
823.556010	2489.014259
823.873976	2487.075935
824.191897	2485.843373
824.509775	2482.798516
824.827609	2483.789103
825.145398	2482.107878
825.463144	2486.864207
825.780845	2483.259782
826.098502	2485.959320
826.416116	2484.071408
826.733685	2484.857827
827.051210	2486.407982
827.368692	2484.658702
827.686129	2482.203660
828.003522	2484.482262
828.320872	2482.919504
828.638177	2482.954792
828.955439	2482.629638
829.272656	2481.472693
829.589830	2481.679380
829.906960	2481.475213
830.224046	2480.986221
830.541088	2484.134422
830.858086	2482.067549
831.175041	2482.044864
831.491952	2482.052425
831.808819	2481.961685
832.125642	2481.104688
832.442421	2483.673156
832.759157	2482.344812
833.075849	2482.995121
833.392497	2484.356233
833.709101	2481.543269
834.025662	2484.885554
834.342179	2483.804226
834.658653	2483.557210
834.975083	2481.679380
835.291469	2485.112406
835.607811	2480.756849
835.924110	2480.482106
836.240366	2483.287508
836.556578	2485.198105
836.872746	2480.121663
837.188871	2484.646099
837.504952	2479.657877
837.820990	2484.197436
838.136984	2481.825573
838.452935	2478.261478
838.768842	2479.441108
839.084706	2484.257930
839.400526	2481.157621
839.716303	2480.812302
840.032037	2481.008907
840.347727	2477.235603
840.663373	2481.044195
840.978977	2477.228041
841.294537	2481.298773
841.610054	2480.562764
841.925527	2482.894298
842.240957	2482.186016
842.556344	2483.027889
842.871687	2481.480254
843.186987	2483.519401
843.502244	2482.289360
843.817458	2483.068218
844.132629	2480.663588
844.447756	2480.414050
844.762840	2481.772641
845.077881	2480.860193
845.392879	2477.782568
845.707833	2480.885398
846.022745	2483.037971
846.337613	2481.273567
846.652438	2480.449338
846.967221	2478.778196
847.281960	2482.153248
847.596656	2483.963023
847.911309	2481.674339
848.225919	2481.124853
848.540485	2483.204329
848.855009	2483.504278
849.169490	2481.160141
849.483928	2479.531848
849.798323	2480.910604
850.112675	2482.715337
850.426984	2477.195274
850.741251	2481.492857
851.055474	2481.026551
851.369654	2482.022178
851.683792	2479.375573
851.997887	2481.079483
852.311938	2478.785758
852.625947	2483.237097
852.939914	2480.983701
853.253837	2478.395068
853.567718	2479.554534
853.881555	2479.138638
854.195350	2481.656695
854.509103	2482.521253
854.822812	2480.043526
855.136479	2481.271047
855.450103	2480.290542
855.763685	2478.034626
856.077224	2476.960860
856.390720	2482.286839
856.704173	2476.736529
857.017584	2479.312558
857.330953	2477.951447
857.644278	2479.065542
857.957561	2483.146356
858.270802	2481.268526
858.584000	2478.397589
858.897155	2481.253403
859.210268	2478.130408
859.523339	2479.219297
859.836367	2475.912300
860.149352	2480.910604
860.462295	2480.179637
860.775195	2480.494709
861.088054	2481.260964
861.400869	2482.559061
861.713642	2479.730974
862.026373	2482.826242
862.339062	2477.477578
862.651708	2481.172744
862.964312	2480.061170
863.276873	2481.644092
863.589392	2477.754842
863.901869	2478.319451
864.214303	2479.925058
864.526696	2480.741725
864.839045	2478.873978
865.151353	2483.983187
865.463619	2479.776344
865.775842	2480.129225
866.088023	2480.487147
866.400162	2480.046046
866.712258	2478.707620
867.024313	2482.680049
867.336325	2481.802888
867.648296	2480.661067
867.960224	2479.675521
868.272110	2480.358598
868.583954	2480.713999
868.895755	2480.774493
869.207515	2480.756849
869.519233	2479.047898
869.830909	2479.136118
870.142542	2481.439925
870.454134	2479.456231
870.765684	2479.983032
871.077191	2480.262816
871.388657	2477.492702
871.700081	2476.401292
872.011463	2478.488330
872.322803	2475.420788
872.634101	2479.098309
872.945357	2479.262147
873.256571	2480.769452
873.567744	2479.698207
873.878874	2482.354895
874.189963	2479.115953
874.501010	2482.034781
874.812015	2478.130408
875.122979	2478.989924
875.433900	2480.164513
875.744780	2480.610655
876.055618	2478.216107
876.366415	2481.752477
876.677169	2482.027220
876.987882	2480.860193
877.298554	2479.935141
877.609183	2479.804071
877.919771	2480.235089
878.230317	2480.235089
878.540822	2480.744246
878.851285	2480.252733
879.161707	2479.269708
879.472087	2479.234420
879.782425	2479.241982
880.092722	2481.780203
880.402977	2482.183495
880.713191	2482.896819
881.023363	2483.332878
881.333494	2484.822539
881.643583	2484.648620
881.953631	2484.966212
882.263637	2483.075780
882.573602	2484.482262
882.883526	2485.336737
883.193408	2481.971767
883.503248	2484.154587
883.813048	2482.407827
884.122806	2484.383959
884.432522	2485.359422
884.742197	2483.741212
885.051831	2480.739205
885.361424	2481.863382
885.670975	2477.623772
885.980485	2482.554020
886.289954	2478.420274
886.599382	2479.988073
886.908768	2478.957157
887.218113	2474.883905
887.527417	2476.315592
887.836680	2477.520428
888.145901	2478.253916
888.455082	2480.724081
888.764221	2482.697693
889.073319	2479.483957
889.382376	2479.859523
889.691392	2476.953298
890.000366	2481.891108
890.309300	2480.217445
890.618193	2481.996973
890.927044	2480.134266
891.235855	2478.165696
891.544625	2482.649802
891.853353	2481.921355
892.162041	2479.579739
892.470687	2478.778196
892.779293	2479.814153
893.087858	2479.103350
893.396381	2477.273412
893.704864	2480.900522
894.013306	2480.129225
894.321707	2480.472024
894.630068	2482.425471
894.938387	2482.427991
895.246665	2484.767087
895.554903	2481.447487
895.863100	2479.894812
896.171256	2478.289204
896.479371	2481.460090
896.787446	2482.634679
897.095480	2482.929586
897.403473	2480.981180
897.711425	2481.122333
898.019336	2482.284318
898.327207	2477.810294
898.635038	2478.702579
898.942827	2476.287866
899.250576	2480.560244
899.558284	2478.800881
899.865952	2480.834987
900.173579	2477.134780
900.481165	2481.031592
900.788711	2480.285501
901.096216	2479.292394
901.403681	2478.304328
901.711105	2479.975470
902.018489	2477.742239
902.325832	2476.431539
902.633135	2473.202680
902.940397	2478.831128
903.247619	2475.637557
903.554800	2478.369862
903.861941	2478.858854
904.169041	2483.277426
904.476101	2481.351705
904.783121	2481.195429
905.090100	2481.639051
905.397039	2480.318268
905.703938	2479.615028
906.010796	2482.806078
906.317614	2481.082003
906.624391	2481.891108
906.931129	2478.808443
907.237826	2479.146200
907.544483	2478.432877
907.851099	2479.037815
908.157675	2478.185860
908.464211	2479.247023
908.770707	2478.657208
909.077163	2480.073773
909.383578	2478.500933
909.689954	2479.178968
909.996289	2476.585294
910.302584	2478.170737
910.608839	2478.899184
910.915054	2481.752477
911.221229	2479.473875
911.527363	2477.885912
911.833458	2480.756849
912.139513	2480.726602
912.445527	2478.067393
912.751502	2478.732826
913.057436	2479.126036
913.363331	2478.818525
913.669186	2478.145531
913.975000	2477.989255
914.280775	2477.243165
914.586510	2478.193422
914.892205	2476.842393
915.197859	2480.345995
915.503475	2479.156282
915.809050	2480.169554
916.114585	2483.252220
916.420081	2479.564616
916.725536	2481.482775
917.030952	2479.126036
917.336328	2481.858341
917.641665	2476.834831
917.946961	2478.551344
918.252218	2478.332054
918.557435	2475.728298
918.862612	2480.078814
919.167750	2479.627630
919.472848	2480.245172
919.777906	2479.448669
920.082925	2479.360449
920.387904	2478.556385
920.692843	2480.189719
920.997743	2479.156283
921.302603	2478.253916
921.607423	2479.922538
921.912204	2479.811632
922.216946	2480.424133
922.521647	2479.325161
922.826310	2482.100316
923.130932	2480.187198
923.435516	2476.817187
923.740059	2478.314410
924.044564	2478.064873
924.349028	2477.137300
924.653454	2476.537403
924.957840	2480.053608
925.262186	2480.255254
925.566493	2479.032774
925.870761	2477.197794
926.174989	2479.985552
926.479178	2479.390696
926.783328	2478.024543
927.087438	2479.184009
927.391509	2480.333392
927.695541	2476.570171
927.999533	2478.332054
928.303486	2477.928762
928.607400	2479.088227
928.911275	2478.168216
929.215110	2479.267188
929.518906	2477.439770
929.822663	2477.928762
930.126381	2479.201653
930.430060	2481.830615
930.733699	2481.255923
931.037299	2479.862044
931.340861	2477.996817
931.644383	2478.183340
931.947866	2478.475727
932.251309	2477.626292
932.554714	2476.040849
932.858080	2475.940026
933.161407	2474.893987
933.464694	2475.942547
933.767943	2474.016826
934.071153	2478.135449
934.374323	2477.971611
934.677455	2476.426498
934.980548	2479.037815
935.283602	2476.272743
935.586617	2478.364821
935.889593	2476.524800
936.192530	2474.672176
936.495428	2478.989924
936.798287	2479.521766
937.101108	2479.582260
937.403890	2477.964050
937.706632	2477.737198
938.009336	2476.454224
938.312002	2479.332723
938.614628	2477.550675
938.917216	2477.618731
939.219765	2478.417753
939.522275	2477.021354
939.824747	2477.580922
940.127179	2477.749801
940.429573	2472.159161
940.731929	2479.995635
941.034246	2477.462455
941.336524	2479.557054
941.638763	2478.221148
941.940964	2479.400778
942.243126	2479.206694
942.545250	2476.423977
942.847335	2476.983545
943.149381	2479.279791
943.451389	2477.195274
943.753359	2478.175778
944.055290	2474.720067
944.357182	2476.915490
944.659036	2477.830459
944.960851	2478.248875
945.262628	2476.310551
945.564367	2479.138638
945.866067	2478.737867
946.167729	2476.865078
946.469352	2475.929944
946.770937	2479.791468
947.072484	2475.919862
947.373992	2477.807774
947.675462	2474.137814
947.976893	2477.230562
948.278286	2474.823411
948.579641	2477.175109
948.880958	2470.828296
949.182236	2476.116467
949.483476	2477.699389
949.784678	2479.413381
950.085841	2475.327526
950.386967	2476.116467
950.688054	2478.087558
950.989103	2478.011941
951.290114	2477.795171
951.591087	2476.154275
951.892021	2476.164358
952.192917	2478.384986
952.493776	2477.268370
952.794596	2475.388020
953.095378	2479.000007
953.396122	2479.587301
953.696828	2477.830459
953.997496	2475.284676
954.298126	2477.240644
954.598718	2477.832980
954.899272	2476.164358
955.199788	2478.752990
955.500266	2479.199132
955.800706	2477.684266
956.101108	2475.932465
956.401472	2477.041518
956.701798	2477.517907
957.002087	2476.537403
957.302337	2476.597897
957.602550	2477.991776
957.902724	2477.832980
958.202861	2476.499594
958.502960	2479.831797
958.803022	2476.033288
959.103045	2478.327013
959.403031	2477.570840
959.702979	2474.712505
960.002889	2478.276601
960.302762	2477.775006
960.602596	2477.782568
960.902393	2477.664101
961.202153	2477.790130
961.501875	2474.957001
961.801559	2474.334419
962.101205	2477.076807
962.400814	2477.648977
962.700385	2479.332723
962.999918	2474.631847
963.299414	2473.406847
963.598873	2476.265181
963.898293	2470.130097
964.197677	2478.044708
964.497022	2476.648308
964.796331	2478.561426
965.095601	2479.299955
965.394835	2477.585963
965.694030	2478.495891
965.993189	2477.507825
966.292309	2474.863740
966.591393	2476.335757
966.890439	2477.291056
967.189447	2474.394913
967.488419	2476.096302
967.787353	2477.762403
968.086249	2473.212762
968.385108	2477.094451
968.683930	2477.709471
968.982714	2476.265181
969.281462	2477.170068
969.580172	2476.890284
969.878844	2478.183340
970.177480	2478.188381
970.476078	2479.415902
970.774639	2477.500263
971.073162	2478.125367
971.371649	2476.081179
971.670098	2477.374235
971.968510	2476.683597
972.266885	2478.266519
972.565223	2478.828607
972.863524	2475.403143
973.161788	2474.644450
973.460014	2475.020016
973.758204	2476.749132
974.056356	2477.089409
974.354471	2477.401961
974.652550	2476.948257
974.950591	2477.202835
975.248595	2475.642598
975.546563	2478.339616
975.844493	2475.902218
976.142386	2474.316775
976.440243	2477.311220
976.738062	2476.350880
977.035845	2475.186374
977.333590	2475.945067
977.631299	2476.660911
977.928971	2475.289718
978.226606	2470.931640
978.524204	2476.325675
978.821765	2470.460292
979.119290	2475.713174
979.416777	2476.355922
979.714228	2479.045377
980.011642	2478.384986
980.309020	2478.342136
980.606360	2474.258802
980.903664	2475.224183
981.200931	2475.113277
981.498162	2475.647639
981.795356	2477.545634
982.092513	2475.287197
982.389633	2478.100161
982.686717	2479.819194
982.983764	2475.972794
983.280775	2478.412712
983.577749	2476.479430
983.874686	2475.877012
984.171587	2477.780047
984.468451	2478.016982
984.765279	2474.987248
985.062070	2476.187043
985.358824	2476.532362
985.655543	2475.314923
985.952224	2475.509008
986.248869	2477.399440
986.545478	2477.918679
986.842050	2472.635550
987.138586	2476.217290
987.435086	2475.458596
987.731549	2476.025726
988.027975	2474.856178
988.324366	2476.045891
988.620719	2475.728298
988.917037	2474.412557
989.213318	2476.078658
989.509563	2475.115798
989.805772	2475.322485
990.101944	2475.768627
990.398080	2476.532362
990.694180	2478.853813
990.990244	2474.833493
991.286271	2476.232413
991.582262	2475.342650
991.878217	2475.445993
992.174136	2477.762403
992.470019	2476.146714
992.765865	2474.057155
993.061676	2474.185705
993.357450	2474.838534
993.653188	2472.486836
993.948890	2475.655201
994.244556	2478.969760
994.540186	2477.081848
994.835780	2477.412043
995.131337	2476.043370
995.426859	2477.943885
995.722345	2474.936837
996.017795	2478.238793
996.313208	2477.255768
996.608586	2474.810808
996.903928	2475.483802
997.199234	2476.318113
997.494504	2475.607310
997.789738	2477.346508
998.084936	2476.499594
998.380099	2476.136631
998.675225	2476.091261
998.970316	2475.839203
999.265371	2477.200315
999.560390	2476.555047
999.855373	2476.252578
1000.150320	2476.106384
1000.445232	2473.328709
1000.740108	2476.408854
1001.034948	2477.195274
1001.329752	2475.350211
1001.624521	2476.267701
1001.919254	2476.774337
1002.213951	2478.574029
1002.508613	2473.943729
1002.803239	2472.547330
1003.097829	2474.888946
1003.392384	2476.827269
1003.686903	2475.907259
1003.981386	2474.289048
1004.275834	2478.067393
1004.570246	2476.673514
1004.864623	2473.623616
1005.158964	2475.771148
1005.453270	2478.367342
1005.747540	2474.410036
1006.041775	2474.611682
1006.335974	2476.562609
1006.630138	2477.132259
1006.924266	2477.565798
1007.218359	2475.388020
1007.512416	2470.921558
1007.806438	2470.896352
1008.100425	2475.156127
1008.394376	2472.507001
1008.688292	2476.136631
1008.982172	2474.924234
1009.276017	2476.615541
1009.569827	2475.690489
1009.863602	2476.986066
1010.157341	2476.242496
1010.451045	2475.388020
1010.744714	2475.014975
1011.038347	2476.003041
1011.331945	2475.367855
1011.625508	2476.454224
1011.919036	2474.591518
1012.212528	2475.559419
1012.505986	2477.994297
1012.799408	2475.372897
1013.092795	2478.079996
1013.386147	2476.033288
1013.679464	2476.280304
1013.972745	2476.844913
1014.265992	2475.524131
1014.559204	2476.023205
1014.852380	2474.730149
1015.145521	2474.992289
1015.438628	2476.088740
1015.731699	2477.051601
1016.024736	2475.481281
1016.317737	2477.283494
1016.610703	2476.512197
1016.903635	2473.734522
1017.196531	2475.418267
1017.489393	2473.616054
1017.782219	2475.544296
1018.075011	2476.771817
1018.367768	2474.052114
1018.660490	2474.853658
1018.953177	2474.853658
1019.245829	2474.853658
