Dividing Wavelength (nm)	Counts (n)	Blue Motor Position (mm): 26.500000	Red Motor Position (mm): 0.000000	
326.493990	2100.931112
326.888308	2100.931112
327.282561	2100.931112
327.676750	2075.926989
328.070874	2078.732391
328.464933	2083.909656
328.858929	2093.366861
329.252859	2107.724067
329.646726	2126.015894
330.040528	2139.906793
330.434265	2157.150060
330.827938	2177.135714
331.221547	2197.043231
331.615091	2218.115254
332.008571	2236.923799
332.401986	2260.448343
332.795338	2278.941816
333.188625	2298.554425
333.581847	2317.115954
333.975006	2337.169664
334.368100	2353.704648
334.761129	2371.968749
335.154095	2386.406613
335.546996	2429.886565
335.939833	2508.316837
336.332606	2520.617252
336.725315	2531.541433
337.117960	2540.368493
337.510540	2545.059287
337.903056	2556.157387
338.295508	2561.569066
338.687896	2572.405026
339.080220	2576.672362
339.472480	2581.864751
339.864676	2583.298959
340.256807	2588.468662
340.648875	2588.551842
341.040879	2592.914960
341.432818	2591.934456
341.824694	2590.923704
342.216506	2594.923860
342.608253	2593.232553
342.999937	2592.781370
343.391557	2590.376739
343.783113	2590.744743
344.174605	2589.252562
344.566033	2586.096800
344.957397	2582.961202
345.348697	2582.290728
345.739934	2582.809967
346.131106	2580.982549
346.522215	2578.217476
346.913260	2577.100861
347.304241	2573.627506
347.695159	2574.983576
348.086012	2570.650704
348.476802	2569.788667
348.867528	2569.355128
349.258191	2565.516289
349.648789	2566.927812
350.039324	2562.819272
350.429796	2564.608881
350.820203	2564.306412
351.210548	2562.990671
351.600828	2564.477811
351.991045	2565.670044
352.381198	2563.519992
352.771288	2564.863460
353.161314	2562.534447
353.551276	2561.364899
353.941175	2561.385063
354.331010	2558.768705
354.720782	2561.997564
355.110490	2564.006463
355.500135	2561.962276
355.889717	2560.724672
356.279235	2563.565362
356.668689	2563.313305
357.058080	2561.911864
357.447408	2560.132337
357.836672	2561.075033
358.225873	2560.480176
358.615010	2558.549414
359.004084	2564.419838
359.393095	2568.538461
359.782043	2565.448233
360.170927	2568.326732
360.559748	2565.395301
360.948505	2566.426217
361.337199	2571.681620
361.725830	2570.262535
362.114398	2571.706826
362.502903	2571.301013
362.891344	2571.109449
363.279722	2570.486867
363.668037	2570.605334
364.056289	2573.047773
364.444478	2571.671538
364.832603	2573.506518
365.220665	2575.182702
365.608665	2574.741601
365.996601	2576.579101
366.384474	2572.480643
366.772284	2577.622620
367.160031	2575.550706
367.547715	2575.643967
367.935336	2575.260839
368.322893	2576.813515
368.710388	2575.278483
369.097820	2578.749318
369.485189	2579.870975
369.872495	2576.793350
370.259738	2579.016499
370.646918	2577.423494
371.034035	2579.767631
371.421090	2581.186716
371.808081	2579.381983
372.195010	2581.539597
372.581875	2581.451376
372.968678	2582.073959
373.355418	2582.429360
373.742096	2584.425657
374.128710	2584.191243
374.515262	2582.015986
374.901751	2583.132601
375.288177	2583.598908
375.674540	2583.772828
376.060841	2586.089238
376.447079	2586.255596
376.833254	2585.252406
377.219367	2583.205698
377.605417	2584.402972
377.991404	2581.758887
378.377329	2585.917839
378.763191	2582.981367
379.148991	2585.549834
379.534727	2587.896492
379.920402	2588.645103
380.306013	2587.339444
380.691563	2592.007552
381.077049	2589.602922
381.462474	2590.719538
381.847835	2590.026379
382.233134	2588.647623
382.618371	2591.657192
383.003545	2591.319435
383.388657	2590.832964
383.773706	2592.516709
384.158693	2592.879672
384.543618	2593.882862
384.928480	2595.024683
385.313280	2593.454364
385.698017	2593.149374
386.082692	2595.485949
386.467305	2592.443612
386.851856	2597.071392
387.236344	2597.459560
387.620770	2597.383943
388.005133	2596.474015
388.389435	2596.640373
388.773674	2598.543408
389.157851	2595.490990
389.541965	2598.210692
389.926018	2597.855291
390.310008	2599.365117
390.693936	2599.891917
391.077802	2599.506269
391.461606	2602.578852
391.845348	2597.572986
392.229027	2599.957452
392.612645	2601.772267
392.996200	2603.569439
393.379694	2602.795622
393.763125	2601.305961
394.146494	2604.983482
394.529801	2603.672783
394.913047	2605.290993
395.296230	2606.463061
395.679351	2602.286465
396.062410	2607.143617
396.445408	2606.667228
396.828343	2604.590273
397.211217	2603.851743
397.594028	2605.752258
397.976778	2602.457864
398.359466	2608.325767
398.742092	2603.667741
399.124656	2610.185953
399.507158	2608.794595
399.889598	2610.221241
400.271977	2610.077568
400.654294	2610.236365
401.036549	2612.951026
401.418742	2610.342229
401.800874	2609.326437
402.182944	2608.749224
402.564952	2610.962291
402.946898	2613.954216
403.328783	2613.916407
403.710606	2612.066304
404.092367	2615.159052
404.474067	2615.680811
404.855705	2612.706530
405.237282	2615.748867
405.618797	2616.197529
406.000250	2618.347581
406.381642	2618.461007
406.762972	2617.162910
407.144240	2617.722478
407.525447	2620.991667
407.906593	2618.697942
408.287677	2620.195164
408.668700	2618.619804
409.049661	2621.475617
409.430560	2620.046450
409.811399	2621.463014
410.192176	2621.493261
410.572891	2620.858076
410.953545	2622.730865
411.334138	2619.655761
411.714669	2624.802779
412.095139	2623.981071
412.475547	2623.088787
412.855894	2622.756070
413.236180	2623.487038
413.616405	2626.284878
413.996568	2625.037192
414.376670	2628.366875
414.756711	2625.816051
415.136691	2626.998201
415.516609	2627.993829
415.896466	2626.133643
416.276262	2630.496762
416.655997	2626.882255
417.035670	2629.271762
417.415283	2629.218830
417.794834	2627.159518
418.174324	2628.276134
418.553753	2629.458284
418.933121	2630.413583
419.312428	2632.356948
419.691674	2629.448202
420.070859	2633.869294
420.449983	2633.014818
420.829045	2631.930970
421.208047	2636.387350
421.586988	2633.478605
421.965867	2636.755355
422.344686	2637.927423
422.723444	2640.909265
423.102141	2637.365334
423.480777	2638.983545
423.859352	2637.899697
424.237866	2640.163175
424.616319	2642.038484
424.994712	2642.731642
425.373044	2642.101498
425.751314	2643.200470
426.129524	2644.760707
426.507673	2644.939668
426.885762	2645.423619
427.263789	2646.986376
427.641756	2645.705923
428.019662	2646.464617
428.397508	2647.530821
428.775292	2650.222797
429.153016	2652.209012
429.530679	2652.082983
429.908282	2653.002993
430.285824	2651.470483
430.663305	2655.863848
431.040726	2654.898467
431.418086	2656.672953
431.795385	2659.180927
432.172624	2661.754437
432.549802	2660.040444
432.926920	2660.756288
433.303977	2664.887514
433.680974	2668.870025
434.057910	2667.604696
434.434786	2670.790705
434.811601	2671.816580
435.188355	2675.622651
435.565050	2674.712722
435.941683	2679.650533
436.318257	2680.615914
436.694770	2680.956192
437.071222	2684.847962
437.447614	2682.193795
437.823946	2684.772345
438.200218	2691.141843
438.576429	2691.923222
438.952580	2696.477904
439.328670	2700.047041
439.704700	2706.056097
440.080670	2706.454348
440.456580	2710.830069
440.832429	2716.304762
441.208218	2717.738971
441.583947	2721.948334
441.959616	2725.981257
442.335224	2733.638770
442.710773	2739.846951
443.086261	2748.111922
443.461689	2752.875813
443.837057	2761.165990
444.212365	2773.521858
444.587612	2782.603497
444.962800	2790.245886
445.337927	2805.830613
445.712995	2807.897487
446.088002	2836.132989
446.462949	2855.317100
446.837837	2872.762013
447.212664	2894.000394
447.587431	2957.476083
447.962139	3021.312214
448.336786	3082.262285
448.711374	3080.548292
449.085901	3057.611042
449.460369	3087.280753
449.834776	3125.835498
450.209124	3219.192626
450.583412	3251.251844
450.957640	3303.248825
451.331808	3317.043943
451.705917	3331.295285
452.079965	3383.824108
452.453954	3444.875001
452.827883	3503.460771
453.201752	3556.728123
453.575562	3626.459883
453.949311	3744.410281
454.323001	3823.511026
454.696632	3893.028537
455.070202	4061.360226
455.443713	4158.614166
455.817164	4287.234165
456.190556	4421.643929
456.563888	4487.211697
456.937160	4615.219196
457.310373	4613.580821
457.683526	4750.211214
458.056619	4867.675139
458.429653	4986.621164
458.802628	5164.720089
459.175542	5310.845495
459.548398	5590.758082
459.921194	5913.051651
460.293930	6173.092010
460.666607	6583.920843
461.039224	6986.590568
461.411782	7209.553241
461.784280	7224.434727
462.156719	7329.608320
462.529099	7423.613236
462.901419	7421.412772
463.273680	7449.406300
463.645882	7651.042371
464.018024	7863.189249
464.390106	8219.220739
464.762130	8970.188825
465.134094	10066.889323
465.505999	11443.227667
465.877845	12739.245306
466.249631	13285.643369
466.621358	13172.010720
466.993026	12963.987507
467.364634	12765.212290
467.736184	12585.437182
468.107674	12582.193199
468.479105	12671.063701
468.850477	12782.581585
469.221790	12668.636385
469.593043	12463.471506
469.964238	12482.537150
470.335373	12748.969692
470.706449	13634.695382
471.077467	14823.346527
471.448425	16662.344326
471.819324	17932.112678
472.190164	17525.198301
472.560945	16595.463338
472.931667	15805.602751
473.302330	15724.054525
473.672934	15716.278546
474.043479	16217.575925
474.413965	16216.416460
474.784393	16356.356370
475.154761	17025.047784
475.525070	17350.686158
475.895321	17443.269468
476.265513	18033.197894
476.635645	18800.000244
477.005719	19041.496719
477.375734	19584.708772
477.745691	20245.750235
478.115588	21243.326526
478.485427	22618.611268
478.855207	24749.930456
479.224928	26518.384869
479.594591	27788.425443
479.964194	27576.296210
480.333739	28105.456047
480.703226	28583.100332
481.072653	29373.180210
481.442022	30056.417873
481.811333	30587.153071
482.180584	30156.736835
482.549777	30217.470136
482.918912	30265.996282
483.287988	30452.939911
483.657005	30283.204261
484.025964	30217.815455
484.394864	30580.289540
484.763706	30669.026450
485.132489	30421.805745
485.501213	30648.577010
485.869879	31102.474940
486.238487	31136.646402
486.607036	31603.442124
486.975527	31533.843954
487.343959	32004.304596
487.712333	32375.212531
488.080648	32607.234157
488.448905	33244.332660
488.817104	33415.502518
489.185244	34502.029968
489.553326	36147.830588
489.921350	38613.990776
490.289315	41352.191790
490.657222	42123.435396
491.025070	42687.810213
491.392861	42177.978160
491.760593	41398.023440
492.128267	40264.696438
492.495883	39273.582907
492.863440	38415.853265
493.230939	37560.694612
493.598380	36924.606861
493.965763	36898.342449
494.333088	36470.938303
494.700354	36302.992262
495.067563	36288.259490
495.434713	36399.545482
495.801805	36685.429317
496.168839	36560.885090
496.535815	36495.282035
496.902733	36709.125260
497.269593	36556.998361
497.636395	36696.867695
498.003139	37250.053671
498.369825	36959.284958
498.736453	37443.979298
499.103023	37195.853705
499.469535	37259.601616
499.835989	37529.217647
500.202385	37392.771257
500.568723	37597.958821
500.935003	37915.405320
501.301226	37911.334588
501.667390	38618.787434
502.033497	39009.363431
502.399546	38633.038776
502.765537	38131.449009
503.131470	38641.359200
503.497345	39154.157972
503.863163	37997.203082
504.228923	38741.927699
504.594625	39254.305535
504.960269	38679.006537
505.325856	39487.912604
505.691385	38998.668623
506.056856	39256.460628
506.422270	39781.592583
506.787625	39477.651335
507.152924	39782.061410
507.518164	39965.869441
507.883347	39306.030294
508.248472	39637.750820
508.613540	40218.466537
508.978550	40595.675915
509.343503	40432.392942
509.708398	40712.287885
510.073236	41323.994096
510.438016	41397.731053
510.802738	40934.038161
511.167403	41632.399285
511.532010	41926.303596
511.896561	42282.803913
512.261053	43199.167216
512.625488	42809.125581
512.989866	42750.741457
513.354186	42647.102896
513.718449	42702.842934
514.082655	43427.584417
514.446803	43139.963905
514.810894	43738.232920
515.174927	43673.774206
515.538904	43622.891320
515.902822	44331.992623
516.266684	43821.099407
516.630488	44277.144869
516.994235	44173.546637
517.357925	44782.777641
517.721558	44995.842008
518.085133	45331.146794
518.448651	45486.172357
518.812112	45284.715247
519.175516	45427.316886
519.538863	45771.300019
519.902152	45759.092865
520.265385	46253.103257
520.628560	46305.997563
520.991678	46119.507639
521.354739	46372.457615
521.717743	46698.552213
522.080690	46598.412213
522.443580	47163.197884
522.806413	47220.722491
523.169189	47192.212245
523.531908	47378.946666
523.894569	47244.249556
524.257174	47440.133671
524.619722	47735.600739
524.982213	47710.430258
525.344647	47646.165628
525.707025	47711.249445
526.069345	48121.735479
526.431608	48051.408862
526.793815	48383.230212
527.155964	47892.599913
527.518057	48073.184127
527.880093	47868.256182
528.242072	48406.288449
528.603995	48097.313609
528.965860	48116.913616
529.327669	48211.967092
529.689421	48120.107187
530.051117	48070.083817
530.412755	48224.943022
530.774337	48291.897107
531.135862	48119.167011
531.497331	48300.744332
531.858743	48193.440852
532.220098	48534.542965
532.581396	48262.093805
532.942638	47904.527283
533.303824	48232.570288
533.664953	48198.000575
534.026025	47918.776105
534.387040	48398.046163
534.747999	48344.700673
535.108902	48518.091159
535.469748	48028.189308
535.830537	48134.010689
536.191270	48320.982044
536.551947	47989.795880
536.912567	48300.704002
537.273131	48434.468499
537.633638	47893.898011
537.994089	48247.151825
538.354483	47813.186617
538.714821	48418.919060
539.075103	48760.603427
539.435328	48533.075989
539.795497	48403.185619
540.155609	48384.419924
540.515665	48868.153923
540.875665	48294.788208
541.235609	48625.702150
541.595496	48610.092217
541.955328	49291.744437
542.315102	48641.871651
542.674821	48408.453625
543.034483	48447.008369
543.394090	48424.454247
543.753640	48390.887724
544.113134	49398.579090
544.472571	48380.129902
544.831953	49643.102778
545.191278	48841.183750
545.550548	48550.057116
545.909761	49022.055309
546.268918	49217.536132
546.628019	49527.637670
546.987064	49087.302963
547.346053	48343.377370
547.704986	49234.423997
548.063863	48761.470505
548.422684	48963.570363
548.781449	48785.184093
549.140158	49191.974961
549.498811	49052.720648
549.857408	48459.676789
550.215949	49301.947732
550.574434	49232.258822
550.932864	48971.245520
551.291237	49714.339323
551.649555	49293.130754
552.007817	49540.298528
552.366022	49164.268780
552.724173	49340.638588
553.082267	49735.917982
553.440305	50002.136275
553.798288	49297.934974
554.156215	49625.234408
554.514086	49839.327171
554.871902	49555.323687
555.229661	49586.107492
555.587365	49398.432897
555.945014	49497.489049
556.302606	49426.814593
556.660143	49650.059570
557.017625	49704.758610
557.375050	49500.629688
557.732421	49831.740234
558.089735	49819.636424
558.446994	49725.792824
558.804197	50191.479493
559.161345	50114.831270
559.518437	49351.943376
559.875474	49664.618422
560.232455	49844.580053
560.589381	49990.707980
560.946251	49687.182627
561.303065	50367.592203
561.659825	50141.670373
562.016528	49829.179328
562.373177	49531.171518
562.729770	50014.474499
563.086307	49519.483603
563.442789	49973.684003
563.799216	49995.519761
564.155587	49789.573503
564.511904	49814.769190
564.868164	49892.105531
565.224370	50126.171345
565.580520	49849.119612
565.936615	50062.383105
566.292654	49775.173447
566.648638	50036.368231
567.004567	49980.232462
567.360441	50028.841788
567.716260	49872.981914
568.072023	50136.452778
568.427732	50108.413881
568.783385	49636.874432
569.138982	50026.250635
569.494525	49982.944603
569.850013	49725.223174
570.205445	49705.335822
570.560823	49647.685187
570.916145	49534.375172
571.271412	49542.821625
571.626625	49291.414242
571.981782	49320.310135
572.336884	49007.640130
572.691931	49328.083595
573.046923	48921.912788
573.401860	48743.415613
573.756743	48721.438703
574.111570	48826.400567
574.466342	48679.372794
574.821059	48774.161610
575.175722	48268.183519
575.530330	48295.335174
575.884882	47983.567535
576.239380	47944.324672
576.593823	47906.019465
576.948211	47828.751179
577.302544	47335.547372
577.656823	47350.587655
578.011047	47574.845904
578.365216	47288.364693
578.719330	47054.755103
579.073389	46902.711383
579.427394	46985.224989
579.781344	46931.118284
580.135239	46576.241218
580.489080	46636.888820
580.842866	46121.440921
581.196597	46554.090388
581.550273	46495.512181
581.903895	46339.654827
582.257463	46747.174142
582.610975	46111.300640
582.964434	46402.565907
583.317837	46027.521704
583.671186	45857.576847
584.024481	46069.950576
584.377721	45588.280929
584.730906	45863.311159
585.084037	45898.810964
585.437113	45608.163239
585.790135	45624.027751
586.143103	45215.240585
586.496016	45326.110682
586.848874	45354.472213
587.201679	45348.127921
587.554428	44804.769674
587.907124	44996.169683
588.259765	44753.198671
588.612352	44980.272404
588.964884	44337.805073
589.317362	44648.418288
589.669786	44582.076703
590.022155	44338.215927
590.374470	44758.801913
590.726731	44269.086584
591.078937	43778.103406
591.431090	43873.224937
591.783188	43512.200184
592.135232	43174.694934
592.487222	43442.559164
592.839157	43514.335113
593.191038	43159.279086
593.542866	42910.543514
593.894639	42304.022130
594.246358	42598.843930
594.598022	42576.652771
594.949633	42161.874194
595.301190	42103.323713
595.652692	41939.443363
596.004141	42248.929880
596.355535	41258.068407
596.706876	41197.292256
597.058162	41029.613397
597.409395	41494.614468
597.760573	41567.985942
598.111698	41155.871615
598.462768	41168.340909
598.813785	41190.648015
599.164748	40640.731227
599.515657	41026.666842
599.866511	40509.580569
600.217312	41121.342232
600.568060	40064.134133
600.918753	40833.653664
601.269392	40768.539601
601.619978	40413.168501
601.970510	40642.261217
602.320988	40818.918372
602.671412	41119.605554
603.021783	40880.032280
603.372100	40507.115444
603.722363	40613.148554
604.072572	40675.396722
604.422728	40704.990815
604.772830	40498.933652
605.122878	40611.253080
605.472872	40544.258666
605.822813	40812.347227
606.172701	40637.956072
606.522534	40892.088199
606.872314	41136.138018
607.222041	40896.438715
607.571714	41279.284103
607.921333	40721.268701
608.270899	41007.417196
608.620411	41368.376414
608.969870	41136.760601
609.319276	41145.559935
609.668627	41190.007788
610.017926	41676.249762
610.367171	41821.664365
610.716362	41908.992273
611.065500	41844.326872
611.414585	42021.518389
611.763616	42332.802077
612.112594	42258.228288
612.461518	42464.545071
612.810389	42777.608287
613.159207	42639.425219
613.507971	42723.199113
613.856682	43192.863253
614.205340	43079.255810
614.553945	43790.524809
614.902496	43222.593457
615.250994	43701.969380
615.599439	43765.994554
615.947830	43966.637518
616.296169	44032.033887
616.644454	44134.636491
616.992686	44310.119056
617.340864	44823.119474
617.688990	44517.103792
618.037063	45132.679088
618.385082	45086.129073
618.733048	45381.696965
619.080961	45393.959571
619.428821	45408.072282
619.776628	45520.119488
620.124382	45361.915477
620.472083	45479.298744
620.819731	45603.497652
621.167326	45280.402540
621.514868	45276.775430
621.862357	44839.762844
622.209793	44874.438421
622.557176	44533.974013
622.904506	44264.602478
623.251783	43916.692287
623.599007	43694.105180
623.946179	43498.599151
624.293297	43445.271305
624.640363	42835.629447
624.987376	42812.455263
625.334336	42560.702560
625.681243	42201.026316
626.028097	42171.170082
626.374899	42022.156095
626.721647	42002.518280
627.068343	41886.533933
627.414987	41638.834318
627.761577	41419.624784
628.108115	41752.267842
628.454600	41188.135000
628.801032	41370.816333
629.147412	41331.825528
629.493739	41311.504637
629.840014	40960.650412
630.186236	41289.210134
630.532405	40885.219627
630.878521	41092.978180
631.224585	40963.052522
631.570597	40665.430360
631.916556	40829.376245
632.262462	40776.459253
632.608316	40786.591972
632.954117	40700.645341
633.299866	40679.522906
633.645562	40614.040838
633.991206	40114.018870
634.336797	39669.961272
634.682336	39671.730717
635.027823	39423.539590
635.373257	39235.557483
635.718639	38997.806586
636.063968	38860.692242
636.409245	38280.354612
636.754470	38310.238572
637.099642	38074.930113
637.444762	37594.387164
637.789829	37738.090295
638.134845	37384.687767
638.479808	37317.491706
638.824719	37231.683706
639.169577	36844.875972
639.514383	36904.800167
639.859137	36588.825685
640.203839	36836.122008
640.548489	36459.429348
640.893086	36538.615793
641.237632	36285.617926
641.582125	36387.237505
641.926566	36327.991344
642.270955	36278.368746
642.615292	36297.474719
642.959576	36274.265247
643.303809	36263.048680
643.647990	36408.879178
643.992118	36387.814717
644.336195	36344.546493
644.680219	36442.307069
645.024192	36739.266319
645.368112	37261.030783
645.711981	37255.692201
646.055797	38135.103846
646.399562	38033.406129
646.743274	38995.654013
647.086935	39434.171383
647.430544	39310.484153
647.774101	39422.526318
648.117606	39702.196930
648.461059	39996.232311
648.804460	39600.688257
649.147810	38996.528653
649.491108	38736.851257
649.834354	38369.099084
650.177548	37536.834831
650.520690	37083.103258
650.863781	37114.255068
651.206820	36950.886396
651.549807	36503.894846
651.892742	36012.790679
652.235626	35813.632335
652.578458	35688.644487
652.921238	35063.370011
653.263967	35394.077265
653.606644	35069.953758
653.949269	35000.635372
654.291843	34589.183957
654.634365	35000.879868
654.976836	34588.972228
655.319255	34586.028194
655.661622	34590.787044
656.003938	34363.277250
656.346203	34239.327880
656.688416	34453.022391
657.030577	34244.250567
657.372687	34069.710697
657.714746	34342.883262
658.056753	34471.170545
658.398708	33909.275976
658.740612	33976.545133
659.082465	34242.491204
659.424266	34061.405396
659.766016	34199.273392
660.107715	34063.101744
660.449362	34186.010116
660.790958	34156.201773
661.132503	34165.860624
661.473996	34194.738874
661.815438	34320.500539
662.156829	34511.703943
662.498168	34271.233342
662.839456	34293.255623
663.180693	34442.428407
663.521879	34605.850011
663.863013	34568.633693
664.204097	34545.121752
664.545129	35007.874469
664.886110	34965.062470
665.227040	35040.031989
665.567918	35160.235782
665.908746	35198.878747
666.249522	35368.173296
666.590248	35377.171756
666.930922	35476.835367
667.271545	35444.398063
667.612118	35508.062795
667.952639	35300.818439
668.293109	35367.399479
668.633528	35259.055000
668.973896	35168.457904
669.314213	35217.281479
669.654480	34945.051610
669.994695	34980.309440
670.334859	34865.897932
670.674973	34747.035087
671.015035	34903.492337
671.355047	34851.689440
671.695008	34787.046725
672.034918	34690.067527
672.374777	34784.841220
672.714585	34612.310250
673.054342	34828.674053
673.394049	34577.967389
673.733705	34855.064493
674.073310	34522.124008
674.412864	34581.506279
674.752368	34197.975295
675.091820	34515.976321
675.431223	34072.009463
675.770574	33784.754435
676.109875	33652.454393
676.449125	33365.486710
676.788324	33289.272026
677.127473	32749.387134
677.466571	32678.485826
677.805619	32323.197906
678.144616	32319.653975
678.483562	32230.415469
678.822458	31900.625705
679.161303	31824.930260
679.500098	31742.656108
679.838842	31616.718003
680.177535	31761.295775
680.516179	32040.928578
680.854771	32294.392753
681.193314	33155.111799
681.531805	34262.118936
681.870247	35001.769632
682.208638	35720.522223
682.546978	35931.239934
682.885268	36030.767434
683.223508	35514.376840
683.561697	35197.268098
683.899836	34998.860886
684.237925	34480.098429
684.575963	34329.062939
684.913951	33863.424161
685.251889	34013.887480
685.589776	33987.257585
685.927614	33969.918536
686.265401	34107.758806
686.603137	34185.904252
686.940824	34691.680697
687.278460	35063.846400
687.616046	35175.810427
687.953582	35761.857164
688.291068	35620.624198
688.628504	35918.319456
688.965889	35853.580959
689.303224	35488.049414
689.640510	35163.729302
689.977745	34411.077471
690.314930	33617.078096
690.652065	33130.395021
690.989150	32393.375808
691.326185	31468.407257
691.663170	30781.930652
692.000105	30020.683654
692.336990	29344.453195
692.673825	28897.476768
693.010610	28352.437297
693.347345	27759.627852
693.684030	27092.758815
694.020665	26811.467472
694.357251	26114.805216
694.693786	26065.601034
695.030272	25824.344013
695.366707	25265.516986
695.703093	24981.420241
696.039429	24966.654701
696.375716	24689.681106
696.711952	24650.730631
697.048139	24479.076822
697.384276	24300.481344
697.720363	24437.031078
698.056400	24227.185487
698.392388	23987.473581
698.728326	23962.469458
699.064214	23752.699484
699.400053	23703.588564
699.735842	23333.807326
700.071581	23058.031005
700.407270	22765.087034
700.742910	22573.588723
701.078501	22302.679636
701.414042	22006.043020
701.749533	21708.761137
702.084974	21349.339471
702.420366	21556.805637
702.755709	21110.713933
703.091002	20807.044907
703.426246	20823.829429
703.761440	20711.893128
704.096584	20444.958991
704.431679	20392.276413
704.766725	20290.853439
705.101721	20229.595858
705.436668	20328.629325
705.771565	19992.235649
706.106413	20343.785554
706.441212	20327.628656
706.775961	20461.844336
707.110661	20508.895945
707.445311	20875.854137
707.779913	20710.784075
708.114465	20941.253026
708.448967	21212.378882
708.783421	21902.878327
709.117825	22178.911748
709.452180	22382.483622
709.786485	22786.242237
710.120742	23573.312545
710.454949	23578.376384
710.789107	24036.521487
711.123216	24749.479273
711.457275	24847.917884
711.791286	25386.277827
712.125247	25483.851880
712.459159	25173.137842
712.793023	25855.924322
713.126837	24745.839560
713.460602	25037.916452
713.794318	24667.462220
714.127985	24290.557832
714.461602	23387.230954
714.795171	23362.274722
715.128691	22328.462617
715.462162	21786.402468
715.795584	21387.647199
716.128957	21114.693924
716.462281	20703.393743
716.795556	20478.767489
717.128782	19957.078642
717.461960	19405.072296
717.795088	19319.879317
718.128167	18912.002080
718.461198	18456.349828
718.794180	18299.264953
719.127113	17925.775947
719.459997	17724.215493
719.792833	17367.143004
720.125619	17335.769383
720.458357	17005.377201
720.791046	16825.917166
721.123686	16659.123029
721.456278	16420.983962
721.788821	16377.811521
722.121315	16113.213958
722.453761	16191.462748
722.786158	16108.185407
723.118506	16119.686800
723.450805	15968.726927
723.783056	16131.044519
724.115259	16026.700197
724.447412	15943.168277
724.779518	16185.650298
725.111574	16212.645677
725.443582	16416.769558
725.775542	16397.630817
726.107453	16864.794544
726.439315	16729.794965
726.771129	17127.252137
727.102895	17502.288777
727.434612	17696.889918
727.766281	17818.885842
728.097901	18091.892049
728.429473	18140.428278
728.760996	18122.668293
729.092471	18213.454433
729.423897	18093.732070
729.755276	17960.196946
730.086606	18082.739834
730.417887	18601.777034
730.749120	19118.457494
731.080305	19283.893040
731.411442	19618.207240
731.742530	19691.064516
732.073570	19792.154774
732.404562	20095.513768
732.735506	19911.201622
733.066401	19613.697928
733.397249	19085.838708
733.728048	18464.995407
734.058798	17621.242364
734.389501	16920.683296
734.720156	16464.962988
735.050762	15927.084476
735.381320	15576.641105
735.711831	15326.582230
736.042293	14968.100739
736.372707	14976.915196
736.703073	14760.221198
737.033391	14944.853458
737.363661	14898.779832
737.693883	14995.887579
738.024056	15154.832639
738.354182	15328.200440
738.684260	15608.276866
739.014290	15820.443908
739.344272	15998.169786
739.674207	16282.241326
740.004093	16381.279835
740.333931	16377.972838
740.663722	16434.824450
740.993464	16430.783965
741.323159	16262.364057
741.652806	15989.234341
741.982405	15786.398475
742.311956	15443.622699
742.641460	15342.524879
742.970915	15042.709816
743.300323	14701.895048
743.629683	14494.759078
743.958996	14219.348240
744.288260	13938.258543
744.617477	13643.986228
744.946647	13578.219335
745.275768	13301.991831
745.604842	13107.362963
745.933869	12945.123509
746.262847	12879.076832
746.591778	12806.577478
746.920662	12699.727701
747.249498	12698.462372
747.578286	12812.110144
747.907027	12951.230867
748.235720	13166.989731
748.564365	13196.651880
748.892963	13089.479470
749.221514	13147.092297
749.550017	12999.615861
749.878473	12955.508286
750.206881	12735.933268
750.535242	12642.001449
750.863555	12552.054661
751.191821	12445.434257
751.520039	12472.538021
751.848210	12375.969678
752.176334	12416.361923
752.504411	12310.686736
752.832440	12145.578865
753.160421	12207.766539
753.488356	12077.714852
753.816243	11997.487409
754.144082	11856.811490
754.471875	11781.085798
754.799620	11734.593756
755.127318	11709.561907
755.454969	11667.385093
755.782572	11614.513472
756.110129	11623.731222
756.437638	11537.013293
756.765100	11525.900069
757.092515	11530.769824
757.419882	11549.951414
757.747203	11539.765763
758.074477	11616.310643
758.401703	11569.082593
758.728882	11728.748538
759.056014	11772.871237
759.383099	11885.714946
759.710138	11990.142448
760.037129	12060.335474
760.364073	12080.860532
760.690970	12062.634240
761.017820	12068.061042
761.344623	12265.933892
761.671379	12605.069956
761.998088	13268.354732
762.324751	14872.051634
762.651366	17779.854708
762.977935	21360.462777
763.304456	23490.733404
763.630931	23905.174224
763.957359	22741.864959
764.283740	20866.548167
764.610074	19006.896760
764.936362	16883.905558
765.262602	15382.841507
765.588796	13915.822888
765.914943	12899.087692
766.241044	12030.953109
766.567097	11394.593135
766.893104	10843.562252
767.219064	10484.266615
767.544978	10100.402914
767.870845	9785.484554
768.196665	9595.475904
768.522438	9393.103824
768.848165	9230.551818
769.173846	9065.874966
769.499479	8937.630532
769.825066	8784.432388
770.150607	8597.544212
770.476101	8536.803349
770.801548	8421.751615
771.126949	8283.608877
771.452303	8193.223509
771.777611	8032.529168
772.102872	8018.295470
772.428087	7892.838795
772.753256	7765.567304
773.078378	7677.684869
773.403453	7532.824793
773.728482	7423.182218
774.053465	7357.720314
774.378401	7272.544979
774.703291	7179.485279
775.028135	7079.499033
775.352932	7040.067128
775.677683	6950.294260
776.002388	6862.797474
776.327046	6869.466920
776.651658	6781.098014
776.976224	6700.986518
777.300743	6685.641245
777.625216	6621.061544
777.949643	6576.699390
778.274024	6578.471356
778.598359	6510.408217
778.922647	6516.215626
779.246889	6468.871630
779.571086	6482.644062
779.895236	6480.562066
780.219339	6477.423947
780.543397	6476.083000
780.867409	6526.176946
781.191374	6521.556729
781.515294	6487.954918
781.839167	6541.045829
782.162995	6513.473238
782.486776	6465.123532
782.810511	6422.818169
783.134201	6350.555749
783.457844	6338.698955
783.781441	6286.817920
784.104993	6248.585810
784.428498	6219.609257
784.751958	6201.299787
785.075372	6177.714748
785.398739	6135.658922
785.722061	6162.775289
786.045337	6162.518190
786.368568	6270.691269
786.691752	6291.468385
787.014891	6547.644700
787.337983	6822.695095
787.661030	7258.517968
787.984031	7675.502050
788.306987	7922.327024
788.629897	8010.211980
788.952760	7924.958507
789.275579	7751.315963
789.598351	7451.778163
789.921078	7188.335024
790.243759	6913.385452
790.566395	6712.213167
790.888984	6520.656883
791.211529	6384.225616
791.534027	6222.848199
791.856480	6080.856539
792.178888	6021.988465
792.501249	5958.658970
792.823566	5852.280541
793.145836	5846.042113
793.468062	5829.751625
793.790241	5783.748575
794.112375	5825.080996
794.434464	5923.756541
794.756507	5953.587569
795.078505	6071.273305
795.400457	6279.190655
795.722364	6514.796541
796.044226	6706.529266
796.366042	6856.579210
796.687812	6806.379400
797.009538	6834.609862
797.331218	6747.871769
797.652852	6686.140319
797.974442	6564.603141
798.295986	6493.419528
798.617484	6362.016812
798.938938	6259.479743
799.260346	6198.517070
799.581709	6056.459875
799.903026	6001.806205
800.224299	5932.329023
800.545526	5812.057175
800.866708	5751.641466
801.187845	5698.308579
801.508936	5618.786898
801.829983	5596.076500
802.150984	5486.330581
802.471940	5458.891580
802.792851	5440.713179
803.113717	5416.734931
803.434538	5390.788112
803.755314	5358.486919
804.076045	5344.207851
804.396731	5312.015042
804.717372	5323.612217
805.037967	5322.432587
805.358518	5346.068037
805.679024	5406.493827
805.999485	5412.775105
806.319901	5426.615593
806.640272	5445.164518
806.960598	5489.796374
807.280879	5482.789170
807.601115	5518.452813
807.921306	5481.904447
808.241453	5477.057378
808.561554	5487.293441
808.881611	5452.441424
809.201623	5462.198577
809.521590	5409.636987
809.841513	5397.054267
810.161390	5419.888173
810.481223	5330.140511
810.801011	5315.170805
811.120755	5294.396210
811.440453	5237.990739
811.760107	5211.045772
812.079716	5183.090053
812.399281	5132.055932
812.718801	5125.396568
813.038276	5093.566723
813.357707	5059.523811
813.677093	5084.482563
813.996434	5023.285476
814.315731	5045.257345
814.634983	5040.785842
814.954191	5051.258839
815.273354	5107.369402
815.592473	5151.545033
815.911547	5223.051280
816.230577	5280.137306
816.549562	5364.551427
816.868502	5416.714767
817.187399	5474.370443
817.506250	5559.381941
817.825058	5587.438483
818.143821	5744.745168
818.462539	5915.010139
818.781213	6153.171891
819.099843	6516.036665
819.418429	7148.235166
819.736970	7771.518387
820.055466	8479.505594
820.373919	9426.025079
820.692327	10945.640577
821.010691	13783.283391
821.329011	20201.597289
821.647286	29703.471569
821.965517	39700.679543
822.283704	44669.351679
822.601847	45898.581592
822.919945	41388.115052
823.237999	36436.928158
823.556010	31385.913815
823.873976	26807.936143
824.191897	22684.146268
824.509775	19663.570063
824.827609	16938.710462
825.145398	15417.685962
825.463144	14704.884452
825.780845	15049.921186
826.098502	16347.796491
826.416116	18744.393797
826.733685	20856.780931
827.051210	21194.543280
827.368692	19713.548062
827.686129	17205.115278
828.003522	14803.580162
828.320872	12648.002942
828.638177	11043.978365
828.955439	9822.620214
829.272656	8769.369420
829.589830	7935.295393
829.906960	7212.277985
830.224046	6683.745771
830.541088	6284.209123
830.858086	6024.892169
831.175041	5827.866233
831.491952	5773.197440
831.808819	5811.560621
832.125642	6071.303552
832.442421	6647.507437
832.759157	7786.762836
833.075849	9536.746461
833.392497	11323.008751
833.709101	12348.346675
834.025662	12034.640713
834.342179	10980.437141
834.658653	9718.568278
834.975083	8637.513000
835.291469	7765.569825
835.607811	7036.371962
835.924110	6519.605802
836.240366	6036.307862
836.556578	5584.070992
836.872746	5231.500254
837.188871	4966.239779
837.504952	4746.082509
837.820990	4581.640070
838.136984	4462.653716
838.452935	4420.411367
838.768842	4460.513746
839.084706	4765.911887
839.400526	5525.868350
839.716303	6397.604838
840.032037	6923.306443
840.347727	6738.568319
840.663373	6144.949769
840.978977	5583.055199
841.294537	5159.610879
841.610054	4827.988656
841.925527	4592.355043
842.240957	4383.492477
842.556344	4204.987740
842.871687	4042.886917
843.186987	3892.048033
843.502244	3773.359107
843.817458	3689.731405
844.132629	3615.754993
844.447756	3567.450657
844.762840	3522.975077
845.077881	3484.324551
845.392879	3446.468006
845.707833	3420.238883
846.022745	3392.260479
846.337613	3380.585166
846.652438	3355.268492
846.967221	3349.198943
847.281960	3329.707321
847.596656	3318.120229
847.911309	3309.799805
848.225919	3295.142650
848.540485	3286.156793
848.855009	3277.291924
849.169490	3262.748195
849.483928	3256.514808
849.798323	3254.515991
850.112675	3241.096439
850.426984	3243.775813
850.741251	3236.539236
851.055474	3231.961869
851.369654	3233.837178
851.683792	3229.030438
851.997887	3231.069584
852.311938	3232.246694
852.625947	3235.062178
852.939914	3223.613718
853.253837	3231.979513
853.567718	3228.909450
853.881555	3219.573233
854.195350	3229.421127
854.509103	3224.780745
854.822812	3223.255796
855.136479	3219.510219
855.450103	3221.269581
855.763685	3214.685834
856.077224	3216.982080
856.390720	3224.498440
856.704173	3237.716346
857.017584	3241.028384
857.330953	3246.326637
857.644278	3254.543717
857.957561	3256.913060
858.270802	3255.690580
858.584000	3253.638830
858.897155	3248.917790
859.210268	3239.145513
859.523339	3226.199830
859.836367	3221.902246
860.149352	3217.970146
860.462295	3213.722974
860.775195	3205.062272
861.088054	3200.142106
861.400869	3204.006150
861.713642	3198.594471
862.026373	3206.758620
862.339062	3211.383879
862.651708	3219.467369
862.964312	3236.629977
863.276873	3244.685741
863.589392	3277.861574
863.901869	3298.926036
864.214303	3318.258861
864.526696	3337.783250
864.839045	3354.908049
865.151353	3370.482694
865.463619	3368.284751
865.775842	3371.785832
866.088023	3377.245402
866.400162	3370.041593
866.712258	3372.975545
867.024313	3372.196686
867.336325	3371.654762
867.648296	3369.524875
867.960224	3367.538660
868.272110	3375.806153
868.583954	3373.101573
868.895755	3380.015516
869.207515	3375.221379
869.519233	3395.572517
869.830909	3405.664907
870.142542	3414.207142
870.454134	3420.344747
870.765684	3433.038372
871.077191	3451.650312
871.388657	3460.815130
871.700081	3481.461175
872.011463	3503.906913
872.322803	3522.171013
872.634101	3536.591234
872.945357	3560.468659
873.256571	3582.785847
873.567744	3600.024073
873.878874	3607.563118
874.189963	3622.976446
874.501010	3623.926704
874.812015	3621.438894
875.122979	3638.117552
875.433900	3638.641832
875.744780	3637.293323
876.055618	3647.990652
876.366415	3642.750372
876.677169	3651.816887
876.987882	3671.505114
877.298554	3690.497661
877.609183	3733.312180
877.919771	3784.164820
878.230317	3853.926827
878.540822	3959.717961
878.851285	4113.591621
879.161707	4347.158361
879.472087	4738.523298
879.782425	5388.801898
880.092722	6606.396827
880.402977	8555.090135
880.713191	10876.783456
881.023363	13164.985872
881.333494	14381.350760
881.643583	14779.435556
881.953631	14356.538201
882.263637	13561.727200
882.573602	12567.178123
882.883526	11645.622432
883.193408	10717.946781
883.503248	9828.571296
883.813048	9009.769444
884.122806	8253.949248
884.432522	7494.476736
884.742197	6841.738053
885.051831	6288.209279
885.361424	5793.392303
885.670975	5408.888375
885.980485	5079.980813
886.289954	4813.215554
886.599382	4597.209674
886.908768	4418.404988
887.218113	4252.041870
887.527417	4123.189978
887.836680	3996.876306
888.145901	3897.046337
888.455082	3819.941889
888.764221	3752.912187
889.073319	3689.920449
889.382376	3658.685459
889.691392	3634.823158
890.000366	3628.299905
890.309300	3619.407309
890.618193	3621.423771
890.927044	3620.634830
891.235855	3626.036427
891.544625	3639.987820
891.853353	3674.802028
892.162041	3734.852253
892.470687	3830.089731
892.779293	3954.447435
893.087858	4130.187099
893.396381	4418.629319
893.704864	4838.600285
894.013306	5402.118106
894.321707	5950.920798
894.630068	6271.616321
894.938387	6288.065606
895.246665	6109.770077
895.554903	5796.245596
895.863100	5469.157890
896.171256	5213.178180
896.479371	4974.499710
896.787446	4759.149179
897.095480	4568.039037
897.403473	4420.164351
897.711425	4279.800984
898.019336	4153.104185
898.327207	4030.405021
898.635038	3930.476748
898.942827	3823.238803
899.250576	3741.010022
899.558284	3657.374759
899.865952	3599.865276
900.173579	3542.272614
900.481165	3492.360150
900.788711	3454.407823
901.096216	3420.314500
901.403681	3393.460273
901.711105	3381.545506
902.018489	3377.515104
902.325832	3417.947678
902.633135	3480.188284
902.940397	3661.337106
903.247619	4087.521294
903.554800	4847.671841
903.861941	5783.496517
904.169041	6447.298012
904.476101	6616.716069
904.783121	6348.670357
905.090100	5952.838958
905.397039	5553.453544
905.703938	5207.050657
906.010796	4889.589035
906.317614	4639.290706
906.624391	4401.915374
906.931129	4213.078792
907.237826	4030.339486
907.544483	3860.928990
907.851099	3684.596990
908.157675	3529.989843
908.464211	3386.382493
908.770707	3288.269037
909.077163	3208.767520
909.383578	3148.187974
909.689954	3104.554267
909.996289	3074.440934
910.302584	3053.089127
910.608839	3039.770399
910.915054	3027.401928
911.221229	3023.550486
911.527363	3030.298071
911.833458	3037.867363
912.139513	3050.762635
912.445527	3061.638924
912.751502	3097.859615
913.057436	3141.087509
913.363331	3202.743341
913.669186	3293.166518
913.975000	3416.349632
914.280775	3607.328705
914.586510	3885.290366
914.892205	4264.952265
915.197859	4760.545579
915.503475	5330.972301
915.809050	5797.029495
916.114585	6057.455503
916.420081	6108.235045
916.725536	6032.910125
917.030952	5802.965454
917.336328	5607.235094
917.641665	5405.866203
917.946961	5184.824210
918.252218	4989.668542
918.557435	4770.519502
918.862612	4574.504317
919.167750	4402.268255
919.472848	4217.295717
919.777906	4051.431673
920.082925	3889.570306
920.387904	3740.609251
920.692843	3630.447436
920.997743	3534.113507
921.302603	3439.891821
921.607423	3374.992006
921.912204	3308.753765
922.216946	3259.710900
922.521647	3209.737942
922.826310	3171.876356
923.130932	3137.737662
923.435516	3092.863831
923.740059	3066.334759
924.044564	3033.842002
924.349028	3009.326871
924.653454	2977.955770
924.957840	2952.724795
925.262186	2933.235695
925.566493	2910.472364
925.870761	2886.287429
926.174989	2875.390975
926.479178	2860.756505
926.783328	2841.494256
927.087438	2832.493276
927.391509	2821.022131
927.695541	2806.213741
927.999533	2796.375929
928.303486	2786.044085
928.607400	2782.041408
928.911275	2778.658794
929.215110	2768.485746
929.518906	2769.105808
929.822663	2768.538678
930.126381	2768.153030
930.430060	2770.003133
930.733699	2772.944646
931.037299	2776.551592
931.340861	2773.579832
931.644383	2776.269287
931.947866	2775.412291
932.251309	2773.534461
932.554714	2771.777619
932.858080	2769.289810
933.161407	2766.353338
933.464694	2763.744541
933.767943	2761.062647
934.071153	2755.776997
934.374323	2749.926738
934.677455	2749.185688
934.980548	2747.985894
935.283602	2746.027405
935.586617	2743.237127
935.889593	2744.631006
936.192530	2747.257447
936.495428	2750.193919
936.798287	2761.150867
937.101108	2773.915068
937.403890	2795.949952
937.706632	2820.505412
938.009336	2851.808457
938.312002	2882.735936
938.614628	2905.665624
938.917216	2920.647933
939.219765	2932.272834
939.522275	2943.007971
939.824747	2945.326902
940.127179	2936.036056
940.429573	2935.000098
940.731929	2932.978596
941.034246	2921.903181
941.336524	2919.473345
941.638763	2914.535534
941.940964	2910.442118
942.243126	2889.967471
942.545250	2881.944475
942.847335	2866.727752
943.149381	2853.202336
943.451389	2840.670028
943.753359	2832.488235
944.055290	2822.206802
944.357182	2813.281439
944.659036	2810.314720
944.960851	2804.582928
945.262628	2797.714356
945.564367	2800.287865
945.866067	2801.487659
946.167729	2796.784263
946.469352	2796.335600
946.770937	2791.556586
947.072484	2786.676749
947.373992	2784.544341
947.675462	2782.613579
947.976893	2776.667538
948.278286	2773.423556
948.579641	2771.780140
948.880958	2769.493977
949.182236	2768.087495
949.483476	2763.512647
949.784678	2765.057761
950.085841	2763.941146
950.386967	2767.210334
950.688054	2772.642177
950.989103	2782.505195
951.290114	2790.961730
951.591087	2800.814665
951.892021	2812.610965
952.192917	2825.375167
952.493776	2833.622495
952.794596	2837.037876
953.095378	2840.876715
953.396122	2838.421673
953.696828	2833.289778
953.997496	2828.591423
954.298126	2823.711586
954.598718	2813.541058
954.899272	2803.768782
955.199788	2790.641617
955.500266	2780.150976
955.800706	2763.558018
956.101108	2751.451687
956.401472	2736.872670
956.701798	2725.194837
957.002087	2710.454503
957.302337	2703.306147
957.602550	2694.136288
957.902724	2681.881243
958.202861	2672.081240
958.502960	2665.802483
958.803022	2659.256545
959.103045	2651.228507
959.403031	2645.625265
959.702979	2640.369862
960.002889	2633.871815
960.302762	2631.257976
960.602596	2626.526853
960.902393	2626.567183
961.202153	2619.234824
961.501875	2616.802468
961.801559	2614.826335
962.101205	2613.966819
962.400814	2612.363732
962.700385	2609.568412
962.999918	2606.755448
963.299414	2604.688575
963.598873	2604.529779
963.898293	2601.994078
964.197677	2601.996599
964.497022	2600.499376
964.796331	2600.176742
965.095601	2600.638008
965.394835	2598.346803
965.694030	2595.985023
965.993189	2596.842019
966.292309	2595.979982
966.591393	2596.753799
966.890439	2594.122317
967.189447	2593.719024
967.488419	2596.345465
967.787353	2594.994436
968.086249	2595.735486
968.385108	2598.815631
968.683930	2597.378902
968.982714	2597.421752
969.281462	2598.104828
969.580172	2600.738831
969.878844	2603.163626
970.177480	2606.919286
970.476078	2607.725870
970.774639	2611.887343
971.073162	2613.407251
971.371649	2614.198712
971.670098	2614.223917
971.968510	2616.338682
972.266885	2616.905811
972.565223	2621.163066
972.863524	2623.867645
973.161788	2625.979888
973.460014	2623.353447
973.758204	2623.822274
974.056356	2625.024590
974.354471	2624.550721
974.652550	2627.237656
974.950591	2623.587861
975.248595	2626.920063
975.546563	2622.723303
975.844493	2620.800103
976.142386	2620.394290
976.440243	2618.904629
976.738062	2618.277005
977.035845	2614.775924
977.333590	2613.170316
977.631299	2609.512959
977.928971	2609.966663
978.226606	2605.679162
978.524204	2605.855602
978.821765	2603.483739
979.119290	2604.257556
979.416777	2604.378544
979.714228	2605.182608
980.011642	2603.738317
980.309020	2610.556478
980.606360	2614.712909
980.903664	2623.822274
981.200931	2632.467853
981.498162	2653.360915
981.795356	2682.715554
982.092513	2719.362222
982.389633	2761.443254
982.686717	2802.712660
982.983764	2831.638801
983.280775	2848.743436
983.577749	2849.161851
983.874686	2842.326047
984.171587	2825.513799
984.468451	2810.211376
984.765279	2788.105917
985.062070	2772.884152
985.358824	2755.615680
985.655543	2733.051475
985.952224	2712.050028
986.248869	2686.032633
986.545478	2659.218736
986.842050	2640.594193
987.138586	2624.351596
987.435086	2611.781478
987.731549	2600.935436
988.027975	2599.236567
988.324366	2588.004876
988.620719	2588.894640
988.917037	2580.380131
989.213318	2580.962384
989.509563	2574.174471
989.805772	2575.351580
990.101944	2571.376630
990.398080	2573.640108
990.694180	2570.902762
990.990244	2569.831517
991.286271	2570.723801
991.582262	2575.157496
991.878217	2573.715726
992.174136	2574.240006
992.470019	2575.442321
992.765865	2578.524987
993.061676	2579.583629
993.357450	2583.488002
993.653188	2584.556727
993.948890	2592.579723
994.244556	2598.331680
994.540186	2606.311827
994.835780	2618.110647
995.131337	2631.474746
995.426859	2646.840183
995.722345	2664.592606
996.017795	2683.622962
996.313208	2695.840198
996.608586	2706.376210
996.903928	2707.008875
997.199234	2704.596682
997.494504	2706.895449
997.789738	2694.710980
998.084936	2687.968437
998.380099	2672.827331
998.675225	2664.045641
998.970316	2652.718168
999.265371	2641.403298
999.560390	2628.639097
999.855373	2615.577467
1000.150320	2606.546240
1000.445232	2599.072730
1000.740108	2593.227512
1001.034948	2584.072776
1001.329752	2578.073803
1001.624521	2579.248392
1001.919254	2570.678431
1002.213951	2567.870508
1002.508613	2562.955383
1002.803239	2564.056875
1003.097829	2560.843139
1003.392384	2561.163253
1003.686903	2561.400187
1003.981386	2558.178890
1004.275834	2560.107131
1004.570246	2556.951369
1004.864623	2556.147305
1005.158964	2555.320555
1005.453270	2556.548076
1005.747540	2551.431305
1006.041775	2554.995401
1006.335974	2551.965667
1006.630138	2554.259393
1006.924266	2554.887016
1007.218359	2552.142108
1007.512416	2553.067160
1007.806438	2552.041285
1008.100425	2550.133208
1008.394376	2550.914587
1008.688292	2551.348126
1008.982172	2551.131357
1009.276017	2549.137580
1009.569827	2550.370142
1009.863602	2549.863506
1010.157341	2549.014072
1010.451045	2549.591284
1010.744714	2550.770914
1011.038347	2550.377704
1011.331945	2546.861499
1011.625508	2549.601366
1011.919036	2548.066335
1012.212528	2546.964843
1012.505986	2547.922662
1012.799408	2550.778476
1013.092795	2545.490305
1013.386147	2545.770089
1013.679464	2545.923845
1013.972745	2545.679349
1014.265992	2544.046015
1014.559204	2546.637168
1014.852380	2547.289997
1015.145521	2546.884184
1015.438628	2545.223124
1015.731699	2546.511139
1016.024736	2546.846376
1016.317737	2544.736653
1016.610703	2544.363607
1016.903635	2544.015768
1017.196531	2544.119112
1017.489393	2546.042312
1017.782219	2545.558361
1018.075011	2546.306972
1018.367768	2546.748073
1018.660490	2548.194884
1018.953177	2548.194884
1019.245829	2548.194884
