Dividing Wavelength (nm)	Counts (n)	Blue Motor Position (mm): 50.000000	Red Motor Position (mm): 0.000000	
326.493990	2045.145704
326.888308	2045.145704
327.282561	2045.145704
327.676750	2019.561848
328.070874	2021.298526
328.464933	2026.246418
328.858929	2037.599097
329.252859	2047.668801
329.646726	2061.574824
330.040528	2079.460838
330.434265	2094.503641
330.827938	2115.532814
331.221547	2137.247585
331.615091	2157.321459
332.008571	2178.668225
332.401986	2197.199507
332.795338	2219.284802
333.188625	2237.248953
333.581847	2258.333579
333.975006	2274.687083
334.368100	2295.058385
334.761129	2309.488688
335.154095	2324.355051
335.546996	2375.600900
335.939833	2485.498054
336.332606	2493.445433
336.725315	2510.383710
337.117960	2516.647344
337.510540	2526.923736
337.903056	2538.336908
338.295508	2545.424770
338.687896	2552.779814
339.080220	2556.169990
339.472480	2561.957234
339.864676	2564.520661
340.256807	2567.822617
340.648875	2568.049469
341.040879	2570.426373
341.432818	2571.490056
341.824694	2572.432752
342.216506	2574.113977
342.608253	2567.580642
342.999937	2572.619275
343.391557	2570.834706
343.783113	2569.287072
344.174605	2565.342369
344.566033	2562.179045
344.957397	2564.747513
345.348697	2563.726679
345.739934	2559.111503
346.131106	2561.909343
346.522215	2555.456667
346.913260	2555.312994
347.304241	2555.229815
347.695159	2554.370298
348.086012	2553.029351
348.476802	2552.305945
348.867528	2544.761859
349.258191	2541.036446
349.648789	2544.207332
350.039324	2542.997455
350.429796	2547.307641
350.820203	2543.370500
351.210548	2542.387475
351.600828	2540.358411
351.991045	2541.333874
352.381198	2539.075437
352.771288	2542.064841
353.161314	2538.634336
353.551276	2539.418236
353.941175	2539.796322
354.331010	2538.717515
354.720782	2542.158103
355.110490	2541.409491
355.500135	2540.250026
355.889717	2544.073741
356.279235	2541.666590
356.668689	2540.786909
357.058080	2542.707588
357.447408	2542.873947
357.836672	2543.907383
358.225873	2543.718340
358.615010	2545.540717
359.004084	2545.172713
359.393095	2548.661191
359.782043	2545.823022
360.170927	2548.431819
360.559748	2547.879812
360.948505	2547.542055
361.337199	2550.322251
361.725830	2552.822664
362.114398	2551.247303
362.502903	2550.844011
362.891344	2552.646223
363.279722	2549.571119
363.668037	2551.685883
364.056289	2552.482386
364.444478	2554.730740
364.832603	2552.941131
365.220665	2553.009186
365.608665	2555.527243
365.996601	2556.764846
366.384474	2554.806358
366.772284	2554.461039
367.160031	2554.907181
367.547715	2557.957079
367.935336	2553.851059
368.322893	2556.963972
368.710388	2558.221739
369.097820	2557.286605
369.485189	2554.448436
369.872495	2561.450598
370.259738	2560.137378
370.646918	2563.245249
371.034035	2560.444888
371.421090	2564.303892
371.808081	2563.746844
372.195010	2564.666855
372.581875	2563.928326
372.968678	2565.738100
373.355418	2568.467885
373.742096	2567.931002
374.128710	2577.189081
374.515262	2573.481312
374.901751	2579.777713
375.288177	2581.925245
375.674540	2583.402303
376.060841	2587.538570
376.447079	2593.703901
376.833254	2595.180959
377.219367	2600.582555
377.605417	2607.539348
377.991404	2610.319544
378.377329	2617.566202
378.763191	2624.850670
379.148991	2632.127575
379.534727	2641.778864
379.920402	2646.376397
380.306013	2656.246976
380.691563	2667.398008
381.077049	2672.524862
381.462474	2683.078517
381.847835	2694.995805
382.233134	2706.015767
382.618371	2718.026316
383.003545	2735.362844
383.388657	2747.317941
383.773706	2761.410486
384.158693	2776.087806
384.543618	2792.968109
384.928480	2802.989923
385.313280	2822.403407
385.698017	2842.648681
386.082692	2864.335724
386.467305	2879.340719
386.851856	2902.479615
387.236344	2922.855959
387.620770	2938.533947
388.005133	2959.812658
388.389435	2989.177379
388.773674	2999.201713
389.157851	3031.064326
389.541965	3055.675239
389.926018	3066.591858
390.310008	3093.178903
390.693936	3117.724281
391.077802	3145.112870
391.461606	3177.527489
391.845348	3190.586598
392.229027	3218.333109
392.612645	3255.221752
392.996200	3283.195115
393.379694	3320.169458
393.763125	3354.935776
394.146494	3377.084085
394.529801	3411.419384
394.913047	3451.862041
395.296230	3456.948565
395.679351	3476.704847
396.062410	3522.874254
396.445408	3506.041842
396.828343	3543.487532
397.211217	3571.387798
397.594028	3550.227555
397.976778	3589.558637
398.359466	3622.734471
398.742092	3632.698311
399.124656	3646.122904
399.507158	3701.396635
399.889598	3708.030794
400.271977	3767.604629
400.654294	3757.991149
401.036549	3808.632060
401.418742	3811.931495
401.800874	3877.912637
402.182944	3902.437851
402.564952	3979.257474
402.946898	3974.324705
403.328783	3970.684992
403.710606	4020.191643
404.092367	4082.107094
404.474067	4144.501456
404.855705	4123.288280
405.237282	4100.154425
405.618797	4197.413406
406.000250	4264.276750
406.381642	4343.780788
406.762972	4339.750385
407.144240	4308.585972
407.525447	4374.141137
407.906593	4388.636975
408.287677	4459.719764
408.668700	4491.315196
409.049661	4526.489847
409.430560	4558.947316
409.811399	4550.604207
410.192176	4593.063325
410.572891	4667.034696
410.953545	4764.606228
411.334138	4664.408255
411.714669	4772.828350
412.095139	4697.367318
412.475547	4795.047236
412.855894	4801.555366
413.236180	4890.559457
413.616405	4830.352957
413.996568	4922.293521
414.376670	4933.305921
414.756711	4918.368982
415.136691	4989.865147
415.516609	5071.584771
415.896466	5106.328404
416.276262	5187.949726
416.655997	5299.543228
417.035670	5381.267893
417.415283	5508.355382
417.794834	5562.804884
418.174324	5522.609244
418.553753	5527.519328
418.933121	5677.755795
419.312428	5686.860119
419.691674	5626.031036
420.070859	5836.899981
420.449983	5728.953753
420.829045	5913.165077
421.208047	5841.837791
421.586988	5998.000134
421.965867	6064.455145
422.344686	6139.270909
422.723444	6295.219003
423.102141	5944.768070
423.480777	6302.339633
423.859352	6139.974150
424.237866	6483.463250
424.616319	6473.801878
424.994712	6630.899356
425.373044	6551.725514
425.751314	6838.794020
426.129524	6580.770122
426.507673	6839.340985
426.885762	6875.889350
427.263789	6916.858807
427.641756	7004.668146
428.019662	7065.300624
428.397508	7101.150789
428.775292	7098.524348
429.153016	7247.646720
429.530679	7198.654266
429.908282	7245.665547
430.285824	7184.788573
430.663305	7440.954805
431.040726	7348.598346
431.418086	7345.641710
431.795385	7482.733368
432.172624	7654.107393
432.549802	7540.535238
432.926920	7672.215218
433.303977	7627.711911
433.680974	7676.840476
434.057910	7855.521654
434.434786	7910.054335
434.811601	7867.378448
435.188355	8202.897483
435.565050	8094.086698
435.941683	8112.892722
436.318257	8421.474352
436.694770	8367.980148
437.071222	8574.296931
437.447614	8347.008948
437.823946	8320.154721
438.200218	8466.668296
438.576429	8362.160136
438.952580	8525.606946
439.328670	8532.412504
439.704700	8615.069783
440.080670	8506.874019
440.456580	8758.288964
440.832429	8744.720698
441.208218	8487.684867
441.583947	8604.387578
441.959616	8707.542189
442.335224	8743.281449
442.710773	8829.880910
443.086261	8998.295778
443.461689	8735.316426
443.837057	8888.693532
444.212365	9093.132485
444.587612	9085.593439
444.962800	8983.217687
445.337927	9118.376063
445.712995	8667.142382
446.088002	9315.003748
446.462949	9380.563953
446.837837	9387.316579
447.212664	9443.764899
447.587431	10355.202994
447.962139	11331.409833
448.336786	12077.309039
448.711374	11668.761328
449.085901	10525.720023
449.460369	10504.264872
449.834776	10421.652963
450.209124	11354.276507
450.583412	11122.348142
450.957640	11329.133752
451.331808	10916.764847
451.705917	10427.727554
452.079965	10347.293424
452.453954	10554.530217
452.827883	10501.033492
453.201752	10469.143153
453.575562	10485.113529
453.949311	10843.869763
454.323001	10921.153172
454.696632	10838.901706
455.070202	11424.772003
455.443713	11483.541774
455.817164	11637.793520
456.190556	11948.026128
456.563888	11774.774273
456.937160	11999.312307
457.310373	11490.133083
457.683526	11530.502643
458.056619	11573.428068
458.429653	11650.497228
458.802628	11825.657159
459.175542	11885.510779
459.548398	12441.421499
459.921194	13032.219524
460.293930	13348.153677
460.666607	14188.158621
461.039224	14916.242389
461.411782	15173.399208
461.784280	14765.010294
462.156719	14682.458879
462.529099	14579.299228
462.901419	14004.678265
463.273680	13651.081652
463.645882	13881.853073
464.018024	13843.205067
464.390106	14259.057409
464.762130	15437.752275
465.134094	17131.063249
465.505999	19428.324618
465.877845	21437.867173
466.249631	22330.035458
466.621358	21661.676760
466.993026	20815.332564
467.364634	20111.204360
467.736184	19402.229086
468.107674	18854.124593
468.479105	18719.238439
468.850477	18449.002346
469.221790	18018.049227
469.593043	17380.567597
469.964238	17041.885237
470.335373	17156.740366
470.706449	18032.565230
471.077467	19176.529066
471.448425	21535.141278
471.819324	23050.582700
472.190164	22533.241848
472.560945	20821.273564
472.931667	19416.717362
473.302330	19161.161109
473.672934	18719.016628
474.043479	19159.018618
474.413965	18972.316965
474.784393	18810.868972
475.154761	19446.031671
475.525070	19581.169883
475.895321	19426.532488
476.265513	19938.769172
476.635645	20524.813389
477.005719	20606.149885
477.375734	20979.180147
477.745691	21598.029672
478.115588	22261.624479
478.485427	23531.851576
478.855207	25432.863129
479.224928	27165.177511
479.594591	28344.011008
479.964194	27792.080279
480.333739	28177.993209
480.703226	28468.262848
481.072653	28975.055085
481.442022	29488.448713
481.811333	29785.289496
482.180584	29276.632032
482.549777	29078.219778
482.918912	28871.547594
483.287988	28823.099585
483.657005	28644.937646
484.025964	28291.819943
484.394864	28487.343615
484.763706	28435.147508
485.132489	27935.213761
485.501213	28000.209357
485.869879	28198.369553
486.238487	28159.991249
486.607036	28432.286653
486.975527	28157.447987
487.343959	28496.647064
487.712333	28814.151537
488.080648	28782.949315
488.448905	29216.312105
488.817104	29149.279882
489.185244	30049.907223
489.553326	31217.443495
489.921350	33156.742612
490.289315	35566.081434
490.657222	36240.723930
491.025070	36654.731210
491.392861	36248.835147
491.760593	35430.499602
492.128267	34416.123666
492.495883	33466.178717
492.863440	32623.834677
493.230939	31734.577659
493.598380	31230.888252
493.965763	31117.394235
494.333088	30647.712452
494.700354	30475.972943
495.067563	30457.030807
495.434713	30368.220800
495.801805	30671.758756
496.168839	30531.027384
496.535815	30405.447201
496.902733	30553.251311
497.269593	30374.055936
497.636395	30540.842511
498.003139	30835.011482
498.369825	30596.685893
498.736453	30999.398468
499.103023	30855.695336
499.469535	30962.081326
499.835989	31104.957708
500.202385	30973.063480
500.568723	31047.115509
500.935003	31372.786651
501.301226	31286.056119
501.667390	31982.216780
502.033497	32170.861798
502.399546	31981.163179
502.765537	31585.906471
503.131470	32056.120096
503.497345	32498.927488
503.863163	31481.821767
504.228923	32256.042175
504.594625	32668.826975
504.960269	32151.839004
505.325856	32834.204548
505.691385	32517.156300
506.056856	32839.265866
506.422270	33339.557536
506.787625	32887.547517
507.152924	33339.499562
507.518164	33554.900504
507.883347	33122.994607
508.248472	33297.930208
508.613540	33978.364989
508.978550	34232.255141
509.343503	34081.605299
509.708398	34450.985765
510.073236	35068.222122
510.438016	35170.383625
510.802738	34857.491808
511.167403	35424.183036
511.532010	35682.630391
511.896561	36175.314959
512.261053	36931.160361
512.625488	36723.200162
512.989866	36658.204565
513.354186	36724.934319
513.718449	36707.794396
514.082655	37593.033614
514.446803	37293.510938
514.810894	37910.714526
515.174927	37943.676111
515.538904	37943.393806
515.902822	38617.975808
516.266684	38310.767893
516.630488	38668.112604
516.994235	38683.687248
517.357925	39289.767531
517.721558	39553.747552
518.085133	39936.996233
518.448651	40114.754879
518.812112	40008.268066
519.175516	40191.844203
519.538863	40631.584053
519.902152	40701.005783
520.265385	41248.525502
520.628560	41271.619028
520.991678	41231.297359
521.354739	41473.670995
521.717743	41842.030627
522.080690	41731.445356
522.443580	42426.990996
522.806413	42465.616317
523.169189	42594.916872
523.531908	42841.673791
523.894569	42709.595560
524.257174	42909.036209
524.619722	43255.013118
524.982213	43381.684711
525.344647	43424.022842
525.707025	43558.230960
526.069345	44007.314589
526.431608	43914.789251
526.793815	44315.140045
527.155964	43870.381727
527.518057	44136.017767
527.880093	43997.771684
528.242072	44618.698165
528.603995	44356.855593
528.965860	44274.783088
529.327669	44508.173388
529.689421	44566.255042
530.051117	44508.498542
530.412755	44794.440350
530.774337	44867.428696
531.135862	44806.796218
531.497331	44971.329398
531.858743	44969.116331
532.220098	45380.754269
532.581396	45099.755312
532.942638	44866.670003
533.303824	45121.883457
533.664953	45165.948183
534.026025	44857.590884
534.387040	45419.117450
534.747999	45508.643301
535.108902	45821.477144
535.469748	45147.437066
535.830537	45399.691363
536.191270	45660.525704
536.551947	45386.289456
536.912567	45692.554675
537.273131	45831.985429
537.633638	45442.820955
537.994089	45667.331262
538.354483	45406.857363
538.714821	46053.259315
539.075103	46321.299986
539.435328	46200.561831
539.795497	45954.208204
540.155609	46085.021105
540.515665	46665.767069
540.875665	45966.833774
541.235609	46265.706141
541.595496	46374.796711
541.955328	46946.329966
542.315102	46385.680562
542.674821	46265.464166
543.034483	46153.837896
543.394090	46176.351689
543.753640	46146.266083
544.113134	47232.377638
544.472571	46325.171592
544.831953	47468.142321
545.191278	46721.822180
545.550548	46400.675474
545.909761	47049.877787
546.268918	47200.653657
546.628019	47628.468658
546.987064	47059.534117
547.346053	46334.903540
547.704986	47254.528468
548.063863	46898.847338
548.422684	47103.399717
548.781449	46675.829212
549.140158	47216.127479
549.498811	46999.085641
549.857408	46373.493572
550.215949	47223.477481
550.574434	47054.981955
550.932864	46986.570977
551.291237	47704.832056
551.649555	47470.514184
552.007817	47645.825350
552.366022	47315.281934
552.724173	47371.233700
553.082267	47782.841391
553.440305	48129.435842
553.798288	47393.984428
554.156215	47779.418448
554.514086	47972.229980
554.871902	47601.117878
555.229661	47776.943241
555.587365	47435.838607
555.945014	47591.975745
556.302606	47587.552132
556.660143	47704.206953
557.017625	47908.051050
557.375050	47600.916231
557.732421	48028.562353
558.089735	48078.875589
558.446994	47950.805076
558.804197	48438.135939
559.161345	48293.522879
559.518437	47628.019995
559.875474	47879.702121
560.232455	48113.634345
560.589381	48180.258234
560.946251	47985.158019
561.303065	48645.408020
561.659825	48316.061878
562.016528	48133.461203
562.373177	47707.319866
562.729770	48331.465123
563.086307	47850.692802
563.442789	48405.423891
563.799216	48262.542468
564.155587	48145.892688
564.511904	48106.231411
564.868164	48156.705963
565.224370	48477.469542
565.580520	48208.667657
565.936615	48392.460564
566.292654	48060.140141
566.648638	48416.053164
567.004567	48349.267958
567.360441	48461.438672
567.716260	48170.599383
568.072023	48538.971618
568.427732	48468.929827
568.783385	48008.122995
569.138982	48412.108461
569.494525	48545.051250
569.850013	48144.715579
570.205445	48264.057335
570.560823	48042.244045
570.916145	47921.132844
571.271412	48157.799894
571.626625	47800.790420
571.981782	47882.920898
572.336884	47468.865727
572.691931	47799.431829
573.046923	47449.174980
573.401860	47281.728014
573.756743	47309.479566
574.111570	47450.231102
574.466342	47367.536014
574.821059	47502.303700
575.175722	47003.206784
575.530330	47124.040722
575.884882	46749.397291
576.239380	46646.734193
576.593823	46743.337824
576.948211	46675.123451
577.302544	46214.853502
577.656823	46216.191928
578.011047	46481.890983
578.365216	46290.009544
578.719330	46022.823349
579.073389	45991.066600
579.427394	46054.476754
579.781344	45973.599002
580.135239	45734.118989
580.489080	45804.672457
580.842866	45273.428103
581.196597	45785.846268
581.550273	45773.997036
581.903895	45717.929323
582.257463	46152.633061
582.610975	45578.180977
582.964434	45918.811742
583.317837	45419.235917
583.671186	45368.111055
584.024481	45635.415717
584.377721	45187.299990
584.730906	45403.336117
585.084037	45518.594538
585.437113	45215.991717
585.790135	45350.966091
586.143103	44900.284416
586.496016	45075.653556
586.848874	45174.452609
587.201679	45193.067070
587.554428	44697.085587
587.907124	44972.526672
588.259765	44743.375982
588.612352	44906.260704
588.964884	44349.722361
589.317362	44668.202296
589.669786	44674.738152
590.022155	44522.253331
590.374470	44972.559439
590.726731	44539.741093
591.078937	43881.046288
591.431090	44220.981374
591.783188	43739.644443
592.135232	43531.711970
592.487222	43813.482223
592.839157	43943.060042
593.191038	43580.545627
593.542866	43402.824790
593.894639	42811.799913
594.246358	43100.037966
594.598022	43095.269035
594.949633	42666.765917
595.301190	42653.311077
595.652692	42585.653751
596.004141	43065.392637
596.355535	41961.236271
596.706876	41984.286947
597.058162	41708.999618
597.409395	42211.942934
597.760573	42437.610186
598.111698	42023.393698
598.462768	41940.796913
598.813785	41960.197794
599.164748	41555.085629
599.515657	41843.689167
599.866511	41340.937414
600.217312	42032.553475
600.568060	40969.885806
600.918753	41791.432566
601.269392	41728.055180
601.619978	41434.896960
601.970510	41630.307207
602.320988	41791.432566
602.671412	42053.965776
603.021783	41911.865731
603.372100	41491.292348
603.722363	41590.666093
604.072572	41622.589200
604.422728	41622.848819
604.772830	41410.633887
605.122878	41568.275808
605.472872	41415.188569
605.822813	41684.300485
606.172701	41409.905440
606.522534	41760.999120
606.872314	41967.192395
607.222041	41801.524956
607.571714	42123.261477
607.921333	41622.175825
608.270899	41838.617766
608.620411	42231.537899
608.969870	41960.585962
609.319276	41988.501352
609.668627	42027.373689
610.017926	42422.630398
610.367171	42550.232084
610.716362	42601.752676
611.065500	42490.191942
611.414585	42725.853281
611.763616	42899.992379
612.112594	42786.614308
612.461518	42921.374433
612.810389	43300.320488
613.159207	43103.448307
613.507971	43073.859254
613.856682	43574.430708
614.205340	43417.262654
614.553945	44096.437148
614.902496	43413.007921
615.250994	43835.832179
615.599439	43896.053803
615.947830	44008.647974
616.296169	44013.686607
616.644454	44056.546497
616.992686	44212.290425
617.340864	44667.428479
617.688990	44183.991907
618.037063	44862.135485
618.385082	44686.133680
618.733048	45020.034505
619.080961	44887.963836
619.428821	44905.413790
619.776628	44932.598212
620.124382	44733.575979
620.472083	44829.337738
620.819731	44934.039983
621.167326	44510.318399
621.514868	44486.940048
621.862357	43951.322493
622.209793	44029.719997
622.557176	43595.908544
622.904506	43354.969116
623.251783	42988.189886
623.599007	42672.371680
623.946179	42583.213833
624.293297	42325.999040
624.640363	41771.600667
624.987376	41625.381999
625.334336	41415.634711
625.681243	41008.717814
626.028097	40924.941399
626.374899	40747.775088
626.721647	40710.752854
627.068343	40493.204380
627.414987	40208.512779
627.761577	39942.531419
628.108115	40281.249067
628.454600	39516.354794
628.801032	39760.805385
629.147412	39645.683075
629.493739	39553.230834
629.840014	39118.058270
630.186236	39540.156602
630.532405	38983.358639
630.878521	39222.079959
631.224585	38991.230401
631.570597	38648.762135
631.916556	38803.782657
632.262462	38697.053868
632.608316	38635.899631
632.954117	38487.185592
633.299866	38453.992115
633.645562	38344.339457
633.991206	37833.378185
634.336797	37400.640498
634.682336	37299.096536
635.027823	37060.097953
635.373257	36916.167969
635.718639	36597.501511
636.063968	36505.235793
636.409245	35847.592068
636.754470	35799.761600
637.099642	35562.169499
637.444762	34999.833828
637.789829	35143.017721
638.134845	34757.576139
638.479808	34684.885221
638.824719	34616.927947
639.169577	34120.313799
639.514383	34209.932912
639.859137	33832.131198
640.203839	33996.067001
640.548489	33694.525343
640.893086	33689.721123
641.237632	33420.042077
641.582125	33514.130173
641.926566	33319.241686
642.270955	33344.192877
642.615292	33264.847636
642.959576	33155.358815
643.303809	33169.544622
643.647990	33256.111316
643.992118	33203.395970
644.336195	33060.499423
644.680219	33161.347706
645.024192	33346.564739
645.368112	33883.185484
645.711981	33892.680497
646.055797	34643.018439
646.399562	34452.717402
646.743274	35323.652346
647.086935	35721.112038
647.430544	35668.386610
647.774101	35712.045523
648.117606	36001.349781
648.461059	36136.122508
648.804460	35734.720633
649.147810	35230.771607
649.491108	34862.991707
649.834354	34707.557811
650.177548	33866.695870
650.520690	33374.228071
650.863781	33360.044785
651.206820	33185.451983
651.549807	32759.424072
651.892742	32184.364529
652.235626	32099.204317
652.578458	31970.196149
652.921238	31274.743770
653.263967	31593.574066
653.606644	31293.632973
653.949269	31198.791226
654.291843	30789.416766
654.634365	31172.738543
654.976836	30699.180112
655.319255	30775.309097
655.661622	30645.295218
656.003938	30528.100994
656.346203	30329.023308
656.688416	30579.853480
657.030577	30343.141060
657.372687	30167.219914
657.714746	30336.464052
658.056753	30515.737565
658.398708	29896.721681
658.740612	29961.455138
659.082465	30175.651244
659.424266	30066.548072
659.766016	30075.851521
660.107715	29939.720203
660.449362	30041.002025
660.790958	30016.801966
661.132503	29942.210533
661.473996	30020.648366
661.815438	30102.783886
662.156829	30219.037934
662.498168	30029.803101
662.839456	30015.471101
663.180693	30127.903955
663.521879	30211.274558
663.863013	30186.401504
664.204097	30149.767439
664.545129	30567.157334
664.886110	30498.852220
665.227040	30616.265734
665.567918	30608.119229
665.908746	30686.204182
666.249522	30765.902304
666.590248	30796.928085
666.930922	30887.900747
667.271545	30884.742464
667.612118	30941.941917
667.952639	30764.147982
668.293109	30798.906738
668.633528	30651.188327
668.973896	30614.677771
669.314213	30582.154767
669.654480	30401.028629
669.994695	30374.751615
670.334859	30299.582970
670.674973	30133.144235
671.015035	30332.884832
671.355047	30260.161147
671.695008	30191.243533
672.034918	30102.420923
672.374777	30205.242817
672.714585	30078.558621
673.054342	30210.830936
673.394049	30065.837269
673.733705	30274.336872
674.073310	29988.132924
674.412864	30052.339580
674.752368	29745.005635
675.091820	29976.656737
675.431223	29562.503263
675.770574	29352.133393
676.109875	29195.414002
676.449125	28990.526386
676.788324	28883.842968
677.127473	28409.611543
677.466571	28307.881059
677.805619	28034.058185
678.144616	27970.290109
678.483562	27922.184898
678.822458	27596.672553
679.161303	27536.637452
679.500098	27461.229352
679.838842	27386.426191
680.177535	27460.233725
680.516179	27726.336072
680.854771	27862.974026
681.193314	28643.120310
681.531805	29682.394505
681.870247	30424.036456
682.208638	31167.730156
682.546978	31425.204568
682.885268	31565.847719
683.223508	31126.327160
683.561697	30838.038695
683.899836	30674.102892
684.237925	30259.256260
684.575963	30114.393663
684.913951	29740.319883
685.251889	29906.108309
685.589776	29944.927715
685.927614	29950.006677
686.265401	30142.349382
686.603137	30256.897000
686.940824	30754.161456
687.278460	31089.965317
687.616046	31274.436260
687.953582	31930.363472
688.291068	31832.166836
688.628504	32178.053004
688.965889	32169.261232
689.303224	31892.501886
689.640510	31589.326893
689.977745	30947.182196
690.314930	30201.915655
690.652065	29756.721277
690.989150	29076.218440
691.326185	28225.758142
691.663170	27583.381551
692.000105	26850.574223
692.336990	26231.714615
692.673825	25802.858616
693.010610	25306.075589
693.347345	24812.745753
693.684030	24179.443240
694.020665	23982.545853
694.357251	23293.609165
694.693786	23316.914420
695.030272	23077.351227
695.366707	22586.118511
695.703093	22309.497797
696.039429	22376.295606
696.375716	22126.881999
696.711952	22132.860807
697.048139	21995.401145
697.384276	21830.542811
697.720363	21953.131070
698.056400	21846.606448
698.392388	21681.256602
698.728326	21688.803209
699.064214	21516.937671
699.400053	21524.935462
699.735842	21125.171962
700.071581	20925.252403
700.407270	20687.267092
700.742910	20504.318578
701.078501	20246.420709
701.414042	20042.377486
701.749533	19738.239633
702.084974	19423.154915
702.420366	19656.860287
702.755709	19238.812522
703.091002	18940.817315
703.426246	19005.747377
703.761440	18931.889432
704.096584	18704.067087
704.431679	18633.717785
704.766725	18585.579807
705.101721	18517.194034
705.436668	18637.785996
705.771565	18372.512919
706.106413	18687.678295
706.441212	18761.357279
706.775961	18866.493063
707.110661	18948.411813
707.445311	19326.553805
707.779913	19191.834009
708.114465	19500.624847
708.448967	19811.553134
708.783421	20451.940989
709.117825	20825.934111
709.452180	21059.536139
709.786485	21504.347390
710.120742	22293.272843
710.454949	22387.981000
710.789107	22908.558273
711.123216	23637.105827
711.457275	23838.257947
711.791286	24399.565223
712.125247	24545.189034
712.459159	24264.290900
712.793023	25028.905389
713.126837	23983.574248
713.460602	24237.885336
713.794318	23889.632346
714.127985	23622.173929
714.461602	22709.939332
714.795171	22683.647194
715.128691	21683.842713
715.462162	21177.489057
715.795584	20738.167622
716.128957	20467.059410
716.462281	20095.531412
716.795556	19800.245826
717.128782	19321.875614
717.461960	18714.850115
717.795088	18682.203602
718.128167	18338.233072
718.461198	17871.603708
718.794180	17749.068381
719.127113	17416.974810
719.459997	17224.382568
719.792833	16848.620002
720.125619	16896.528608
720.458357	16557.180816
720.791046	16413.855771
721.123686	16271.193637
721.456278	16047.938578
721.788821	16041.564039
722.121315	15771.315343
722.453761	15876.809049
722.786158	15761.475010
723.118506	15835.345558
723.450805	15717.939606
723.783056	15903.227215
724.115259	15797.302491
724.447412	15792.165555
724.779518	16018.720050
725.111574	16068.914819
725.443582	16345.389340
725.775542	16294.186340
726.107453	16820.563460
726.439315	16733.810244
726.771129	17161.814287
727.102895	17591.335719
727.434612	17863.230351
727.766281	18029.898459
728.097901	18353.545577
728.429473	18427.474098
728.760996	18439.986242
729.092471	18566.340243
729.423897	18464.236713
729.755276	18331.724943
730.086606	18447.429506
730.417887	19026.607671
730.749120	19596.550443
731.080305	19810.953237
731.411442	20212.871830
731.742530	20336.614513
732.073570	20490.909108
732.404562	20818.095117
732.735506	20665.209523
733.066401	20444.427149
733.397249	19938.985941
733.728048	19309.474375
734.058798	18436.543134
734.389501	17673.262030
734.720156	17143.522461
735.050762	16572.785707
735.381320	16181.632498
735.711831	15902.584468
736.042293	15535.233067
736.372707	15577.873667
736.703073	15366.619074
737.033391	15569.364199
737.363661	15564.542335
737.693883	15693.001018
738.024056	15894.899229
738.354182	16122.620751
738.684260	16494.186557
739.014290	16768.790810
739.344272	17000.590626
739.674207	17353.378134
740.004093	17524.953805
740.333931	17581.182835
740.663722	17660.686872
740.993464	17690.041511
741.323159	17534.037964
741.652806	17226.714102
741.982405	17049.172225
742.311956	16689.967329
742.641460	16575.593630
742.970915	16235.552680
743.300323	15883.856582
743.629683	15674.444530
743.958996	15362.739906
744.288260	15041.177305
744.617477	14727.804058
744.946647	14695.792731
745.275768	14379.364546
745.604842	14171.190098
745.933869	13996.980423
746.262847	13966.620074
746.591778	13886.727868
746.920662	13771.729067
747.249498	13782.691056
747.578286	13945.961426
747.907027	14121.355771
748.235720	14394.369540
748.564365	14464.915447
748.892963	14382.447211
749.221514	14489.538963
749.550017	14352.094424
749.878473	14314.744515
750.206881	14097.800980
750.535242	14018.289381
750.863555	13934.447431
751.191821	13836.669211
751.520039	13859.528323
751.848210	13779.220221
752.176334	13827.625381
752.504411	13757.555863
752.832440	13572.253130
753.160421	13693.843240
753.488356	13575.575250
753.816243	13484.930263
754.144082	13314.597236
754.471875	13267.618723
754.799620	13235.302407
755.127318	13208.546482
755.454969	13190.007639
755.782572	13164.985872
756.110129	13177.757635
756.437638	13083.803131
756.765100	13097.915841
757.092515	13116.774797
757.419882	13160.965552
757.747203	13172.736646
758.074477	13260.137651
758.401703	13249.221032
758.728882	13445.750415
759.056014	13480.675529
759.383099	13655.790090
759.710138	13780.694759
760.037129	13908.238472
760.364073	13961.677223
760.690970	13997.373633
761.017820	14010.682280
761.344623	14239.323812
761.671379	14626.905364
761.998088	15332.906357
762.324751	17135.416285
762.651366	20581.561657
762.977935	25110.272133
763.304456	28134.621642
763.630931	29199.635968
763.957359	27961.029509
764.283740	25665.451885
764.610074	23366.607594
764.936362	20691.718431
765.262602	18789.486918
765.588796	16839.818147
765.914943	15544.312185
766.241044	14425.526391
766.567097	13628.653559
766.893104	12915.738623
767.219064	12433.731219
767.544978	11947.171652
767.870845	11562.208980
768.196665	11335.077273
768.522438	11104.567993
768.848165	10898.654502
769.173846	10683.979486
769.499479	10557.446525
769.825066	10384.177026
770.150607	10148.984514
770.476101	10074.314943
770.801548	9944.028842
771.126949	9785.212332
771.452303	9671.012553
771.777611	9472.504517
772.102872	9463.891706
772.428087	9316.382503
772.753256	9160.983895
773.078378	9074.681862
773.403453	8886.127584
773.728482	8772.893187
774.053465	8698.455509
774.378401	8595.958769
774.703291	8473.080644
775.028135	8346.038526
775.352932	8313.714647
775.677683	8207.361425
776.002388	8099.231195
776.327046	8112.348277
776.651658	8014.254985
776.976224	7913.827639
777.300743	7907.148110
777.625216	7825.209196
777.949643	7775.546268
778.274024	7789.749719
778.598359	7705.499436
778.922647	7729.127324
779.246889	7672.190012
779.571086	7681.473297
779.895236	7696.311933
780.219339	7699.205555
780.543397	7701.423663
780.867409	7783.508771
781.191374	7794.022097
781.515294	7757.483814
781.839167	7854.319338
782.162995	7828.574166
782.486776	7767.031760
782.810511	7715.773307
783.134201	7632.047304
783.457844	7625.846684
783.781441	7570.371307
784.104993	7500.213569
784.428498	7485.548852
784.751958	7469.112170
785.075372	7437.463806
785.398739	7379.185547
785.722061	7429.715553
786.045337	7432.994823
786.368568	7592.315450
786.691752	7616.911239
787.014891	7966.149775
787.337983	8323.055905
787.661030	8926.771887
787.984031	9561.455677
788.306987	9975.624274
788.629897	10185.381644
788.952760	10128.053643
789.275579	9907.223378
789.598351	9502.459053
789.921078	9144.668200
790.243759	8725.478614
790.566395	8430.737472
790.888984	8181.974174
791.211529	7958.154505
791.534027	7729.270997
791.856480	7537.298817
792.178888	7460.148999
792.501249	7361.486056
792.823566	7202.049483
793.145836	7205.585853
793.468062	7177.534352
793.790241	7122.114427
794.112375	7198.447579
794.434464	7355.361054
794.756507	7394.311529
795.078505	7555.053761
795.400457	7877.062504
795.722364	8235.218841
796.044226	8522.304991
796.366042	8804.100449
796.687812	8746.989217
797.009538	8823.846649
797.331218	8713.732726
797.652852	8635.030232
797.974442	8478.383938
798.295986	8386.579485
798.617484	8195.161832
798.938938	8042.976959
799.260346	7938.925023
799.581709	7738.516473
799.903026	7661.880852
800.224299	7554.965541
800.545526	7381.580095
800.866708	7286.279602
801.187845	7210.851338
801.508936	7106.494412
801.829983	7065.590490
802.150984	6911.164824
802.471940	6870.641509
802.792851	6852.301791
803.113717	6823.257183
803.434538	6792.425487
803.755314	6732.695375
804.076045	6733.086065
804.396731	6678.792838
804.717372	6714.579989
805.037967	6710.569751
805.358518	6755.098263
805.679024	6840.001376
805.999485	6853.884714
806.319901	6895.159161
806.640272	6914.575165
806.960598	6997.595407
807.280879	7001.391396
807.601115	7079.869558
807.921306	7024.328646
808.241453	7038.090996
808.561554	7056.092956
808.881611	7019.738675
809.201623	7024.056423
809.521590	6977.443394
809.841513	6952.232584
810.161390	6990.497462
810.481223	6856.415373
810.801011	6844.379618
811.120755	6816.754095
811.440453	6743.254072
811.760107	6702.201436
812.079716	6673.754204
812.399281	6610.160049
812.718801	6594.456854
813.038276	6550.742489
813.357707	6490.417521
813.677093	6532.286825
813.996434	6436.396517
814.315731	6482.666747
814.634983	6474.505119
814.954191	6485.131872
815.273354	6593.037770
815.592473	6657.627553
815.911547	6787.346524
816.230577	6869.328288
816.549562	7015.035279
816.868502	7116.919518
817.187399	7215.791669
817.506250	7371.669187
817.825058	7405.240751
818.143821	7680.016403
818.462539	7960.080226
818.781213	8330.317688
819.099843	8891.544304
819.418429	9902.467049
819.736970	10888.050435
820.055466	12082.498907
820.373919	13633.906441
820.692327	16014.997158
821.010691	20191.099086
821.329011	29224.539268
821.647286	42266.626851
821.965517	55695.502003
822.283704	61043.523487
822.601847	63030.375808
822.919945	60383.175183
823.237999	56252.163855
823.556010	50149.832001
823.873976	43395.852874
824.191897	36825.044072
824.509775	31945.950719
824.827609	27381.155665
825.145398	24762.666931
825.463144	23387.750193
825.780845	23696.251164
826.098502	25479.123277
826.416116	29308.154367
826.733685	33016.646426
827.051210	34233.341510
827.368692	32449.758594
827.686129	28460.335633
828.003522	24277.637355
828.320872	20496.935808
828.638177	17612.090149
828.955439	15423.616880
829.272656	13585.649996
829.589830	12082.942528
829.906960	10792.233224
830.224046	9843.719963
830.541088	9073.625740
830.858086	8620.015155
831.175041	8235.390240
831.491952	8119.209288
831.808819	8159.752768
832.125642	8570.511024
832.442421	9468.184248
832.759157	11282.815631
833.075849	14245.698351
833.392497	17513.782608
833.709101	19733.851309
834.025662	19593.939125
834.342179	17884.478815
834.658653	15641.465302
834.975083	13681.726827
835.291469	12044.838967
835.607811	10701.008504
835.924110	9775.351835
836.240366	8895.347855
836.556578	8082.476920
836.872746	7429.682785
837.188871	6921.088336
837.504952	6492.819631
837.820990	6182.148443
838.136984	5959.989834
838.452935	5858.047621
838.768842	5893.013064
839.084706	6315.476880
839.400526	7535.892335
839.716303	9145.240371
840.032037	10263.574982
840.347727	10194.843890
840.663373	9209.895690
840.978977	8147.618710
841.294537	7324.403328
841.610054	6714.370781
841.925527	6276.042454
842.240957	5908.431433
842.556344	5571.790741
842.871687	5283.472029
843.186987	4995.269264
843.502244	4770.433802
843.817458	4603.501034
844.132629	4465.012976
844.447756	4370.120817
844.762840	4293.611225
845.077881	4218.656829
845.392879	4152.267353
845.707833	4102.400259
846.022745	4059.379052
846.337613	4030.354609
846.652438	3987.610666
846.967221	3971.146257
847.281960	3938.905558
847.596656	3914.125766
847.911309	3899.849218
848.225919	3872.813510
848.540485	3857.049822
848.855009	3845.319057
849.169490	3823.253927
849.483928	3809.436124
849.798323	3804.152995
850.112675	3785.858647
850.426984	3788.880819
850.741251	3774.488325
851.055474	3771.471194
851.369654	3779.287503
851.683792	3769.442130
851.997887	3777.160137
852.311938	3778.571660
852.625947	3784.752114
852.939914	3770.563787
853.253837	3782.597021
853.567718	3779.325312
853.881555	3768.552366
854.195350	3783.348153
854.509103	3781.641722
854.822812	3779.600055
855.136479	3772.111421
855.450103	3783.063328
855.763685	3766.830812
856.077224	3768.822068
856.390720	3787.489461
856.704173	3807.684323
857.017584	3821.602949
857.330953	3834.193231
857.644278	3853.924307
857.957561	3865.355123
858.270802	3861.186089
858.584000	3861.967468
858.897155	3855.673587
859.210268	3838.400073
859.523339	3818.946261
859.836367	3814.013492
860.149352	3807.258346
860.462295	3801.425731
860.775195	3792.117240
861.088054	3780.396557
861.400869	3783.091054
861.713642	3783.524593
862.026373	3793.861479
862.339062	3799.270637
862.651708	3819.183195
862.964312	3855.093854
863.276873	3865.919732
863.589392	3926.262344
863.901869	3971.163901
864.214303	4020.000079
864.526696	4052.686921
864.839045	4096.471862
865.151353	4128.485710
865.463619	4134.545177
865.775842	4136.037358
866.088023	4157.782375
866.400162	4149.761900
866.712258	4155.907066
867.024313	4158.031913
867.336325	4155.445801
867.648296	4165.230680
867.960224	4164.015762
868.272110	4171.146474
868.583954	4176.043955
868.895755	4193.892160
869.207515	4185.233979
869.519233	4230.987491
869.830909	4248.233278
870.142542	4271.223460
870.454134	4282.112353
870.765684	4313.233916
871.077191	4348.895038
871.388657	4374.851939
871.700081	4411.906941
872.011463	4456.662305
872.322803	4488.895442
872.634101	4524.120505
872.945357	4562.372780
873.256571	4618.652222
873.567744	4651.258405
873.878874	4666.654089
874.189963	4706.595151
874.501010	4718.900607
874.812015	4713.867015
875.122979	4755.443931
875.433900	4756.384107
875.744780	4771.242907
876.055618	4798.318945
876.366415	4796.002535
876.677169	4815.221934
876.987882	4861.373697
877.298554	4917.002830
877.609183	4999.876878
877.919771	5111.127582
878.230317	5257.925982
878.540822	5474.816585
878.851285	5801.937058
879.161707	6273.471466
879.472087	7040.034361
879.782425	8286.797406
880.092722	10485.506739
880.402977	13818.483248
880.713191	17594.751100
881.023363	21333.457315
881.333494	23565.801226
881.643583	24804.455576
881.953631	24800.112622
882.263637	23971.984636
882.573602	22484.183860
882.883526	20921.660581
883.193408	19225.317353
883.503248	17515.978030
883.813048	15959.037830
884.122806	14510.237941
884.432522	13024.655272
884.742197	11743.786300
885.051831	10655.043263
885.361424	9638.693716
885.670975	8809.754103
885.980485	8110.651929
886.289954	7528.902775
886.599382	7052.533902
886.908768	6672.803947
887.218113	6301.500281
887.527417	6012.178379
887.836680	5742.380867
888.145901	5520.365931
888.455082	5349.685064
888.764221	5201.613773
889.073319	5065.394234
889.382376	4991.972349
889.691392	4933.152166
890.000366	4909.718363
890.309300	4887.935537
890.618193	4890.050301
890.927044	4878.357344
891.235855	4898.607659
891.544625	4927.122946
891.853353	4990.805322
892.162041	5108.554073
892.470687	5300.017096
892.779293	5551.116969
893.087858	5927.844917
893.396381	6512.026427
893.704864	7326.646642
894.013306	8490.006318
894.321707	9690.410913
894.630068	10524.263129
894.938387	10745.232026
895.246665	10501.797227
895.554903	9887.666222
895.863100	9178.522069
896.171256	8609.648022
896.479371	8096.819003
896.787446	7590.793021
897.095480	7158.587176
897.403473	6829.397309
897.711425	6508.326220
898.019336	6237.928810
898.327207	5962.268436
898.635038	5729.533486
898.942827	5477.735413
899.250576	5284.823058
899.558284	5086.521710
899.865952	4961.692659
900.173579	4811.544412
900.481165	4699.842525
900.788711	4605.532619
901.096216	4535.044685
901.403681	4469.232422
901.711105	4443.772074
902.018489	4429.397224
902.325832	4498.781145
902.633135	4621.240854
902.940397	4970.181962
903.247619	5766.533035
903.554800	7225.019501
903.861941	9159.554728
904.169041	10704.068484
904.476101	11343.347286
904.783121	10988.134983
905.090100	10235.805786
905.397039	9389.239779
905.703938	8636.245150
906.010796	7926.851460
906.317614	7363.016046
906.624391	6829.044428
906.931129	6395.711885
907.237826	5993.833621
907.544483	5609.823726
907.851099	5229.468669
908.157675	4872.454153
908.464211	4546.747724
908.770707	4309.143020
909.077163	4102.458233
909.383578	3957.295687
909.689954	3844.343594
909.996289	3768.945576
910.302584	3702.982078
910.608839	3673.375382
910.915054	3641.338849
911.221229	3626.759832
911.527363	3640.144096
911.833458	3653.314110
912.139513	3678.545085
912.445527	3711.171433
912.751502	3790.867034
913.057436	3896.290164
913.363331	4033.515412
913.669186	4239.323039
913.975000	4498.367770
914.280775	4923.541206
914.586510	5515.322256
914.892205	6318.985523
915.197859	7361.750717
915.503475	8606.961087
915.809050	9674.962297
916.114585	10346.010450
916.420081	10606.829668
916.725536	10579.446120
917.030952	10126.385021
917.336328	9716.251867
917.641665	9294.597157
917.946961	8804.576838
918.252218	8378.861478
918.557435	7870.045218
918.862612	7427.280676
919.167750	7044.828498
919.472848	6617.401666
919.777906	6240.840077
920.082925	5874.292739
920.387904	5501.945555
920.692843	5235.104679
920.997743	4984.798787
921.302603	4747.635184
921.607423	4580.644442
921.912204	4415.002209
922.216946	4297.477790
922.521647	4172.613450
922.826310	4059.013569
923.130932	3971.378150
923.435516	3871.192779
923.740059	3797.085297
924.044564	3722.032599
924.349028	3662.710821
924.653454	3594.425871
924.957840	3526.496323
925.262186	3477.193839
925.566493	3415.555651
925.870761	3360.143288
926.174989	3322.274140
926.479178	3284.977163
926.783328	3240.655338
927.087438	3215.111812
927.391509	3176.667973
927.695541	3148.792912
927.999533	3122.341978
928.303486	3102.409256
928.607400	3086.295208
928.911275	3073.674679
929.215110	3055.745815
929.518906	3047.052346
929.822663	3047.208621
930.126381	3041.373486
930.430060	3050.472768
930.733699	3051.859086
931.037299	3062.687484
931.340861	3058.452915
931.644383	3069.215778
931.947866	3068.729307
932.251309	3062.379974
932.554714	3062.959707
932.858080	3053.850342
933.161407	3048.736091
933.464694	3037.428783
933.767943	3029.836805
934.071153	3030.212371
934.374323	3015.403982
934.677455	3013.901718
934.980548	3002.740603
935.283602	2999.448730
935.586617	2995.372957
935.889593	3010.418281
936.192530	3008.406860
936.495428	3026.910415
936.798287	3048.829352
937.101108	3081.483426
937.403890	3134.113072
937.706632	3197.210675
938.009336	3277.405350
938.312002	3353.340250
938.614628	3413.554313
938.917216	3468.404587
939.219765	3502.513034
939.522275	3537.057541
939.824747	3539.048796
940.127179	3535.469577
940.429573	3532.575955
940.731929	3527.398690
941.034246	3511.410670
941.336524	3501.323322
941.638763	3485.168944
941.940964	3471.777119
942.243126	3429.141560
942.545250	3405.601892
942.847335	3367.626880
943.149381	3329.853515
943.451389	3294.593164
943.753359	3263.698453
944.055290	3231.558576
944.357182	3210.655432
944.659036	3195.468956
944.960851	3189.172555
945.262628	3172.793846
945.564367	3172.453568
945.866067	3167.356962
946.167729	3164.775891
946.469352	3161.173986
946.770937	3156.284067
947.072484	3143.537510
947.373992	3144.581028
947.675462	3136.915954
947.976893	3120.300311
948.278286	3111.198508
948.579641	3103.364555
948.880958	3097.857094
949.182236	3103.558639
949.483476	3097.859615
949.784678	3093.824171
950.085841	3094.847525
950.386967	3109.857561
950.688054	3126.329531
950.989103	3143.615647
951.290114	3164.808658
951.591087	3196.056250
951.892021	3223.361660
952.192917	3251.607245
952.493776	3275.119187
952.794596	3282.524642
953.095378	3291.754994
953.396122	3283.104374
953.696828	3276.961728
953.997496	3266.902106
954.298126	3242.233220
954.598718	3224.385014
954.899272	3194.548945
955.199788	3166.845284
955.500266	3133.818165
955.800706	3097.408431
956.101108	3058.397462
956.401472	3027.081815
956.701798	2995.650220
957.002087	2952.911318
957.302337	2924.590116
957.602550	2895.245559
957.902724	2863.720704
958.202861	2841.222034
958.502960	2820.480207
958.803022	2802.074954
959.103045	2777.426232
959.403031	2760.389653
959.702979	2747.156624
960.002889	2732.254973
960.302762	2722.800289
960.602596	2710.643547
960.902393	2699.585776
961.202153	2693.183510
961.501875	2683.469207
961.801559	2676.381344
962.101205	2669.409429
962.400814	2666.833399
962.700385	2658.263437
962.999918	2652.690442
963.299414	2646.043681
963.598873	2644.206180
963.898293	2636.977165
964.197677	2636.830972
964.497022	2635.734521
964.796331	2634.116311
965.095601	2629.486011
965.394835	2628.041720
965.694030	2626.567183
965.993189	2626.874693
966.292309	2624.006277
966.591393	2623.005607
966.890439	2622.062912
967.189447	2621.954527
967.488419	2623.338324
967.787353	2624.021400
968.086249	2624.210443
968.385108	2624.868314
968.683930	2628.336628
968.982714	2632.803090
969.281462	2638.136631
969.580172	2642.323309
969.878844	2649.514515
970.177480	2659.382574
970.476078	2664.249808
970.774639	2671.143586
971.073162	2680.968794
971.371649	2687.713858
971.670098	2688.669157
971.968510	2697.627287
972.266885	2703.129707
972.565223	2706.232537
972.863524	2706.880325
973.161788	2714.189998
973.460014	2717.214691
973.758204	2717.968343
974.056356	2720.272150
974.354471	2718.842983
974.652550	2720.970350
974.950591	2718.827860
975.248595	2717.842314
975.546563	2714.648743
975.844493	2713.345605
976.142386	2705.937629
976.440243	2701.115766
976.738062	2697.120651
977.035845	2691.792152
977.333590	2684.497602
977.631299	2677.417302
977.928971	2672.807166
978.226606	2665.038748
978.524204	2660.935249
978.821765	2659.122954
979.119290	2661.774601
979.416777	2662.140085
979.714228	2665.464726
980.011642	2665.532781
980.309020	2676.018381
980.606360	2690.370546
980.903664	2713.441387
981.200931	2750.491347
981.498162	2798.548667
981.795356	2875.355687
982.092513	2963.558235
982.389633	3070.014801
982.686717	3167.626663
982.983764	3240.456213
983.280775	3292.037299
983.577749	3301.129020
983.874686	3285.635034
984.171587	3250.533479
984.468451	3214.401009
984.765279	3169.423835
985.062070	3121.852986
985.358824	3075.227354
985.655543	3017.178468
985.952224	2965.055458
986.248869	2901.219327
986.545478	2840.990141
986.842050	2787.027110
987.138586	2738.690006
987.435086	2700.407484
987.731549	2670.122752
988.027975	2643.863382
988.324366	2626.287399
988.620719	2611.748711
988.917037	2600.373347
989.213318	2590.149887
989.509563	2585.111254
989.805772	2580.692683
990.101944	2577.710840
990.398080	2571.341342
990.694180	2574.018195
990.990244	2573.680438
991.286271	2572.720098
991.582262	2572.823442
991.878217	2576.697568
992.174136	2577.599935
992.470019	2582.565471
992.765865	2583.306521
993.061676	2589.181986
993.357450	2596.562235
993.653188	2605.210334
993.948890	2625.069960
994.244556	2641.851961
994.540186	2665.507576
994.835780	2697.128213
995.131337	2738.105232
995.426859	2780.458486
995.722345	2825.044971
996.017795	2879.597818
996.313208	2916.282294
996.608586	2940.920934
996.903928	2957.511371
997.199234	2957.690332
997.494504	2954.728654
997.789738	2938.425563
998.084936	2914.432191
998.380099	2881.284084
998.675225	2854.195443
998.970316	2825.594457
999.265371	2783.473096
999.560390	2747.451531
999.855373	2718.006152
1000.150320	2689.475742
1000.445232	2661.336021
1000.740108	2645.290028
1001.034948	2623.855042
1001.329752	2607.587238
1001.624521	2594.402101
1001.919254	2585.201995
1002.213951	2577.549523
1002.508613	2569.282031
1002.803239	2562.952862
1003.097829	2553.959444
1003.392384	2546.904349
1003.686903	2542.616848
1003.981386	2543.539379
1004.275834	2537.827752
1004.570246	2536.638039
1004.864623	2532.095960
1005.158964	2529.330887
1005.453270	2530.223171
1005.747540	2527.475742
1006.041775	2526.654034
1006.335974	2521.907788
1006.630138	2523.243693
1006.924266	2524.526667
1007.218359	2520.765966
1007.512416	2518.091634
1007.806438	2515.903773
1008.100425	2515.351767
1008.394376	2512.352281
1008.688292	2516.828825
1008.982172	2518.076511
1009.276017	2516.939731
1009.569827	2515.271109
1009.863602	2519.593898
1010.157341	2517.012827
1010.451045	2514.356139
1010.744714	2515.104751
1011.038347	2513.226921
1011.331945	2511.976715
1011.625508	2510.981087
1011.919036	2509.851868
1012.212528	2505.859274
1012.505986	2510.348422
1012.799408	2505.208966
1013.092795	2507.754748
1013.386147	2507.434635
1013.679464	2508.415139
1013.972745	2507.474964
1014.265992	2505.345077
1014.559204	2507.384223
1014.852380	2503.797442
1015.145521	2505.486229
1015.438628	2505.990344
1015.731699	2507.323730
1016.024736	2508.740294
1016.317737	2508.604183
1016.610703	2509.710716
1016.903635	2514.378824
1017.196531	2511.732219
1017.489393	2511.966632
1017.782219	2513.579802
1018.075011	2514.824967
1018.367768	2516.874196
1018.660490	2518.946110
1018.953177	2518.946110
1019.245829	2518.946110
