Dividing Wavelength (nm)	Counts (n)	Blue Motor Position (mm): 32.000000	Red Motor Position (mm): 0.000000	
326.493990	2054.270192
326.888308	2054.270192
327.282561	2054.270192
327.676750	2029.074505
328.070874	2028.784639
328.464933	2033.495597
328.858929	2044.422298
329.252859	2055.596016
329.646726	2068.478684
330.040528	2086.460480
330.434265	2103.507142
330.827938	2127.092180
331.221547	2145.973822
331.615091	2163.764054
332.008571	2184.851200
332.401986	2206.437421
332.795338	2226.712942
333.188625	2246.116343
333.581847	2262.915988
333.975006	2282.846190
334.368100	2303.179684
334.761129	2319.492858
335.154095	2331.989878
335.546996	2382.250182
335.939833	2487.789258
336.332606	2498.269817
336.725315	2510.474451
337.117960	2521.869979
337.510540	2531.135620
337.903056	2540.663401
338.295508	2546.334699
338.687896	2555.713765
339.080220	2558.733417
339.472480	2565.029818
339.864676	2570.219686
340.256807	2570.761610
340.648875	2569.524006
341.040879	2573.932495
341.432818	2572.989800
341.824694	2575.308730
342.216506	2570.547361
342.608253	2576.483319
342.999937	2572.831003
343.391557	2574.048442
343.783113	2570.723801
344.174605	2569.284552
344.566033	2569.534089
344.957397	2567.709191
345.348697	2564.140054
345.739934	2561.730382
346.131106	2561.685012
346.522215	2559.744168
346.913260	2559.575289
347.304241	2557.636966
347.695159	2555.161759
348.086012	2556.613611
348.476802	2550.423074
348.867528	2547.617672
349.258191	2545.548279
349.648789	2545.497867
350.039324	2544.250182
350.429796	2547.060625
350.820203	2545.386962
351.210548	2543.433515
351.600828	2544.822352
351.991045	2545.946530
352.381198	2540.436549
352.771288	2544.469472
353.161314	2539.685417
353.551276	2542.405119
353.941175	2539.882022
354.331010	2540.050900
354.720782	2546.735470
355.110490	2547.894936
355.500135	2539.866898
355.889717	2542.364790
356.279235	2542.334543
356.668689	2544.650953
357.058080	2544.033412
357.447408	2544.378731
357.836672	2542.939482
358.225873	2545.187836
358.615010	2544.981149
359.004084	2543.599873
359.393095	2547.683207
359.782043	2546.488454
360.170927	2547.189174
360.559748	2547.083310
360.948505	2551.789227
361.337199	2552.265616
361.725830	2551.867365
362.114398	2549.808054
362.502903	2549.699669
362.891344	2551.648075
363.279722	2550.889381
363.668037	2554.410627
364.056289	2552.671429
364.444478	2554.463559
364.832603	2553.828374
365.220665	2554.529094
365.608665	2555.002963
365.996601	2559.053530
366.384474	2554.208981
366.772284	2554.241748
367.160031	2552.736964
367.547715	2557.619322
367.935336	2555.199568
368.322893	2554.902140
368.710388	2555.189485
369.097820	2555.663354
369.485189	2550.518856
369.872495	2558.798952
370.259738	2558.325083
370.646918	2558.113355
371.034035	2559.282902
371.421090	2558.851884
371.808081	2560.026473
372.195010	2563.540157
372.581875	2561.783315
372.968678	2562.791545
373.355418	2560.016390
373.742096	2561.921946
374.128710	2565.160888
374.515262	2563.600651
374.901751	2565.092832
375.288177	2562.690722
375.674540	2561.299364
376.060841	2564.170301
376.447079	2564.066957
376.833254	2563.383881
377.219367	2564.278686
377.605417	2564.369427
377.991404	2565.647359
378.377329	2567.656259
378.763191	2566.143913
379.148991	2563.913202
379.534727	2567.757082
379.920402	2569.045097
380.306013	2565.652400
380.691563	2568.213306
381.077049	2566.469067
381.462474	2565.596947
381.847835	2567.505024
382.233134	2569.125755
382.618371	2567.988975
383.003545	2568.881259
383.388657	2568.402350
383.773706	2570.499470
384.158693	2569.730694
384.543618	2571.361507
384.928480	2569.637432
385.313280	2571.192628
385.698017	2570.491908
386.082692	2568.936712
386.467305	2571.033832
386.851856	2571.895869
387.236344	2572.364697
387.620770	2571.825293
388.005133	2568.760272
388.389435	2572.740263
388.773674	2569.531568
389.157851	2573.693041
389.541965	2573.463668
389.926018	2578.277970
390.310008	2574.408884
390.693936	2575.223031
391.077802	2576.863926
391.461606	2578.963567
391.845348	2579.591191
392.229027	2577.209245
392.612645	2576.758062
392.996200	2576.478278
393.379694	2580.002045
393.763125	2579.165213
394.146494	2576.994996
394.529801	2584.110585
394.913047	2579.016499
395.296230	2579.505491
395.679351	2581.166551
396.062410	2584.549165
396.445408	2581.504308
396.828343	2580.160841
397.211217	2581.912642
397.594028	2585.075966
397.976778	2580.775862
398.359466	2582.134453
398.742092	2585.537232
399.124656	2582.865420
399.507158	2585.464135
399.889598	2584.970102
400.271977	2581.325347
400.654294	2583.982036
401.036549	2584.213929
401.418742	2585.872468
401.800874	2588.632500
402.182944	2588.393045
402.564952	2587.163004
402.946898	2586.101841
403.328783	2589.567634
403.710606	2588.985381
404.092367	2589.131574
404.474067	2589.673498
404.855705	2591.221132
405.237282	2590.122161
405.618797	2591.430340
406.000250	2589.870103
406.381642	2595.312029
406.762972	2592.080649
407.144240	2589.421441
407.525447	2594.633994
407.906593	2591.085021
408.287677	2594.598706
408.668700	2595.198603
409.049661	2599.017277
409.430560	2595.039807
409.811399	2600.665734
410.192176	2599.004674
410.572891	2596.738675
410.953545	2601.673965
411.334138	2601.331167
411.714669	2598.437544
412.095139	2600.693461
412.475547	2601.578183
412.855894	2599.657503
413.236180	2601.827720
413.616405	2604.519696
413.996568	2604.917947
414.376670	2607.446086
414.756711	2605.180087
415.136691	2607.703185
415.516609	2607.758638
415.896466	2609.999431
416.276262	2610.871550
416.655997	2614.528907
417.035670	2610.687548
417.415283	2616.497478
417.794834	2617.077211
418.174324	2621.347068
418.553753	2621.231121
418.933121	2628.689508
419.312428	2629.183542
419.691674	2631.429376
420.070859	2638.136631
420.449983	2639.737197
420.829045	2648.753301
421.208047	2651.258754
421.586988	2662.636638
421.965867	2668.401198
422.344686	2675.655418
422.723444	2686.645134
423.102141	2687.106399
423.480777	2708.836293
423.859352	2714.247972
424.237866	2735.924933
424.616319	2750.904722
424.994712	2767.875766
425.373044	2780.340019
425.751314	2804.681230
426.129524	2813.142807
426.507673	2845.214628
426.885762	2863.763553
427.263789	2891.648696
427.641756	2921.552821
428.019662	2950.249589
428.397508	2980.002479
428.775292	3008.064062
429.153016	3045.408929
429.530679	3070.546643
429.908282	3106.779936
430.285824	3129.102166
430.663305	3188.184489
431.040726	3212.175340
431.418086	3245.608272
431.795385	3298.457208
432.172624	3358.943493
432.549802	3378.707337
432.926920	3435.536264
433.303977	3471.217551
433.680974	3521.545910
434.057910	3591.386056
434.434786	3647.131135
434.811601	3684.065148
435.188355	3795.343578
435.565050	3824.229390
435.941683	3875.669324
436.318257	3995.210205
436.694770	4033.757388
437.071222	4142.043893
437.447614	4142.237978
437.823946	4185.806150
438.200218	4277.045993
438.576429	4306.163698
438.952580	4409.036004
439.328670	4469.965910
439.704700	4556.381369
440.080670	4578.650666
440.456580	4717.915062
440.832429	4776.808341
441.208218	4748.741717
441.583947	4848.322150
441.959616	4946.992654
442.335224	5024.172719
442.710773	5124.874809
443.086261	5263.652733
443.461689	5213.901586
443.837057	5342.642572
444.212365	5500.120657
444.587612	5562.620882
444.962800	5580.222071
445.337927	5716.386157
445.712995	5567.997273
446.088002	5942.529798
446.462949	6055.227313
446.837837	6133.166072
447.212664	6235.113326
447.587431	6796.236599
447.962139	7406.004486
448.336786	7905.058552
448.711374	7765.116121
449.085901	7200.574946
449.460369	7276.227542
449.834776	7313.053171
450.209124	7964.856719
450.583412	7906.855723
450.957640	8114.881457
451.331808	7939.464427
451.705917	7713.842545
452.079965	7744.371773
452.453954	7951.832898
452.827883	8004.215528
453.201752	8052.194709
453.575562	8142.985890
453.949311	8466.388512
454.323001	8605.274821
454.696632	8625.736865
455.070202	9124.196075
455.443713	9243.777285
455.817164	9431.761912
456.190556	9746.791177
456.563888	9691.963588
456.937160	9933.991905
457.310373	9618.695458
457.683526	9725.673784
458.056619	9828.997273
458.429653	9969.630342
458.802628	10179.576756
459.175542	10292.864086
459.548398	10812.780967
459.921194	11338.167500
460.293930	11665.396358
460.666607	12430.368769
461.039224	13147.452739
461.411782	13434.201132
461.784280	13156.451199
462.156719	13158.812979
462.529099	13144.738078
462.901419	12690.560363
463.273680	12432.118049
463.645882	12712.852345
464.018024	12731.534862
464.390106	13172.794619
464.762130	14283.809474
465.134094	15856.596542
465.505999	17990.920258
465.877845	19900.751310
466.249631	20786.408944
466.621358	20254.791545
466.993026	19541.405261
467.364634	18934.387323
467.736184	18329.446341
468.107674	17859.247840
468.479105	17770.140404
468.850477	17557.161737
469.221790	17190.011982
469.593043	16641.408414
469.964238	16343.017477
470.335373	16486.813870
470.706449	17340.087132
471.077467	18492.447010
471.448425	20772.944022
471.819324	22250.347418
472.190164	21748.813104
472.560945	20148.720627
472.931667	18820.333738
473.302330	18601.151931
473.672934	18181.070060
474.043479	18622.881824
474.413965	18461.771589
474.784393	18319.578283
475.154761	18956.424728
475.525070	19101.786399
475.895321	18953.954562
476.265513	19474.204160
476.635645	20066.789274
477.005719	20127.235229
477.375734	20519.686535
477.745691	21129.983743
478.115588	21793.586112
478.485427	23056.793402
478.855207	24931.011223
479.224928	26642.974466
479.594591	27786.940823
479.964194	27249.291683
480.333739	27619.950081
480.703226	27900.898626
481.072653	28428.329348
481.442022	28920.444265
481.811333	29232.539579
482.180584	28731.380832
482.549777	28537.767756
482.918912	28328.580036
483.287988	28298.960737
483.657005	28122.485064
484.025964	27785.799002
484.394864	27980.931985
484.763706	27936.088401
485.132489	27447.890459
485.501213	27525.831739
485.869879	27709.695223
486.238487	27682.480554
486.607036	27954.211349
486.975527	27675.674996
487.343959	28012.890380
487.712333	28334.876438
488.080648	28312.733169
488.448905	28741.493386
488.817104	28683.179839
489.185244	29553.081347
489.553326	30736.719064
489.921350	32657.270130
490.289315	35031.363725
490.657222	35680.084608
491.025070	36073.972643
491.392861	35697.786620
491.760593	34876.922936
492.128267	33867.232753
492.495883	32924.927673
492.863440	32113.027161
493.230939	31235.468140
493.598380	30734.342160
493.965763	30622.539450
494.333088	30178.469249
494.700354	30003.155562
495.067563	29986.429014
495.434713	29906.577137
495.801805	30195.349552
496.168839	30070.671736
496.535815	29932.163513
496.902733	30080.252448
497.269593	29907.232487
497.636395	30054.227492
498.003139	30354.881907
498.369825	30124.412956
498.736453	30538.412675
499.103023	30386.063964
499.469535	30487.776805
499.835989	30619.343358
500.202385	30474.213580
500.568723	30571.248230
500.935003	30903.626627
501.301226	30799.226851
501.667390	31490.099342
502.033497	31694.404704
502.399546	31490.454743
502.765537	31101.779261
503.131470	31569.275704
503.497345	32002.290655
503.863163	31009.533707
504.228923	31773.374379
504.594625	32170.277024
504.960269	31680.770904
505.325856	32341.280525
505.691385	32033.969266
506.056856	32346.586339
506.422270	32832.422500
506.787625	32387.928842
507.152924	32839.283510
507.518164	33060.534711
507.883347	32627.194606
508.248472	32795.180976
508.613540	33477.803618
508.978550	33712.033270
509.343503	33563.220929
509.708398	33930.907567
510.073236	34540.219229
510.438016	34644.054396
510.802738	34329.425902
511.167403	34909.322432
511.532010	35159.903066
511.896561	35647.881717
512.261053	36385.457977
512.625488	36178.637079
512.989866	36117.132482
513.354186	36190.514038
513.718449	36149.862173
514.082655	37031.267594
514.446803	36752.958093
514.810894	37361.377471
515.174927	37380.811119
515.538904	37384.748260
515.902822	38044.703354
516.266684	37752.291226
516.630488	38096.017259
516.994235	38116.801937
517.357925	38715.789316
517.721558	38972.550405
518.085133	39344.214513
518.448651	39552.025998
518.812112	39442.834606
519.175516	39596.534346
519.538863	40049.081247
519.902152	40110.028797
520.265385	40641.545373
520.628560	40682.043483
520.991678	40634.018931
521.354739	40874.766794
521.717743	41239.244738
522.080690	41167.763697
522.443580	41841.791172
522.806413	41866.308824
523.169189	42004.799402
523.531908	42227.822569
523.894569	42098.637961
524.257174	42289.934626
524.619722	42633.832059
524.982213	42780.053247
525.344647	42823.187879
525.707025	42946.287815
526.069345	43398.232299
526.431608	43318.398066
526.793815	43708.588415
527.155964	43250.584464
527.518057	43521.891803
527.880093	43362.530847
528.242072	44001.267725
528.603995	43747.435546
528.965860	43675.097509
529.327669	43898.773505
529.689421	43959.680726
530.051117	43906.708281
530.412755	44194.963979
530.774337	44261.038382
531.135862	44206.722470
531.497331	44355.534811
531.858743	44349.563564
532.220098	44755.205050
532.581396	44497.528992
532.942638	44270.165391
533.303824	44515.530952
533.664953	44580.461013
534.026025	44263.995019
534.387040	44831.674313
534.747999	44911.289255
535.108902	45206.715994
535.469748	44555.857662
535.830537	44803.741279
536.191270	45054.818467
536.551947	44784.816787
536.912567	45076.666828
537.273131	45228.771042
537.633638	44850.871026
537.994089	45063.035548
538.354483	44804.976362
538.714821	45452.588191
539.075103	45727.066415
539.435328	45595.875427
539.795497	45345.740935
540.155609	45472.694833
540.515665	46043.343366
540.875665	45380.058590
541.235609	45658.952864
541.595496	45784.767462
541.955328	46347.340066
542.315102	45769.767508
542.674821	45666.917888
543.034483	45548.564198
543.394090	45580.641060
543.753640	45545.736111
544.113134	46614.619523
544.472571	45721.395117
544.831953	46856.196656
545.191278	46117.657535
545.550548	45807.457695
545.909761	46455.276211
546.268918	46593.832325
546.628019	46995.793768
546.987064	46434.350382
547.346053	45732.977167
547.704986	46634.650547
548.063863	46278.064530
548.422684	46489.929103
548.781449	46079.248984
549.140158	46610.551311
549.498811	46379.769809
549.857408	45765.777435
550.215949	46607.332535
550.574434	46435.572861
550.932864	46363.113837
551.291237	47086.814321
551.649555	46842.116713
552.007817	47017.957201
552.366022	46687.950667
552.724173	46758.342819
553.082267	47161.637647
553.440305	47516.071092
553.798288	46750.771006
554.156215	47141.218453
554.514086	47338.869493
554.871902	46968.914335
555.229661	47145.679874
555.587365	46831.149683
555.945014	46946.602188
556.302606	46966.623131
556.660143	47072.431909
557.017625	47277.198537
557.375050	46988.836975
557.732421	47375.516161
558.089735	47445.900751
558.446994	47318.092377
558.804197	47784.023542
559.161345	47654.009664
559.518437	46998.793254
559.875474	47258.763037
560.232455	47481.743354
560.589381	47532.974080
560.946251	47325.185281
561.303065	47987.489552
561.659825	47679.142336
562.016528	47478.033065
562.373177	47065.991835
562.729770	47688.617185
563.086307	47209.866366
563.442789	47750.706556
563.799216	47610.144063
564.155587	47495.750200
564.511904	47465.601580
564.868164	47507.609515
565.224370	47813.274837
565.580520	47556.092812
565.936615	47748.886700
566.292654	47407.870286
566.648638	47762.722146
567.004567	47685.106021
567.360441	47810.603026
567.716260	47522.884211
568.072023	47895.347342
568.427732	47819.699788
568.783385	47348.503138
569.138982	47746.751771
569.494525	47890.588493
569.850013	47488.546392
570.205445	47606.131305
570.560823	47385.316164
570.916145	47259.917462
571.271412	47507.254113
571.626625	47152.591296
571.981782	47223.361535
572.336884	46819.421439
572.691931	47151.673806
573.046923	46809.203020
573.401860	46649.947929
573.756743	46666.553489
574.111570	46802.576423
574.466342	46719.384782
574.821059	46871.025210
575.175722	46383.676703
575.530330	46448.919316
575.884882	46104.230422
576.239380	45994.849986
576.593823	46097.755060
576.948211	46022.747732
577.302544	45577.933960
577.656823	45572.630667
578.011047	45847.360948
578.365216	45663.389080
578.719330	45405.110604
579.073389	45366.311363
579.427394	45409.161171
579.781344	45347.207911
580.135239	45107.818638
580.489080	45172.136199
580.842866	44654.704607
581.196597	45156.039795
581.550273	45134.025076
581.903895	45077.118011
582.257463	45532.961827
582.610975	44951.285770
582.964434	45293.693542
583.317837	44795.952696
583.671186	44753.034833
584.024481	45012.460172
584.377721	44563.338734
584.730906	44781.348474
585.084037	44897.128654
585.437113	44610.609634
585.790135	44727.138426
586.143103	44282.334737
586.496016	44449.998473
586.848874	44553.367332
587.201679	44579.561168
587.554428	44081.633799
587.907124	44357.458011
588.259765	44126.878155
588.612352	44291.365964
588.964884	43731.825613
589.317362	44056.801075
589.669786	44059.488010
590.022155	43910.194239
590.374470	44356.641344
590.726731	43915.540383
591.078937	43278.434319
591.431090	43599.722177
591.783188	43150.731809
592.135232	42937.130559
592.487222	43198.128738
592.839157	43346.356305
593.191038	42978.352074
593.542866	42788.494659
593.894639	42202.276522
594.246358	42490.353258
594.598022	42484.558452
594.949633	42068.257447
595.301190	42042.121585
595.652692	41991.198369
596.004141	42463.904845
596.355535	41373.208360
596.706876	41395.323902
597.058162	41116.906017
597.409395	41617.633746
597.760573	41826.798781
598.111698	41435.327979
598.462768	41343.024452
598.813785	41366.213759
599.164748	40979.388381
599.515657	41253.067582
599.866511	40749.720973
600.217312	41428.192225
600.568060	40382.145241
600.918753	41221.968704
601.269392	41121.412808
601.619978	40844.219923
601.970510	41055.973590
602.320988	41203.634027
602.671412	41431.191712
603.021783	41297.255816
603.372100	40896.731102
603.722363	41006.204799
604.072572	41023.304393
604.422728	41018.154854
604.772830	40811.601137
605.122878	40969.301032
605.472872	40830.631492
605.822813	41082.784967
606.172701	40828.821718
606.522534	41160.451503
606.872314	41376.664071
607.222041	41200.606814
607.571714	41527.412215
607.921333	41028.832018
608.270899	41239.927814
608.620411	41634.619914
608.969870	41347.866480
609.319276	41381.246480
609.668627	41410.245718
610.017926	41829.019409
610.367171	41944.789507
610.716362	41986.457164
611.065500	41871.307128
611.414585	42108.261523
611.763616	42288.903710
612.112594	42177.486648
612.461518	42306.467090
612.810389	42690.489587
613.159207	42472.036226
613.507971	42470.607059
613.856682	42958.749548
614.205340	42799.096205
614.553945	43479.770442
614.902496	42798.382882
615.250994	43230.964293
615.599439	43281.937921
615.947830	43389.281730
616.296169	43399.265735
616.644454	43440.131849
616.992686	43606.187457
617.340864	44061.078494
617.688990	43585.145680
618.037063	44261.560142
618.385082	44090.987660
618.733048	44415.068317
619.080961	44287.264985
619.428821	44303.270649
619.776628	44338.641905
620.124382	44131.372344
620.472083	44230.194082
620.819731	44333.847767
621.167326	43900.479936
621.514868	43889.959048
621.862357	43351.936862
622.209793	43445.848517
622.557176	42983.854494
622.904506	42753.095676
623.251783	42390.157805
623.599007	42061.184708
623.946179	41981.289981
624.293297	41734.948957
624.640363	41206.517567
624.987376	41043.421117
625.334336	40837.661382
625.681243	40421.476323
626.028097	40338.703097
626.374899	40156.861116
626.721647	40135.912602
627.068343	39926.624058
627.414987	39643.278445
627.761577	39386.141790
628.108115	39707.359072
628.454600	38964.313160
628.801032	39175.293010
629.147412	39082.389586
629.493739	38990.809464
629.840014	38562.840708
630.186236	38986.340481
630.532405	38448.696382
630.878521	38671.202831
631.224585	38458.803896
631.570597	38120.887792
631.916556	38281.488871
632.262462	38172.584825
632.608316	38110.979404
632.954117	37968.592014
633.299866	37908.325019
633.645562	37829.252001
633.991206	37299.146947
634.336797	36896.338591
634.682336	36800.423077
635.027823	36562.934319
635.373257	36414.517709
635.718639	36104.098578
636.063968	35973.903219
636.409245	35351.330801
636.754470	35292.586235
637.099642	35070.178089
637.444762	34505.727655
637.789829	34657.373124
638.134845	34275.941780
638.479808	34198.963361
638.824719	34137.857015
639.169577	33627.604025
639.514383	33713.913620
639.859137	33344.528113
640.203839	33510.286293
640.548489	33222.396079
640.893086	33226.948241
641.237632	32932.887655
641.582125	33054.245872
641.926566	32843.268542
642.270955	32878.067627
642.615292	32799.221461
642.959576	32689.137784
643.303809	32711.523028
643.647990	32793.550163
643.992118	32738.258787
644.336195	32597.398866
644.680219	32681.646629
645.024192	32890.983063
645.368112	33413.037394
645.711981	33441.333391
646.055797	34160.295190
646.399562	33973.732169
646.743274	34851.452506
647.086935	35249.063433
647.430544	35197.111822
647.774101	35233.526597
648.117606	35518.109814
648.461059	35647.738044
648.804460	35246.578145
649.147810	34724.483485
649.491108	34363.420923
649.834354	34220.539499
650.177548	33394.531318
650.520690	32912.082813
650.863781	32900.732655
651.206820	32720.975191
651.549807	32313.236586
651.892742	31739.752404
652.235626	31646.080203
652.578458	31513.838135
652.921238	30833.274804
653.263967	31121.316253
653.606644	30840.327378
653.949269	30748.469994
654.291843	30354.181187
654.634365	30721.492259
654.976836	30274.162952
655.319255	30339.942448
655.661622	30221.843337
656.003938	30086.601782
656.346203	29903.539842
656.688416	30145.457253
657.030577	29920.571380
657.372687	29740.546735
657.714746	29917.549208
658.056753	30088.162019
658.398708	29475.256014
658.740612	29546.658917
659.082465	29751.365051
659.424266	29655.401646
659.766016	29656.614044
660.107715	29510.781025
660.449362	29617.552663
660.790958	29596.160527
661.132503	29529.236689
661.473996	29600.750497
661.815438	29685.381388
662.156829	29798.714088
662.498168	29601.085734
662.839456	29574.949872
663.180693	29707.711179
663.521879	29790.159250
663.863013	29754.573745
664.204097	29732.435518
664.545129	30140.292591
664.886110	30076.075853
665.227040	30188.049962
665.567918	30172.472796
665.908746	30253.945404
666.249522	30335.276860
666.590248	30367.515039
666.930922	30463.339812
667.271545	30459.279162
667.612118	30505.287253
667.952639	30320.811269
668.293109	30346.818582
668.633528	30222.735621
668.973896	30179.260710
669.314213	30151.431020
669.654480	29964.792381
669.994695	29959.695775
670.334859	29883.657531
670.674973	29707.025582
671.015035	29906.529246
671.355047	29842.735964
671.695008	29757.752193
672.034918	29676.345120
672.374777	29791.633788
672.714585	29648.578445
673.054342	29790.736463
673.394049	29637.167793
673.733705	29863.780261
674.073310	29576.263093
674.412864	29631.609921
674.752368	29339.989253
675.091820	29555.687623
675.431223	29149.821807
675.770574	28942.622822
676.109875	28776.594940
676.449125	28584.562267
676.788324	28487.255395
677.127473	28007.892076
677.466571	27899.159428
677.805619	27628.943500
678.144616	27557.182675
678.483562	27506.100663
678.822458	27191.845214
679.161303	27142.426783
679.500098	27070.870125
679.838842	26993.821130
680.177535	27080.889418
680.516179	27325.017376
680.854771	27463.041647
681.193314	28232.397342
681.531805	29271.991649
681.870247	30013.237870
682.208638	30742.528994
682.546978	31002.120691
682.885268	31141.299387
683.223508	30691.595696
683.561697	30403.705482
683.899836	30248.783263
684.237925	29846.262252
684.575963	29707.764111
684.913951	29328.311420
685.251889	29515.991057
685.589776	29548.687981
685.927614	29554.838189
686.265401	29723.757172
686.603137	29854.191987
686.940824	30356.207731
687.278460	30701.950226
687.616046	30876.432122
687.953582	31527.368592
688.291068	31447.272219
688.628504	31783.459207
688.965889	31768.171908
689.303224	31491.662099
689.640510	31193.954238
689.977745	30560.240871
690.314930	29819.481122
690.652065	29373.182731
690.989150	28700.589464
691.326185	27860.536628
691.663170	27222.752529
692.000105	26489.196588
692.336990	25880.842745
692.673825	25466.008716
693.010610	24976.530321
693.347345	24475.071625
693.684030	23859.478685
694.020665	23658.135000
694.357251	22983.686589
694.693786	22989.801508
695.030272	22771.713631
695.366707	22279.147530
695.703093	22005.183504
696.039429	22067.739182
696.375716	21826.378818
696.711952	21845.903207
697.048139	21706.868184
697.384276	21549.793392
697.720363	21672.293430
698.056400	21555.462169
698.392388	21408.741907
698.728326	21403.219323
699.064214	21238.557594
699.400053	21237.176318
699.735842	20845.375321
700.071581	20651.149745
700.407270	20411.079917
700.742910	20238.231354
701.078501	19981.787858
701.414042	19785.845770
701.749533	19478.519387
702.084974	19169.887346
702.420366	19394.145595
702.755709	18983.425148
703.091002	18691.877577
703.426246	18757.304192
703.761440	18691.330611
704.096584	18453.486452
704.431679	18385.738386
704.766725	18328.589345
705.101721	18268.191281
705.436668	18387.785094
705.771565	18108.641282
706.106413	18443.557900
706.441212	18507.444442
706.775961	18620.358727
707.110661	18702.872333
707.445311	19060.796777
707.779913	18952.734603
708.114465	19242.555579
708.448967	19557.289937
708.783421	20190.365598
709.117825	20561.772608
709.452180	20796.002260
709.786485	21248.597052
710.120742	22008.102332
710.454949	22127.360908
710.789107	22634.959730
711.123216	23355.469164
711.457275	23561.324682
711.791286	24132.958760
712.125247	24272.369349
712.459159	23990.823427
712.793023	24727.333484
713.126837	23702.575292
713.460602	23940.116982
713.794318	23603.435960
714.127985	23334.044260
714.461602	22425.524994
714.795171	22406.567735
715.128691	21413.911610
715.462162	20899.164432
715.795584	20479.571553
716.128957	20207.155161
716.462281	19828.130968
716.795556	19550.053360
717.128782	19072.920752
717.461960	18473.199884
717.795088	18438.983053
718.128167	18110.985419
718.461198	17651.975758
718.794180	17518.647321
719.127113	17188.237495
719.459997	17005.309146
719.792833	16642.025956
720.125619	16692.881116
720.458357	16347.456213
720.791046	16214.228599
721.123686	16057.952830
721.456278	15845.700088
721.788821	15844.732187
722.121315	15575.509366
722.453761	15679.891497
722.786158	15564.839763
723.118506	15652.046684
723.450805	15525.039854
723.783056	15714.108329
724.115259	15610.588235
724.447412	15596.024341
724.779518	15814.825542
725.111574	15867.591299
725.443582	16139.443082
725.775542	16095.017913
726.107453	16621.372348
726.439315	16541.129782
726.771129	16956.200746
727.102895	17387.358031
727.434612	17651.390984
727.766281	17821.706367
728.097901	18132.213718
728.429473	18211.581644
728.760996	18229.266012
729.092471	18341.033433
729.423897	18234.024861
729.755276	18110.113299
730.086606	18221.409373
730.417887	18815.826947
730.749120	19378.424757
731.080305	19580.451518
731.411442	19985.251131
731.742530	20084.158569
732.073570	20252.568396
732.404562	20578.478992
732.735506	20398.925695
733.066401	20195.063954
733.397249	19689.922694
733.728048	19070.818591
734.058798	18203.362042
734.389501	17445.157381
734.720156	16930.213598
735.050762	16355.534662
735.381320	15972.926208
735.711831	15711.136569
736.042293	15344.871536
736.372707	15387.698658
736.703073	15180.653429
737.033391	15378.009561
737.363661	15379.418563
737.693883	15507.050496
738.024056	15720.205604
738.354182	15932.176041
738.684260	16293.273891
739.014290	16576.616984
739.344272	16808.356306
739.674207	17158.887898
740.004093	17332.013724
740.333931	17373.066360
740.663722	17455.446376
740.993464	17492.677817
741.323159	17332.684197
741.652806	17022.363369
741.982405	16853.131835
742.311956	16496.835684
742.641460	16383.707150
742.970915	16052.702468
743.300323	15711.549943
743.629683	15490.311345
743.958996	15170.039279
744.288260	14864.721797
744.617477	14554.257296
744.946647	14520.239590
745.275768	14208.298031
745.604842	14008.323020
745.933869	13832.689220
746.262847	13807.755673
746.591778	13714.834604
746.920662	13608.955250
747.249498	13619.599647
747.578286	13782.368422
747.907027	13951.698259
748.235720	14224.389394
748.564365	14299.991578
748.892963	14229.183531
749.221514	14317.955730
749.550017	14184.526470
749.878473	14153.903981
750.206881	13929.444085
750.535242	13863.510834
750.863555	13772.011371
751.191821	13676.592411
751.520039	13700.898335
751.848210	13632.386533
752.176334	13669.809539
752.504411	13595.699536
752.832440	13422.886262
753.160421	13530.877859
753.488356	13422.931632
753.816243	13332.785719
754.144082	13161.300789
754.471875	13118.856794
754.799620	13083.833378
755.127318	13065.657497
755.454969	13050.445816
755.782572	13018.389118
756.110129	13035.944937
756.437638	12939.076645
756.765100	12939.545472
757.092515	12972.103764
757.419882	13012.221267
757.747203	13022.333821
758.074477	13120.308646
758.401703	13105.742232
758.728882	13306.826297
759.056014	13342.013551
759.383099	13511.076207
759.710138	13640.303665
760.037129	13763.116255
760.364073	13816.509636
760.690970	13838.852030
761.017820	13871.128018
761.344623	14088.220267
761.671379	14475.312827
761.998088	15171.070195
762.324751	16960.652084
762.651366	20381.352232
762.977935	24872.246492
763.304456	27832.981681
763.630931	28853.149903
763.957359	27629.177913
764.283740	25350.344482
764.610074	23080.058327
764.936362	20437.218299
765.262602	18557.823213
765.588796	16635.411962
765.914943	15360.930132
766.241044	14261.172173
766.567097	13470.936020
766.893104	12754.487235
767.219064	12295.016309
767.544978	11813.087042
767.870845	11434.211563
768.196665	11210.533047
768.522438	10985.841258
768.848165	10781.056986
769.173846	10574.404966
769.499479	10445.293454
769.825066	10278.786663
770.150607	10050.119925
770.476101	9963.591040
770.801548	9840.591927
771.126949	9693.337303
771.452303	9576.251463
771.777611	9380.984890
772.102872	9371.583138
772.428087	9226.425633
772.753256	9069.111387
773.078378	8976.754927
773.403453	8801.728587
773.728482	8683.914301
774.053465	8610.658773
774.378401	8517.755349
774.703291	8391.499651
775.028135	8264.162626
775.352932	8233.928305
775.677683	8125.858570
776.002388	8021.799072
776.327046	8029.121348
776.651658	7936.580887
776.976224	7834.583221
777.300743	7836.771082
777.625216	7747.436795
777.949643	7704.100516
778.274024	7716.060653
778.598359	7635.369424
778.922647	7649.366188
779.246889	7596.754186
779.571086	7607.968232
779.895236	7622.932898
780.219339	7630.235009
780.543397	7633.738611
780.867409	7712.010086
781.191374	7724.431489
781.515294	7692.004267
781.839167	7786.982126
782.162995	7752.097341
782.486776	7694.968465
782.810511	7646.056670
783.134201	7554.612660
783.457844	7553.720376
783.781441	7504.228848
784.104993	7435.351563
784.428498	7408.187305
784.751958	7393.421766
785.075372	7369.211624
785.398739	7314.240362
785.722061	7362.522013
786.045337	7363.585697
786.368568	7519.498503
786.691752	7548.959006
787.014891	7894.308291
787.337983	8251.322807
787.661030	8847.214918
787.984031	9471.637439
788.306987	9877.528461
788.629897	10080.679400
788.952760	10029.688128
789.275579	9810.942381
789.598351	9403.314681
789.921078	9046.441318
790.243759	8630.427658
790.566395	8345.322682
790.888984	8089.141326
791.211529	7881.392855
791.534027	7661.288517
791.856480	7459.473484
792.178888	7388.375571
792.501249	7290.738503
792.823566	7134.354349
793.145836	7136.443907
793.468062	7108.442818
793.790241	7062.606127
794.112375	7126.810262
794.434464	7284.815147
794.756507	7327.143196
795.078505	7495.618557
795.400457	7806.947616
795.722364	8158.008528
796.044226	8449.145245
796.366042	8717.866472
796.687812	8670.824945
797.009538	8745.681038
797.331218	8634.889079
797.652852	8548.193836
797.974442	8396.944097
798.295986	8309.006210
798.617484	8113.676622
798.938938	7970.858212
799.260346	7865.886266
799.581709	7670.670104
799.903026	7594.331911
800.224299	7478.420661
800.545526	7310.330947
800.866708	7215.244704
801.187845	7148.729199
801.508936	7041.723147
801.829983	7000.859554
802.150984	6852.805907
802.471940	6806.016437
802.792851	6800.866899
803.113717	6759.030363
803.434538	6723.575928
803.755314	6673.620614
804.076045	6672.980387
804.396731	6624.555063
804.717372	6656.268962
805.037967	6657.302399
805.358518	6697.926537
805.679024	6786.542460
805.999485	6793.632843
806.319901	6842.975657
806.640272	6858.615837
806.960598	6943.758404
807.280879	6940.305214
807.601115	7022.526433
807.921306	6968.777651
808.241453	6978.060936
808.561554	6998.638926
808.881611	6961.631815
809.201623	6974.418702
809.521590	6914.439054
809.841513	6892.996506
810.161390	6933.734070
810.481223	6807.375028
810.801011	6782.920391
811.120755	6763.632936
811.440453	6683.019845
811.760107	6645.001983
812.079716	6620.350741
812.399281	6548.491614
812.718801	6537.615324
813.038276	6497.197873
813.357707	6433.248316
813.677093	6478.013762
813.996434	6382.725872
814.315731	6425.747079
814.634983	6419.120482
814.954191	6431.614982
815.273354	6534.386465
815.592473	6600.763338
815.911547	6729.438790
816.230577	6808.978115
816.549562	6959.411187
816.868502	7058.568163
817.187399	7152.815054
817.506250	7307.313817
817.825058	7335.360276
818.143821	7601.442459
818.462539	7884.611632
818.781213	8256.681553
819.099843	8800.410325
819.418429	9802.760588
819.736970	10782.730649
820.055466	11959.141872
820.373919	13491.980316
820.692327	15839.754047
821.010691	19987.693570
821.329011	28978.720004
821.647286	41985.222081
821.965517	55428.419152
822.283704	60786.775001
822.601847	62769.145737
822.919945	60032.734332
823.237999	55811.113305
823.556010	49602.513928
823.873976	42890.804876
824.191897	36356.635180
824.509775	31530.685671
824.827609	27032.333024
825.145398	24447.655310
825.463144	23079.823913
825.780845	23412.681219
826.098502	25188.271386
826.416116	29002.645320
826.733685	32661.129133
827.051210	33844.340873
827.368692	32057.556824
827.686129	28091.063552
828.003522	23952.175422
828.320872	20219.858869
828.638177	17383.398205
828.955439	15225.224791
829.272656	13408.589549
829.589830	11935.519025
829.906960	10664.245889
830.224046	9731.350123
830.541088	8975.789547
830.858086	8524.218108
831.175041	8143.701734
831.491952	8028.977675
831.808819	8084.412723
832.125642	8484.176223
832.442421	9374.421307
832.759157	11175.423931
833.075849	14112.266571
833.392497	17345.077874
833.709101	19539.787051
834.025662	19370.618530
834.342179	17647.020304
834.658653	15446.138234
834.975083	13515.842618
835.291469	11900.853531
835.607811	10586.249157
835.924110	9667.443416
836.240366	8795.548132
836.556578	7994.932243
836.872746	7350.239242
837.188871	6846.017993
837.504952	6433.880981
837.820990	6121.470595
838.136984	5906.888840
838.452935	5811.449716
838.768842	5841.190003
839.084706	6267.727071
839.400526	7482.418296
839.716303	9070.177591
840.032037	10164.155866
840.347727	10086.625441
840.663373	9107.514897
840.978977	8059.897592
841.294537	7249.771566
841.610054	6652.543550
841.925527	6219.563887
842.240957	5860.464854
842.556344	5526.566550
842.871687	5242.631121
843.186987	4958.176454
843.502244	4734.508019
843.817458	4570.962906
844.132629	4437.253862
844.447756	4347.186087
844.762840	4266.779683
845.077881	4192.180689
845.392879	4131.689363
845.707833	4080.751024
846.022745	4037.951628
846.337613	4006.056247
846.652438	3966.326914
846.967221	3951.851241
847.281960	3915.622989
847.596656	3900.096235
847.911309	3879.505642
848.225919	3859.033516
848.540485	3840.643387
848.855009	3824.234431
849.169490	3806.696257
849.483928	3795.988846
849.798323	3788.273360
850.112675	3767.115638
850.426984	3775.972945
850.741251	3760.100872
851.055474	3757.328237
851.369654	3758.265892
851.683792	3755.599122
851.997887	3759.841253
852.311938	3763.692694
852.625947	3767.218981
852.939914	3755.150459
853.253837	3764.816871
853.567718	3763.322169
853.881555	3756.337651
854.195350	3769.497583
854.509103	3765.832664
854.822812	3766.094804
855.136479	3754.422012
855.450103	3765.739403
855.763685	3753.068462
856.077224	3754.248092
856.390720	3772.053448
856.704173	3789.800830
857.017584	3807.097029
857.330953	3816.276970
857.644278	3837.938808
857.957561	3843.388295
858.270802	3841.815455
858.584000	3844.333512
858.897155	3839.249508
859.210268	3824.257116
859.523339	3800.420020
859.836367	3799.338693
860.149352	3791.214873
860.462295	3784.903349
860.775195	3774.122841
861.088054	3766.833333
861.400869	3765.938528
861.713642	3768.315432
862.026373	3777.071916
862.339062	3783.539717
862.651708	3800.288950
862.964312	3838.195907
863.276873	3850.682845
863.589392	3908.056217
863.901869	3949.882670
864.214303	3999.477542
864.526696	4034.228736
864.839045	4079.967125
865.151353	4101.830609
865.463619	4111.870067
865.775842	4121.798619
866.088023	4140.360148
866.400162	4127.832880
866.712258	4134.522492
867.024313	4144.541785
867.336325	4134.305722
867.648296	4140.405518
867.960224	4139.510713
868.272110	4147.145541
868.583954	4155.624762
868.895755	4167.970547
869.207515	4164.010721
869.519233	4207.536043
869.830909	4221.396696
870.142542	4248.437445
870.454134	4259.953961
870.765684	4292.991163
871.077191	4322.986028
871.388657	4346.898741
871.700081	4384.989700
872.011463	4430.889406
872.322803	4463.999704
872.634101	4496.915918
872.945357	4538.833112
873.256571	4592.523921
873.567744	4620.701451
873.878874	4638.826919
874.189963	4675.261859
874.501010	4686.397768
874.812015	4678.916695
875.122979	4725.406216
875.433900	4724.614755
875.744780	4735.158328
876.055618	4765.375004
876.366415	4761.004324
876.677169	4782.129279
876.987882	4830.325231
877.298554	4881.515627
877.609183	4962.063183
877.919771	5071.713321
878.230317	5217.790836
878.540822	5432.687662
878.851285	5755.124904
879.161707	6212.309667
879.472087	6968.757486
879.782425	8200.437400
880.092722	10382.185770
880.402977	13693.225698
880.713191	17434.172706
881.023363	21158.390645
881.333494	23370.748902
881.643583	24586.697894
881.953631	24567.256685
882.263637	23714.328742
882.573602	22231.465776
882.883526	20664.261786
883.193408	19002.032046
883.503248	17303.531204
883.813048	15760.517191
884.122806	14328.700949
884.432522	12868.276160
884.742197	11605.157090
885.051831	10519.436225
885.361424	9522.364049
885.670975	8708.469761
885.980485	8023.026593
886.289954	7447.125178
886.599382	6978.615463
886.908768	6603.296518
887.218113	6237.316310
887.527417	5952.473474
887.836680	5691.818094
888.145901	5463.269822
888.455082	5307.256193
888.764221	5156.896218
889.073319	5023.953429
889.382376	4949.888797
889.691392	4896.969284
890.000366	4868.537177
890.309300	4848.939691
890.618193	4857.381103
890.927044	4841.231767
891.235855	4863.808574
891.544625	4895.023399
891.853353	4953.621771
892.162041	5072.169545
892.470687	5263.549389
892.779293	5509.769425
893.087858	5881.415890
893.396381	6461.667821
893.704864	7260.047958
894.013306	8418.779855
894.321707	9596.970606
894.630068	10420.334702
894.938387	10631.564089
895.246665	10385.704495
895.554903	9781.638153
895.863100	9075.150689
896.171256	8513.495574
896.479371	8003.169488
896.787446	7507.036771
897.095480	7077.417037
897.403473	6759.501711
897.711425	6448.565862
898.019336	6178.697773
898.327207	5911.932515
898.635038	5680.389798
898.942827	5429.201705
899.250576	5233.869596
899.558284	5040.279206
899.865952	4921.723870
900.173579	4768.636631
900.481165	4662.734592
900.788711	4573.213782
901.096216	4499.010518
901.403681	4435.925518
901.711105	4411.009615
902.018489	4394.802306
902.325832	4467.236125
902.633135	4589.836986
902.940397	4931.937248
903.247619	5730.607252
903.554800	7167.807446
903.861941	9091.852032
904.169041	10607.384195
904.476101	11225.545603
904.783121	10861.213853
905.090100	10120.741449
905.397039	9287.776476
905.703938	8529.715487
906.010796	7840.362904
906.317614	7291.343442
906.624391	6761.487925
906.931129	6333.851886
907.237826	5938.476710
907.544483	5560.548968
907.851099	5188.773954
908.157675	4832.513091
908.464211	4513.481150
908.770707	4278.051703
909.077163	4079.810849
909.383578	3934.018159
909.689954	3821.290397
909.996289	3749.426229
910.302584	3686.731919
910.608839	3656.994152
910.915054	3624.025006
911.221229	3610.633181
911.527363	3621.552320
911.833458	3635.775936
912.139513	3663.920698
912.445527	3690.744677
912.751502	3772.938170
913.057436	3876.748131
913.363331	4010.744521
913.669186	4217.653639
913.975000	4471.279130
914.280775	4888.230444
914.586510	5469.157890
914.892205	6268.926865
915.197859	7299.777292
915.503475	8525.763222
915.809050	9582.636085
916.114585	10229.234642
916.420081	10494.137194
916.725536	10459.544796
917.030952	10011.371096
917.336328	9602.021842
917.641665	9193.096045
917.946961	8715.779434
918.252218	8291.596585
918.557435	7778.061804
918.862612	7347.030547
919.167750	6977.292160
919.472848	6545.517333
919.777906	6176.497310
920.082925	5816.374923
920.387904	5454.397392
920.692843	5189.951064
920.997743	4943.121048
921.302603	4712.977251
921.607423	4549.033887
921.912204	4382.264956
922.216946	4269.572483
922.521647	4144.662773
922.826310	4042.503790
923.130932	3947.510807
923.435516	3849.233513
923.740059	3780.885549
924.044564	3702.795556
924.349028	3643.922440
924.653454	3580.424067
924.957840	3511.665249
925.262186	3463.184472
925.566493	3405.001995
925.870761	3349.695496
926.174989	3310.946667
926.479178	3275.865278
926.783328	3234.636201
927.087438	3207.330791
927.391509	3170.913496
927.695541	3140.361583
927.999533	3115.748149
928.303486	3094.260231
928.607400	3079.466965
928.911275	3066.851477
929.215110	3050.543345
929.518906	3037.852240
929.822663	3039.989689
930.126381	3035.694626
930.430060	3044.148641
930.733699	3049.346071
931.037299	3059.718245
931.340861	3054.248593
931.644383	3066.574214
931.947866	3060.713873
932.251309	3056.320507
932.554714	3056.131464
932.858080	3050.523180
933.161407	3041.118908
933.464694	3035.752599
933.767943	3029.597350
934.071153	3024.379756
934.374323	3014.599918
934.677455	3005.762775
934.980548	2999.040396
935.283602	2993.313646
935.586617	2990.737616
935.889593	3002.042403
936.192530	3005.309071
936.495428	3018.211904
936.798287	3042.762324
937.101108	3074.574525
937.403890	3127.577217
937.706632	3187.650126
938.009336	3269.271448
938.312002	3342.796677
938.614628	3406.174063
938.917216	3458.730613
939.219765	3489.690859
939.522275	3521.061959
939.824747	3529.173176
940.127179	3525.019265
940.429573	3518.241434
940.731929	3511.493849
941.034246	3500.950276
941.336524	3488.690190
941.638763	3470.136223
941.940964	3456.903194
942.243126	3412.344436
942.545250	3391.216960
942.847335	3354.280426
943.149381	3317.018737
943.451389	3284.218469
943.753359	3250.480547
944.055290	3224.707648
944.357182	3200.971375
944.659036	3187.393027
944.960851	3181.187367
945.262628	3165.103566
945.564367	3165.726148
945.866067	3160.526198
946.167729	3152.616628
946.469352	3153.440856
946.770937	3152.571257
947.072484	3133.891262
947.373992	3136.989051
947.675462	3131.557208
947.976893	3113.628344
948.278286	3106.359000
948.579641	3095.850715
948.880958	3092.342072
949.182236	3094.673605
949.483476	3091.290991
949.784678	3090.491968
950.085841	3089.566917
950.386967	3100.503700
950.688054	3114.361832
950.989103	3136.769761
951.290114	3158.144253
951.591087	3186.594005
951.892021	3215.757080
952.192917	3242.228178
952.493776	3267.708691
952.794596	3276.054321
953.095378	3278.927778
953.396122	3276.750000
953.696828	3271.242539
953.997496	3254.818460
954.298126	3233.484297
954.598718	3212.624002
954.899272	3186.372194
955.199788	3160.783297
955.500266	3130.347331
955.800706	3093.312494
956.101108	3053.288253
956.401472	3023.094262
956.701798	2990.316680
957.002087	2951.124229
957.302337	2921.913263
957.602550	2892.152811
957.902724	2863.773636
958.202861	2841.191787
958.502960	2820.160093
958.803022	2797.852987
959.103045	2778.071500
959.403031	2760.848398
959.702979	2745.341808
960.002889	2734.798235
960.302762	2722.528067
960.602596	2709.834441
960.902393	2700.997299
961.202153	2693.150743
961.501875	2684.421985
961.801559	2679.834535
962.101205	2674.150634
962.400814	2667.718122
962.700385	2661.837616
962.999918	2656.146153
963.299414	2649.610297
963.598873	2645.784061
963.898293	2639.059162
964.197677	2640.568987
964.497022	2640.765592
964.796331	2635.895838
965.095601	2630.887452
965.394835	2628.465177
965.694030	2630.101032
965.993189	2629.458284
966.292309	2628.490383
966.591393	2625.821092
966.890439	2624.255814
967.189447	2624.462501
967.488419	2628.336628
967.787353	2629.775877
968.086249	2629.168418
968.385108	2630.801752
968.683930	2632.838378
968.982714	2636.682258
969.281462	2639.376755
969.580172	2645.181643
969.878844	2653.123981
970.177480	2660.355516
970.476078	2666.304078
970.774639	2674.788340
971.073162	2683.585153
971.371649	2684.986594
971.670098	2694.282482
971.968510	2699.905889
972.266885	2701.909747
972.565223	2705.327650
972.863524	2707.734801
973.161788	2711.737477
973.460014	2716.677808
973.758204	2720.196533
974.056356	2721.048488
974.354471	2722.762480
974.652550	2722.598643
974.950591	2720.559496
975.248595	2720.264589
975.546563	2716.035061
975.844493	2715.382231
976.142386	2710.076417
976.440243	2701.541743
976.738062	2699.782381
977.035845	2691.179652
977.333590	2686.987932
977.631299	2682.226562
977.928971	2674.574091
978.226606	2665.792401
978.524204	2668.315498
978.821765	2660.393325
979.119290	2665.137051
979.416777	2661.149498
979.714228	2666.283913
980.011642	2671.148627
980.309020	2675.466375
980.606360	2691.724096
980.903664	2716.803837
981.200931	2750.037643
981.498162	2798.742751
981.795356	2874.493649
982.092513	2961.909778
982.389633	3066.246539
982.686717	3162.275478
982.983764	3238.119638
983.280775	3283.684107
983.577749	3291.608801
983.874686	3279.441976
984.171587	3243.324629
984.468451	3207.247612
984.765279	3161.158863
985.062070	3116.186729
985.358824	3068.999009
985.655543	3016.994466
985.952224	2963.853143
986.248869	2898.413924
986.545478	2841.343022
986.842050	2788.045423
987.138586	2740.706467
987.435086	2703.114583
987.731549	2670.997392
988.027975	2647.321613
988.324366	2628.959210
988.620719	2616.260544
988.917037	2605.585900
989.213318	2595.879159
989.509563	2589.665937
989.805772	2585.222159
990.101944	2578.950964
990.398080	2577.506673
990.694180	2578.025912
990.990244	2577.322671
991.286271	2578.194791
991.582262	2578.283011
991.878217	2580.687642
992.174136	2580.806109
992.470019	2586.237952
992.765865	2591.689960
993.061676	2593.419076
993.357450	2601.258070
993.653188	2609.911210
993.948890	2629.612040
994.244556	2647.127529
994.540186	2669.081754
994.835780	2701.105683
995.131337	2735.778740
995.426859	2777.257353
995.722345	2823.177224
996.017795	2878.486243
996.313208	2915.745411
996.608586	2940.469750
996.903928	2953.586833
997.199234	2955.056329
997.494504	2950.965433
997.789738	2938.506221
998.084936	2912.909762
998.380099	2882.201574
998.675225	2850.616224
998.970316	2821.831236
999.265371	2784.388066
999.560390	2750.095617
999.855373	2719.090000
1000.150320	2690.345341
1000.445232	2664.998419
1000.740108	2646.746922
1001.034948	2626.388222
1001.329752	2612.865327
1001.624521	2601.258070
1001.919254	2586.179979
1002.213951	2581.332909
1002.508613	2570.244891
1002.803239	2570.471743
1003.097829	2559.156873
1003.392384	2556.301060
1003.686903	2550.239072
1003.981386	2547.103475
1004.275834	2543.940151
1004.570246	2542.095088
1004.864623	2540.935623
1005.158964	2535.702905
1005.453270	2533.305837
1005.747540	2528.708304
1006.041775	2531.879190
1006.335974	2529.245187
1006.630138	2529.852646
1006.924266	2530.278624
1007.218359	2525.766791
1007.512416	2523.263858
1007.806438	2522.474918
1008.100425	2527.243849
1008.394376	2519.488034
1008.688292	2525.678571
1008.982172	2522.966430
1009.276017	2526.540608
1009.569827	2521.680936
1009.863602	2521.640607
1010.157341	2522.197654
1010.451045	2519.810668
1010.744714	2518.071470
1011.038347	2517.337982
1011.331945	2517.287570
1011.625508	2517.345543
1011.919036	2515.281191
1012.212528	2515.518125
1012.505986	2517.484175
1012.799408	2514.293125
1013.092795	2510.217352
1013.386147	2514.373783
1013.679464	2511.039060
1013.972745	2513.045439
1014.265992	2513.216838
1014.559204	2511.805315
1014.852380	2511.437311
1015.145521	2512.594256
1015.438628	2513.718433
1015.731699	2513.292456
1016.024736	2511.654081
1016.317737	2516.392765
1016.610703	2514.918228
1016.903635	2516.468383
1017.196531	2517.395955
1017.489393	2518.464680
1017.782219	2519.082221
1018.075011	2521.146573
1018.367768	2522.522808
1018.660490	2523.057171
1018.953177	2523.057171
1019.245829	2523.057171
