Dividing Wavelength (nm)	Counts (n)	Blue Motor Position (mm): 28.200000	Red Motor Position (mm): 0.000000	
326.493990	2053.224153
326.888308	2053.224153
327.282561	2053.224153
327.676750	2029.384536
328.070874	2031.973169
328.464933	2037.823428
328.858929	2046.703420
329.252859	2057.977961
329.646726	2069.045814
330.040528	2086.014338
330.434265	2103.590321
330.827938	2127.077057
331.221547	2145.424336
331.615091	2166.584579
332.008571	2185.067970
332.401986	2207.352391
332.795338	2228.477346
333.188625	2247.653895
333.581847	2267.921854
333.975006	2283.791406
334.368100	2301.238840
334.761129	2317.773824
335.154095	2331.631956
335.546996	2383.528115
335.939833	2486.430668
336.332606	2494.488952
336.725315	2511.863289
337.117960	2519.535925
337.510540	2531.478418
337.903056	2538.334388
338.295508	2546.349822
338.687896	2552.452139
339.080220	2557.165618
339.472480	2563.414128
339.864676	2564.883624
340.256807	2567.273131
340.648875	2572.296641
341.040879	2571.747155
341.432818	2573.919893
341.824694	2576.311920
342.216506	2573.035170
342.608253	2575.124728
342.999937	2571.994172
343.391557	2570.312947
343.783113	2570.444017
344.174605	2567.754561
344.566033	2566.980744
344.957397	2564.387071
345.348697	2562.542008
345.739934	2564.278686
346.131106	2558.352809
346.522215	2556.500185
346.913260	2558.824157
347.304241	2558.125958
347.695159	2553.130174
348.086012	2552.205122
348.476802	2550.818805
348.867528	2546.801005
349.258191	2545.520552
349.648789	2544.585418
350.039324	2541.308668
350.429796	2544.676159
350.820203	2544.948381
351.210548	2544.356046
351.600828	2542.458051
351.991045	2539.314892
352.381198	2539.337577
352.771288	2540.187012
353.161314	2539.324974
353.551276	2539.327495
353.941175	2538.649460
354.331010	2539.642567
354.720782	2541.936292
355.110490	2547.983156
355.500135	2540.368493
355.889717	2541.371683
356.279235	2540.991076
356.668689	2541.790098
357.058080	2541.328833
357.447408	2541.016281
357.836672	2543.085675
358.225873	2541.096940
358.615010	2545.351674
359.004084	2545.628937
359.393095	2547.521890
359.782043	2544.827394
360.170927	2547.390820
360.559748	2545.220604
360.948505	2546.279246
361.337199	2549.596325
361.725830	2549.563558
362.114398	2547.859648
362.502903	2548.605738
362.891344	2552.048847
363.279722	2548.174720
363.668037	2551.118754
364.056289	2548.353681
364.444478	2552.870555
364.832603	2550.007179
365.220665	2549.896274
365.608665	2557.465566
365.996601	2551.373332
366.384474	2552.391645
366.772284	2554.604712
367.160031	2555.184444
367.547715	2557.188303
367.935336	2552.308466
368.322893	2550.954916
368.710388	2552.802499
369.097820	2553.478014
369.485189	2553.329300
369.872495	2556.074208
370.259738	2556.835422
370.646918	2554.491286
371.034035	2559.920608
371.421090	2558.375495
371.808081	2559.214847
372.195010	2557.233673
372.581875	2556.898437
372.968678	2558.952707
373.355418	2557.929352
373.742096	2561.082594
374.128710	2560.243242
374.515262	2560.543191
374.901751	2562.892368
375.288177	2560.903633
375.674540	2562.993192
376.060841	2564.477811
376.447079	2561.337172
376.833254	2561.959755
377.219367	2561.742985
377.605417	2562.075702
377.991404	2563.658624
378.377329	2564.923953
378.763191	2563.683830
379.148991	2563.005794
379.534727	2561.753068
379.920402	2566.322874
380.306013	2563.119220
380.691563	2566.103583
381.077049	2565.332287
381.462474	2563.880435
381.847835	2564.465208
382.233134	2565.538974
382.618371	2565.342369
383.003545	2568.107442
383.388657	2567.943605
383.773706	2565.281875
384.158693	2569.133317
384.543618	2570.829665
384.928480	2569.224058
385.313280	2566.965621
385.698017	2569.448389
386.082692	2568.218348
386.467305	2570.186918
386.851856	2569.637432
387.236344	2569.702967
387.620770	2566.116186
388.005133	2565.317163
388.389435	2567.668862
388.773674	2564.992009
389.157851	2571.195149
389.541965	2571.122052
389.926018	2572.878894
390.310008	2573.362845
390.693936	2572.415108
391.077802	2573.161199
391.461606	2576.233782
391.845348	2573.231775
392.229027	2574.265212
392.612645	2572.861250
392.996200	2576.934502
393.379694	2573.544327
393.763125	2573.977866
394.146494	2576.201015
394.529801	2576.082548
394.913047	2574.214800
395.296230	2576.974832
395.679351	2576.556416
396.062410	2576.919379
396.445408	2580.138156
396.828343	2577.100861
397.211217	2576.004410
397.594028	2578.313258
397.976778	2578.555233
398.359466	2578.265367
398.742092	2580.601942
399.124656	2574.146744
399.507158	2578.121694
399.889598	2581.219483
400.271977	2582.265523
400.654294	2580.541448
401.036549	2579.089596
401.418742	2581.179154
401.800874	2582.905749
402.182944	2581.274936
402.564952	2580.458269
402.946898	2583.341809
403.328783	2581.801737
403.710606	2581.577405
404.092367	2584.019844
404.474067	2584.007241
404.855705	2586.578230
405.237282	2584.034968
405.618797	2586.164855
406.000250	2583.304000
406.381642	2588.009917
406.762972	2582.010944
407.144240	2583.626634
407.525447	2585.176789
407.906593	2583.553537
408.287677	2587.057139
408.668700	2586.709300
409.049661	2588.924887
409.430560	2588.135946
409.811399	2589.436564
410.192176	2591.889085
410.572891	2590.384301
410.953545	2588.118302
411.334138	2591.745412
411.714669	2590.374219
412.095139	2589.272727
412.475547	2591.780701
412.855894	2590.278437
413.236180	2592.312542
413.616405	2592.791452
413.996568	2592.433530
414.376670	2594.245825
414.756711	2592.244487
415.136691	2594.374374
415.516609	2591.722727
415.896466	2594.606267
416.276262	2594.147522
416.655997	2594.492841
417.035670	2593.749271
417.415283	2597.018459
417.794834	2594.323963
418.174324	2594.087028
418.553753	2596.360589
418.933121	2597.968717
419.312428	2597.300764
419.691674	2599.523913
420.070859	2598.669437
420.449983	2598.588779
420.829045	2599.042483
421.208047	2598.684561
421.586988	2598.321598
421.965867	2602.326794
422.344686	2603.874429
422.723444	2599.644901
423.102141	2603.269490
423.480777	2603.725715
423.859352	2603.551795
424.237866	2604.030704
424.616319	2607.788885
424.994712	2609.202928
425.373044	2605.636312
425.751314	2605.583380
426.129524	2603.995416
426.507673	2607.294852
426.885762	2604.439038
427.263789	2609.029008
427.641756	2613.084617
428.019662	2611.511777
428.397508	2611.761314
428.775292	2612.358691
429.153016	2616.598301
429.530679	2616.968826
429.908282	2615.229628
430.285824	2614.491099
430.663305	2619.002931
431.040726	2619.476800
431.418086	2621.354630
431.795385	2622.980402
432.172624	2623.391256
432.549802	2625.755557
432.926920	2624.389404
433.303977	2628.901237
433.680974	2628.712194
434.057910	2630.980713
434.434786	2636.886425
434.811601	2639.008750
435.188355	2646.817498
435.565050	2641.718371
435.941683	2647.293887
436.318257	2653.290339
436.694770	2659.213695
437.071222	2661.905671
437.447614	2664.269972
437.823946	2669.144768
438.200218	2678.972497
438.576429	2682.362673
438.952580	2691.807275
439.328670	2697.917154
439.704700	2708.740511
440.080670	2710.290666
440.456580	2725.099055
440.832429	2737.008781
441.208218	2741.654204
441.583947	2757.359919
441.959616	2769.436003
442.335224	2785.209774
442.710773	2803.693164
443.086261	2823.719148
443.461689	2831.749706
443.837057	2855.735516
444.212365	2882.831718
444.587612	2900.896693
444.962800	2917.504774
445.337927	2949.863941
445.712995	2950.668005
446.088002	3013.289218
446.462949	3045.666028
446.837837	3079.807243
447.212664	3117.951133
447.587431	3223.868296
447.962139	3345.402954
448.336786	3447.677883
448.711374	3459.673308
449.085901	3399.086201
449.460369	3443.856688
449.834776	3488.269254
450.209124	3647.499139
450.583412	3679.749921
450.957640	3759.737909
451.331808	3763.972478
451.705917	3757.867641
452.079965	3809.300013
452.453954	3899.387953
452.827883	3956.138742
453.201752	4011.901465
453.575562	4085.865275
453.949311	4221.023650
454.323001	4311.015808
454.696632	4369.657030
455.070202	4574.267383
455.443713	4667.037216
455.817164	4792.869457
456.190556	4954.836689
456.563888	5004.923073
456.937160	5145.798118
457.310373	5114.704281
457.683526	5210.823961
458.056619	5321.167257
458.429653	5441.865083
458.802628	5598.627324
459.175542	5721.308844
459.548398	6008.024469
459.921194	6311.655685
460.293930	6542.396859
460.666607	6965.256405
461.039224	7356.346600
461.411782	7589.878052
461.784280	7566.943322
462.156719	7670.516349
462.529099	7766.227696
462.901419	7656.333062
463.273680	7634.968652
463.645882	7874.302472
464.018024	7994.450812
464.390106	8313.172723
464.762130	9019.856793
465.134094	9987.032405
465.505999	11238.332489
465.877845	12416.830750
466.249631	13088.688009
466.621358	12955.110035
466.993026	12699.642002
467.364634	12499.293945
467.736184	12297.554530
468.107674	12156.876091
468.479105	12238.772155
468.850477	12244.975295
469.221790	12153.372489
469.593043	11918.739545
469.964238	11854.691685
470.335373	12062.614075
470.706449	12766.530552
471.077467	13671.417667
471.448425	15351.183061
471.819324	16509.998136
472.190164	16304.747557
472.560945	15314.201156
472.931667	14479.118898
473.302330	14442.003403
473.672934	14259.800979
474.043479	14695.036558
474.413965	14683.822512
474.784393	14683.517522
475.154761	15263.703918
475.525070	15484.385469
475.895321	15487.087527
476.265513	15987.636295
476.635645	16549.427521
477.005719	16720.877163
477.375734	17127.864637
477.745691	17742.860200
478.115588	18404.927538
478.485427	19542.771414
478.855207	21188.277126
479.224928	22719.809911
479.594591	23812.825326
479.964194	23506.413913
480.333739	23950.186686
480.703226	24331.255067
481.072653	24883.160590
481.442022	25413.190026
481.811333	25791.947038
482.180584	25473.308307
482.549777	25414.442753
482.918912	25356.986202
483.287988	25417.900985
483.657005	25369.750404
484.025964	25173.289077
484.394864	25438.960405
484.763706	25484.159390
485.132489	25146.376877
485.501213	25302.251874
485.869879	25558.644959
486.238487	25610.021878
486.607036	25932.323008
486.975527	25769.244202
487.343959	26142.740770
487.712333	26522.553903
488.080648	26575.977531
488.448905	27036.759158
488.817104	27041.714612
489.185244	27955.217059
489.553326	29132.213056
489.921350	31035.825845
490.289315	33342.589790
490.657222	34037.041499
491.025070	34490.536138
491.392861	34157.285622
491.760593	33455.685556
492.128267	32556.908319
492.495883	31715.413713
492.863440	30975.944499
493.230939	30193.035663
493.598380	29756.668345
493.965763	29706.917197
494.333088	29304.796958
494.700354	29192.976604
495.067563	29204.488079
495.434713	29170.929118
495.801805	29498.253758
496.168839	29396.266174
496.535815	29310.705190
496.902733	29475.881117
497.269593	29341.017648
497.636395	29521.493477
498.003139	29851.747027
498.369825	29626.818304
498.736453	30059.530786
499.103023	29949.573138
499.469535	30062.437011
499.835989	30227.933050
500.202385	30120.392636
500.568723	30236.429915
500.935003	30551.648224
501.301226	30474.107716
501.667390	31162.189928
502.033497	31384.799720
502.399546	31203.993696
502.765537	30841.370897
503.131470	31315.105768
503.497345	31755.508530
503.863163	30780.619952
504.228923	31537.113143
504.594625	31939.460234
504.960269	31475.149800
505.325856	32137.822076
505.691385	31843.025481
506.056856	32164.227640
506.422270	32677.522966
506.787625	32224.124109
507.152924	32688.537887
507.518164	32907.969231
507.883347	32472.463951
508.248472	32644.238747
508.613540	33337.339428
508.978550	33588.772017
509.343503	33438.591003
509.708398	33800.752536
510.073236	34407.841050
510.438016	34531.291346
510.802738	34231.133484
511.167403	34805.925846
511.532010	35056.176284
511.896561	35544.283485
512.261053	36275.028982
512.625488	36083.888593
512.989866	36021.952977
513.354186	36088.571825
513.718449	36052.424231
514.082655	36943.680066
514.446803	36644.853069
514.810894	37265.986238
515.174927	37309.105747
515.538904	37289.389794
515.902822	37951.406720
516.266684	37660.350662
516.630488	38011.625823
516.994235	38030.888072
517.357925	38629.799834
517.721558	38893.898323
518.085133	39264.516392
518.448651	39460.816402
518.812112	39360.358809
519.175516	39520.937203
519.538863	39964.599070
519.902152	40027.048884
520.265385	40573.812430
520.628560	40600.780083
520.991678	40565.086193
521.354739	40801.329786
521.717743	41172.502382
522.080690	41080.506365
522.443580	41765.853751
522.806413	41780.926801
523.169189	41921.345621
523.531908	42150.594613
523.894569	42031.648588
524.257174	42230.247364
524.619722	42566.257912
524.982213	42713.920870
525.344647	42729.646749
525.707025	42875.688976
526.069345	43330.786701
526.431608	43230.795415
526.793815	43614.094506
527.155964	43178.629555
527.518057	43449.463025
527.880093	43306.896673
528.242072	43936.645173
528.603995	43675.510884
528.965860	43599.911220
529.327669	43825.573431
529.689421	43867.026839
530.051117	43823.821630
530.412755	44109.738232
530.774337	44191.866190
531.135862	44129.655831
531.497331	44283.345488
531.858743	44275.955157
532.220098	44700.037183
532.581396	44417.127629
532.942638	44176.515876
533.303824	44445.708451
533.664953	44502.192059
534.026025	44182.204818
534.387040	44772.566784
534.747999	44808.243029
535.108902	45146.935471
535.469748	44468.630577
535.830537	44730.737810
536.191270	44978.901211
536.551947	44707.792998
536.912567	44984.058311
537.273131	45166.459860
537.633638	44763.684271
537.994089	44998.506258
538.354483	44741.974542
538.714821	45383.307613
539.075103	45655.978584
539.435328	45508.653383
539.795497	45274.141427
540.155609	45408.858702
540.515665	45977.289127
540.875665	45297.532381
541.235609	45580.462099
541.595496	45712.613427
541.955328	46264.022396
542.315102	45724.853348
542.674821	45602.910357
543.034483	45496.161404
543.394090	45502.079718
543.753640	45480.249002
544.113134	46566.421051
544.472571	45649.730073
544.831953	46794.613921
545.191278	46041.677264
545.550548	45734.728968
545.909761	46377.234108
546.268918	46536.821916
546.628019	46932.925538
546.987064	46370.484003
547.346053	45681.817018
547.704986	46577.826661
548.063863	46226.067549
548.422684	46412.098728
548.781449	46027.942641
549.140158	46562.176399
549.498811	46313.705488
549.857408	45716.091823
550.215949	46557.835966
550.574434	46393.388486
550.932864	46324.556571
551.291237	47033.748615
551.649555	46795.181050
552.007817	46973.045561
552.366022	46625.495812
552.724173	46698.184209
553.082267	47130.271588
553.440305	47462.100498
553.798288	46716.551653
554.156215	47092.712471
554.514086	47303.309193
554.871902	46917.544978
555.229661	47098.285467
555.587365	46778.777136
555.945014	46916.337621
556.302606	46922.535720
556.660143	47025.087913
557.017625	47242.185203
557.375050	46948.916078
557.732421	47346.194289
558.089735	47399.358298
558.446994	47275.403886
558.804197	47750.860311
559.161345	47628.017474
559.518437	46964.465517
559.875474	47213.783342
560.232455	47457.054303
560.589381	47501.910490
560.946251	47287.406874
561.303065	47961.668762
561.659825	47651.771391
562.016528	47459.390878
562.373177	47035.195426
562.729770	47652.673758
563.086307	47182.147581
563.442789	47727.799553
563.799216	47584.940815
564.155587	47475.862848
564.511904	47429.453986
564.868164	47491.397164
565.224370	47803.255544
565.580520	47528.774799
565.936615	47730.945233
566.292654	47367.057104
566.648638	47744.710104
567.004567	47665.014503
567.360441	47773.043909
567.716260	47491.649222
568.072023	47861.816108
568.427732	47788.124521
568.783385	47342.683126
569.138982	47741.929907
569.494525	47883.125065
569.850013	47466.027557
570.205445	47591.895087
570.560823	47376.118578
570.916145	47239.488186
571.271412	47475.883013
571.626625	47140.363978
571.981782	47210.680512
572.336884	46809.195458
572.691931	47131.804098
573.046923	46805.127247
573.401860	46639.026269
573.756743	46647.931467
574.111570	46797.331103
574.466342	46690.493929
574.821059	46851.543671
575.175722	46332.188878
575.530330	46448.148020
575.884882	46074.270845
576.239380	45986.774058
576.593823	46068.957468
576.948211	46024.517177
577.302544	45570.684781
577.656823	45565.525160
578.011047	45818.099571
578.365216	45642.775802
578.719330	45358.910949
579.073389	45329.647051
579.427394	45386.783489
579.781344	45317.041646
580.135239	45084.611686
580.489080	45141.974976
580.842866	44642.242874
581.196597	45129.568696
581.550273	45119.428415
581.903895	45054.815946
582.257463	45499.717938
582.610975	44934.783553
582.964434	45264.233039
583.317837	44779.226148
583.671186	44729.137243
584.024481	44985.099309
584.377721	44542.062545
584.730906	44751.343526
585.084037	44878.748607
585.437113	44588.504174
585.790135	44702.585486
586.143103	44263.178352
586.496016	44429.359989
586.848874	44518.711920
587.201679	44546.914655
587.554428	44061.965737
587.907124	44340.542420
588.259765	44112.147903
588.612352	44257.217188
588.964884	43708.417015
589.317362	44036.240729
589.669786	44030.496335
590.022155	43875.306934
590.374470	44329.565307
590.726731	43898.168567
591.078937	43247.216973
591.431090	43567.604986
591.783188	43114.306952
592.135232	42898.633788
592.487222	43166.800487
592.839157	43320.795134
593.191038	42977.064059
593.542866	42766.245526
593.894639	42182.116948
594.246358	42468.923313
594.598022	42460.340749
594.949633	42019.227185
595.301190	42015.123685
595.652692	41971.003507
596.004141	42437.015330
596.355535	41339.223422
596.706876	41361.875847
597.058162	41084.544329
597.409395	41569.697414
597.760573	41799.369862
598.111698	41392.072358
598.462768	41296.620631
598.813785	41333.496671
599.164748	40942.446805
599.515657	41207.765253
599.866511	40715.264687
600.217312	41399.636609
600.568060	40338.025062
600.918753	41179.713752
601.269392	41086.044073
601.619978	40800.087141
601.970510	41008.206137
602.320988	41155.538899
602.671412	41421.255598
603.021783	41275.672116
603.372100	40849.066992
603.722363	40974.062402
604.072572	40992.291214
604.422728	40995.268015
604.772830	40760.325040
605.122878	40921.664649
605.472872	40791.986007
605.822813	41043.912629
606.172701	40799.199898
606.522534	41118.453651
606.872314	41325.947543
607.222041	41164.242451
607.571714	41482.939156
607.921333	40984.028763
608.270899	41207.359440
608.620411	41599.992228
608.969870	41324.301606
609.319276	41342.714421
609.668627	41372.207691
610.017926	41779.840433
610.367171	41915.865887
610.716362	41955.907772
611.065500	41848.155629
611.414585	42058.086919
611.763616	42243.792944
612.112594	42134.747746
612.461518	42273.722275
612.810389	42649.139522
613.159207	42444.340127
613.507971	42428.173146
613.856682	42901.645877
614.205340	42752.636931
614.553945	43435.279738
614.902496	42775.387659
615.250994	43175.299873
615.599439	43247.325358
615.947830	43360.587482
616.296169	43371.594842
616.644454	43397.438317
616.992686	43557.878079
617.340864	44015.241803
617.688990	43548.481368
618.037063	44219.552207
618.385082	44043.431935
618.733048	44386.001024
619.080961	44244.367287
619.428821	44282.851455
619.776628	44296.485256
620.124382	44107.081544
620.472083	44206.132655
620.819731	44307.028829
621.167326	43858.184655
621.514868	43832.348742
621.862357	43317.364629
622.209793	43391.565373
622.557176	42952.296871
622.904506	42712.902557
623.251783	42345.949407
623.599007	42034.045656
623.946179	41941.989146
624.293297	41693.717360
624.640363	41158.989569
624.987376	41015.793073
625.334336	40801.370115
625.681243	40384.766641
626.028097	40307.261421
626.374899	40112.463674
626.721647	40090.912742
627.068343	39869.810255
627.414987	39592.803892
627.761577	39346.835913
628.108115	39668.922794
628.454600	38925.155997
628.801032	39152.564968
629.147412	39046.209224
629.493739	38971.980755
629.840014	38525.808392
630.186236	38955.044998
630.532405	38395.260152
630.878521	38632.126327
631.224585	38428.887168
631.570597	38079.000845
631.916556	38248.945703
632.262462	38132.036304
632.608316	38068.853002
632.954117	37921.442102
633.299866	37882.458859
633.645562	37776.952550
633.991206	37277.338916
634.336797	36846.867227
634.682336	36752.461539
635.027823	36505.124887
635.373257	36378.622173
635.718639	36060.343884
636.063968	35950.729034
636.409245	35301.178882
636.754470	35260.093478
637.099642	35035.956216
637.444762	34478.457533
637.789829	34612.108604
638.134845	34230.636931
638.479808	34158.072042
638.824719	34097.742033
639.169577	33603.532516
639.514383	33680.289124
639.859137	33303.457833
640.203839	33456.035916
640.548489	33180.536858
640.893086	33167.697039
641.237632	32907.475198
641.582125	33003.693181
641.926566	32805.321257
642.270955	32835.734538
642.615292	32771.573252
642.959576	32658.084276
643.303809	32677.028932
643.647990	32767.051337
643.992118	32703.323591
644.336195	32564.369226
644.680219	32653.272495
645.024192	32863.448281
645.368112	33391.998138
645.711981	33403.950714
646.055797	34134.303001
646.399562	33955.914211
646.743274	34822.783464
647.086935	35222.065534
647.430544	35173.446126
647.774101	35218.985389
648.117606	35506.396693
648.461059	35620.846009
648.804460	35218.995471
649.147810	34706.065629
649.491108	34339.349413
649.834354	34200.629462
650.177548	33351.583208
650.520690	32879.287587
650.863781	32861.462067
651.206820	32699.777139
651.549807	32279.450773
651.892742	31695.407894
652.235626	31616.140791
652.578458	31485.895019
652.921238	30795.267025
653.263967	31102.482502
653.606644	30821.201241
653.949269	30712.526567
654.291843	30336.771562
654.634365	30707.550948
654.976836	30241.783621
655.319255	30321.126341
655.661622	30193.809480
656.003938	30057.146320
656.346203	29892.287986
656.688416	30127.742638
657.030577	29887.892100
657.372687	29717.332221
657.714746	29873.676046
658.056753	30058.406608
658.398708	29444.477249
658.740612	29517.458033
659.082465	29730.265302
659.424266	29617.141809
659.766016	29619.254053
660.107715	29476.405397
660.449362	29602.913152
660.790958	29573.112372
661.132503	29506.460756
661.473996	29563.897142
661.815438	29643.179369
662.156829	29770.163514
662.498168	29590.479147
662.839456	29557.704085
663.180693	29694.984786
663.521879	29775.247517
663.863013	29738.868031
664.204097	29715.058661
664.545129	30127.152823
664.886110	30065.600335
665.227040	30165.450469
665.567918	30157.127524
665.908746	30241.813868
666.249522	30319.767750
666.590248	30341.860607
666.930922	30431.419225
667.271545	30445.594950
667.612118	30492.641518
667.952639	30302.287549
668.293109	30341.550576
668.633528	30202.868433
668.973896	30170.022796
669.314213	30142.913991
669.654480	29953.164960
669.994695	29928.392730
670.334859	29855.480001
670.674973	29687.052531
671.015035	29878.555883
671.355047	29821.837861
671.695008	29753.661297
672.034918	29664.939509
672.374777	29766.642268
672.714585	29631.700662
673.054342	29761.485167
673.394049	29628.605393
673.733705	29834.534007
674.073310	29543.848473
674.412864	29612.360275
674.752368	29306.959613
675.091820	29517.120276
675.431223	29144.168153
675.770574	28928.137066
676.109875	28760.848896
676.449125	28553.715447
676.788324	28443.737634
677.127473	27977.244381
677.466571	27883.607469
677.805619	27603.319315
678.144616	27540.070478
678.483562	27489.870668
678.822458	27171.231936
679.161303	27107.519313
679.500098	27034.152881
679.838842	26978.904355
680.177535	27053.881437
680.516179	27303.405949
680.854771	27432.698942
681.193314	28225.992556
681.531805	29249.016591
681.870247	30003.987353
682.208638	30719.498483
682.546978	30989.197693
682.885268	31110.870982
683.223508	30670.722798
683.561697	30383.187986
683.899836	30228.873226
684.237925	29828.300620
684.575963	29668.155766
684.913951	29308.560179
685.251889	29477.363216
685.589776	29515.653300
685.927614	29530.103768
686.265401	29723.061493
686.603137	29841.846201
686.940824	30353.606495
687.278460	30693.334894
687.616046	30868.860309
687.953582	31521.745185
688.291068	31428.287234
688.628504	31763.682761
688.965889	31749.552407
689.303224	31471.810036
689.640510	31164.488694
689.977745	30524.887259
690.314930	29782.756316
690.652065	29344.191055
690.989150	28655.524069
691.326185	27818.747983
691.663170	27185.556375
692.000105	26458.808513
692.336990	25842.552661
692.673825	25412.322948
693.010610	24930.297899
693.347345	24438.924031
693.684030	23812.054030
694.020665	23630.433860
694.357251	22943.672430
694.693786	22953.762299
695.030272	22735.215677
695.366707	22233.618349
695.703093	21964.491310
696.039429	22031.210981
696.375716	21801.793111
696.711952	21807.534985
697.048139	21673.016836
697.384276	21518.626458
697.720363	21628.924383
698.056400	21518.278618
698.392388	21362.113754
698.728326	21357.392714
699.064214	21205.918644
699.400053	21197.792304
699.735842	20815.335085
700.071581	20616.950558
700.407270	20364.741631
700.742910	20191.777122
701.078501	19941.660273
701.414042	19746.691128
701.749533	19437.630588
702.084974	19128.199524
702.420366	19358.923053
702.755709	18952.417010
703.091002	18654.068923
703.426246	18727.238750
703.761440	18654.562956
704.096584	18413.192510
704.431679	18354.452985
704.766725	18290.324467
705.101721	18230.175940
705.436668	18352.335700
705.771565	18078.298577
706.106413	18398.542917
706.441212	18465.388617
706.775961	18583.996884
707.110661	18665.267846
707.445311	19033.531696
707.779913	18902.728877
708.114465	19209.818326
708.448967	19524.053609
708.783421	20165.648821
709.117825	20523.167452
709.452180	20760.394070
709.786485	21215.068338
710.120742	21972.410962
710.454949	22088.657450
710.789107	22612.324949
711.123216	23320.607065
711.457275	23519.372199
711.791286	24080.349279
712.125247	24235.760490
712.459159	23968.082783
712.793023	24694.823083
713.126837	23658.397140
713.460602	23900.112905
713.794318	23558.794022
714.127985	23286.919554
714.461602	22382.564281
714.795171	22353.302903
715.128691	21371.104652
715.462162	20848.422698
715.795584	20427.463667
716.128957	20149.335647
716.462281	19780.582805
716.795556	19502.154837
717.128782	19034.759217
717.461960	18433.974666
717.795088	18389.115959
718.128167	18054.564825
718.461198	17600.397193
718.794180	17470.138818
719.127113	17142.438613
719.459997	16954.506918
719.792833	16599.226559
720.125619	16632.392311
720.458357	16304.820654
720.791046	16170.236970
721.123686	16026.765732
721.456278	15799.651668
721.788821	15803.780373
722.121315	15534.073602
722.453761	15643.426311
722.786158	15528.576223
723.118506	15603.916268
723.450805	15492.171531
723.783056	15674.240364
724.115259	15563.090483
724.447412	15566.359671
724.779518	15778.625016
725.111574	15831.610063
725.443582	16101.417658
725.775542	16057.131122
726.107453	16584.095536
726.439315	16504.122672
726.771129	16922.233451
727.102895	17340.225763
727.434612	17617.353114
727.766281	17782.899565
728.097901	18087.153364
728.429473	18184.276234
728.760996	18179.882868
729.092471	18305.090007
729.423897	18197.370631
729.755276	18068.443122
730.086606	18183.474691
730.417887	18769.276932
730.749120	19331.816769
731.080305	19537.929385
731.411442	19936.243554
731.742530	20052.215298
732.073570	20214.197653
732.404562	20519.515136
732.735506	20354.666885
733.066401	20140.435490
733.397249	19637.419077
733.728048	19011.368263
734.058798	18149.953538
734.389501	17384.673617
734.720156	16883.900517
735.050762	16316.748024
735.381320	15934.532781
735.711831	15664.755433
736.042293	15299.143229
736.372707	15340.037069
736.703073	15141.763448
737.033391	15340.145454
737.363661	15338.938098
737.693883	15472.715197
738.024056	15674.782288
738.354182	15898.324693
738.684260	16265.298008
739.014290	16539.141047
739.344272	16766.391221
739.674207	17120.247453
740.004093	17292.435625
740.333931	17340.102255
740.663722	17414.524809
740.993464	17448.086291
741.323159	17281.723173
741.652806	16993.618710
741.982405	16813.715053
742.311956	16450.015967
742.641460	16329.933162
742.970915	16003.392422
743.300323	15670.877914
743.629683	15444.439366
743.958996	15139.963756
744.288260	14817.450897
744.617477	14515.634496
744.946647	14480.900946
745.275768	14164.805476
745.604842	13965.069920
745.933869	13792.327221
746.262847	13766.183798
746.591778	13690.654710
746.920662	13562.342221
747.249498	13587.023710
747.578286	13748.237290
747.907027	13924.130709
748.235720	14187.127705
748.564365	14262.313994
748.892963	14186.300956
749.221514	14280.104226
749.550017	14154.564372
749.878473	14121.504485
750.206881	13893.896389
750.535242	13823.184124
750.863555	13743.344850
751.191821	13644.795333
751.520039	13661.683199
751.848210	13583.502464
752.176334	13638.652687
752.504411	13561.951532
752.832440	13383.235066
753.160421	13493.734638
753.488356	13388.918967
753.816243	13301.538127
754.144082	13135.464875
754.471875	13082.820106
754.799620	13045.021534
755.127318	13025.091332
755.454969	13014.358716
755.782572	12991.804593
756.110129	13004.518383
756.437638	12911.456163
756.765100	12915.647882
757.092515	12940.765431
757.419882	12979.388232
757.747203	13001.276922
758.074477	13093.537599
758.401703	13072.294176
758.728882	13275.094754
759.056014	13316.437257
759.383099	13486.243483
759.710138	13608.531793
760.037129	13736.037698
760.364073	13790.131799
760.690970	13817.898474
761.017820	13831.000433
761.344623	14059.621801
761.671379	14441.978197
761.998088	15152.692669
762.324751	16933.404648
762.651366	20377.284021
762.977935	24858.078329
763.304456	27801.081260
763.630931	28805.064857
763.957359	27579.462054
764.283740	25292.519927
764.610074	23009.346062
764.936362	20389.360105
765.262602	18509.685235
765.588796	16586.840444
765.914943	15309.830476
766.241044	14227.376278
766.567097	13438.133232
766.893104	12732.653998
767.219064	12261.205290
767.544978	11789.880091
767.870845	11408.718448
768.196665	11185.420539
768.522438	10955.007040
768.848165	10757.474468
769.173846	10548.400174
769.499479	10419.034084
769.825066	10251.637529
770.150607	10027.888437
770.476101	9942.362741
770.801548	9824.976953
771.126949	9660.920163
771.452303	9549.949243
771.777611	9350.206125
772.102872	9342.084826
772.428087	9205.209938
772.753256	9047.988952
773.078378	8956.766752
773.403453	8777.626830
773.728482	8662.917895
774.053465	8588.278571
774.378401	8491.576637
774.703291	8366.765230
775.028135	8244.255109
775.352932	8211.749749
775.677683	8106.913914
776.002388	8002.728387
776.327046	8012.117536
776.651658	7911.327227
776.976224	7814.345509
777.300743	7812.878533
777.625216	7725.381747
777.949643	7681.143101
778.274024	7702.618416
778.598359	7614.768749
778.922647	7635.019064
779.246889	7578.096875
779.571086	7590.349400
779.895236	7606.677697
780.219339	7612.825384
780.543397	7617.488451
780.867409	7695.036521
781.191374	7713.222483
781.515294	7668.184815
781.839167	7765.463961
782.162995	7735.771565
782.486776	7681.833739
782.810511	7636.798591
783.134201	7546.456073
783.457844	7537.939044
783.781441	7483.219839
784.104993	7416.636279
784.428498	7393.449492
784.751958	7382.893316
785.075372	7360.946653
785.398739	7295.104142
785.722061	7342.808581
786.045337	7352.974068
786.368568	7502.134248
786.691752	7532.572735
787.014891	7875.749283
787.337983	8242.629337
787.661030	8838.133279
787.984031	9464.058064
788.306987	9867.758705
788.629897	10070.241691
788.952760	10015.177167
789.275579	9785.343402
789.598351	9390.230366
789.921078	9027.723513
790.243759	8613.295297
790.566395	8324.835433
790.888984	8073.720436
791.211529	7862.112962
791.534027	7643.321844
791.856480	7441.053108
792.178888	7373.095833
792.501249	7277.744929
792.823566	7117.960517
793.145836	7119.639221
793.468062	7093.170643
793.790241	7049.978037
794.112375	7117.617718
794.434464	7272.983559
794.756507	7313.078376
795.078505	7477.026782
795.400457	7791.614946
795.722364	8146.776838
796.044226	8435.488760
796.366042	8706.624699
796.687812	8653.201071
797.009538	8734.845078
797.331218	8618.255792
797.652852	8530.950569
797.974442	8378.861478
798.295986	8289.960730
798.617484	8092.927232
798.938938	7952.750388
799.260346	7850.069646
799.581709	7648.632700
799.903026	7569.473982
800.224299	7468.008158
800.545526	7294.360572
800.866708	7200.186777
801.187845	7136.307796
801.508936	7026.864346
801.829983	6991.609037
802.150984	6840.896181
802.471940	6798.547968
802.792851	6782.880062
803.113717	6746.205668
803.434538	6718.920422
803.755314	6657.367934
804.076045	6665.133831
804.396731	6611.899247
804.717372	6649.450802
805.037967	6646.310163
805.358518	6693.644077
805.679024	6779.305884
805.999485	6788.692512
806.319901	6824.719118
806.640272	6854.469488
806.960598	6937.033505
807.280879	6937.386386
807.601115	7018.949735
807.921306	6955.433717
808.241453	6972.916438
808.561554	6991.684654
808.881611	6954.125537
809.201623	6961.455375
809.521590	6906.373207
809.841513	6880.625514
810.161390	6922.691422
810.481223	6795.044366
810.801011	6773.080059
811.120755	6753.119610
811.440453	6672.337640
811.760107	6642.080635
812.079716	6608.030161
812.399281	6543.682353
812.718801	6533.194232
813.038276	6485.711604
813.357707	6422.137613
813.677093	6468.183512
813.996434	6368.540065
814.315731	6416.988074
814.634983	6411.533546
814.954191	6419.934629
815.273354	6524.493201
815.592473	6588.004178
815.911547	6714.380863
816.230577	6797.887577
816.549562	6945.903415
816.868502	7045.904784
817.187399	7144.315669
817.506250	7293.929553
817.825058	7324.920047
818.143821	7591.818896
818.462539	7860.116665
818.781213	8235.047442
819.099843	8785.213767
819.418429	9793.948651
819.736970	10758.964129
820.055466	11943.441198
820.373919	13478.913646
820.692327	15818.061962
821.010691	19966.734973
821.329011	28995.136521
821.647286	42028.550799
821.965517	55478.750032
822.283704	60836.495901
822.601847	62787.666936
822.919945	60029.079496
823.237999	55779.865713
823.556010	49544.028981
823.873976	42795.703509
824.191897	36281.471577
824.509775	31449.374380
824.827609	26956.841746
825.145398	24377.910946
825.463144	23042.529457
825.780845	23371.300908
826.098502	25175.519787
826.416116	28993.031840
826.733685	32660.317507
827.051210	33839.909699
827.368692	32047.837480
827.686129	28045.952787
828.003522	23906.996601
828.320872	20184.089362
828.638177	17335.144280
828.955439	15188.497464
829.272656	13378.360270
829.589830	11911.134964
829.906960	10643.284772
830.224046	9700.304177
830.541088	8957.023851
830.858086	8499.334973
831.175041	8129.730176
831.491952	8018.517281
831.808819	8066.587203
832.125642	8472.112742
832.442421	9362.879586
832.759157	11171.988384
833.075849	14108.967136
833.392497	17349.569542
833.709101	19522.216109
834.025662	19354.746458
834.342179	17629.648488
834.658653	15417.305355
834.975083	13486.876148
835.291469	11870.473017
835.607811	10559.820908
835.924110	9645.007761
836.240366	8778.045246
836.556578	7977.600756
836.872746	7337.084351
837.188871	6838.345357
837.504952	6418.906233
837.820990	6109.099603
838.136984	5895.873919
838.452935	5797.886491
838.768842	5828.561912
839.084706	6262.688437
839.400526	7475.897563
839.716303	9067.115090
840.032037	10166.275671
840.347727	10069.780425
840.663373	9087.456145
840.978977	8042.399747
841.294537	7234.471664
841.610054	6634.198791
841.925527	6205.420930
842.240957	5842.384756
842.556344	5519.337535
842.871687	5235.152570
843.186987	4954.816525
843.502244	4731.359819
843.817458	4566.940066
844.132629	4432.071556
844.447756	4339.384902
844.762840	4264.180968
845.077881	4187.346222
845.392879	4123.492447
845.707833	4076.082916
846.022745	4033.769991
846.337613	4006.232688
846.652438	3961.953713
846.967221	3945.796815
847.281960	3912.890683
847.596656	3896.756470
847.911309	3874.376268
848.225919	3851.801981
848.540485	3834.447809
848.855009	3824.186540
849.169490	3803.895896
849.483928	3789.959626
849.798323	3780.973769
850.112675	3766.591358
850.426984	3769.820217
850.741251	3756.574585
851.055474	3751.024274
851.369654	3759.995008
851.683792	3756.448556
851.997887	3758.157507
852.311938	3760.705810
852.625947	3762.714710
852.939914	3756.004934
853.253837	3764.327879
853.567718	3764.131274
853.881555	3750.804984
854.195350	3765.091614
854.509103	3760.105913
854.822812	3761.197323
855.136479	3749.090992
855.450103	3760.746140
855.763685	3748.455807
856.077224	3752.881940
856.390720	3769.598406
856.704173	3789.460552
857.017584	3803.807676
857.330953	3814.515087
857.644278	3834.745237
857.957561	3840.139272
858.270802	3841.253367
858.584000	3845.472812
858.897155	3836.010567
859.210268	3818.613545
859.523339	3799.472283
859.836367	3793.906850
860.149352	3788.288484
860.462295	3780.381434
860.775195	3768.446502
861.088054	3765.119341
861.400869	3761.524998
861.713642	3763.990122
862.026373	3777.447482
862.339062	3781.954274
862.651708	3801.324908
862.964312	3838.354703
863.276873	3848.134542
863.589392	3905.084457
863.901869	3951.568936
864.214303	4001.330166
864.526696	4032.751678
864.839045	4078.888318
865.151353	4102.531329
865.463619	4114.685551
865.775842	4116.308803
866.088023	4139.195641
866.400162	4124.591418
866.712258	4132.556442
867.024313	4137.600116
867.336325	4131.981750
867.648296	4137.574910
867.960224	4137.703460
868.272110	4147.274090
868.583954	4155.135770
868.895755	4169.949200
869.207515	4163.093231
869.519233	4202.391546
869.830909	4217.741859
870.142542	4242.776229
870.454134	4260.332048
870.765684	4287.420688
871.077191	4322.552489
871.388657	4348.196838
871.700081	4382.829565
872.011463	4428.104168
872.322803	4465.348213
872.634101	4497.294005
872.945357	4533.943193
873.256571	4588.150720
873.567744	4619.214310
873.878874	4637.138133
874.189963	4674.616591
874.501010	4686.727963
874.812015	4683.950287
875.122979	4721.007809
875.433900	4721.799271
875.744780	4732.168924
876.055618	4764.596146
876.366415	4760.749746
876.677169	4783.583652
876.987882	4825.783151
877.298554	4875.665368
877.609183	4954.587152
877.919771	5064.912804
878.230317	5209.601481
878.540822	5427.533083
878.851285	5749.456126
879.161707	6205.574685
879.472087	6968.780172
879.782425	8195.348355
880.092722	10387.393282
880.402977	13698.594527
880.713191	17467.192264
881.023363	21200.476718
881.333494	23422.352673
881.643583	24626.601148
881.953631	24608.591626
882.263637	23740.043668
882.573602	22248.411615
882.883526	20680.706030
883.193408	19002.052211
883.503248	17301.507181
883.813048	15752.554689
884.122806	14320.418334
884.432522	12850.740506
884.742197	11597.176944
885.051831	10515.463795
885.361424	9508.200928
885.670975	8700.734110
885.980485	8011.439501
886.289954	7441.025382
886.599382	6974.476675
886.908768	6595.139931
887.218113	6235.670373
887.527417	5945.075581
887.836680	5684.188307
888.145901	5464.063804
888.455082	5299.006345
888.764221	5152.908665
889.073319	5021.142986
889.382376	4951.466678
889.691392	4893.059870
890.000366	4866.082135
890.309300	4850.094115
890.618193	4849.156461
890.927044	4839.467363
891.235855	4861.403944
891.544625	4896.145056
891.853353	4955.789467
892.162041	5072.668619
892.470687	5261.359008
892.779293	5507.594167
893.087858	5879.956476
893.396381	6457.471060
893.704864	7263.881756
894.013306	8420.209022
894.321707	9600.138971
894.630068	10428.367780
894.938387	10630.182813
895.246665	10383.017560
895.554903	9781.055900
895.863100	9074.581038
896.171256	8516.946244
896.479371	8004.402050
896.787446	7504.705237
897.095480	7079.998108
897.403473	6757.086998
897.711425	6438.619666
898.019336	6176.787176
898.327207	5903.100413
898.635038	5671.189692
898.942827	5427.049132
899.250576	5233.042847
899.558284	5042.787180
899.865952	4917.184311
900.173579	4767.199902
900.481165	4662.860620
900.788711	4568.449891
901.096216	4497.689735
901.403681	4433.052061
901.711105	4407.589192
902.018489	4397.522008
902.325832	4464.947441
902.633135	4592.155917
902.940397	4931.975057
903.247619	5733.037088
903.554800	7177.942686
903.861941	9101.931819
904.169041	10612.357293
904.476101	11231.537014
904.783121	10872.092662
905.090100	10125.041553
905.397039	9288.729254
905.703938	8532.548615
906.010796	7837.237389
906.317614	7285.851104
906.624391	6757.891062
906.931129	6332.168140
907.237826	5933.402789
907.544483	5560.218772
907.851099	5184.277245
908.157675	4832.805478
908.464211	4509.370089
908.770707	4274.076753
909.077163	4075.228440
909.383578	3933.072943
909.689954	3815.518276
909.996289	3749.330447
910.302584	3684.430632
910.608839	3647.965446
910.915054	3621.249851
911.221229	3609.277111
911.527363	3621.171713
911.833458	3632.708394
912.139513	3663.182169
912.445527	3690.316179
912.751502	3774.092594
913.057436	3875.571021
913.363331	4007.697143
913.669186	4208.715673
913.975000	4469.802072
914.280775	4894.113471
914.586510	5472.419517
914.892205	6268.863851
915.197859	7311.014024
915.503475	8542.134369
915.809050	9598.510678
916.114585	10251.163661
916.420081	10513.175112
916.725536	10467.187186
917.030952	10022.396099
917.336328	9614.024829
917.641665	9195.195685
917.946961	8712.792550
918.252218	8289.083570
918.557435	7780.718492
918.862612	7351.136567
919.167750	6973.710420
919.472848	6547.884155
919.777906	6176.764491
920.082925	5816.982382
920.387904	5450.898831
920.692843	5185.255229
920.997743	4940.224905
921.302603	4704.981981
921.607423	4546.929205
921.912204	4381.241602
922.216946	4263.001338
922.521647	4142.517762
922.826310	4042.604613
923.130932	3947.354532
923.435516	3848.799974
923.740059	3780.421763
924.044564	3702.843447
924.349028	3642.478150
924.653454	3578.072368
924.957840	3512.665918
925.262186	3466.892241
925.566493	3401.876480
925.870761	3344.699713
926.174989	3309.325936
926.479178	3274.284876
926.783328	3229.564800
927.087438	3205.543702
927.391509	3168.067764
927.695541	3139.343270
927.999533	3115.032305
928.303486	3094.794593
928.607400	3080.860844
928.911275	3067.685788
929.215110	3048.451266
929.518906	3038.810059
929.822663	3041.741490
930.126381	3038.328629
930.430060	3044.173847
930.733699	3048.799105
931.037299	3059.816547
931.340861	3054.493089
931.644383	3063.554563
931.947866	3066.299471
932.251309	3057.311094
932.554714	3056.103737
932.858080	3053.416802
933.161407	3043.531100
933.464694	3033.337887
933.767943	3028.326980
934.071153	3024.404962
934.374323	3013.107736
934.677455	3006.597086
934.980548	3000.378823
935.283602	2995.740961
935.586617	2988.950527
935.889593	3003.196828
936.192530	3008.427025
936.495428	3019.935979
936.798287	3043.531100
937.101108	3074.267015
937.403890	3127.259624
937.706632	3193.160107
938.009336	3272.767488
938.312002	3345.859178
938.614628	3408.072058
938.917216	3463.928042
939.219765	3493.580109
939.522275	3522.402906
939.824747	3528.149822
940.127179	3527.567568
940.429573	3519.950385
940.731929	3517.596166
941.034246	3501.096470
941.336524	3488.158348
941.638763	3472.235864
941.940964	3458.503761
942.243126	3416.488264
942.545250	3392.878020
942.847335	3354.703883
943.149381	3315.947492
943.451389	3285.748460
943.753359	3253.603542
944.055290	3226.164542
944.357182	3203.736448
944.659036	3189.341433
944.960851	3177.555216
945.262628	3163.775222
945.564367	3165.532064
945.866067	3160.289264
946.167729	3156.969664
946.469352	3157.156187
946.770937	3152.530928
947.072484	3136.416880
947.373992	3139.739000
947.675462	3131.080818
947.976893	3116.484158
948.278286	3107.619288
948.579641	3099.261055
948.880958	3091.548090
949.182236	3093.872062
949.483476	3085.884354
949.784678	3088.714962
950.085841	3088.427616
950.386967	3101.489245
950.688054	3119.435753
950.989103	3139.214720
951.290114	3160.836229
951.591087	3188.607946
951.892021	3216.160372
952.192917	3244.254722
952.493776	3268.916047
952.794596	3277.475926
953.095378	3283.179992
953.396122	3278.247223
953.696828	3269.551232
953.997496	3256.691249
954.298126	3235.659555
954.598718	3216.588870
954.899272	3186.974612
955.199788	3162.633400
955.500266	3129.722227
955.800706	3094.038420
956.101108	3051.957388
956.401472	3023.739530
956.701798	2991.254334
957.002087	2949.989969
957.302337	2923.360074
957.602550	2895.182545
957.902724	2864.557535
958.202861	2840.833865
958.502960	2819.620690
958.803022	2799.985396
959.103045	2779.911521
959.403031	2764.432658
959.702979	2747.325502
960.002889	2736.292937
960.302762	2723.594271
960.602596	2709.184132
960.902393	2701.574511
961.202153	2696.034283
961.501875	2686.821574
961.801559	2679.801767
962.101205	2673.815397
962.400814	2668.002947
962.700385	2663.027328
962.999918	2656.529281
963.299414	2649.509474
963.598873	2645.688279
963.898293	2639.180150
964.197677	2641.184008
964.497022	2640.410191
964.796331	2635.250570
965.095601	2632.495580
965.394835	2633.599592
965.694030	2630.716052
965.993189	2628.913840
966.292309	2627.096504
966.591393	2626.085753
966.890439	2626.335290
967.189447	2624.948972
967.488419	2626.466360
967.787353	2627.489714
968.086249	2629.213788
968.385108	2632.515744
968.683930	2633.592031
968.982714	2639.235602
969.281462	2640.342136
969.580172	2646.504946
969.878844	2652.390493
970.177480	2660.471463
970.476078	2667.584531
970.774639	2674.944616
971.073162	2685.160514
971.371649	2690.224353
971.670098	2695.789787
971.968510	2701.977803
972.266885	2704.223637
972.565223	2707.681869
972.863524	2711.308979
973.161788	2714.406768
973.460014	2715.651933
973.758204	2720.357850
974.056356	2719.377346
974.354471	2724.415979
974.652550	2724.184086
974.950591	2722.117213
975.248595	2717.602859
975.546563	2719.183261
975.844493	2714.668908
976.142386	2708.140614
976.440243	2702.388657
976.738062	2700.626774
977.035845	2692.896164
977.333590	2687.852490
977.631299	2682.471058
977.928971	2679.469051
978.226606	2669.497649
978.524204	2666.795590
978.821765	2661.840136
979.119290	2665.651248
979.416777	2663.165960
979.714228	2664.280055
980.011642	2668.529747
980.309020	2679.232117
980.606360	2693.201154
980.903664	2719.095041
981.200931	2751.905391
981.498162	2801.159984
981.795356	2874.448279
982.092513	2966.456898
982.389633	3069.379616
982.686717	3162.043585
982.983764	3237.345821
983.280775	3289.456228
983.577749	3292.281795
983.874686	3281.465999
984.171587	3244.242119
984.468451	3207.522355
984.765279	3162.875376
985.062070	3115.657408
985.358824	3071.136458
985.655543	3015.139321
985.952224	2964.511013
986.248869	2900.004408
986.545478	2842.242868
986.842050	2789.164559
987.138586	2743.027919
987.435086	2704.652135
987.731549	2673.076868
988.027975	2649.864875
988.324366	2631.658748
988.620719	2620.129629
988.917037	2605.868205
989.213318	2598.631629
989.509563	2590.051585
989.805772	2585.920359
990.101944	2581.015317
990.398080	2580.284349
990.694180	2577.642785
990.990244	2578.013309
991.286271	2579.843248
991.582262	2576.579101
991.878217	2582.278126
992.174136	2583.112437
992.470019	2585.630493
992.765865	2591.188365
993.061676	2593.416555
993.357450	2605.812752
993.653188	2612.930862
993.948890	2627.956021
994.244556	2645.345481
994.540186	2670.447906
994.835780	2700.099973
995.131337	2738.959708
995.426859	2777.199380
995.722345	2827.777277
996.017795	2878.753424
996.313208	2917.598035
996.608586	2943.128959
996.903928	2954.809313
997.199234	2955.547842
997.494504	2950.121039
997.789738	2937.679472
998.084936	2914.084351
998.380099	2884.023951
998.675225	2854.208046
998.970316	2823.946000
999.265371	2783.374794
999.560390	2751.149218
999.855373	2719.614280
1000.150320	2693.584282
1000.445232	2664.610250
1000.740108	2644.090233
1001.034948	2628.964251
1001.329752	2615.637961
1001.624521	2599.531475
1001.919254	2588.703076
1002.213951	2583.712334
1002.508613	2570.249932
1002.803239	2565.854046
1003.097829	2561.264076
1003.392384	2557.805844
1003.686903	2552.900802
1003.981386	2547.335368
1004.275834	2545.041643
1004.570246	2541.003678
1004.864623	2539.695499
1005.158964	2539.088040
1005.453270	2537.356404
1005.747540	2533.988913
1006.041775	2534.049407
1006.335974	2531.133099
1006.630138	2531.095291
1006.924266	2528.746113
1007.218359	2526.517923
1007.512416	2525.998684
1007.806438	2523.044568
1008.100425	2526.646472
1008.394376	2522.026255
1008.688292	2526.832995
1008.982172	2526.729651
1009.276017	2527.253931
1009.569827	2526.389373
1009.863602	2521.592716
1010.157341	2522.056502
1010.451045	2520.909639
1010.744714	2519.276305
1011.038347	2521.000380
1011.331945	2519.319155
1011.625508	2518.101717
1011.919036	2517.781603
1012.212528	2517.698424
1012.505986	2516.748167
1012.799408	2517.040554
1013.092795	2513.841942
1013.386147	2514.769514
1013.679464	2513.078207
1013.972745	2511.633916
1014.265992	2512.969822
1014.559204	2509.786333
1014.852380	2513.000069
1015.145521	2513.864627
1015.438628	2511.495284
1015.731699	2513.418485
1016.024736	2516.276819
1016.317737	2512.178361
1016.610703	2516.508712
1016.903635	2516.664988
1017.196531	2518.971316
1017.489393	2519.591378
1017.782219	2522.984074
1018.075011	2522.230422
1018.367768	2523.241173
1018.660490	2525.776873
1018.953177	2525.776873
1019.245829	2525.776873
