Dividing Wavelength (nm)	Counts (n)	Blue Motor Position (mm): 48.900000	Red Motor Position (mm): 0.000000	
326.493990	2131.041924
326.888308	2131.041924
327.282561	2131.041924
327.676750	2095.816862
328.070874	2095.958014
328.464933	2098.402974
328.858929	2105.528645
329.252859	2116.997270
329.646726	2125.559669
330.040528	2139.412760
330.434265	2156.973620
330.827938	2171.232523
331.221547	2191.848322
331.615091	2209.822556
332.008571	2231.912892
332.401986	2250.398803
332.795338	2268.942688
333.188625	2289.132509
333.581847	2307.018523
333.975006	2324.980154
334.368100	2342.636795
334.761129	2359.015504
335.154095	2378.295397
335.546996	2400.466392
335.939833	2425.435227
336.332606	2439.255550
336.725315	2453.413630
337.117960	2459.931842
337.510540	2470.964407
337.903056	2481.172744
338.295508	2490.269506
338.687896	2495.540032
339.080220	2504.349449
339.472480	2513.736077
339.864676	2513.970491
340.256807	2521.401152
340.648875	2525.219826
341.040879	2526.220495
341.432818	2528.151257
341.824694	2531.317101
342.216506	2530.601258
342.608253	2530.276103
342.999937	2530.591175
343.391557	2530.586134
343.783113	2533.169725
344.174605	2525.681091
344.566033	2527.238808
344.957397	2526.175124
345.348697	2521.615401
345.739934	2521.368384
346.131106	2520.284536
346.522215	2518.018537
346.913260	2512.793382
347.304241	2517.128774
347.695159	2513.153824
348.086012	2513.907477
348.476802	2509.567043
348.867528	2509.463699
349.258191	2508.110150
349.648789	2504.465395
350.039324	2502.907679
350.429796	2503.273162
350.820203	2501.344921
351.210548	2500.918944
351.600828	2498.965497
351.991045	2500.896258
352.381198	2500.956752
352.771288	2502.348111
353.161314	2497.029693
353.551276	2498.060609
353.941175	2498.453819
354.331010	2498.947853
354.720782	2500.087153
355.110490	2499.754437
355.500135	2499.933398
355.889717	2498.547081
356.279235	2497.987513
356.668689	2499.076402
357.058080	2498.753768
357.447408	2497.392657
357.836672	2496.838130
358.225873	2501.843995
358.615010	2497.218737
359.004084	2504.528410
359.393095	2501.531444
359.782043	2505.309789
360.170927	2505.743328
360.559748	2503.124448
360.948505	2504.241064
361.337199	2504.621671
361.725830	2505.332474
362.114398	2509.317506
362.502903	2506.897752
362.891344	2505.082937
363.279722	2507.651405
363.668037	2510.197187
364.056289	2507.810201
364.444478	2510.179543
364.832603	2510.829852
365.220665	2510.449245
365.608665	2512.662312
365.996601	2512.309431
366.384474	2514.245234
366.772284	2515.283712
367.160031	2515.296314
367.547715	2515.442508
367.935336	2517.617766
368.322893	2519.316635
368.710388	2517.164062
369.097820	2527.311905
369.485189	2525.658406
369.872495	2528.993129
370.259738	2535.972607
370.646918	2538.780530
371.034035	2543.229348
371.421090	2553.256203
371.808081	2563.474622
372.195010	2566.368244
372.581875	2579.744946
372.968678	2593.222471
373.355418	2600.859819
373.742096	2615.136366
374.128710	2629.352420
374.515262	2641.804070
374.901751	2658.870897
375.288177	2671.866991
375.674540	2692.266020
376.060841	2710.136911
376.447079	2725.333469
376.833254	2747.895153
377.219367	2759.862852
377.605417	2795.445837
377.991404	2806.269194
378.377329	2831.749706
378.763191	2846.931141
379.148991	2885.259033
379.534727	2909.653177
379.920402	2940.804987
380.306013	2954.723613
380.691563	3005.969462
381.077049	3024.316742
381.462474	3046.182747
381.847835	3088.861155
382.233134	3112.783951
382.618371	3113.250257
383.003545	3178.775175
383.388657	3191.733461
383.773706	3225.705797
384.158693	3245.041142
384.543618	3273.107766
384.928480	3310.278714
385.313280	3358.300746
385.698017	3359.228318
386.082692	3415.094385
386.467305	3419.094541
386.851856	3455.373204
387.236344	3476.258705
387.620770	3508.209538
388.005133	3531.663506
388.389435	3563.579051
388.773674	3574.508273
389.157851	3620.738174
389.541965	3635.624701
389.926018	3597.455605
390.310008	3670.035617
390.693936	3689.101261
391.077802	3729.889237
391.461606	3722.448494
391.845348	3782.362607
392.229027	3784.492495
392.612645	3794.511788
392.996200	3874.277965
393.379694	3915.940581
393.763125	3978.982731
394.146494	3948.859316
394.529801	4008.700333
394.913047	4061.221594
395.296230	4023.581819
395.679351	4077.260025
396.062410	4102.236422
396.445408	4083.765634
396.828343	4116.230665
397.211217	4140.750837
397.594028	4058.968198
397.976778	4128.964619
398.359466	4148.587311
398.742092	4179.908000
399.124656	4105.419910
399.507158	4183.419163
399.889598	4208.496383
400.271977	4271.702370
400.654294	4242.647680
401.036549	4248.150099
401.418742	4219.334864
401.800874	4324.170699
402.182944	4345.721632
402.564952	4410.397115
402.946898	4395.566041
403.328783	4391.255854
403.710606	4305.026918
404.092367	4499.093697
404.474067	4464.103048
404.855705	4473.618226
405.237282	4401.726331
405.618797	4510.900079
406.000250	4539.412845
406.381642	4625.666987
406.762972	4588.571657
407.144240	4597.277729
407.525447	4593.088531
407.906593	4654.837624
408.287677	4699.343451
408.668700	4629.251248
409.049661	4678.417621
409.430560	4721.998396
409.811399	4648.629443
410.192176	4806.989729
410.572891	4748.298096
410.953545	4850.177294
411.334138	4733.116661
411.714669	4802.286333
412.095139	4692.336247
412.475547	4837.413093
412.855894	4816.734280
413.236180	4825.054704
413.616405	4780.175832
413.996568	4866.578688
414.376670	4806.929236
414.756711	4759.870064
415.136691	4795.359787
415.516609	4870.059605
415.896466	4906.779370
416.276262	4945.760092
416.655997	4919.321761
417.035670	5106.978713
417.415283	5196.539852
417.794834	5141.992047
418.174324	5088.762503
418.553753	5002.883927
418.933121	5189.908214
419.312428	5257.704171
419.691674	5195.120767
420.070859	5323.793698
420.449983	5237.252210
420.829045	5349.490980
421.208047	5253.179736
421.586988	5326.871323
421.965867	5337.901367
422.344686	5467.718641
422.723444	5322.568698
423.102141	5144.925998
423.480777	5439.649496
423.859352	5203.675605
424.237866	5474.047809
424.616319	5463.105985
424.994712	5569.048353
425.373044	5449.512513
425.751314	5590.243885
426.129524	5394.596704
426.507673	5583.579479
426.885762	5669.528632
427.263789	5603.423982
427.641756	5480.210620
428.019662	5607.409014
428.397508	5614.360765
428.775292	5557.055448
429.153016	5657.485315
429.530679	5584.945632
429.908282	5669.858827
430.285824	5541.926946
430.663305	5819.555891
431.040726	5552.268873
431.418086	5548.969438
431.795385	5656.451879
432.172624	5670.131050
432.549802	5665.349515
432.926920	5674.494168
433.303977	5680.795611
433.680974	5724.129369
434.057910	5741.980095
434.434786	5747.124593
434.811601	5712.007915
435.188355	5945.423420
435.565050	5821.965563
435.941683	5800.281039
436.318257	6019.699781
436.694770	6003.507595
437.071222	6038.528491
437.447614	5973.200178
437.823946	5884.130551
438.200218	6036.058325
438.576429	5902.152676
438.952580	6000.727398
439.328670	6048.366302
439.704700	5952.453309
440.080670	5937.881854
440.456580	6207.838163
440.832429	6093.378765
441.208218	5938.287667
441.583947	6094.838179
441.959616	6097.305824
442.335224	6025.534917
442.710773	6159.344784
443.086261	6188.099525
443.461689	5980.061188
443.837057	6131.278160
444.212365	6284.430934
444.587612	6177.424882
444.962800	6337.027813
445.337927	6314.158618
445.712995	5921.994658
446.088002	6504.184913
446.462949	6333.574622
446.837837	6261.927223
447.212664	6438.455828
447.587431	6581.864052
447.962139	7125.045858
448.336786	8052.141777
448.711374	7790.276520
449.085901	6860.546598
449.460369	6784.412573
449.834776	6717.743313
450.209124	7108.117664
450.583412	7260.693226
450.957640	7407.955412
451.331808	7170.272570
451.705917	6721.423355
452.079965	6647.242776
452.453954	6857.199272
452.827883	6731.732515
453.201752	6828.994017
453.575562	6622.936853
453.949311	6833.833524
454.323001	6720.778088
454.696632	6794.636032
455.070202	6929.159223
455.443713	7086.004642
455.817164	7190.800149
456.190556	7270.934330
456.563888	7347.080959
456.937160	7388.569655
457.310373	7045.088117
457.683526	7070.959319
458.056619	6961.200797
458.429653	6950.707635
458.802628	6885.296143
459.175542	6990.515106
459.548398	7350.937442
459.921194	7507.046853
460.293930	7513.922987
460.666607	8041.010909
461.039224	8350.615893
461.411782	8483.679670
461.784280	8495.170980
462.156719	8383.915235
462.529099	8266.259746
462.901419	7854.316818
463.273680	7740.144766
463.645882	7762.343487
464.018024	7627.865667
464.390106	7795.448744
464.762130	8183.708331
465.134094	8649.490782
465.505999	9670.911730
465.877845	10899.577033
466.249631	11551.960314
466.621358	11167.335399
466.993026	10533.206136
467.364634	10276.699626
467.736184	9911.762937
468.107674	9579.397143
468.479105	9615.390982
468.850477	9374.015495
469.221790	9152.413933
469.593043	8821.046288
469.964238	8679.926748
470.335373	8694.757823
470.706449	8751.695135
471.077467	8734.315757
471.448425	10041.902844
471.819324	11118.847061
472.190164	11143.644497
472.560945	9891.043795
472.931667	9095.889996
473.302330	8966.297054
473.672934	8612.793702
474.043479	8969.223444
474.413965	8909.936954
474.784393	8794.955796
475.154761	8946.737377
475.525070	9037.548722
475.895321	8864.211168
476.265513	9042.547026
476.635645	9215.022543
477.005719	9213.094302
477.375734	9323.576230
477.745691	9558.733454
478.115588	9697.428199
478.485427	9942.133368
478.855207	10486.749383
479.224928	11288.333174
479.594591	11926.152561
479.964194	11742.997360
480.333739	11675.781135
480.703226	11593.093609
481.072653	11683.335304
481.442022	11917.002867
481.811333	12111.714914
482.180584	11915.540932
482.549777	11628.495112
482.918912	11446.801845
483.287988	11461.746346
483.657005	11478.490538
484.025964	11169.457725
484.394864	11292.892897
484.763706	11264.765780
485.132489	11019.231340
485.501213	10978.140895
485.869879	11061.052753
486.238487	10894.664429
486.607036	11008.360092
486.975527	10789.596700
487.343959	10987.701444
487.712333	11039.746316
488.080648	10962.858638
488.448905	11004.107879
488.817104	10939.596233
489.185244	11210.966586
489.553326	11362.329751
489.921350	11910.086404
490.289315	12971.448414
490.657222	13314.491372
491.025070	13221.156929
491.392861	13099.796191
491.760593	12712.781769
492.128267	12356.614168
492.495883	12033.264478
492.863440	11691.746469
493.230939	11350.843482
493.598380	11283.123141
493.965763	11157.979018
494.333088	11057.347505
494.700354	10978.163581
495.067563	11041.140195
495.434713	10872.490914
495.801805	10992.724953
496.168839	10922.000086
496.535815	10863.613442
496.902733	10857.231341
497.269593	10787.118973
497.636395	10889.651001
498.003139	10883.137831
498.369825	10749.953067
498.736453	10902.982333
499.103023	10831.718061
499.469535	10863.258040
499.835989	10846.050062
500.202385	10810.668723
500.568723	10659.857565
500.935003	10894.523277
501.301226	10690.543068
501.667390	10953.184663
502.033497	11051.812318
502.399546	10899.745912
502.765537	10817.953191
503.131470	10885.907945
503.497345	11056.351877
503.863163	10675.175111
504.228923	10982.110804
504.594625	11050.693182
504.960269	10797.675149
505.325856	11011.568787
505.691385	10810.759464
506.056856	10960.612803
506.422270	10985.644653
506.787625	10875.046779
507.152924	10990.516928
507.518164	10972.283075
507.883347	10896.149049
508.248472	10813.680813
508.613540	11045.566328
508.978550	10927.898236
509.343503	10905.699515
509.708398	11026.795592
510.073236	11141.141564
510.438016	11139.467901
510.802738	11093.767321
511.167403	11146.490228
511.532010	11043.360823
511.896561	11276.050402
512.261053	11347.992709
512.625488	11218.440096
512.989866	11197.511746
513.354186	11186.201917
513.718449	11089.721795
514.082655	11278.757502
514.446803	11178.635146
514.810894	11300.479834
515.174927	11160.393730
515.538904	11189.861795
515.902822	11334.621048
516.266684	11221.948739
516.630488	11164.356077
516.994235	11220.201980
517.357925	11279.967379
517.721558	11370.440967
518.085133	11391.533155
518.448651	11402.268292
518.812112	11281.356217
519.175516	11289.769903
519.538863	11419.446024
519.902152	11337.620535
520.265385	11495.355718
520.628560	11404.945145
520.991678	11387.157433
521.354739	11443.197420
521.717743	11379.389015
522.080690	11362.551561
522.443580	11494.879329
522.806413	11444.787904
523.169189	11480.227216
523.531908	11545.129551
523.894569	11357.848165
524.257174	11362.975018
524.619722	11483.428348
524.982213	11428.986407
525.344647	11486.879018
525.707025	11427.915162
526.069345	11520.480829
526.431608	11440.744899
526.793815	11549.321270
527.155964	11333.262457
527.518057	11396.755790
527.880093	11338.875782
528.242072	11402.916080
528.603995	11313.748151
528.965860	11239.376008
529.327669	11286.863677
529.689421	11240.646379
530.051117	11203.374608
530.412755	11316.704788
530.774337	11198.817405
531.135862	11175.310505
531.497331	11206.782428
531.858743	11062.010572
532.220098	11227.012578
532.581396	11092.365880
532.942638	11077.524723
533.303824	11035.552076
533.664953	11052.850795
534.026025	10967.793927
534.387040	11065.819164
534.747999	11069.602550
535.108902	11131.775100
535.469748	10881.693540
535.830537	10992.858544
536.191270	10973.689557
536.551947	10989.453245
536.912567	10996.205870
537.273131	10912.832747
537.633638	10894.462783
537.994089	10885.542461
538.354483	10829.656229
538.714821	10974.937242
539.075103	10987.451907
539.435328	10944.980185
539.795497	10775.541963
540.155609	10932.881416
540.515665	11022.384582
540.875665	10758.424726
541.235609	10826.853348
541.595496	10824.055507
541.955328	10974.092849
542.315102	10859.053718
542.674821	10811.193003
543.034483	10811.170318
543.394090	10813.796759
543.753640	10739.631304
544.113134	10972.857766
544.472571	10819.591566
544.831953	10962.861158
545.191278	10771.594740
545.550548	10797.173555
545.909761	10934.615573
546.268918	10911.433827
546.628019	10994.189409
546.987064	10860.079593
547.346053	10787.053438
547.704986	10878.772191
548.063863	10868.853721
548.422684	10856.686896
548.781449	10777.954156
549.140158	10878.227747
549.498811	10752.508932
549.857408	10605.581982
550.215949	10835.115799
550.574434	10686.220279
550.932864	10787.854982
551.291237	10853.868891
551.649555	10799.278236
552.007817	10807.883486
552.366022	10772.459298
552.724173	10762.336661
553.082267	10747.200597
553.440305	10888.937678
553.798288	10688.088027
554.156215	10835.947589
554.514086	10815.283900
554.871902	10665.496096
555.229661	10702.999760
555.587365	10675.762405
555.945014	10568.438761
556.302606	10698.503050
556.660143	10591.096227
557.017625	10749.098591
557.375050	10641.994236
557.732421	10776.988775
558.089735	10688.193891
558.446994	10689.073572
558.804197	10734.063350
559.161345	10736.805737
559.518437	10577.192724
559.875474	10657.321865
560.232455	10695.866527
560.589381	10641.558177
560.946251	10643.471294
561.303065	10747.268652
561.659825	10690.308655
562.016528	10617.494229
562.373177	10503.322176
562.729770	10615.916348
563.086307	10528.401917
563.442789	10618.573036
563.799216	10497.103913
564.155587	10549.385720
564.511904	10500.995684
564.868164	10491.372121
565.224370	10509.059009
565.580520	10431.558831
565.936615	10435.503534
566.292654	10308.524430
566.648638	10433.474469
567.004567	10389.878571
567.360441	10378.427590
567.716260	10287.336460
568.072023	10383.778775
568.427732	10330.544190
568.783385	10235.556249
569.138982	10312.015429
569.494525	10328.182409
569.850013	10206.355365
570.205445	10286.555082
570.560823	10182.843423
570.916145	10098.953582
571.271412	10171.662144
571.626625	10112.506724
571.981782	10089.549310
572.336884	10064.041071
572.691931	10067.814375
573.046923	10014.915027
573.401860	9969.950455
573.756743	9908.834027
574.111570	9949.183422
574.466342	9933.760012
574.821059	9963.903591
575.175722	9843.808183
575.530330	9860.562458
575.884882	9857.678918
576.239380	9778.948698
576.593823	9763.457232
576.948211	9770.550136
577.302544	9656.075614
577.656823	9675.539509
578.011047	9671.204117
578.365216	9652.521601
578.719330	9573.388088
579.073389	9583.485519
579.427394	9534.805617
579.781344	9508.828551
580.135239	9451.772772
580.489080	9466.624011
580.842866	9361.710038
581.196597	9371.734372
581.550273	9408.791894
581.903895	9383.155107
582.257463	9452.223955
582.610975	9326.240480
582.964434	9351.647895
583.317837	9272.869784
583.671186	9256.811188
584.024481	9246.141586
584.377721	9163.474225
584.730906	9145.865474
585.084037	9179.074075
585.437113	9109.647305
585.790135	9135.049679
586.143103	9027.683184
586.496016	9009.749279
586.848874	9065.191889
587.201679	9047.247902
587.554428	8938.951315
587.907124	8984.604004
588.259765	8948.723592
588.612352	8952.103685
588.964884	8831.415942
589.317362	8844.442283
589.669786	8840.071603
590.022155	8893.359119
590.374470	8910.665401
590.726731	8846.468827
591.078937	8693.762195
591.431090	8811.732756
591.783188	8681.265174
592.135232	8678.142179
592.487222	8678.195112
592.839157	8734.368689
593.191038	8664.067278
593.542866	8606.835058
593.894639	8505.681786
594.246358	8558.606339
594.598022	8571.541940
594.949633	8468.599058
595.301190	8447.451418
595.652692	8478.051222
596.004141	8591.391483
596.355535	8369.222792
596.706876	8343.696910
597.058162	8279.787682
597.409395	8359.001853
597.760573	8421.058457
598.111698	8326.204106
598.462768	8311.405799
598.813785	8280.006972
599.164748	8242.755366
599.515657	8235.596927
599.866511	8149.713310
600.217312	8271.522710
600.568060	8131.855022
600.918753	8237.179850
601.269392	8203.119294
601.619978	8114.901622
601.970510	8184.565327
602.320988	8171.297010
602.671412	8232.496618
603.021783	8169.867843
603.372100	8135.845096
603.722363	8140.646795
604.072572	8120.971171
604.422728	8130.400649
604.772830	8059.852222
605.122878	8066.166267
605.472872	8059.065802
605.822813	8090.126871
606.172701	8031.936833
606.522534	8109.840303
606.872314	8106.651774
607.222041	8076.634223
607.571714	8133.064899
607.921333	8087.313907
608.270899	8096.269517
608.620411	8189.946759
608.969870	8093.617870
609.319276	8086.746778
609.668627	8101.517358
610.017926	8133.828634
610.367171	8183.637755
610.716362	8155.621542
611.065500	8155.374526
611.414585	8182.105244
611.763616	8170.397164
612.112594	8148.062332
612.461518	8164.889703
612.810389	8226.348931
613.159207	8161.993561
613.507971	8117.943958
613.856682	8227.636945
614.205340	8187.090945
614.553945	8271.318543
614.902496	8166.016401
615.250994	8217.463897
615.599439	8203.147020
615.947830	8214.222435
616.296169	8185.339144
616.644454	8201.420425
616.992686	8198.352883
617.340864	8255.350689
617.688990	8157.547263
618.037063	8253.664423
618.385082	8197.664765
618.733048	8280.876571
619.080961	8224.748364
619.428821	8239.619768
619.776628	8245.485151
620.124382	8191.007922
620.472083	8175.844131
620.819731	8211.205304
621.167326	8097.683561
621.514868	8108.728729
621.862357	7992.066347
622.209793	8007.462031
622.557176	7950.466745
622.904506	7911.496105
623.251783	7850.014193
623.599007	7809.112791
623.946179	7808.744787
624.293297	7767.921523
624.640363	7688.041920
624.987376	7666.203642
625.334336	7607.070907
625.681243	7557.435706
626.028097	7548.417082
626.374899	7524.166611
626.721647	7514.565734
627.068343	7448.382946
627.414987	7423.530057
627.761577	7380.949951
628.108115	7409.639158
628.454600	7305.312479
628.801032	7355.615633
629.147412	7315.866134
629.493739	7307.223076
629.840014	7241.713282
630.186236	7303.109495
630.532405	7186.923501
630.878521	7242.517346
631.224585	7188.710590
631.570597	7117.295084
631.916556	7147.007645
632.262462	7145.545711
632.608316	7103.542817
632.954117	7081.704538
633.299866	7068.509318
633.645562	7059.752834
633.991206	6982.373643
634.336797	6927.301558
634.682336	6880.572582
635.027823	6849.224167
635.373257	6844.198137
635.718639	6769.541169
636.063968	6784.891482
636.409245	6678.064391
636.754470	6673.108937
637.099642	6638.453525
637.444762	6580.170224
637.789829	6592.843685
638.134845	6532.944695
638.479808	6514.978023
638.824719	6521.897007
639.169577	6443.139060
639.514383	6472.856662
639.859137	6395.321195
640.203839	6403.152628
640.548489	6392.596452
640.893086	6367.579726
641.237632	6340.009655
641.582125	6354.107242
641.926566	6327.016081
642.270955	6342.439491
642.615292	6333.899777
642.959576	6348.607343
643.303809	6343.198185
643.647990	6349.431572
643.992118	6339.762639
644.336195	6287.145595
644.680219	6312.091745
645.024192	6302.243851
645.368112	6397.289766
645.711981	6421.116779
646.055797	6495.758624
646.399562	6452.593744
646.743274	6583.204999
647.086935	6632.739377
647.430544	6626.503469
647.774101	6646.494165
648.117606	6653.481204
648.461059	6645.541387
648.804460	6607.805830
649.147810	6519.285689
649.491108	6487.801162
649.834354	6462.476926
650.177548	6378.004832
650.520690	6292.111132
650.863781	6273.209326
651.206820	6287.705163
651.549807	6214.817641
651.892742	6149.275079
652.235626	6163.022305
652.578458	6144.357433
652.921238	6054.198917
653.263967	6094.260967
653.606644	6033.762080
653.949269	6035.927255
654.291843	5978.269058
654.634365	6025.734042
654.976836	5977.039017
655.319255	5977.212936
655.661622	5956.443383
656.003938	5950.646056
656.346203	5911.929994
656.688416	5945.516682
657.030577	5894.623713
657.372687	5867.623293
657.714746	5852.020922
658.056753	5899.669908
658.398708	5839.186144
658.740612	5831.291697
659.082465	5876.687288
659.424266	5870.562286
659.766016	5865.493405
660.107715	5843.519016
660.449362	5856.787333
660.790958	5851.181570
661.132503	5835.193550
661.473996	5878.365992
661.815438	5858.587025
662.156829	5861.412591
662.498168	5851.032856
662.839456	5829.063507
663.180693	5863.844948
663.521879	5866.322675
663.863013	5853.152661
664.204097	5875.452205
664.545129	5911.302370
664.886110	5906.301546
665.227040	5944.304284
665.567918	5908.665847
665.908746	5934.385814
666.249522	5940.278923
666.590248	5926.597231
666.930922	5955.377178
667.271545	5968.083407
667.612118	5971.607173
667.952639	5942.509633
668.293109	5962.349094
668.633528	5923.746459
668.973896	5922.576911
669.314213	5915.577269
669.654480	5898.200412
669.994695	5892.443414
670.334859	5883.623915
670.674973	5871.136977
671.015035	5879.643924
671.355047	5874.287698
671.695008	5864.911152
672.034918	5835.289332
672.374777	5846.604202
672.714585	5832.287325
673.054342	5833.371173
673.394049	5828.461089
673.733705	5865.495926
674.073310	5847.022618
674.412864	5810.005425
674.752368	5798.156193
675.091820	5802.279857
675.431223	5733.770576
675.770574	5739.462039
676.109875	5687.848185
676.449125	5697.718764
676.788324	5666.030071
677.127473	5604.036482
677.466571	5594.559112
677.805619	5586.029480
678.144616	5570.956430
678.483562	5549.957504
678.822458	5519.443400
679.161303	5516.564901
679.500098	5505.365978
679.838842	5489.224203
680.177535	5494.734184
680.516179	5506.480072
680.854771	5518.369634
681.193314	5600.255616
681.531805	5708.748809
681.870247	5857.745152
682.208638	5965.540145
682.546978	5974.510878
682.885268	5953.106139
683.223508	5868.901225
683.561697	5808.435106
683.899836	5785.926354
684.237925	5736.371811
684.575963	5701.033323
684.913951	5665.498229
685.251889	5721.329008
685.589776	5690.721643
685.927614	5664.394217
686.265401	5734.128498
686.603137	5722.140634
686.940824	5793.624196
687.278460	5818.683771
687.616046	5830.545606
687.953582	5896.879629
688.291068	5879.590992
688.628504	5942.290343
688.965889	5900.602521
689.303224	5848.212330
689.640510	5798.085617
689.977745	5724.192384
690.314930	5624.881653
690.652065	5569.537345
690.989150	5477.259024
691.326185	5401.344288
691.663170	5346.246997
692.000105	5272.184886
692.336990	5190.639181
692.673825	5168.321993
693.010610	5098.474286
693.347345	5033.118247
693.684030	5015.091081
694.020665	4976.170853
694.357251	4882.649887
694.693786	4894.783944
695.030272	4858.114591
695.366707	4822.219055
695.703093	4789.529693
696.039429	4818.574301
696.375716	4796.307524
696.711952	4772.372126
697.048139	4761.886526
697.384276	4741.623608
697.720363	4751.395885
698.056400	4757.001648
698.392388	4707.265624
698.728326	4689.641750
699.064214	4664.516639
699.400053	4660.924817
699.735842	4629.160507
700.071581	4606.498000
700.407270	4574.698401
700.742910	4558.165937
701.078501	4502.824150
701.414042	4506.156353
701.749533	4472.773832
702.084974	4404.153646
702.420366	4465.743943
702.755709	4405.466867
703.091002	4347.854040
703.426246	4395.419847
703.761440	4355.108260
704.096584	4316.641736
704.431679	4340.004963
704.766725	4324.884023
705.101721	4309.823575
705.436668	4339.485725
705.771565	4291.279691
706.106413	4316.346828
706.441212	4348.574925
706.775961	4357.485164
707.110661	4337.295343
707.445311	4362.906925
707.779913	4388.009351
708.114465	4398.124426
708.448967	4422.445473
708.783421	4484.623064
709.117825	4527.586298
709.452180	4531.190723
709.786485	4574.532043
710.120742	4665.454294
710.454949	4645.398063
710.789107	4710.938105
711.123216	4789.648160
711.457275	4780.054844
711.791286	4854.845403
712.125247	4871.077918
712.459159	4769.675109
712.793023	4849.227037
713.126837	4809.800173
713.460602	4799.732988
713.794318	4721.312799
714.127985	4727.624324
714.461602	4643.434534
714.795171	4612.701140
715.128691	4548.859967
715.462162	4489.457531
715.795584	4440.402063
716.128957	4424.691307
716.462281	4371.103842
716.795556	4343.793391
717.128782	4311.698885
717.461960	4237.359509
717.795088	4247.429214
718.128167	4208.493863
718.461198	4146.369203
718.794180	4141.875014
719.127113	4126.363384
719.459997	4103.998305
719.792833	4060.583888
720.125619	4051.668607
720.458357	4011.732587
720.791046	4017.076210
721.123686	3991.651150
721.456278	3951.140438
721.788821	3966.997387
722.121315	3941.531999
722.453761	3915.393616
722.786158	3928.409875
723.118506	3948.687917
723.450805	3901.888365
723.783056	3925.085234
724.115259	3939.515537
724.447412	3944.486115
724.779518	3938.867749
725.111574	3944.781022
725.443582	3974.120538
725.775542	3960.398517
726.107453	4010.376516
726.439315	4010.414325
726.771129	4024.700955
727.102895	4062.572623
727.434612	4110.062813
727.766281	4122.330461
728.097901	4120.591263
728.429473	4129.075525
728.760996	4132.599291
729.092471	4128.216008
729.423897	4111.358390
729.755276	4117.569091
730.086606	4121.962457
730.417887	4160.234897
730.749120	4222.319227
731.080305	4287.236686
731.411442	4311.923216
731.742530	4279.369965
732.073570	4287.536634
732.404562	4340.441023
732.735506	4331.694621
733.066401	4292.814722
733.397249	4230.495978
733.728048	4152.718536
734.058798	4067.936411
734.389501	3997.851770
734.720156	3937.796504
735.050762	3892.504257
735.381320	3883.881363
735.711831	3833.830268
736.042293	3805.254487
736.372707	3828.380780
736.703073	3794.670584
737.033391	3788.046508
737.363661	3805.972851
737.693883	3829.676357
738.024056	3838.707584
738.354182	3836.207172
738.684260	3898.097417
739.014290	3920.903597
739.344272	3914.070313
739.674207	3956.973053
740.004093	3964.481852
740.333931	3958.858445
740.663722	3959.319710
740.993464	3958.792910
741.323159	3932.203344
741.652806	3902.306781
741.982405	3879.704767
742.311956	3844.504911
742.641460	3834.735155
742.970915	3812.596927
743.300323	3770.704939
743.629683	3735.507603
743.958996	3722.120819
744.288260	3698.823126
744.617477	3667.111748
744.946647	3649.881084
745.275768	3626.049029
745.604842	3622.242958
745.933869	3578.677307
746.262847	3569.459557
746.591778	3603.101697
746.920662	3580.383737
747.249498	3546.912996
747.578286	3589.782969
747.907027	3608.042028
748.235720	3608.909106
748.564365	3632.582365
748.892963	3631.468270
749.221514	3614.368676
749.550017	3592.490068
749.878473	3592.003597
750.206881	3561.126530
750.535242	3559.440264
750.863555	3561.950758
751.191821	3550.169582
751.520039	3536.223230
751.848210	3513.354035
752.176334	3544.979714
752.504411	3554.270560
752.832440	3509.774816
753.160421	3493.133967
753.488356	3503.236439
753.816243	3518.271681
754.144082	3471.562870
754.471875	3458.637351
754.799620	3479.994200
755.127318	3465.941983
755.454969	3470.088332
755.782572	3475.492449
756.110129	3452.091413
756.437638	3441.953653
756.765100	3457.601394
757.092515	3464.434678
757.419882	3470.847026
757.747203	3447.292235
758.074477	3445.217800
758.401703	3461.667085
758.728882	3484.715240
759.056014	3491.377125
759.383099	3491.924090
759.710138	3491.866117
760.037129	3507.765916
760.364073	3538.222047
760.690970	3522.695293
761.017820	3500.317611
761.344623	3520.141949
761.671379	3566.767581
761.998088	3617.315230
762.324751	3744.523707
762.651366	3992.561079
762.977935	4468.882062
763.304456	4913.675668
763.630931	5009.596223
763.957359	4646.819669
764.283740	4305.924243
764.610074	4111.164305
764.936362	3911.426228
765.262602	3753.123915
765.588796	3640.444044
765.914943	3548.737894
766.241044	3462.014924
766.567097	3433.151798
766.893104	3384.371073
767.219064	3352.205991
767.544978	3325.104748
767.870845	3268.606016
768.196665	3253.643871
768.522438	3259.567227
768.848165	3254.263933
769.173846	3220.583984
769.499479	3203.426417
769.825066	3187.146011
770.150607	3168.420645
770.476101	3183.193746
770.801548	3180.325330
771.126949	3136.706746
771.452303	3118.775362
771.777611	3124.933131
772.102872	3127.783904
772.428087	3105.892693
772.753256	3092.846187
773.078378	3089.140939
773.403453	3054.321689
773.728482	3039.926675
774.053465	3063.206723
774.378401	3051.574261
774.703291	3013.626975
775.028135	3017.115453
775.352932	3014.698220
775.677683	3001.434944
776.002388	3001.392095
776.327046	3001.503000
776.651658	2989.658809
776.976224	2975.702375
777.300743	2980.982983
777.625216	2969.615181
777.949643	2963.170066
778.274024	2966.754327
778.598359	2956.054478
778.922647	2961.314922
779.246889	2961.995477
779.571086	2942.937395
779.895236	2937.041766
780.219339	2949.027109
780.543397	2962.464305
780.867409	2964.195941
781.191374	2956.966926
781.515294	2952.941565
781.839167	2953.390228
782.162995	2945.929320
782.486776	2956.500620
782.810511	2952.334106
783.134201	2939.441355
783.457844	2945.170626
783.781441	2934.964810
784.104993	2918.495361
784.428498	2915.422778
784.751958	2930.740323
785.075372	2927.453491
785.398739	2907.235944
785.722061	2926.137750
786.045337	2937.389605
786.368568	2923.460897
786.691752	2912.627458
787.014891	2961.289716
787.337983	2990.682163
787.661030	3019.532687
787.984031	3087.865527
788.306987	3135.960655
788.629897	3123.297277
788.952760	3110.747324
789.275579	3095.588575
789.598351	3037.557332
789.921078	2990.384735
790.243759	2984.398365
790.566395	2965.874645
790.888984	2942.781119
791.211529	2925.411824
791.534027	2913.252561
791.856480	2905.136303
792.178888	2891.409241
792.501249	2879.668394
792.823566	2876.709237
793.145836	2875.126314
793.468062	2870.954759
793.790241	2867.534337
794.112375	2875.655635
794.434464	2889.561658
794.756507	2894.784294
795.078505	2899.759913
795.400457	2912.261974
795.722364	2949.682459
796.044226	2973.827065
796.366042	2976.647591
796.687812	2966.446816
797.009538	2983.833756
797.331218	2974.016109
797.652852	2958.771659
797.974442	2941.246088
798.295986	2937.470264
798.617484	2930.238729
798.938938	2919.410330
799.260346	2900.170767
799.581709	2893.486197
799.903026	2888.697100
800.224299	2880.580843
800.545526	2872.149513
800.866708	2857.250383
801.187845	2848.624968
801.508936	2849.739063
801.829983	2854.334075
802.150984	2838.953515
802.471940	2828.717452
802.792851	2828.208295
803.113717	2827.066474
803.434538	2834.963442
803.755314	2827.419355
804.076045	2820.011379
804.396731	2821.760660
804.717372	2820.155052
805.037967	2817.349650
805.358518	2821.879127
805.679024	2835.351610
805.999485	2828.115034
806.319901	2833.425890
806.640272	2823.905671
806.960598	2831.613595
807.280879	2841.980728
807.601115	2847.957016
807.921306	2832.407577
808.241453	2831.893379
808.561554	2836.800942
808.881611	2838.257836
809.201623	2832.959583
809.521590	2830.592761
809.841513	2829.047647
810.161390	2834.439162
810.481223	2825.027327
810.801011	2817.195895
811.120755	2814.660194
811.440453	2817.894095
811.760107	2814.914773
812.079716	2812.883188
812.399281	2803.695685
812.718801	2798.992288
813.038276	2793.134467
813.357707	2799.819037
813.677093	2806.175932
813.996434	2798.813327
814.315731	2794.714869
814.634983	2786.361677
814.954191	2793.457101
815.273354	2806.924544
815.592473	2815.771769
815.911547	2817.518529
816.230577	2826.053202
816.549562	2835.686847
816.868502	2832.135354
817.187399	2842.154647
817.506250	2861.202647
817.825058	2854.200485
818.143821	2866.775643
818.462539	2882.405740
818.781213	2906.681417
819.099843	2945.775565
819.418429	3004.197497
819.736970	3066.884245
820.055466	3138.887045
820.373919	3243.785895
820.692327	3389.001373
821.010691	3562.152404
821.329011	4012.014891
821.647286	4922.648922
821.965517	6320.379402
822.283704	7078.274033
822.601847	7069.552837
822.919945	6426.644405
823.237999	5911.682978
823.556010	5316.262214
823.873976	4753.397223
824.191897	4334.923480
824.509775	4039.731155
824.827609	3760.458794
825.145398	3640.403715
825.463144	3622.976446
825.780845	3715.831979
826.098502	3824.930110
826.416116	4111.638174
826.733685	4430.534004
827.051210	4502.385570
827.368692	4381.314699
827.686129	4111.582721
828.003522	3779.453862
828.320872	3518.228831
828.638177	3316.708706
828.955439	3181.502439
829.272656	3097.912547
829.589830	3024.432688
829.906960	2976.345122
830.224046	2928.978440
830.541088	2898.151784
830.858086	2880.411964
831.175041	2860.151567
831.491952	2863.698018
831.808819	2878.808877
832.125642	2901.985582
832.442421	2947.479475
832.759157	3029.267155
833.075849	3211.472099
833.392497	3494.847959
833.709101	3701.197510
834.025662	3651.378307
834.342179	3492.486179
834.658653	3313.366421
834.975083	3159.810354
835.291469	3062.551373
835.607811	2972.970069
835.924110	2914.432191
836.240366	2861.273223
836.556578	2821.987512
836.872746	2795.191258
837.188871	2776.007147
837.504952	2756.850763
837.820990	2748.391707
838.136984	2734.084912
838.452935	2726.475290
838.768842	2724.910012
839.084706	2743.272415
839.400526	2824.334169
839.716303	2959.525312
840.032037	3039.649411
840.347727	3028.130375
840.663373	2964.213585
840.978977	2886.710886
841.294537	2812.759679
841.610054	2764.992226
841.925527	2741.656725
842.240957	2718.976574
842.556344	2698.209541
842.871687	2683.683456
843.186987	2670.455468
843.502244	2668.166784
843.817458	2661.419200
844.132629	2652.715648
844.447756	2642.789616
844.762840	2635.860550
845.077881	2635.358955
845.392879	2634.842237
845.707833	2632.601444
846.022745	2622.889661
846.337613	2627.645990
846.652438	2624.424692
846.967221	2626.443674
847.281960	2623.237501
847.596656	2621.319342
847.911309	2622.846811
848.225919	2621.997377
848.540485	2617.316665
848.855009	2614.080245
849.169490	2614.546551
849.483928	2615.973198
849.798323	2613.414812
850.112675	2612.199894
850.426984	2614.087806
850.741251	2613.008999
851.055474	2611.504215
851.369654	2616.868003
851.683792	2618.037550
851.997887	2612.683845
852.311938	2613.356839
852.625947	2613.709720
852.939914	2616.714247
853.253837	2615.595111
853.567718	2613.893722
853.881555	2612.925820
854.195350	2615.993362
854.509103	2615.723661
854.822812	2612.782147
855.136479	2612.683845
855.450103	2614.160903
855.763685	2616.671398
856.077224	2612.794750
856.390720	2611.400871
856.704173	2612.517487
857.017584	2620.676594
857.330953	2619.333127
857.644278	2622.148611
857.957561	2620.916049
858.270802	2617.631737
858.584000	2619.194495
858.897155	2622.302367
859.210268	2623.020731
859.523339	2617.011676
859.836367	2613.442539
860.149352	2609.432301
860.462295	2614.662498
860.775195	2612.943464
861.088054	2608.676128
861.400869	2611.105964
861.713642	2605.653956
862.026373	2607.861981
862.339062	2612.114195
862.651708	2617.692231
862.964312	2619.751543
863.276873	2616.694083
863.589392	2617.724999
863.901869	2622.400669
864.214303	2627.356123
864.526696	2628.571041
864.839045	2630.804272
865.151353	2633.425672
865.463619	2631.502472
865.775842	2637.158647
866.088023	2633.680251
866.400162	2635.434572
866.712258	2633.753347
867.024313	2635.381640
867.336325	2629.153295
867.648296	2631.930970
867.960224	2638.267701
868.272110	2637.035139
868.583954	2630.983233
868.895755	2631.061371
869.207515	2635.893317
869.519233	2642.361118
869.830909	2638.063534
870.142542	2631.746968
870.454134	2637.302320
870.765684	2642.222486
871.077191	2644.145686
871.388657	2646.623413
871.700081	2645.113588
872.011463	2646.036119
872.322803	2647.525780
872.634101	2650.096768
872.945357	2654.064156
873.256571	2662.389622
873.567744	2660.012718
873.878874	2657.552635
874.189963	2660.433654
874.501010	2663.975065
874.812015	2667.604696
875.122979	2669.187618
875.433900	2659.979950
875.744780	2659.795948
876.055618	2663.758295
876.366415	2669.411949
876.677169	2670.989830
876.987882	2663.667554
877.298554	2661.469611
877.609183	2675.925120
877.919771	2679.582477
878.230317	2687.817202
878.540822	2697.024869
878.851285	2713.133877
879.161707	2737.875860
879.472087	2776.634771
879.782425	2830.600323
880.092722	2944.515276
880.402977	3139.318064
880.713191	3406.474012
881.023363	3710.435424
881.333494	3906.264087
881.643583	4083.788319
881.953631	4081.381168
882.263637	3900.494486
882.573602	3675.096936
882.883526	3540.871173
883.193408	3423.624017
883.503248	3315.755928
883.813048	3198.032383
884.122806	3080.465113
884.432522	2993.895899
884.742197	2924.988367
885.051831	2886.325238
885.361424	2848.703106
885.670975	2812.089206
885.980485	2779.566202
886.289954	2758.448808
886.599382	2746.100502
886.908768	2737.001219
887.218113	2716.503888
887.527417	2703.291024
887.836680	2693.657379
888.145901	2689.616894
888.455082	2679.897549
888.764221	2669.999244
889.073319	2660.844508
889.382376	2661.063798
889.691392	2662.916422
890.000366	2662.003974
890.309300	2660.118582
890.618193	2661.411638
890.927044	2664.937925
891.235855	2664.131341
891.544625	2663.024807
891.853353	2663.826351
892.162041	2672.963442
892.470687	2692.785259
892.779293	2704.334542
893.087858	2714.815101
893.396381	2742.584297
893.704864	2781.444032
894.013306	2854.596215
894.321707	2949.836214
894.630068	3003.216992
894.938387	3024.291536
895.246665	3015.494723
895.554903	2973.307827
895.863100	2925.495003
896.171256	2866.712628
896.479371	2807.363124
896.787446	2763.792432
897.095480	2742.425501
897.403473	2732.973337
897.711425	2720.267109
898.019336	2701.856815
898.327207	2688.104548
898.635038	2681.412416
898.942827	2683.088600
899.250576	2673.780109
899.558284	2659.987512
899.865952	2656.027686
900.173579	2656.604898
900.481165	2650.225318
900.788711	2643.354225
901.096216	2635.968935
901.403681	2636.122690
901.711105	2633.957514
902.018489	2634.383492
902.325832	2635.732000
902.633135	2641.791467
902.940397	2655.142963
903.247619	2692.918850
903.554800	2763.915940
903.861941	2896.886455
904.169041	3026.459232
904.476101	3094.955910
904.783121	3089.549273
905.090100	3029.307484
905.397039	2948.054166
905.703938	2871.426107
906.010796	2807.078299
906.317614	2754.325145
906.624391	2713.915255
906.931129	2686.899712
907.237826	2661.822492
907.544483	2643.636530
907.851099	2632.482977
908.157675	2620.994187
908.464211	2612.915738
908.770707	2601.777309
909.077163	2599.120621
909.383578	2594.853284
909.689954	2591.395052
909.996289	2593.426637
910.302584	2592.360433
910.608839	2586.232911
910.915054	2588.992942
911.221229	2590.480083
911.527363	2591.611822
911.833458	2591.626945
912.139513	2593.156936
912.445527	2591.952100
912.751502	2600.670775
913.057436	2605.109511
913.363331	2612.618310
913.669186	2623.227418
913.975000	2638.260139
914.280775	2656.698159
914.586510	2674.818587
914.892205	2715.604042
915.197859	2783.412602
915.503475	2869.202958
915.809050	2941.261212
916.114585	2957.221505
916.420081	2970.683906
916.725536	2983.468272
917.030952	2948.583488
917.336328	2901.466343
917.641665	2852.776359
917.946961	2802.942032
918.252218	2764.241094
918.557435	2735.675396
918.862612	2712.821325
919.167750	2696.036803
919.472848	2680.290759
919.777906	2661.462050
920.082925	2648.337406
920.387904	2638.078657
920.692843	2631.764612
920.997743	2626.466360
921.302603	2619.731378
921.607423	2614.944802
921.912204	2606.195880
922.216946	2606.515993
922.521647	2603.191352
922.826310	2598.341762
923.130932	2594.518047
923.435516	2588.962696
923.740059	2586.653847
924.044564	2585.277612
924.349028	2582.310893
924.653454	2571.908472
924.957840	2573.806467
925.262186	2569.400498
925.566493	2570.544840
925.870761	2566.675754
926.174989	2567.220199
926.479178	2565.044941
926.783328	2563.935887
927.087438	2563.489745
927.391509	2560.336503
927.695541	2558.695608
927.999533	2557.697459
928.303486	2556.164949
928.607400	2554.816440
928.911275	2557.147974
929.215110	2557.389949
929.518906	2557.246276
929.822663	2554.801317
930.126381	2556.406924
930.430060	2555.877603
930.733699	2555.723848
931.037299	2557.591595
931.340861	2554.781152
931.644383	2558.614949
931.947866	2558.335165
932.251309	2558.650238
932.554714	2556.850546
932.858080	2557.374826
933.161407	2556.963972
933.464694	2555.141594
933.767943	2554.206460
934.071153	2556.767367
934.374323	2554.455998
934.677455	2554.992880
934.980548	2552.177396
935.283602	2555.459187
935.586617	2554.045143
935.889593	2553.420040
936.192530	2551.413661
936.495428	2553.493137
936.798287	2553.677139
937.101108	2554.773590
937.403890	2559.393808
937.706632	2562.287430
938.009336	2564.639128
938.312002	2569.700447
938.614628	2570.930488
938.917216	2575.099522
939.219765	2577.501632
939.522275	2577.161354
939.824747	2577.035326
940.127179	2571.013667
940.429573	2568.888821
940.731929	2566.758933
941.034246	2565.705332
941.336524	2568.437638
941.638763	2567.920919
941.940964	2567.439489
942.243126	2564.928995
942.545250	2564.603840
942.847335	2565.763306
943.149381	2562.128634
943.451389	2560.729713
943.753359	2561.553942
944.055290	2558.851884
944.357182	2558.844322
944.659036	2554.972716
944.960851	2558.967830
945.262628	2557.979764
945.564367	2557.226112
945.866067	2557.732747
946.167729	2558.824157
946.469352	2556.595967
946.770937	2557.558828
947.072484	2555.496996
947.373992	2558.630073
947.675462	2557.946997
947.976893	2556.633776
948.278286	2556.674105
948.579641	2552.956254
948.880958	2553.556152
949.182236	2551.887530
949.483476	2552.721841
949.784678	2552.444577
950.085841	2551.723692
950.386967	2557.679815
950.688054	2553.414999
950.989103	2557.357182
951.290114	2556.643858
951.591087	2558.889692
951.892021	2559.028324
952.192917	2559.555125
952.493776	2558.481359
952.794596	2559.819785
953.095378	2560.694425
953.396122	2563.227605
953.696828	2561.934549
953.997496	2558.761143
954.298126	2558.052861
954.598718	2558.226781
954.899272	2554.105637
955.199788	2553.142777
955.500266	2551.189330
955.800706	2548.492313
956.101108	2544.852599
956.401472	2545.639019
956.701798	2541.999306
957.002087	2541.112063
957.302337	2543.204142
957.602550	2545.901159
957.902724	2544.393854
958.202861	2542.112732
958.502960	2545.356715
958.803022	2542.014430
959.103045	2539.788760
959.403031	2542.778165
959.702979	2539.692978
960.002889	2541.696837
960.302762	2540.189532
960.602596	2542.216076
960.902393	2537.573173
961.202153	2540.083668
961.501875	2538.021836
961.801559	2538.462937
962.101205	2538.563760
962.400814	2541.611137
962.700385	2537.179963
962.999918	2538.720036
963.299414	2535.579397
963.598873	2539.062834
963.898293	2539.521579
964.197677	2537.893287
964.497022	2536.486805
964.796331	2537.724408
965.095601	2536.385982
965.394835	2538.760365
965.694030	2536.617875
965.993189	2539.337577
966.292309	2535.471012
966.591393	2535.592000
966.890439	2536.640560
967.189447	2535.793646
967.488419	2537.994110
967.787353	2535.685261
968.086249	2536.547298
968.385108	2536.685930
968.683930	2538.036959
968.982714	2535.624767
969.281462	2535.949922
969.580172	2535.549150
969.878844	2536.418749
970.177480	2538.369676
970.476078	2537.167360
970.774639	2540.101312
971.073162	2537.495035
971.371649	2535.733152
971.670098	2532.620240
971.968510	2537.026208
972.266885	2532.380785
972.565223	2538.712474
972.863524	2538.863709
973.161788	2538.974614
973.460014	2536.300282
973.758204	2538.503266
974.056356	2540.809594
974.354471	2538.404964
974.652550	2539.398071
974.950591	2538.193235
975.248595	2538.470499
975.546563	2540.444110
975.844493	2537.716846
976.142386	2539.272042
976.440243	2537.316074
976.738062	2537.101825
977.035845	2538.609130
977.333590	2535.309695
977.631299	2537.663914
977.928971	2536.257432
978.226606	2535.922195
978.524204	2538.014274
978.821765	2535.075282
979.119290	2536.338091
979.416777	2537.679038
979.714228	2537.348842
980.011642	2537.845396
980.309020	2538.732639
980.606360	2534.777853
980.903664	2538.319264
981.200931	2535.839016
981.498162	2538.064686
981.795356	2540.353370
982.092513	2541.933771
982.389633	2547.383259
982.686717	2548.333516
982.983764	2550.982643
983.280775	2553.969526
983.577749	2553.714948
983.874686	2554.145967
984.171587	2549.248486
984.468451	2546.435522
984.765279	2544.232537
985.062070	2544.398896
985.358824	2539.670293
985.655543	2540.250026
985.952224	2536.106198
986.248869	2536.804397
986.545478	2533.411701
986.842050	2533.951104
987.138586	2531.894313
987.435086	2532.811803
987.731549	2528.269724
988.027975	2536.189377
988.324366	2533.394057
988.620719	2536.396064
988.917037	2530.903727
989.213318	2534.823224
989.509563	2535.554191
989.805772	2534.281300
990.101944	2531.332225
990.398080	2535.234078
990.694180	2533.071423
990.990244	2534.480425
991.286271	2532.244674
991.582262	2534.152750
991.878217	2533.315919
992.174136	2531.123017
992.470019	2533.764582
992.765865	2533.641073
993.061676	2534.699716
993.357450	2536.111239
993.653188	2532.791639
993.948890	2535.075282
994.244556	2535.483615
994.540186	2535.080323
994.835780	2534.911444
995.131337	2534.722401
995.426859	2533.424304
995.722345	2534.669469
996.017795	2537.752134
996.313208	2534.903882
996.608586	2538.878832
996.903928	2536.958152
997.199234	2537.278266
997.494504	2537.966383
997.789738	2536.643080
998.084936	2536.575025
998.380099	2537.474871
998.675225	2536.872453
998.970316	2534.344314
999.265371	2536.227185
999.560390	2535.707946
999.855373	2535.894469
1000.150320	2531.770805
1000.445232	2533.449509
1000.740108	2530.823068
1001.034948	2532.317770
1001.329752	2532.587472
1001.624521	2532.277441
1001.919254	2527.500948
1002.213951	2529.837523
1002.508613	2526.359127
1002.803239	2527.632018
1003.097829	2527.574045
1003.392384	2532.234591
1003.686903	2530.805424
1003.981386	2533.326001
1004.275834	2530.984385
1004.570246	2532.153933
1004.864623	2532.627801
1005.158964	2530.913809
1005.453270	2533.071423
1005.747540	2530.994467
1006.041775	2529.918181
1006.335974	2530.041689
1006.630138	2531.319622
1006.924266	2529.787111
1007.218359	2531.929602
1007.512416	2533.681402
1007.806438	2533.053779
1008.100425	2527.677388
1008.394376	2533.394057
1008.688292	2528.756195
1008.982172	2533.003367
1009.276017	2531.662420
1009.569827	2533.895652
1009.863602	2531.927081
1010.157341	2531.191072
1010.451045	2534.556043
1010.744714	2530.477749
1011.038347	2530.213089
1011.331945	2531.997657
1011.625508	2532.267359
1011.919036	2531.758202
1012.212528	2531.188552
1012.505986	2529.905578
1012.799408	2530.538243
1013.092795	2531.891793
1013.386147	2530.240815
1013.679464	2529.083870
1013.972745	2531.569159
1014.265992	2531.117976
1014.559204	2530.984385
1014.852380	2528.168901
1015.145521	2529.456916
1015.438628	2529.482121
1015.731699	2530.455064
1016.024736	2528.362985
1016.317737	2529.477080
1016.610703	2530.359282
1016.903635	2528.667975
1017.196531	2526.205371
1017.489393	2527.705115
1017.782219	2525.645803
1018.075011	2528.914992
1018.367768	2528.181504
1018.660490	2528.962882
1018.953177	2528.962882
1019.245829	2528.962882
