Dividing Wavelength (nm)	Counts (n)	Blue Motor Position (mm): 47.200000	Red Motor Position (mm): 0.000000	
326.493990	2046.219470
326.888308	2046.219470
327.282561	2046.219470
327.676750	2021.595954
328.070874	2021.679133
328.464933	2033.178005
328.858929	2037.702440
329.252859	2047.751980
329.646726	2063.084650
330.040528	2076.733574
330.434265	2094.619588
330.827938	2117.085490
331.221547	2137.643315
331.615091	2160.194917
332.008571	2181.115705
332.401986	2201.449199
332.795338	2222.057436
333.188625	2237.899262
333.581847	2258.205030
333.975006	2275.778492
334.368100	2291.955555
334.761129	2309.866775
335.154095	2324.163487
335.546996	2376.599049
335.939833	2483.879844
336.332606	2492.802686
336.725315	2508.705006
337.117960	2515.712210
337.510540	2528.834333
337.903056	2534.747607
338.295508	2543.693134
338.687896	2550.498692
339.080220	2552.996583
339.472480	2560.795248
339.864676	2561.932029
340.256807	2565.049982
340.648875	2570.028122
341.040879	2567.570559
341.432818	2571.031311
341.824694	2571.134655
342.216506	2570.905282
342.608253	2570.880077
342.999937	2570.096177
343.391557	2568.367062
343.783113	2567.096691
344.174605	2564.886145
344.566033	2562.799107
344.957397	2563.439334
345.348697	2558.645196
345.739934	2563.782132
346.131106	2557.778118
346.522215	2556.994218
346.913260	2556.558159
347.304241	2554.506409
347.695159	2553.294012
348.086012	2551.280071
348.476802	2549.472817
348.867528	2545.298742
349.258191	2540.965870
349.648789	2543.436035
350.039324	2539.166178
350.429796	2543.239430
350.820203	2544.348484
351.210548	2541.734646
351.600828	2542.631971
351.991045	2540.471837
352.381198	2540.607948
352.771288	2539.861857
353.161314	2540.300438
353.551276	2541.192722
353.941175	2538.029398
354.331010	2537.994110
354.720782	2544.915614
355.110490	2545.719678
355.500135	2537.787422
355.889717	2541.830428
356.279235	2540.842362
356.668689	2540.398740
357.058080	2540.345808
357.447408	2541.714481
357.836672	2540.928061
358.225873	2541.409491
358.615010	2542.584080
359.004084	2542.798329
359.393095	2546.211190
359.782043	2543.919986
360.170927	2544.479554
360.559748	2546.458207
360.948505	2548.341078
361.337199	2549.369473
361.725830	2547.920142
362.114398	2547.824360
362.502903	2550.644885
362.891344	2549.445091
363.279722	2549.752601
363.668037	2550.226469
364.056289	2551.247303
364.444478	2550.667570
364.832603	2551.582540
365.220665	2552.084135
365.608665	2555.328117
365.996601	2554.060267
366.384474	2553.672098
366.772284	2553.626728
367.160031	2555.731409
367.547715	2554.675288
367.935336	2556.195196
368.322893	2553.883827
368.710388	2554.309804
369.097820	2554.937428
369.485189	2553.369629
369.872495	2560.497820
370.259738	2556.485062
370.646918	2557.979764
371.034035	2560.477656
371.421090	2562.083263
371.808081	2560.545711
372.195010	2561.616957
372.581875	2563.116700
372.968678	2563.731721
373.355418	2560.734755
373.742096	2566.038048
374.128710	2561.891699
374.515262	2563.116700
374.901751	2567.711712
375.288177	2567.915878
375.674540	2566.474108
376.060841	2570.927968
376.447079	2570.234809
376.833254	2574.061045
377.219367	2574.146744
377.605417	2578.598083
377.991404	2575.565829
378.377329	2580.871644
378.763191	2580.783423
379.148991	2588.685432
379.534727	2590.769949
379.920402	2598.198089
380.306013	2600.297730
380.691563	2606.211003
381.077049	2609.397013
381.462474	2616.983949
381.847835	2622.539301
382.233134	2632.311577
382.618371	2638.146713
383.003545	2645.070738
383.388657	2656.637665
383.773706	2665.081598
384.158693	2672.295489
384.543618	2684.747139
384.928480	2695.177287
385.313280	2708.485933
385.698017	2720.849363
386.082692	2733.530385
386.467305	2747.633013
386.851856	2762.572472
387.236344	2778.847837
387.620770	2794.672019
388.005133	2802.712660
388.389435	2831.149809
388.773674	2841.927796
389.157851	2869.666745
389.541965	2888.094683
389.926018	2899.142371
390.310008	2927.302257
390.693936	2945.952005
391.077802	2970.696509
391.461606	2997.286075
391.845348	3014.995648
392.229027	3041.595297
392.612645	3078.307499
392.996200	3103.979575
393.379694	3136.404277
393.763125	3173.189577
394.146494	3198.629759
394.529801	3234.631160
394.913047	3273.435441
395.296230	3287.172586
395.679351	3310.266111
396.062410	3355.507947
396.445408	3350.993593
396.828343	3389.278636
397.211217	3426.028648
397.594028	3413.967687
397.976778	3458.498720
398.359466	3495.846108
398.742092	3511.854292
399.124656	3533.748023
399.507158	3590.834049
399.889598	3601.785956
400.271977	3664.681912
400.654294	3659.222342
401.036549	3717.815673
401.418742	3726.499061
401.800874	3790.186478
402.182944	3816.700427
402.564952	3898.714959
402.946898	3897.467273
403.328783	3900.817120
403.710606	3950.298565
404.092367	4015.664687
404.474067	4078.532916
404.855705	4063.790062
405.237282	4048.200294
405.618797	4140.692864
406.000250	4210.170046
406.381642	4290.899084
406.762972	4293.099548
407.144240	4259.354064
407.525447	4322.567612
407.906593	4337.295343
408.287677	4413.759565
408.668700	4438.398204
409.049661	4480.199452
409.430560	4513.715563
409.811399	4503.749202
410.192176	4548.093712
410.572891	4621.782778
410.953545	4713.836768
411.334138	4623.726143
411.714669	4728.632555
412.095139	4650.562726
412.475547	4745.578393
412.855894	4756.787399
413.236180	4846.625802
413.616405	4784.503663
413.996568	4878.629567
414.376670	4887.474271
414.756711	4876.330801
415.136691	4943.413435
415.516609	5027.298235
415.896466	5060.990787
416.276262	5139.416017
416.655997	5246.984158
417.035670	5327.955171
417.415283	5454.379747
417.794834	5507.500906
418.174324	5469.624197
418.553753	5474.264579
418.933121	5621.506600
419.312428	5627.462724
419.691674	5573.121606
420.070859	5777.734479
420.449983	5667.514691
420.829045	5849.041600
421.208047	5787.572290
421.586988	5932.336585
421.965867	6004.319221
422.344686	6075.490231
422.723444	6228.406071
423.102141	5882.489656
423.480777	6233.185085
423.859352	6070.353295
424.237866	6409.673360
424.616319	6396.904117
424.994712	6557.338839
425.373044	6481.164483
425.751314	6767.544872
426.129524	6512.772518
426.507673	6765.024295
426.885762	6798.094264
427.263789	6832.699265
427.641756	6921.892400
428.019662	6979.371636
428.397508	7023.010384
428.775292	7023.401073
429.153016	7164.661766
429.530679	7113.337779
429.908282	7159.300499
430.285824	7100.132476
430.663305	7351.522216
431.040726	7256.441013
431.418086	7260.053000
431.795385	7391.085191
432.172624	7563.956439
432.549802	7447.190713
432.926920	7573.222079
433.303977	7531.957715
433.680974	7577.905311
434.057910	7768.110567
434.434786	7815.565468
434.811601	7769.731297
435.188355	8099.611802
435.565050	7996.046338
435.941683	8018.940738
436.318257	8318.415523
436.694770	8269.208821
437.071222	8471.981672
437.447614	8252.497396
437.823946	8222.767191
438.200218	8360.153757
438.576429	8264.449971
438.952580	8404.974655
439.328670	8423.977285
439.704700	8503.100715
440.080670	8401.879387
440.456580	8643.753948
440.832429	8629.069067
441.208218	8376.199749
441.583947	8496.141402
441.959616	8597.493800
442.335224	8630.362123
442.710773	8713.904125
443.086261	8889.237976
443.461689	8625.600753
443.837057	8774.362683
444.212365	8976.233168
444.587612	8969.667065
444.962800	8869.721149
445.337927	8997.786621
445.712995	8557.489724
446.088002	9192.667547
446.462949	9255.094675
446.837837	9264.415769
447.212664	9317.806629
447.587431	10225.650381
447.962139	11178.730927
448.336786	11918.235429
448.711374	11515.812721
449.085901	10380.370955
449.460369	10362.827739
449.834776	10283.870667
450.209124	11203.331758
450.583412	10974.518826
450.957640	11171.907726
451.331808	10759.150652
451.705917	10285.725812
452.079965	10204.948883
452.453954	10404.709645
452.827883	10364.766063
453.201752	10328.028654
453.575562	10345.992806
453.949311	10697.527587
454.323001	10773.122210
454.696632	10692.657833
455.070202	11273.149218
455.443713	11330.020996
455.817164	11475.307049
456.190556	11793.333281
456.563888	11616.371137
456.937160	11828.800319
457.310373	11340.204126
457.683526	11375.398942
458.056619	11415.516444
458.429653	11493.495533
458.802628	11676.403718
459.175542	11731.170813
459.548398	12270.985128
459.921194	12848.353520
460.293930	13177.162779
460.666607	14005.189943
461.039224	14719.947420
461.411782	14970.422190
461.784280	14565.544439
462.156719	14470.622033
462.529099	14366.759140
462.901419	13796.518941
463.273680	13451.479686
463.645882	13678.639120
464.018024	13651.298422
464.390106	14059.589034
464.762130	15234.324073
465.134094	16913.164415
465.505999	19188.491724
465.877845	21164.235863
466.249631	22026.999097
466.621358	21353.082527
466.993026	20518.058242
467.364634	19804.795467
467.736184	19107.568602
468.107674	18568.674297
468.479105	18419.289785
468.850477	18148.907499
469.221790	17736.740240
469.593043	17107.851256
469.964238	16768.339627
470.335373	16878.851802
470.706449	17729.753200
471.077467	18885.596516
471.448425	21212.749407
471.819324	22698.730326
472.190164	22164.950272
472.560945	20499.907568
472.931667	19095.255584
473.302330	18855.490745
473.672934	18419.612419
474.043479	18851.805662
474.413965	18663.231220
474.784393	18504.523094
475.154761	19126.457806
475.525070	19273.377193
475.895321	19117.514799
476.265513	19627.525813
476.635645	20204.843792
477.005719	20264.546177
477.375734	20643.320833
477.745691	21246.116804
478.115588	21900.357751
478.485427	23162.085462
478.855207	25039.164137
479.224928	26756.380263
479.594591	27901.110355
479.964194	27346.190222
480.333739	27706.909985
480.703226	27991.120157
481.072653	28502.409103
481.442022	28996.669032
481.811333	29286.605954
482.180584	28793.172775
482.549777	28589.915972
482.918912	28390.813081
483.287988	28323.722885
483.657005	28152.389189
484.025964	27810.767837
484.394864	28000.663061
484.763706	27938.858515
485.132489	27450.990769
485.501213	27532.919601
485.869879	27730.210198
486.238487	27688.242593
486.607036	27952.041132
486.975527	27681.048866
487.343959	28001.930911
487.712333	28324.330344
488.080648	28297.556776
488.448905	28726.117867
488.817104	28651.019798
489.185244	29548.597240
489.553326	30709.030527
489.921350	32643.079282
490.289315	35017.089698
490.657222	35698.777206
491.025070	36056.812555
491.392861	35677.745512
491.760593	34854.462075
492.128267	33843.942622
492.495883	32907.157606
492.863440	32075.342015
493.230939	31205.836238
493.598380	30706.066328
493.965763	30581.751474
494.333088	30130.941250
494.700354	29961.528234
495.067563	29961.119901
495.434713	29880.484124
495.801805	30173.216367
496.168839	30031.938030
496.535815	29908.283567
496.902733	30046.837160
497.269593	29877.792148
497.636395	30037.347188
498.003139	30330.026498
498.369825	30098.829100
498.736453	30506.237510
499.103023	30368.772807
499.469535	30461.366200
499.835989	30599.861819
500.202385	30462.981890
500.568723	30544.683870
500.935003	30881.727854
501.301226	30781.678595
501.667390	31468.392133
502.033497	31665.087874
502.399546	31469.538996
502.765537	31085.009863
503.131470	31546.109082
503.497345	31974.075317
503.863163	30981.005818
504.228923	31734.547412
504.594625	32128.465694
504.960269	31649.702272
505.325856	32317.418223
505.691385	32002.479698
506.056856	32315.946206
506.422270	32800.471667
506.787625	32361.195603
507.152924	32825.352282
507.518164	33023.210008
507.883347	32602.830710
508.248472	32766.799280
508.613540	33436.377936
508.978550	33685.534445
509.343503	33548.873805
509.708398	33907.136006
510.073236	34504.807644
510.438016	34612.249756
510.802738	34318.428625
511.167403	34874.997215
511.532010	35122.285976
511.896561	35609.657168
512.261053	36357.431683
512.625488	36143.848077
512.989866	36093.398729
513.354186	36144.747922
513.718449	36120.656248
514.082655	36986.602971
514.446803	36709.717596
514.810894	37329.746751
515.174927	37339.501384
515.538904	37353.538477
515.902822	37983.997780
516.266684	37701.917496
516.630488	38043.511122
516.994235	38078.884898
517.357925	38674.104015
517.721558	38917.198536
518.085133	39284.829721
518.448651	39498.604891
518.812112	39381.080472
519.175516	39546.160616
519.538863	39985.038429
519.902152	40049.671062
520.265385	40578.709911
520.628560	40620.027208
520.991678	40575.009704
521.354739	40797.329630
521.717743	41182.725842
522.080690	41085.426531
522.443580	41764.263267
522.806413	41788.302009
523.169189	41922.978955
523.531908	42152.600992
523.894569	42027.948381
524.257174	42219.005591
524.619722	42572.821494
524.982213	42705.119015
525.344647	42730.191194
525.707025	42856.966131
526.069345	43309.031602
526.431608	43220.372829
526.793815	43601.816776
527.155964	43147.616376
527.518057	43422.913788
527.880093	43289.953355
528.242072	43917.508953
528.603995	43638.329853
528.965860	43577.079834
529.327669	43797.973113
529.689421	43854.948234
530.051117	43804.188856
530.412755	44089.946662
530.774337	44153.634079
531.135862	44090.602012
531.497331	44247.243265
531.858743	44251.571095
532.220098	44659.813816
532.581396	44368.435124
532.942638	44139.276873
533.303824	44412.179736
533.664953	44449.708606
534.026025	44142.508253
534.387040	44714.933792
534.747999	44770.547802
535.108902	45078.695892
535.469748	44425.337148
535.830537	44690.431264
536.191270	44923.423312
536.551947	44664.943190
536.912567	44957.819105
537.273131	45109.399040
537.633638	44709.212083
537.994089	44947.048680
538.354483	44680.477506
538.714821	45322.758314
539.075103	45600.921622
539.435328	45459.580271
539.795497	45210.350666
540.155609	45339.457137
540.515665	45923.497495
540.875665	45234.951497
541.235609	45503.191293
541.595496	45643.932747
541.955328	46202.734568
542.315102	45650.579508
542.674821	45533.919646
543.034483	45435.531447
543.394090	45446.836234
543.753640	45419.099806
544.113134	46478.021897
544.472571	45589.412668
544.831953	46718.978969
545.191278	45982.796588
545.550548	45668.107600
545.909761	46321.123546
546.268918	46460.271995
546.628019	46864.973305
546.987064	46305.125444
547.346053	45597.899450
547.704986	46506.771598
548.063863	46151.002247
548.422684	46358.657457
548.781449	45944.693026
549.140158	46487.582446
549.498811	46243.293171
549.857408	45642.806049
550.215949	46473.666340
550.574434	46305.710218
550.932864	46245.387771
551.291237	46973.547156
551.649555	46717.963176
552.007817	46900.889005
552.366022	46565.009527
552.724173	46636.432595
553.082267	47047.750420
553.440305	47382.951862
553.798288	46653.975811
554.156215	47033.050415
554.514086	47220.331801
554.871902	46862.649333
555.229661	47025.216462
555.587365	46706.625621
555.945014	46834.360898
556.302606	46867.055301
556.660143	46968.546331
557.017625	47176.158691
557.375050	46878.806231
557.732421	47270.524049
558.089735	47352.079836
558.446994	47208.558186
558.804197	47690.255560
559.161345	47548.490752
559.518437	46904.390087
559.875474	47153.193714
560.232455	47376.126140
560.589381	47449.548025
560.946251	47229.549551
561.303065	47900.580060
561.659825	47605.601984
562.016528	47392.930827
562.373177	46962.519632
562.729770	47593.503215
563.086307	47116.998230
563.442789	47658.944953
563.799216	47517.424641
564.155587	47411.890606
564.511904	47371.074904
564.868164	47419.706915
565.224370	47729.276611
565.580520	47465.309193
565.936615	47672.321655
566.292654	47318.180597
566.648638	47679.238118
567.004567	47628.960170
567.360441	47721.573728
567.716260	47444.917726
568.072023	47794.940161
568.427732	47731.834997
568.783385	47269.480531
569.138982	47667.565326
569.494525	47809.612439
569.850013	47402.047753
570.205445	47536.591108
570.560823	47312.060637
570.916145	47184.600103
571.271412	47429.937937
571.626625	47076.434585
571.981782	47145.148033
572.336884	46734.107472
572.691931	47063.793892
573.046923	46734.914056
573.401860	46574.539829
573.756743	46579.891014
574.111570	46745.631549
574.466342	46628.865823
574.821059	46795.259188
575.175722	46286.347146
575.530330	46398.137253
575.884882	46025.538010
576.239380	45911.464261
576.593823	46027.746036
576.948211	45939.793025
577.302544	45508.766809
577.656823	45501.706673
578.011047	45766.982271
578.365216	45585.914107
578.719330	45308.441438
579.073389	45276.399864
579.427394	45334.126116
579.781344	45271.194872
580.135239	45021.128436
580.489080	45083.293424
580.842866	44570.434158
581.196597	45084.258805
581.550273	45065.130147
581.903895	45009.009502
582.257463	45439.239215
582.610975	44880.384462
582.964434	45210.660697
583.317837	44707.780395
583.671186	44679.839800
584.024481	44957.219208
584.377721	44495.237787
584.730906	44708.753338
585.084037	44827.653992
585.437113	44529.545360
585.790135	44654.742415
586.143103	44210.881422
586.496016	44373.992996
586.848874	44470.793232
587.201679	44506.610630
587.554428	44012.552348
587.907124	44279.153769
588.259765	44036.606213
588.612352	44211.509046
588.964884	43660.808358
589.317362	43967.219772
589.669786	43974.615144
590.022155	43833.445192
590.374470	44282.702741
590.726731	43848.127553
591.078937	43202.428842
591.431090	43520.162687
591.783188	43071.615941
592.135232	42841.215046
592.487222	43119.607726
592.839157	43270.963329
593.191038	42904.516814
593.542866	42698.663818
593.894639	42120.138482
594.246358	42415.398862
594.598022	42410.952565
594.949633	41986.011022
595.301190	41971.089207
595.652692	41912.773139
596.004141	42380.423337
596.355535	41294.044601
596.706876	41313.957159
597.058162	41034.064735
597.409395	41529.786599
597.760573	41741.547828
598.111698	41347.228774
598.462768	41260.588983
598.813785	41290.830865
599.164748	40906.180745
599.515657	41153.966059
599.866511	40680.246312
600.217312	41353.910823
600.568060	40309.706380
600.918753	41142.978864
601.269392	41042.919522
601.619978	40777.485128
601.970510	40971.630045
602.320988	41101.235590
602.671412	41376.296067
603.021783	41249.385019
603.372100	40820.075316
603.722363	40913.729872
604.072572	40962.992028
604.422728	40951.704884
604.772830	40735.595660
605.122878	40880.513710
605.472872	40754.512590
605.822813	40999.021154
606.172701	40765.865268
606.522534	41077.849677
606.872314	41282.802828
607.222041	41118.577159
607.571714	41442.740995
607.921333	40954.006171
608.270899	41163.181288
608.620411	41557.079406
608.969870	41279.868876
609.319276	41305.183030
609.668627	41341.267610
610.017926	41731.165572
610.367171	41870.591284
610.716362	41919.253542
611.065500	41802.744915
611.414585	42015.557225
611.763616	42208.885475
612.112594	42102.996038
612.461518	42240.654826
612.810389	42622.451654
613.159207	42425.345059
613.507971	42381.121537
613.856682	42880.914132
614.205340	42719.672826
614.553945	43397.287082
614.902496	42723.761202
615.250994	43148.816171
615.599439	43212.541397
615.947830	43323.766895
616.296169	43321.921832
616.644454	43369.301117
616.992686	43536.168350
617.340864	43984.883975
617.688990	43515.222356
618.037063	44204.428745
618.385082	44022.342268
618.733048	44353.089852
619.080961	44211.657760
619.428821	44236.414866
619.776628	44259.520995
620.124382	44060.334924
620.472083	44161.833516
620.819731	44265.562818
621.167326	43825.759953
621.514868	43783.618428
621.862357	43275.966674
622.209793	43358.525650
622.557176	42921.462653
622.904506	42675.333358
623.251783	42307.432471
623.599007	41990.832886
623.946179	41905.239134
624.293297	41644.432520
624.640363	41108.368822
624.987376	40955.664711
625.334336	40752.551581
625.681243	40342.806597
626.028097	40264.414134
626.374899	40080.321277
626.721647	40046.366586
627.068343	39847.992141
627.414987	39555.504395
627.761577	39308.404677
628.108115	39632.218153
628.454600	38895.700535
628.801032	39113.551478
629.147412	39018.150162
629.493739	38933.287378
629.840014	38493.857559
630.186236	38931.744785
630.532405	38362.147333
630.878521	38604.740259
631.224585	38377.394302
631.570597	38033.945532
631.916556	38201.130358
632.262462	38100.612271
632.608316	38011.018364
632.954117	37887.210147
633.299866	37842.406892
633.645562	37751.308201
633.991206	37224.870587
634.336797	36815.425551
634.682336	36704.477316
635.027823	36466.711295
635.373257	36336.926789
635.718639	36010.996029
636.063968	35905.585502
636.409245	35254.122231
636.754470	35211.829471
637.099642	34980.702650
637.444762	34419.753297
637.789829	34571.330710
638.134845	34186.385682
638.479808	34113.299034
638.824719	34049.813263
639.169577	33555.177768
639.514383	33648.471882
639.859137	33274.269552
640.203839	33441.834985
640.548489	33142.841630
640.893086	33147.640809
641.237632	32875.955384
641.582125	32968.014415
641.926566	32767.724331
642.270955	32794.989412
642.615292	32736.144023
642.959576	32625.614204
643.303809	32624.910963
643.647990	32716.680128
643.992118	32664.226922
644.336195	32529.136602
644.680219	32606.553602
645.024192	32809.394509
645.368112	33348.140100
645.711981	33339.144161
646.055797	34093.018472
646.399562	33919.191925
646.743274	34789.300120
647.086935	35187.604206
647.430544	35146.165922
647.774101	35183.500707
648.117606	35460.456658
648.461059	35571.490592
648.804460	35180.327301
649.147810	34664.158517
649.491108	34301.729803
649.834354	34150.348994
650.177548	33331.552183
650.520690	32828.528208
650.863781	32826.955368
651.206820	32641.491318
651.549807	32234.133320
651.892742	31658.599909
652.235626	31578.667374
652.578458	31455.955607
652.921238	30766.502201
653.263967	31082.474162
653.606644	30780.831681
653.949269	30685.130416
654.291843	30307.207715
654.634365	30686.355417
654.976836	30211.203981
655.319255	30273.210174
655.661622	30160.482412
656.003938	30023.501659
656.346203	29847.600678
656.688416	30085.104559
657.030577	29861.385713
657.372687	29681.068681
657.714746	29842.004997
658.056753	30024.265394
658.398708	29418.505224
658.740612	29489.623302
659.082465	29689.081595
659.424266	29581.634442
659.766016	29616.367992
660.107715	29461.869230
660.449362	29565.848069
660.790958	29537.196671
661.132503	29477.474121
661.473996	29549.688650
661.815438	29626.772934
662.156829	29743.669730
662.498168	29550.248218
662.839456	29521.198569
663.180693	29651.628343
663.521879	29746.497817
663.863013	29700.482165
664.204097	29676.140953
664.545129	30090.478429
664.886110	30027.857216
665.227040	30132.922424
665.567918	30121.539498
665.908746	30210.026872
666.249522	30291.870005
666.590248	30312.011935
666.930922	30417.447668
667.271545	30411.027758
667.612118	30468.847272
667.952639	30284.996391
668.293109	30305.486161
668.633528	30173.501192
668.973896	30123.734921
669.314213	30110.716141
669.654480	29925.199159
669.994695	29913.576779
670.334859	29816.411059
670.674973	29657.687810
671.015035	29837.518370
671.355047	29772.258113
671.695008	29713.556397
672.034918	29625.250505
672.374777	29738.605891
672.714585	29601.602453
673.054342	29735.984491
673.394049	29581.100080
673.733705	29814.432406
674.073310	29521.992551
674.412864	29579.184441
674.752368	29270.955692
675.091820	29490.986934
675.431223	29091.470451
675.770574	28884.904131
676.109875	28734.430730
676.449125	28526.452887
676.788324	28416.540609
677.127473	27941.981510
677.466571	27848.682355
677.805619	27564.643583
678.144616	27499.204364
678.483562	27458.043343
678.822458	27145.708574
679.161303	27088.073062
679.500098	27018.159820
679.838842	26946.598121
680.177535	27030.001491
680.516179	27280.617413
680.854771	27413.769410
681.193314	28202.470532
681.531805	29217.574914
681.870247	29984.702418
682.208638	30714.278368
682.546978	30954.839709
682.885268	31098.285741
683.223508	30641.534518
683.561697	30362.214265
683.899836	30191.046928
684.237925	29780.621387
684.575963	29653.901903
684.913951	29282.043710
685.251889	29457.707757
685.589776	29491.191101
685.927614	29505.671815
686.265401	29696.691217
686.603137	29807.752877
686.940824	30324.367803
687.278460	30651.783183
687.616046	30839.114981
687.953582	31494.321308
688.291068	31411.200243
688.628504	31726.373181
688.965889	31709.719730
689.303224	31441.626127
689.640510	31132.308489
689.977745	30496.225779
690.314930	29751.763302
690.652065	29292.123497
690.989150	28631.180337
691.326185	27785.032746
691.663170	27127.381460
692.000105	26410.862099
692.336990	25805.931199
692.673825	25393.630349
693.010610	24904.477109
693.347345	24406.567385
693.684030	23791.234064
694.020665	23592.708385
694.357251	22923.787599
694.693786	22926.703906
695.030272	22696.718906
695.366707	22220.264332
695.703093	21954.454373
696.039429	22013.766068
696.375716	21781.842744
696.711952	21776.405860
697.048139	21643.760499
697.384276	21486.015234
697.720363	21597.969178
698.056400	21503.659272
698.392388	21348.122032
698.728326	21341.477791
699.064214	21173.572080
699.400053	21177.153820
699.735842	20792.869183
700.071581	20601.645614
700.407270	20350.409630
700.742910	20171.380613
701.078501	19928.517985
701.414042	19707.932217
701.749533	19422.310522
702.084974	19102.713971
702.420366	19337.150310
702.755709	18935.708106
703.091002	18632.671745
703.426246	18699.890491
703.761440	18635.812384
704.096584	18391.918840
704.431679	18327.724787
704.766725	18277.073794
705.101721	18216.017859
705.436668	18339.488320
705.771565	18059.457265
706.106413	18387.585969
706.441212	18461.358214
706.775961	18561.626764
707.110661	18645.408220
707.445311	19017.694911
707.779913	18904.987314
708.114465	19195.635039
708.448967	19520.524802
708.783421	20144.760800
709.117825	20507.449134
709.452180	20742.903786
709.786485	21204.187007
710.120742	21962.815126
710.454949	22070.811765
710.789107	22593.022371
711.123216	23316.992557
711.457275	23523.987376
711.791286	24069.636827
712.125247	24216.946904
712.459159	23939.940541
712.793023	24681.118706
713.126837	23638.177072
713.460602	23878.708166
713.794318	23521.575183
714.127985	23250.769440
714.461602	22350.008509
714.795171	22323.176968
715.128691	21342.120538
715.462162	20839.686378
715.795584	20398.580376
716.128957	20133.070364
716.462281	19766.293655
716.795556	19476.235745
717.128782	19007.002624
717.461960	18404.693124
717.795088	18373.722796
718.128167	18036.877937
718.461198	17584.459585
718.794180	17459.010471
719.127113	17125.984287
719.459997	16930.601766
719.792833	16578.038590
720.125619	16627.126825
720.458357	16292.686597
720.791046	16157.389589
721.123686	16006.865777
721.456278	15799.893644
721.788821	15784.896211
722.121315	15523.487178
722.453761	15631.758560
722.786158	15514.783626
723.118506	15599.043992
723.450805	15476.362472
723.783056	15658.186809
724.115259	15550.790068
724.447412	15553.819801
724.779518	15777.152999
725.111574	15821.396686
725.443582	16088.550113
725.775542	16050.310441
726.107453	16574.925677
726.439315	16491.164386
726.771129	16904.697797
727.102895	17325.855954
727.434612	17605.458511
727.766281	17767.478675
728.097901	18081.267817
728.429473	18166.843924
728.760996	18183.325977
729.092471	18297.117422
729.423897	18184.044341
729.755276	18053.266728
730.086606	18158.863777
730.417887	18749.135002
730.749120	19309.733995
731.080305	19528.545278
731.411442	19926.093190
731.742530	20039.942609
732.073570	20190.547080
732.404562	20502.849081
732.735506	20347.568940
733.066401	20126.123654
733.397249	19624.241501
733.728048	19004.361059
734.058798	18134.036095
734.389501	17382.079943
734.720156	16860.842279
735.050762	16296.540559
735.381320	15931.745023
735.711831	15656.218239
736.042293	15292.251972
736.372707	15331.361244
736.703073	15128.316170
737.033391	15334.885010
737.363661	15330.093393
737.693883	15463.888137
738.024056	15667.250804
738.354182	15901.518264
738.684260	16265.126609
739.014290	16548.699074
739.344272	16766.633196
739.674207	17115.158409
740.004093	17283.873225
740.333931	17336.601174
740.663722	17399.043426
740.993464	17433.426616
741.323159	17283.606044
741.652806	16973.380998
741.982405	16807.615257
742.311956	16446.779547
742.641460	16326.588357
742.970915	15995.671895
743.300323	15650.584749
743.629683	15429.457056
743.958996	15115.851917
744.288260	14812.634075
744.617477	14505.211910
744.946647	14475.287621
745.275768	14157.493282
745.604842	13957.084732
745.933869	13786.711376
746.262847	13758.168363
746.591778	13674.460003
746.920662	13563.332808
747.249498	13572.457296
747.578286	13738.021392
747.907027	13916.747939
748.235720	14184.498744
748.564365	14252.201440
748.892963	14171.936188
749.221514	14276.020892
749.550017	14144.872754
749.878473	14112.964771
750.206881	13890.808682
750.535242	13818.674812
750.863555	13735.468047
751.191821	13639.791988
751.520039	13655.497703
751.848210	13583.792331
752.176334	13634.143375
752.504411	13562.037231
752.832440	13381.543759
753.160421	13498.919465
753.488356	13378.975291
753.816243	13297.835399
754.144082	13125.722845
754.471875	13087.188265
754.799620	13047.486658
755.127318	13027.178370
755.454969	13008.899146
755.782572	12983.297646
756.110129	12994.355417
756.437638	12900.085840
756.765100	12909.903488
757.092515	12940.551182
757.419882	12976.628200
757.747203	12995.096467
758.074477	13083.911515
758.401703	13068.180595
758.728882	13267.848096
759.056014	13310.034992
759.383099	13489.938649
759.710138	13606.580867
760.037129	13722.749216
760.364073	13789.471408
760.690970	13809.562926
761.017820	13835.900435
761.344623	14064.284868
761.671379	14433.801445
761.998088	15143.520290
762.324751	16925.795026
762.651366	20348.970381
762.977935	24842.559137
763.304456	27806.833216
763.630931	28816.450303
763.957359	27580.142610
764.283740	25296.283148
764.610074	23016.685982
764.936362	20381.246368
765.262602	18507.210029
765.588796	16583.278869
765.914943	15304.438962
766.241044	14202.848544
766.567097	13432.456892
766.893104	12716.479456
767.219064	12260.439035
767.544978	11780.306939
767.870845	11404.809033
768.196665	11178.856956
768.522438	10947.404980
768.848165	10743.699515
769.173846	10537.705366
769.499479	10418.638353
769.825066	10244.743752
770.150607	10015.688844
770.476101	9934.203633
770.801548	9816.245675
771.126949	9658.891098
771.452303	9548.580570
771.777611	9346.261422
772.102872	9335.801028
772.428087	9200.337662
772.753256	9042.894866
773.078378	8950.959343
773.403453	8769.613916
773.728482	8657.264241
774.053465	8583.691121
774.378401	8483.488106
774.703291	8364.627781
775.028135	8242.858709
775.352932	8204.117442
775.677683	8095.687264
776.002388	7998.569435
776.327046	8001.619333
776.651658	7910.044253
776.976224	7812.843245
777.300743	7811.545148
777.625216	7721.454688
777.949643	7679.103954
778.274024	7695.674227
778.598359	7606.823890
778.922647	7624.273844
779.246889	7579.609221
779.571086	7588.363185
779.895236	7604.141997
780.219339	7609.767924
780.543397	7614.720858
780.867409	7688.664503
781.191374	7704.309723
781.515294	7664.580390
781.839167	7760.354751
782.162995	7735.801812
782.486776	7679.532452
782.810511	7630.411449
783.134201	7540.381483
783.457844	7535.451234
783.781441	7478.881926
784.104993	7416.147287
784.428498	7392.839512
784.751958	7374.598097
785.075372	7345.533325
785.398739	7293.158257
785.722061	7340.141811
786.045337	7342.624579
786.368568	7498.391192
786.691752	7526.220882
787.014891	7870.690486
787.337983	8232.973007
787.661030	8834.362496
787.984031	9462.747364
788.306987	9867.972954
788.629897	10074.602289
788.952760	10006.886990
789.275579	9789.945975
789.598351	9387.006548
789.921078	9024.368626
790.243759	8618.916183
790.566395	8326.378026
790.888984	8074.882422
791.211529	7858.609360
791.534027	7641.333109
791.856480	7439.646626
792.178888	7369.841769
792.501249	7265.520131
792.823566	7114.172090
793.145836	7116.990095
793.468062	7097.185922
793.790241	7048.621966
794.112375	7116.682584
794.434464	7268.562467
794.756507	7317.610374
795.078505	7477.624158
795.400457	7790.470604
795.722364	8141.236610
796.044226	8429.366278
796.366042	8709.556130
796.687812	8656.681988
797.009538	8730.731496
797.331218	8623.886761
797.652852	8533.493832
797.974442	8382.420533
798.295986	8292.577089
798.617484	8097.587779
798.938938	7954.411448
799.260346	7850.732557
799.581709	7647.551372
799.903026	7575.046977
800.224299	7464.887683
800.545526	7296.414842
800.866708	7199.327260
801.187845	7131.952239
801.508936	7023.852257
801.829983	6985.070660
802.150984	6838.647826
802.471940	6790.845085
802.792851	6783.232942
803.113717	6746.674495
803.434538	6714.890020
803.755314	6661.489077
804.076045	6658.703840
804.396731	6607.102589
804.717372	6644.828064
805.037967	6647.792262
805.358518	6689.807759
805.679024	6774.662981
805.999485	6786.698736
806.319901	6829.485529
806.640272	6850.275248
806.960598	6938.117353
807.280879	6944.718744
807.601115	7006.135122
807.921306	6961.180632
808.241453	6976.021789
808.561554	6991.624160
808.881611	6959.693492
809.201623	6959.156609
809.521590	6902.695686
809.841513	6883.448560
810.161390	6925.242246
810.481223	6789.451206
810.801011	6772.331447
811.120755	6752.723879
811.440453	6669.373442
811.760107	6639.426467
812.079716	6608.602332
812.399281	6543.483227
812.718801	6531.157606
813.038276	6482.119782
813.357707	6424.877480
813.677093	6462.759231
813.996434	6368.164499
814.315731	6415.531181
814.634983	6406.895684
814.954191	6418.099649
815.273354	6525.856833
815.592473	6588.009219
815.911547	6712.311470
816.230577	6793.889942
816.549562	6944.065915
816.868502	7044.833539
817.187399	7136.879967
817.506250	7290.062988
817.825058	7329.772157
818.143821	7590.178000
818.462539	7863.411059
818.781213	8230.540650
819.099843	8784.508005
819.418429	9792.156521
819.736970	10767.173648
820.055466	11954.012498
820.373919	13494.677334
820.692327	15816.947867
821.010691	19973.217897
821.329011	28978.271341
821.647286	42044.248952
821.965517	55551.763584
822.283704	60920.655444
822.601847	62877.495256
822.919945	60138.107050
823.237999	55889.805717
823.556010	49668.643784
823.873976	42913.026282
824.191897	36365.623558
824.509775	31527.066123
824.827609	27006.033325
825.145398	24418.167080
825.463144	23060.584349
825.780845	23382.358679
826.098502	25181.662433
826.416116	29004.031637
826.733685	32719.840932
827.051210	33922.443470
827.368692	32117.191154
827.686129	28120.418191
828.003522	23967.041784
828.320872	20233.565766
828.638177	17371.415382
828.955439	15216.735487
829.272656	13397.188980
829.589830	11926.611306
829.906960	10647.872222
830.224046	9711.843378
830.541088	8960.787073
830.858086	8498.843461
831.175041	8130.503993
831.491952	8014.897732
831.808819	8060.235350
832.125642	8460.767626
832.442421	9351.073203
832.759157	11167.100986
833.075849	14113.352939
833.392497	17369.469497
833.709101	19562.147088
834.025662	19399.857223
834.342179	17676.458122
834.658653	15460.427385
834.975083	13521.639945
835.291469	11887.774257
835.607811	10569.109234
835.924110	9662.382097
836.240366	8789.420609
836.556578	7988.217426
836.872746	7338.952098
837.188871	6838.869637
837.504952	6422.286327
837.820990	6108.088852
838.136984	5892.599690
838.452935	5798.060411
838.768842	5833.076266
839.084706	6255.207365
839.400526	7469.081923
839.716303	9066.169873
840.032037	10167.629221
840.347727	10085.839021
840.663373	9102.743444
840.978977	8053.281078
841.294537	7241.988025
841.610054	6640.787579
841.925527	6208.619542
842.240957	5846.531105
842.556344	5519.143451
842.871687	5233.985542
843.186987	4952.908448
843.502244	4728.211618
843.817458	4563.612904
844.132629	4431.822019
844.447756	4333.902647
844.762840	4260.364815
845.077881	4182.015202
845.392879	4125.256851
845.707833	4073.884972
846.022745	4030.052140
846.337613	4000.276565
846.652438	3957.174699
846.967221	3943.036783
847.281960	3911.476640
847.596656	3892.446284
847.911309	3873.489025
848.225919	3849.243595
848.540485	3834.581399
848.855009	3820.284687
849.169490	3801.539157
849.483928	3786.650109
849.798323	3778.100312
850.112675	3763.218826
850.426984	3766.170421
850.741251	3753.587701
851.055474	3745.650404
851.369654	3753.426384
851.683792	3749.078389
851.997887	3758.097013
852.311938	3757.441663
852.625947	3761.968619
852.939914	3751.291456
853.253837	3761.482148
853.567718	3759.332096
853.881555	3748.440683
854.195350	3765.535236
854.509103	3761.744288
854.822812	3760.100872
855.136479	3747.331629
855.450103	3759.901746
855.763685	3746.227617
856.077224	3751.167947
856.390720	3769.230402
856.704173	3788.694297
857.017584	3804.092501
857.330953	3814.683965
857.644278	3833.623580
857.957561	3838.596678
858.270802	3837.825382
858.584000	3841.825538
858.897155	3831.271882
859.210268	3819.886436
859.523339	3796.734937
859.836367	3794.743681
860.149352	3784.356384
860.462295	3781.298924
860.775195	3770.876338
861.088054	3762.802930
861.400869	3764.181686
861.713642	3764.532046
862.026373	3774.135444
862.339062	3778.070065
862.651708	3796.855925
862.964312	3835.461081
863.276873	3846.589428
863.589392	3902.458015
863.901869	3951.717650
864.214303	3999.880834
864.526696	4032.890309
864.839045	4074.973862
865.151353	4103.995784
865.463619	4111.444089
865.775842	4118.647898
866.088023	4132.311946
866.400162	4127.144763
866.712258	4132.294302
867.024313	4135.752533
867.336325	4133.685660
867.648296	4136.405363
867.960224	4140.902072
868.272110	4151.407836
868.583954	4150.450017
868.895755	4165.712110
869.207515	4161.633817
869.519233	4204.004715
869.830909	4219.067683
870.142542	4240.805138
870.454134	4257.718209
870.765684	4286.949340
871.077191	4323.238086
871.388657	4350.674566
871.700081	4382.678331
872.011463	4426.490999
872.322803	4461.670691
872.634101	4495.653109
872.945357	4531.548645
873.256571	4594.132049
873.567744	4619.789002
873.878874	4638.957989
874.189963	4676.796890
874.501010	4683.375596
874.812015	4680.446686
875.122979	4723.951843
875.433900	4722.094178
875.744780	4737.326024
876.055618	4760.137246
876.366415	4763.615642
876.677169	4782.830000
876.987882	4827.756763
877.298554	4881.913878
877.609183	4959.252740
877.919771	5071.133588
878.230317	5216.059199
878.540822	5430.272950
878.851285	5747.948821
879.161707	6215.626746
879.472087	6972.860986
879.782425	8220.055050
880.092722	10401.538760
880.402977	13731.409918
880.713191	17532.606276
881.023363	21289.508536
881.333494	23534.306618
881.643583	24765.958805
881.953631	24743.934003
882.263637	23860.963304
882.573602	22362.618955
882.883526	20777.649939
883.193408	19088.971786
883.503248	17374.314046
883.813048	15818.724874
884.122806	14378.890677
884.432522	12910.770566
884.742197	11634.186575
885.051831	10544.271469
885.361424	9540.776864
885.670975	8722.320331
885.980485	8034.059158
886.289954	7456.027855
886.599382	6985.758778
886.908768	6608.680470
887.218113	6244.336117
887.527417	5957.799453
887.836680	5690.777095
888.145901	5471.340710
888.455082	5308.579496
888.764221	5157.085261
889.073319	5026.519377
889.382376	4954.486329
889.691392	4896.684459
890.000366	4870.989698
890.309300	4854.457234
890.618193	4856.786247
890.927044	4841.564483
891.235855	4862.984346
891.544625	4894.786465
891.853353	4958.131083
892.162041	5076.706584
892.470687	5262.571405
892.779293	5512.037945
893.087858	5888.143310
893.396381	6467.145035
893.704864	7271.998014
894.013306	8433.835261
894.321707	9636.163056
894.630068	10471.802362
894.938387	10676.206027
895.246665	10439.912023
895.554903	9816.270880
895.863100	9115.036298
896.171256	8547.430101
896.479371	8030.311060
896.787446	7530.556274
897.095480	7093.924295
897.403473	6776.356809
897.711425	6458.081040
898.019336	6189.989958
898.327207	5916.041055
898.635038	5684.223595
898.942827	5438.076656
899.250576	5242.560545
899.558284	5046.245412
899.865952	4923.339560
900.173579	4778.857570
900.481165	4666.502854
900.788711	4571.832505
901.096216	4501.687370
901.403681	4435.940642
901.711105	4414.896345
902.018489	4399.281371
902.325832	4472.012618
902.633135	4592.975105
902.940397	4938.931849
903.247619	5737.453139
903.554800	7186.094232
903.861941	9119.890929
904.169041	10662.461321
904.476101	11288.968359
904.783121	10920.379355
905.090100	10169.970837
905.397039	9323.598915
905.703938	8561.058861
906.010796	7870.302317
906.317614	7310.772048
906.624391	6774.438650
906.931129	6346.613567
907.237826	5945.362926
907.544483	5574.767542
907.851099	5195.753432
908.157675	4841.080532
908.464211	4514.645656
908.770707	4279.838792
909.077163	4081.890325
909.383578	3931.888272
909.689954	3822.525480
909.996289	3751.611569
910.302584	3687.775438
910.608839	3655.827125
910.915054	3621.794296
911.221229	3611.981690
911.527363	3621.126343
911.833458	3634.344248
912.139513	3658.415758
912.445527	3689.842311
912.751502	3770.873818
913.057436	3877.917678
913.363331	4008.523892
913.669186	4216.335377
913.975000	4470.533039
914.280775	4895.114140
914.586510	5479.124251
914.892205	6278.371467
915.197859	7324.194121
915.503475	8569.691837
915.809050	9636.304209
916.114585	10308.065685
916.420081	10569.787269
916.725536	10527.897801
917.030952	10079.610675
917.336328	9658.944031
917.641665	9237.972396
917.946961	8750.555834
918.252218	8329.990013
918.557435	7816.054460
918.862612	7377.587502
919.167750	7000.146231
919.472848	6573.785603
919.777906	6198.058325
920.082925	5835.473334
920.387904	5469.712417
920.692843	5194.165468
920.997743	4950.682779
921.302603	4717.899938
921.607423	4552.373652
921.912204	4391.182757
922.216946	4271.472998
922.521647	4147.009430
922.826310	4044.479922
923.130932	3951.510963
923.435516	3848.799974
923.740059	3779.746248
924.044564	3704.000391
924.349028	3642.284065
924.653454	3580.746700
924.957840	3512.892770
925.262186	3463.711273
925.566493	3405.122983
925.870761	3346.315403
926.174989	3311.168478
926.479178	3273.816048
926.783328	3230.799883
927.087438	3203.013043
927.391509	3169.033145
927.695541	3138.196407
927.999533	3111.929475
928.303486	3092.886516
928.607400	3075.030749
928.911275	3064.323339
929.215110	3046.379352
929.518906	3037.398536
929.822663	3037.345604
930.126381	3035.641694
930.430060	3041.199566
930.733699	3046.454969
931.037299	3055.982750
931.340861	3052.832028
931.644383	3063.788976
931.947866	3059.874520
932.251309	3058.079870
932.554714	3053.484858
932.858080	3048.544527
933.161407	3041.423897
933.464694	3033.143802
933.767943	3025.980322
934.071153	3021.166021
934.374323	3010.624968
934.677455	3005.712363
934.980548	2999.899913
935.283602	2990.961947
935.586617	2988.942965
935.889593	3002.801097
936.192530	3004.094153
936.495428	3021.428161
936.798287	3038.061448
937.101108	3076.207859
937.403890	3126.876496
937.706632	3190.833615
938.009336	3275.325874
938.312002	3349.496371
938.614628	3412.205804
938.917216	3460.731951
939.219765	3496.403155
939.522275	3524.731919
939.824747	3529.952034
940.127179	3526.629914
940.429573	3521.760159
940.731929	3516.585415
941.034246	3500.652848
941.336524	3491.787979
941.638763	3476.452789
941.940964	3460.754636
942.243126	3413.806370
942.545250	3391.963051
942.847335	3356.516177
943.149381	3319.529232
943.451389	3287.374232
943.753359	3249.704210
944.055290	3229.708473
944.357182	3200.154708
944.659036	3185.764735
944.960851	3178.036646
945.262628	3162.527536
945.564367	3167.092301
945.866067	3159.137360
946.167729	3156.470590
946.469352	3155.817760
946.770937	3153.196360
947.072484	3133.094759
947.373992	3137.097436
947.675462	3128.252731
947.976893	3111.523662
948.278286	3102.376488
948.579641	3100.755757
948.880958	3090.181937
949.182236	3096.997577
949.483476	3087.558017
949.784678	3087.104313
950.085841	3088.306628
950.386967	3102.527723
950.688054	3117.300824
950.989103	3137.843526
951.290114	3159.223060
951.591087	3188.257585
951.892021	3216.654405
952.192917	3245.147007
952.493776	3268.971500
952.794596	3278.768982
953.095378	3282.549848
953.396122	3279.469703
953.696828	3271.663476
953.997496	3260.025972
954.298126	3236.350193
954.598718	3213.004610
954.899272	3187.453521
955.199788	3159.026455
955.500266	3128.134264
955.800706	3091.154880
956.101108	3051.531411
956.401472	3021.927235
956.701798	2989.288284
957.002087	2946.783796
957.302337	2920.516863
957.602550	2888.129971
957.902724	2860.675847
958.202861	2835.959069
958.502960	2814.912252
958.803022	2795.957514
959.103045	2774.464554
959.403031	2755.845052
959.702979	2743.342991
960.002889	2731.980230
960.302762	2717.128991
960.602596	2708.334698
960.902393	2699.752134
961.202153	2690.857018
961.501875	2679.196829
961.801559	2675.388237
962.101205	2668.401198
962.400814	2658.565907
962.700385	2657.426606
962.999918	2650.300935
963.299414	2643.182826
963.598873	2643.467651
963.898293	2635.477422
964.197677	2636.394912
964.497022	2634.224695
964.796331	2632.069602
965.095601	2628.760085
965.394835	2626.915022
965.694030	2622.909826
965.993189	2625.140536
966.292309	2623.416462
966.591393	2624.522995
966.890439	2621.117695
967.189447	2619.930504
967.488419	2623.224898
967.787353	2621.089969
968.086249	2623.502161
968.385108	2626.889817
968.683930	2627.356123
968.982714	2630.305198
969.281462	2636.498256
969.580172	2642.656025
969.878844	2648.962509
970.177480	2656.173879
970.476078	2663.188645
970.774639	2671.551919
971.073162	2678.896880
971.371649	2685.820905
971.670098	2691.928263
971.968510	2695.323480
972.266885	2702.320602
972.565223	2703.404450
972.863524	2707.966694
973.161788	2709.544575
973.460014	2712.433156
973.758204	2716.987839
974.056356	2715.636809
974.354471	2721.328272
974.652550	2721.096379
974.950591	2718.406923
975.248595	2716.304762
975.546563	2715.238558
975.844493	2710.189843
976.142386	2701.650128
976.440243	2698.055785
976.738062	2693.538912
977.035845	2687.645803
977.333590	2682.019875
977.631299	2678.549041
977.928971	2671.032680
978.226606	2664.466577
978.524204	2662.094714
978.821765	2658.971720
979.119290	2660.269817
979.416777	2658.568427
979.714228	2660.670588
980.011642	2664.895075
980.309020	2675.509225
980.606360	2689.488344
980.903664	2714.225286
981.200931	2747.882550
981.498162	2796.713687
981.795356	2872.305789
982.092513	2961.042699
982.389633	3068.515058
982.686717	3167.235974
982.983764	3241.711460
983.280775	3288.828605
983.577749	3296.828916
983.874686	3279.361318
984.171587	3248.547265
984.468451	3209.725339
984.765279	3165.441323
985.062070	3119.274436
985.358824	3072.152251
985.655543	3013.695031
985.952224	2964.301805
986.248869	2898.270252
986.545478	2836.115345
986.842050	2786.283539
987.138586	2739.350397
987.435086	2699.283306
987.731549	2667.065292
988.027975	2643.999493
988.324366	2627.071298
988.620719	2610.218721
988.917037	2603.471136
989.213318	2592.451174
989.509563	2585.201995
989.805772	2579.376942
990.101944	2575.490212
990.398080	2573.133472
990.694180	2572.765468
990.990244	2571.434604
991.286271	2571.361507
991.582262	2571.379151
991.878217	2575.732187
992.174136	2578.895511
992.470019	2583.361974
992.765865	2585.191912
993.061676	2586.237952
993.357450	2598.351845
993.653188	2605.033894
993.948890	2626.567183
994.244556	2641.937661
994.540186	2664.670744
994.835780	2696.188038
995.131337	2735.846795
995.426859	2775.198042
995.722345	2824.651761
996.017795	2877.351984
996.313208	2916.042839
996.608586	2941.979576
996.903928	2954.705969
997.199234	2957.289560
997.494504	2951.749332
997.789738	2939.756427
998.084936	2914.054104
998.380099	2879.141593
998.675225	2852.539424
998.970316	2821.553972
999.265371	2784.579629
999.560390	2747.385996
999.855373	2718.157386
1000.150320	2688.210412
1000.445232	2662.258552
1000.740108	2642.507311
1001.034948	2621.788169
1001.329752	2607.831734
1001.624521	2597.855291
1001.919254	2582.199988
1002.213951	2578.328382
1002.508613	2565.554098
1002.803239	2562.363047
1003.097829	2552.936090
1003.392384	2551.627910
1003.686903	2543.322609
1003.981386	2540.756662
1004.275834	2539.191384
1004.570246	2536.252391
1004.864623	2533.633512
1005.158964	2530.079498
1005.453270	2529.066226
1005.747540	2525.789476
1006.041775	2524.947603
1006.335974	2525.267717
1006.630138	2522.762263
1006.924266	2524.466173
1007.218359	2523.059691
1007.512416	2515.777745
1007.806438	2516.415451
1008.100425	2517.645492
1008.394376	2516.448218
1008.688292	2516.329751
1008.982172	2520.771008
1009.276017	2518.565503
1009.569827	2516.029802
1009.863602	2514.429236
1010.157341	2513.272291
1010.451045	2513.781448
1010.744714	2514.900584
1011.038347	2514.630882
1011.331945	2513.050480
1011.625508	2510.532424
1011.919036	2508.389934
1012.212528	2508.624347
1012.505986	2507.600993
1012.799408	2508.702485
1013.092795	2505.526558
1013.386147	2506.751559
1013.679464	2504.283914
1013.972745	2508.727691
1014.265992	2504.571260
1014.559204	2504.677124
1014.852380	2506.693585
1015.145521	2506.678462
1015.438628	2505.816425
1015.731699	2508.609224
1016.024736	2507.749707
1016.317737	2508.221055
1016.610703	2511.064266
1016.903635	2509.521673
1017.196531	2511.233144
1017.489393	2515.412261
1017.782219	2514.078876
1018.075011	2517.584998
1018.367768	2512.964781
1018.660490	2517.869823
1018.953177	2517.869823
1019.245829	2517.869823
