Dividing Wavelength (nm)	Counts (n)	Blue Motor Position (mm): 5.700000	Red Motor Position (mm): 0.000000	
326.493990	2102.161154
326.888308	2102.161154
327.282561	2102.161154
327.676750	2049.229038
328.070874	2071.914231
328.464933	2049.229038
328.858929	2061.831923
329.252859	2024.023269
329.646726	2081.996538
330.040528	2160.134423
330.434265	2097.120000
330.827938	2170.216731
331.221547	2160.134423
331.615091	2180.299038
332.008571	2157.613846
332.401986	2263.478077
332.795338	2243.313462
333.188625	2228.190000
333.581847	2308.848462
333.975006	2223.148846
334.368100	2281.122115
334.761129	2376.904038
335.154095	2318.930769
335.546996	2379.424615
335.939833	2341.615962
336.332606	2480.247692
336.725315	2371.862885
337.117960	2329.013077
337.510540	2480.247692
337.903056	2404.630385
338.295508	2369.342308
338.687896	2399.589231
339.080220	2460.083077
339.472480	2520.576923
339.864676	2437.397885
340.256807	2505.453462
340.648875	2434.877308
341.040879	2500.412308
341.432818	2460.083077
341.824694	2407.150962
342.216506	2492.850577
342.608253	2487.809423
342.999937	2475.206538
343.391557	2480.247692
343.783113	2513.015192
344.174605	2485.288846
344.566033	2462.603654
344.957397	2467.644808
345.348697	2455.041923
345.739934	2485.288846
346.131106	2507.974038
346.522215	2460.083077
346.913260	2427.315577
347.304241	2407.150962
347.695159	2462.603654
348.086012	2467.644808
348.476802	2409.671538
348.867528	2482.768269
349.258191	2432.356731
349.648789	2500.412308
350.039324	2402.109808
350.429796	2414.712692
350.820203	2455.041923
351.210548	2419.753846
351.600828	2404.630385
351.991045	2465.124231
352.381198	2462.603654
352.771288	2437.397885
353.161314	2384.465769
353.551276	2392.027500
353.941175	2376.904038
354.331010	2399.589231
354.720782	2407.150962
355.110490	2351.698269
355.500135	2495.371154
355.889717	2417.233269
356.279235	2505.453462
356.668689	2528.138654
357.058080	2379.424615
357.447408	2417.233269
357.836672	2472.685962
358.225873	2417.233269
358.615010	2417.233269
359.004084	2540.741538
359.393095	2392.027500
359.782043	2444.959615
360.170927	2447.480192
360.559748	2376.904038
360.948505	2394.548077
361.337199	2455.041923
361.725830	2407.150962
362.114398	2427.315577
362.502903	2397.068654
362.891344	2513.015192
363.279722	2452.521346
363.668037	2482.768269
364.056289	2412.192115
364.444478	2427.315577
364.832603	2450.000769
365.220665	2475.206538
365.608665	2450.000769
365.996601	2565.947308
366.384474	2432.356731
366.772284	2520.576923
367.160031	2417.233269
367.547715	2434.877308
367.935336	2523.097500
368.322893	2434.877308
368.710388	2379.424615
369.097820	2402.109808
369.485189	2376.904038
369.872495	2505.453462
370.259738	2447.480192
370.646918	2485.288846
371.034035	2444.959615
371.421090	2422.274423
371.808081	2482.768269
372.195010	2432.356731
372.581875	2518.056346
372.968678	2492.850577
373.355418	2424.795000
373.742096	2520.576923
374.128710	2500.412308
374.515262	2392.027500
374.901751	2470.165385
375.288177	2477.727115
375.674540	2475.206538
376.060841	2439.918462
376.447079	2495.371154
376.833254	2505.453462
377.219367	2492.850577
377.605417	2407.150962
377.991404	2475.206538
378.377329	2422.274423
378.763191	2452.521346
379.148991	2475.206538
379.534727	2497.891731
379.920402	2422.274423
380.306013	2450.000769
380.691563	2450.000769
381.077049	2442.439038
381.462474	2437.397885
381.847835	2439.918462
382.233134	2439.918462
382.618371	2384.465769
383.003545	2490.330000
383.388657	2397.068654
383.773706	2359.260000
384.158693	2460.083077
384.543618	2518.056346
384.928480	2414.712692
385.313280	2457.562500
385.698017	2515.535769
386.082692	2414.712692
386.467305	2518.056346
386.851856	2548.303269
387.236344	2432.356731
387.620770	2487.809423
388.005133	2442.439038
388.389435	2487.809423
388.773674	2402.109808
389.157851	2419.753846
389.541965	2457.562500
389.926018	2530.659231
390.310008	2437.397885
390.693936	2485.288846
391.077802	2545.782692
391.461606	2447.480192
391.845348	2520.576923
392.229027	2492.850577
392.612645	2437.397885
392.996200	2457.562500
393.379694	2452.521346
393.763125	2470.165385
394.146494	2475.206538
394.529801	2457.562500
394.913047	2437.397885
395.296230	2434.877308
395.679351	2419.753846
396.062410	2497.891731
396.445408	2502.932885
396.828343	2502.932885
397.211217	2452.521346
397.594028	2485.288846
397.976778	2518.056346
398.359466	2505.453462
398.742092	2470.165385
399.124656	2424.795000
399.507158	2553.344423
399.889598	2578.550192
400.271977	2492.850577
400.654294	2429.836154
401.036549	2497.891731
401.418742	2470.165385
401.800874	2417.233269
402.182944	2490.330000
402.564952	2515.535769
402.946898	2472.685962
403.328783	2439.918462
403.710606	2518.056346
404.092367	2419.753846
404.474067	2467.644808
404.855705	2450.000769
405.237282	2475.206538
405.618797	2402.109808
406.000250	2490.330000
406.381642	2492.850577
406.762972	2480.247692
407.144240	2442.439038
407.525447	2515.535769
407.906593	2450.000769
408.287677	2490.330000
408.668700	2500.412308
409.049661	2465.124231
409.430560	2447.480192
409.811399	2505.453462
410.192176	2419.753846
410.572891	2540.741538
410.953545	2492.850577
411.334138	2513.015192
411.714669	2447.480192
412.095139	2455.041923
412.475547	2485.288846
412.855894	2460.083077
413.236180	2540.741538
413.616405	2452.521346
413.996568	2462.603654
414.376670	2447.480192
414.756711	2500.412308
415.136691	2465.124231
415.516609	2455.041923
415.896466	2429.836154
416.276262	2407.150962
416.655997	2505.453462
417.035670	2351.698269
417.415283	2452.521346
417.794834	2419.753846
418.174324	2462.603654
418.553753	2442.439038
418.933121	2530.659231
419.312428	2500.412308
419.691674	2455.041923
420.070859	2480.247692
420.449983	2439.918462
420.829045	2450.000769
421.208047	2470.165385
421.586988	2472.685962
421.965867	2460.083077
422.344686	2404.630385
422.723444	2480.247692
423.102141	2515.535769
423.480777	2409.671538
423.859352	2475.206538
424.237866	2457.562500
424.616319	2465.124231
424.994712	2507.974038
425.373044	2535.700385
425.751314	2593.673654
426.129524	2502.932885
426.507673	2518.056346
426.885762	2457.562500
427.263789	2487.809423
427.641756	2394.548077
428.019662	2520.576923
428.397508	2538.220962
428.775292	2457.562500
429.153016	2442.439038
429.530679	2447.480192
429.908282	2475.206538
430.285824	2386.986346
430.663305	2482.768269
431.040726	2515.535769
431.418086	2472.685962
431.795385	2442.439038
432.172624	2513.015192
432.549802	2485.288846
432.926920	2543.262115
433.303977	2424.795000
433.680974	2495.371154
434.057910	2450.000769
434.434786	2422.274423
434.811601	2485.288846
435.188355	2492.850577
435.565050	2442.439038
435.941683	2414.712692
436.318257	2500.412308
436.694770	2497.891731
437.071222	2485.288846
437.447614	2444.959615
437.823946	2417.233269
438.200218	2485.288846
438.576429	2462.603654
438.952580	2492.850577
439.328670	2477.727115
439.704700	2533.179808
440.080670	2417.233269
440.456580	2490.330000
440.832429	2470.165385
441.208218	2447.480192
441.583947	2530.659231
441.959616	2558.385577
442.335224	2525.618077
442.710773	2439.918462
443.086261	2467.644808
443.461689	2485.288846
443.837057	2528.138654
444.212365	2558.385577
444.587612	2404.630385
444.962800	2472.685962
445.337927	2447.480192
445.712995	2462.603654
446.088002	2417.233269
446.462949	2437.397885
446.837837	2460.083077
447.212664	2452.521346
447.587431	2495.371154
447.962139	2447.480192
448.336786	2533.179808
448.711374	2490.330000
449.085901	2485.288846
449.460369	2507.974038
449.834776	2447.480192
450.209124	2470.165385
450.583412	2465.124231
450.957640	2528.138654
451.331808	2497.891731
451.705917	2447.480192
452.079965	2530.659231
452.453954	2467.644808
452.827883	2538.220962
453.201752	2482.768269
453.575562	2528.138654
453.949311	2450.000769
454.323001	2523.097500
454.696632	2447.480192
455.070202	2465.124231
455.443713	2513.015192
455.817164	2404.630385
456.190556	2460.083077
456.563888	2467.644808
456.937160	2442.439038
457.310373	2515.535769
457.683526	2502.932885
458.056619	2500.412308
458.429653	2412.192115
458.802628	2505.453462
459.175542	2467.644808
459.548398	2500.412308
459.921194	2465.124231
460.293930	2480.247692
460.666607	2437.397885
461.039224	2467.644808
461.411782	2465.124231
461.784280	2558.385577
462.156719	2450.000769
462.529099	2507.974038
462.901419	2487.809423
463.273680	2482.768269
463.645882	2487.809423
464.018024	2485.288846
464.390106	2502.932885
464.762130	2513.015192
465.134094	2490.330000
465.505999	2523.097500
465.877845	2573.509038
466.249631	2485.288846
466.621358	2530.659231
466.993026	2470.165385
467.364634	2429.836154
467.736184	2485.288846
468.107674	2477.727115
468.479105	2510.494615
468.850477	2530.659231
469.221790	2404.630385
469.593043	2513.015192
469.964238	2437.397885
470.335373	2500.412308
470.706449	2555.865000
471.077467	2497.891731
471.448425	2525.618077
471.819324	2518.056346
472.190164	2586.111923
472.560945	2518.056346
472.931667	2543.262115
473.302330	2583.591346
473.672934	2447.480192
474.043479	2518.056346
474.413965	2533.179808
474.784393	2525.618077
475.154761	2555.865000
475.525070	2492.850577
475.895321	2533.179808
476.265513	2560.906154
476.635645	2447.480192
477.005719	2462.603654
477.375734	2525.618077
477.745691	2455.041923
478.115588	2581.070769
478.485427	2472.685962
478.855207	2480.247692
479.224928	2477.727115
479.594591	2533.179808
479.964194	2414.712692
480.333739	2505.453462
480.703226	2414.712692
481.072653	2432.356731
481.442022	2439.918462
481.811333	2608.797115
482.180584	2513.015192
482.549777	2477.727115
482.918912	2515.535769
483.287988	2565.947308
483.657005	2467.644808
484.025964	2490.330000
484.394864	2432.356731
484.763706	2482.768269
485.132489	2487.809423
485.501213	2452.521346
485.869879	2535.700385
486.238487	2475.206538
486.607036	2550.823846
486.975527	2513.015192
487.343959	2450.000769
487.712333	2477.727115
488.080648	2381.945192
488.448905	2545.782692
488.817104	2480.247692
489.185244	2520.576923
489.553326	2563.426731
489.921350	2505.453462
490.289315	2477.727115
490.657222	2490.330000
491.025070	2465.124231
491.392861	2500.412308
491.760593	2497.891731
492.128267	2583.591346
492.495883	2460.083077
492.863440	2462.603654
493.230939	2510.494615
493.598380	2528.138654
493.965763	2399.589231
494.333088	2565.947308
494.700354	2495.371154
495.067563	2419.753846
495.434713	2513.015192
495.801805	2540.741538
496.168839	2608.797115
496.535815	2462.603654
496.902733	2439.918462
497.269593	2394.548077
497.636395	2570.988462
498.003139	2462.603654
498.369825	2480.247692
498.736453	2515.535769
499.103023	2497.891731
499.469535	2540.741538
499.835989	2500.412308
500.202385	2510.494615
500.568723	2487.809423
500.935003	2502.932885
501.301226	2485.288846
501.667390	2500.412308
502.033497	2404.630385
502.399546	2422.274423
502.765537	2434.877308
503.131470	2528.138654
503.497345	2429.836154
503.863163	2452.521346
504.228923	2490.330000
504.594625	2518.056346
504.960269	2487.809423
505.325856	2505.453462
505.691385	2434.877308
506.056856	2505.453462
506.422270	2482.768269
506.787625	2482.768269
507.152924	2533.179808
507.518164	2386.986346
507.883347	2452.521346
508.248472	2480.247692
508.613540	2490.330000
508.978550	2465.124231
509.343503	2533.179808
509.708398	2429.836154
510.073236	2490.330000
510.438016	2470.165385
510.802738	2412.192115
511.167403	2505.453462
511.532010	2576.029615
511.896561	2510.494615
512.261053	2530.659231
512.625488	2520.576923
512.989866	2482.768269
513.354186	2472.685962
513.718449	2505.453462
514.082655	2434.877308
514.446803	2450.000769
514.810894	2480.247692
515.174927	2510.494615
515.538904	2502.932885
515.902822	2467.644808
516.266684	2565.947308
516.630488	2530.659231
516.994235	2510.494615
517.357925	2515.535769
517.721558	2578.550192
518.085133	2513.015192
518.448651	2485.288846
518.812112	2535.700385
519.175516	2593.673654
519.538863	2583.591346
519.902152	2424.795000
520.265385	2523.097500
520.628560	2502.932885
520.991678	2485.288846
521.354739	2535.700385
521.717743	2422.274423
522.080690	2490.330000
522.443580	2505.453462
522.806413	2432.356731
523.169189	2462.603654
523.531908	2555.865000
523.894569	2470.165385
524.257174	2523.097500
524.619722	2545.782692
524.982213	2450.000769
525.344647	2528.138654
525.707025	2439.918462
526.069345	2444.959615
526.431608	2487.809423
526.793815	2545.782692
527.155964	2568.467885
527.518057	2450.000769
527.880093	2518.056346
528.242072	2487.809423
528.603995	2538.220962
528.965860	2568.467885
529.327669	2560.906154
529.689421	2487.809423
530.051117	2472.685962
530.412755	2497.891731
530.774337	2477.727115
531.135862	2485.288846
531.497331	2518.056346
531.858743	2394.548077
532.220098	2467.644808
532.581396	2578.550192
532.942638	2598.714808
533.303824	2482.768269
533.664953	2563.426731
534.026025	2573.509038
534.387040	2518.056346
534.747999	2543.262115
535.108902	2424.795000
535.469748	2490.330000
535.830537	2455.041923
536.191270	2507.974038
536.551947	2470.165385
536.912567	2538.220962
537.273131	2530.659231
537.633638	2497.891731
537.994089	2462.603654
538.354483	2339.095385
538.714821	2487.809423
539.075103	2429.836154
539.435328	2487.809423
539.795497	2535.700385
540.155609	2565.947308
540.515665	2487.809423
540.875665	2545.782692
541.235609	2442.439038
541.595496	2583.591346
541.955328	2533.179808
542.315102	2523.097500
542.674821	2518.056346
543.034483	2560.906154
543.394090	2581.070769
543.753640	2510.494615
544.113134	2555.865000
544.472571	2427.315577
544.831953	2515.535769
545.191278	2470.165385
545.550548	2540.741538
545.909761	2472.685962
546.268918	2487.809423
546.628019	2427.315577
546.987064	2495.371154
547.346053	2409.671538
547.704986	2515.535769
548.063863	2533.179808
548.422684	2518.056346
548.781449	2437.397885
549.140158	2480.247692
549.498811	2452.521346
549.857408	2520.576923
550.215949	2507.974038
550.574434	2502.932885
550.932864	2535.700385
551.291237	2555.865000
551.649555	2409.671538
552.007817	2482.768269
552.366022	2530.659231
552.724173	2533.179808
553.082267	2603.755962
553.440305	2591.153077
553.798288	2439.918462
554.156215	2460.083077
554.514086	2379.424615
554.871902	2530.659231
555.229661	2460.083077
555.587365	2565.947308
555.945014	2419.753846
556.302606	2439.918462
556.660143	2465.124231
557.017625	2545.782692
557.375050	2462.603654
557.732421	2470.165385
558.089735	2520.576923
558.446994	2538.220962
558.804197	2502.932885
559.161345	2555.865000
559.518437	2515.535769
559.875474	2450.000769
560.232455	2472.685962
560.589381	2444.959615
560.946251	2467.644808
561.303065	2528.138654
561.659825	2555.865000
562.016528	2465.124231
562.373177	2507.974038
562.729770	2518.056346
563.086307	2538.220962
563.442789	2452.521346
563.799216	2447.480192
564.155587	2437.397885
564.511904	2518.056346
564.868164	2472.685962
565.224370	2565.947308
565.580520	2392.027500
565.936615	2492.850577
566.292654	2502.932885
566.648638	2455.041923
567.004567	2513.015192
567.360441	2485.288846
567.716260	2485.288846
568.072023	2510.494615
568.427732	2497.891731
568.783385	2520.576923
569.138982	2613.838269
569.494525	2518.056346
569.850013	2434.877308
570.205445	2528.138654
570.560823	2495.371154
570.916145	2505.453462
571.271412	2462.603654
571.626625	2518.056346
571.981782	2518.056346
572.336884	2513.015192
572.691931	2462.603654
573.046923	2455.041923
573.401860	2452.521346
573.756743	2548.303269
574.111570	2490.330000
574.466342	2500.412308
574.821059	2548.303269
575.175722	2490.330000
575.530330	2487.809423
575.884882	2434.877308
576.239380	2424.795000
576.593823	2543.262115
576.948211	2495.371154
577.302544	2477.727115
577.656823	2492.850577
578.011047	2523.097500
578.365216	2384.465769
578.719330	2477.727115
579.073389	2543.262115
579.427394	2485.288846
579.781344	2434.877308
580.135239	2497.891731
580.489080	2432.356731
580.842866	2465.124231
581.196597	2447.480192
581.550273	2553.344423
581.903895	2502.932885
582.257463	2444.959615
582.610975	2487.809423
582.964434	2558.385577
583.317837	2530.659231
583.671186	2525.618077
584.024481	2462.603654
584.377721	2452.521346
584.730906	2548.303269
585.084037	2515.535769
585.437113	2528.138654
585.790135	2540.741538
586.143103	2485.288846
586.496016	2381.945192
586.848874	2477.727115
587.201679	2467.644808
587.554428	2505.453462
587.907124	2543.262115
588.259765	2500.412308
588.612352	2457.562500
588.964884	2467.644808
589.317362	2497.891731
589.669786	2450.000769
590.022155	2535.700385
590.374470	2452.521346
590.726731	2533.179808
591.078937	2553.344423
591.431090	2505.453462
591.783188	2563.426731
592.135232	2485.288846
592.487222	2525.618077
592.839157	2490.330000
593.191038	2492.850577
593.542866	2480.247692
593.894639	2507.974038
594.246358	2543.262115
594.598022	2429.836154
594.949633	2545.782692
595.301190	2450.000769
595.652692	2533.179808
596.004141	2560.906154
596.355535	2525.618077
596.706876	2502.932885
597.058162	2540.741538
597.409395	2490.330000
597.760573	2444.959615
598.111698	2472.685962
598.462768	2444.959615
598.813785	2530.659231
599.164748	2439.918462
599.515657	2528.138654
599.866511	2661.729231
600.217312	2437.397885
600.568060	2555.865000
600.918753	2570.988462
601.269392	2492.850577
601.619978	2490.330000
601.970510	2487.809423
602.320988	2497.891731
602.671412	2485.288846
603.021783	2515.535769
603.372100	2475.206538
603.722363	2533.179808
604.072572	2492.850577
604.422728	2518.056346
604.772830	2487.809423
605.122878	2462.603654
605.472872	2530.659231
605.822813	2495.371154
606.172701	2472.685962
606.522534	2513.015192
606.872314	2505.453462
607.222041	2535.700385
607.571714	2558.385577
607.921333	2419.753846
608.270899	2525.618077
608.620411	2528.138654
608.969870	2462.603654
609.319276	2533.179808
609.668627	2500.412308
610.017926	2523.097500
610.367171	2513.015192
610.716362	2495.371154
611.065500	2485.288846
611.414585	2520.576923
611.763616	2530.659231
612.112594	2525.618077
612.461518	2462.603654
612.810389	2487.809423
613.159207	2480.247692
613.507971	2505.453462
613.856682	2457.562500
614.205340	2444.959615
614.553945	2588.632500
614.902496	2490.330000
615.250994	2523.097500
615.599439	2533.179808
615.947830	2477.727115
616.296169	2477.727115
616.644454	2455.041923
616.992686	2490.330000
617.340864	2450.000769
617.688990	2588.632500
618.037063	2507.974038
618.385082	2573.509038
618.733048	2540.741538
619.080961	2565.947308
619.428821	2513.015192
619.776628	2497.891731
620.124382	2505.453462
620.472083	2530.659231
620.819731	2502.932885
621.167326	2510.494615
621.514868	2437.397885
621.862357	2523.097500
622.209793	2485.288846
622.557176	2460.083077
622.904506	2520.576923
623.251783	2492.850577
623.599007	2510.494615
623.946179	2452.521346
624.293297	2540.741538
624.640363	2520.576923
624.987376	2439.918462
625.334336	2535.700385
625.681243	2480.247692
626.028097	2525.618077
626.374899	2500.412308
626.721647	2495.371154
627.068343	2507.974038
627.414987	2450.000769
627.761577	2538.220962
628.108115	2475.206538
628.454600	2553.344423
628.801032	2523.097500
629.147412	2450.000769
629.493739	2548.303269
629.840014	2452.521346
630.186236	2409.671538
630.532405	2535.700385
630.878521	2480.247692
631.224585	2507.974038
631.570597	2515.535769
631.916556	2505.453462
632.262462	2598.714808
632.608316	2515.535769
632.954117	2482.768269
633.299866	2467.644808
633.645562	2533.179808
633.991206	2523.097500
634.336797	2462.603654
634.682336	2495.371154
635.027823	2477.727115
635.373257	2465.124231
635.718639	2505.453462
636.063968	2424.795000
636.409245	2442.439038
636.754470	2492.850577
637.099642	2492.850577
637.444762	2497.891731
637.789829	2487.809423
638.134845	2505.453462
638.479808	2424.795000
638.824719	2490.330000
639.169577	2417.233269
639.514383	2492.850577
639.859137	2507.974038
640.203839	2477.727115
640.548489	2591.153077
640.893086	2608.797115
641.237632	2510.494615
641.582125	2598.714808
641.926566	2462.603654
642.270955	2470.165385
642.615292	2472.685962
642.959576	2490.330000
643.303809	2497.891731
643.647990	2545.782692
643.992118	2439.918462
644.336195	2500.412308
644.680219	2520.576923
645.024192	2462.603654
645.368112	2462.603654
645.711981	2470.165385
646.055797	2475.206538
646.399562	2480.247692
646.743274	2586.111923
647.086935	2490.330000
647.430544	2470.165385
647.774101	2467.644808
648.117606	2545.782692
648.461059	2518.056346
648.804460	2480.247692
649.147810	2540.741538
649.491108	2553.344423
649.834354	2538.220962
650.177548	2513.015192
650.520690	2485.288846
650.863781	2470.165385
651.206820	2460.083077
651.549807	2548.303269
651.892742	2439.918462
652.235626	2462.603654
652.578458	2465.124231
652.921238	2434.877308
653.263967	2518.056346
653.606644	2500.412308
653.949269	2576.029615
654.291843	2442.439038
654.634365	2553.344423
654.976836	2477.727115
655.319255	2525.618077
655.661622	2472.685962
656.003938	2490.330000
656.346203	2460.083077
656.688416	2492.850577
657.030577	2442.439038
657.372687	2520.576923
657.714746	2465.124231
658.056753	2540.741538
658.398708	2429.836154
658.740612	2616.358846
659.082465	2475.206538
659.424266	2497.891731
659.766016	2475.206538
660.107715	2495.371154
660.449362	2553.344423
660.790958	2492.850577
661.132503	2533.179808
661.473996	2598.714808
661.815438	2462.603654
662.156829	2495.371154
662.498168	2525.618077
662.839456	2460.083077
663.180693	2366.821731
663.521879	2510.494615
663.863013	2523.097500
664.204097	2507.974038
664.545129	2505.453462
664.886110	2628.961731
665.227040	2480.247692
665.567918	2485.288846
665.908746	2497.891731
666.249522	2447.480192
666.590248	2452.521346
666.930922	2540.741538
667.271545	2487.809423
667.612118	2507.974038
667.952639	2462.603654
668.293109	2470.165385
668.633528	2460.083077
668.973896	2402.109808
669.314213	2588.632500
669.654480	2460.083077
669.994695	2475.206538
670.334859	2475.206538
670.674973	2485.288846
671.015035	2583.591346
671.355047	2455.041923
671.695008	2548.303269
672.034918	2513.015192
672.374777	2553.344423
672.714585	2520.576923
673.054342	2578.550192
673.394049	2568.467885
673.733705	2520.576923
674.073310	2510.494615
674.412864	2581.070769
674.752368	2477.727115
675.091820	2523.097500
675.431223	2434.877308
675.770574	2520.576923
676.109875	2530.659231
676.449125	2457.562500
676.788324	2510.494615
677.127473	2447.480192
677.466571	2520.576923
677.805619	2525.618077
678.144616	2502.932885
678.483562	2450.000769
678.822458	2487.809423
679.161303	2485.288846
679.500098	2568.467885
679.838842	2621.400000
680.177535	2470.165385
680.516179	2523.097500
680.854771	2543.262115
681.193314	2548.303269
681.531805	2500.412308
681.870247	2500.412308
682.208638	2510.494615
682.546978	2555.865000
682.885268	2573.509038
683.223508	2419.753846
683.561697	2525.618077
683.899836	2535.700385
684.237925	2467.644808
684.575963	2389.506923
684.913951	2500.412308
685.251889	2412.192115
685.589776	2492.850577
685.927614	2447.480192
686.265401	2525.618077
686.603137	2439.918462
686.940824	2591.153077
687.278460	2450.000769
687.616046	2432.356731
687.953582	2533.179808
688.291068	2475.206538
688.628504	2510.494615
688.965889	2525.618077
689.303224	2505.453462
689.640510	2530.659231
689.977745	2462.603654
690.314930	2485.288846
690.652065	2447.480192
690.989150	2528.138654
691.326185	2530.659231
691.663170	2581.070769
692.000105	2452.521346
692.336990	2543.262115
692.673825	2603.755962
693.010610	2485.288846
693.347345	2540.741538
693.684030	2480.247692
694.020665	2485.288846
694.357251	2500.412308
694.693786	2422.274423
695.030272	2525.618077
695.366707	2555.865000
695.703093	2452.521346
696.039429	2515.535769
696.375716	2480.247692
696.711952	2437.397885
697.048139	2578.550192
697.384276	2450.000769
697.720363	2457.562500
698.056400	2540.741538
698.392388	2462.603654
698.728326	2492.850577
699.064214	2490.330000
699.400053	2462.603654
699.735842	2434.877308
700.071581	2455.041923
700.407270	2550.823846
700.742910	2485.288846
701.078501	2535.700385
701.414042	2487.809423
701.749533	2467.644808
702.084974	2475.206538
702.420366	2507.974038
702.755709	2513.015192
703.091002	2558.385577
703.426246	2528.138654
703.761440	2492.850577
704.096584	2573.509038
704.431679	2495.371154
704.766725	2528.138654
705.101721	2538.220962
705.436668	2480.247692
705.771565	2475.206538
706.106413	2422.274423
706.441212	2447.480192
706.775961	2518.056346
707.110661	2520.576923
707.445311	2492.850577
707.779913	2444.959615
708.114465	2538.220962
708.448967	2487.809423
708.783421	2530.659231
709.117825	2465.124231
709.452180	2528.138654
709.786485	2507.974038
710.120742	2573.509038
710.454949	2525.618077
710.789107	2548.303269
711.123216	2457.562500
711.457275	2492.850577
711.791286	2555.865000
712.125247	2523.097500
712.459159	2412.192115
712.793023	2402.109808
713.126837	2495.371154
713.460602	2492.850577
713.794318	2530.659231
714.127985	2475.206538
714.461602	2455.041923
714.795171	2502.932885
715.128691	2465.124231
715.462162	2500.412308
715.795584	2553.344423
716.128957	2502.932885
716.462281	2455.041923
716.795556	2407.150962
717.128782	2439.918462
717.461960	2510.494615
717.795088	2444.959615
718.128167	2497.891731
718.461198	2513.015192
718.794180	2399.589231
719.127113	2495.371154
719.459997	2573.509038
719.792833	2457.562500
720.125619	2460.083077
720.458357	2530.659231
720.791046	2528.138654
721.123686	2545.782692
721.456278	2518.056346
721.788821	2510.494615
722.121315	2505.453462
722.453761	2447.480192
722.786158	2462.603654
723.118506	2497.891731
723.450805	2530.659231
723.783056	2502.932885
724.115259	2442.439038
724.447412	2485.288846
724.779518	2502.932885
725.111574	2505.453462
725.443582	2480.247692
725.775542	2485.288846
726.107453	2462.603654
726.439315	2495.371154
726.771129	2467.644808
727.102895	2550.823846
727.434612	2452.521346
727.766281	2576.029615
728.097901	2437.397885
728.429473	2482.768269
728.760996	2550.823846
729.092471	2470.165385
729.423897	2497.891731
729.755276	2548.303269
730.086606	2515.535769
730.417887	2424.795000
730.749120	2510.494615
731.080305	2558.385577
731.411442	2583.591346
731.742530	2533.179808
732.073570	2477.727115
732.404562	2510.494615
732.735506	2502.932885
733.066401	2570.988462
733.397249	2389.506923
733.728048	2462.603654
734.058798	2495.371154
734.389501	2495.371154
734.720156	2480.247692
735.050762	2475.206538
735.381320	2550.823846
735.711831	2487.809423
736.042293	2593.673654
736.372707	2429.836154
736.703073	2502.932885
737.033391	2550.823846
737.363661	2613.838269
737.693883	2475.206538
738.024056	2480.247692
738.354182	2424.795000
738.684260	2460.083077
739.014290	2384.465769
739.344272	2477.727115
739.674207	2606.276538
740.004093	2518.056346
740.333931	2540.741538
740.663722	2507.974038
740.993464	2538.220962
741.323159	2492.850577
741.652806	2533.179808
741.982405	2404.630385
742.311956	2558.385577
742.641460	2513.015192
742.970915	2480.247692
743.300323	2439.918462
743.629683	2497.891731
743.958996	2492.850577
744.288260	2515.535769
744.617477	2576.029615
744.946647	2419.753846
745.275768	2497.891731
745.604842	2500.412308
745.933869	2492.850577
746.262847	2513.015192
746.591778	2455.041923
746.920662	2422.274423
747.249498	2525.618077
747.578286	2520.576923
747.907027	2485.288846
748.235720	2477.727115
748.564365	2475.206538
748.892963	2492.850577
749.221514	2434.877308
749.550017	2482.768269
749.878473	2467.644808
750.206881	2533.179808
750.535242	2439.918462
750.863555	2462.603654
751.191821	2525.618077
751.520039	2432.356731
751.848210	2465.124231
752.176334	2616.358846
752.504411	2444.959615
752.832440	2492.850577
753.160421	2475.206538
753.488356	2563.426731
753.816243	2392.027500
754.144082	2528.138654
754.471875	2530.659231
754.799620	2523.097500
755.127318	2540.741538
755.454969	2505.453462
755.782572	2482.768269
756.110129	2409.671538
756.437638	2555.865000
756.765100	2500.412308
757.092515	2502.932885
757.419882	2480.247692
757.747203	2576.029615
758.074477	2492.850577
758.401703	2520.576923
758.728882	2505.453462
759.056014	2460.083077
759.383099	2477.727115
759.710138	2500.412308
760.037129	2460.083077
760.364073	2497.891731
760.690970	2450.000769
761.017820	2477.727115
761.344623	2576.029615
761.671379	2485.288846
761.998088	2497.891731
762.324751	2500.412308
762.651366	2553.344423
762.977935	2558.385577
763.304456	2477.727115
763.630931	2497.891731
763.957359	2465.124231
764.283740	2475.206538
764.610074	2482.768269
764.936362	2412.192115
765.262602	2528.138654
765.588796	2427.315577
765.914943	2528.138654
766.241044	2465.124231
766.567097	2520.576923
766.893104	2482.768269
767.219064	2487.809423
767.544978	2477.727115
767.870845	2568.467885
768.196665	2409.671538
768.522438	2535.700385
768.848165	2513.015192
769.173846	2477.727115
769.499479	2442.439038
769.825066	2550.823846
770.150607	2437.397885
770.476101	2439.918462
770.801548	2492.850577
771.126949	2495.371154
771.452303	2525.618077
771.777611	2523.097500
772.102872	2500.412308
772.428087	2465.124231
772.753256	2482.768269
773.078378	2573.509038
773.403453	2465.124231
773.728482	2510.494615
774.053465	2533.179808
774.378401	2525.618077
774.703291	2490.330000
775.028135	2523.097500
775.352932	2450.000769
775.677683	2505.453462
776.002388	2563.426731
776.327046	2439.918462
776.651658	2560.906154
776.976224	2505.453462
777.300743	2538.220962
777.625216	2374.383462
777.949643	2404.630385
778.274024	2515.535769
778.598359	2482.768269
778.922647	2477.727115
779.246889	2553.344423
779.571086	2507.974038
779.895236	2467.644808
780.219339	2485.288846
780.543397	2437.397885
780.867409	2455.041923
781.191374	2507.974038
781.515294	2477.727115
781.839167	2487.809423
782.162995	2386.986346
782.486776	2563.426731
782.810511	2573.509038
783.134201	2467.644808
783.457844	2477.727115
783.781441	2412.192115
784.104993	2601.235385
784.428498	2429.836154
784.751958	2513.015192
785.075372	2467.644808
785.398739	2444.959615
785.722061	2429.836154
786.045337	2465.124231
786.368568	2460.083077
786.691752	2492.850577
787.014891	2548.303269
787.337983	2500.412308
787.661030	2598.714808
787.984031	2465.124231
788.306987	2495.371154
788.629897	2497.891731
788.952760	2515.535769
789.275579	2437.397885
789.598351	2412.192115
789.921078	2462.603654
790.243759	2487.809423
790.566395	2442.439038
790.888984	2376.904038
791.211529	2450.000769
791.534027	2429.836154
791.856480	2417.233269
792.178888	2520.576923
792.501249	2452.521346
792.823566	2475.206538
793.145836	2525.618077
793.468062	2533.179808
793.790241	2434.877308
794.112375	2505.453462
794.434464	2487.809423
794.756507	2472.685962
795.078505	2555.865000
795.400457	2553.344423
795.722364	2568.467885
796.044226	2487.809423
796.366042	2565.947308
796.687812	2452.521346
797.009538	2530.659231
797.331218	2477.727115
797.652852	2386.986346
797.974442	2492.850577
798.295986	2560.906154
798.617484	2444.959615
798.938938	2447.480192
799.260346	2477.727115
799.581709	2545.782692
799.903026	2434.877308
800.224299	2533.179808
800.545526	2608.797115
800.866708	2598.714808
801.187845	2477.727115
801.508936	2482.768269
801.829983	2570.988462
802.150984	2507.974038
802.471940	2482.768269
802.792851	2563.426731
803.113717	2475.206538
803.434538	2570.988462
803.755314	2482.768269
804.076045	2550.823846
804.396731	2475.206538
804.717372	2502.932885
805.037967	2465.124231
805.358518	2510.494615
805.679024	2475.206538
805.999485	2533.179808
806.319901	2500.412308
806.640272	2507.974038
806.960598	2434.877308
807.280879	2442.439038
807.601115	2444.959615
807.921306	2444.959615
808.241453	2533.179808
808.561554	2482.768269
808.881611	2510.494615
809.201623	2528.138654
809.521590	2417.233269
809.841513	2535.700385
810.161390	2475.206538
810.481223	2475.206538
810.801011	2427.315577
811.120755	2482.768269
811.440453	2462.603654
811.760107	2528.138654
812.079716	2533.179808
812.399281	2523.097500
812.718801	2450.000769
813.038276	2439.918462
813.357707	2487.809423
813.677093	2535.700385
813.996434	2470.165385
814.315731	2485.288846
814.634983	2555.865000
814.954191	2437.397885
815.273354	2447.480192
815.592473	2460.083077
815.911547	2472.685962
816.230577	2634.002885
816.549562	2502.932885
816.868502	2563.426731
817.187399	2444.959615
817.506250	2505.453462
817.825058	2434.877308
818.143821	2540.741538
818.462539	2510.494615
818.781213	2507.974038
819.099843	2487.809423
819.418429	2558.385577
819.736970	2530.659231
820.055466	2515.535769
820.373919	2482.768269
820.692327	2603.755962
821.010691	2407.150962
821.329011	2515.535769
821.647286	2487.809423
821.965517	2500.412308
822.283704	2434.877308
822.601847	2502.932885
822.919945	2472.685962
823.237999	2462.603654
823.556010	2535.700385
823.873976	2518.056346
824.191897	2510.494615
824.509775	2450.000769
824.827609	2500.412308
825.145398	2492.850577
825.463144	2492.850577
825.780845	2485.288846
826.098502	2520.576923
826.416116	2490.330000
826.733685	2550.823846
827.051210	2444.959615
827.368692	2533.179808
827.686129	2475.206538
828.003522	2485.288846
828.320872	2540.741538
828.638177	2442.439038
828.955439	2389.506923
829.272656	2467.644808
829.589830	2472.685962
829.906960	2475.206538
830.224046	2500.412308
830.541088	2490.330000
830.858086	2523.097500
831.175041	2495.371154
831.491952	2553.344423
831.808819	2550.823846
832.125642	2455.041923
832.442421	2505.453462
832.759157	2533.179808
833.075849	2475.206538
833.392497	2606.276538
833.709101	2492.850577
834.025662	2462.603654
834.342179	2525.618077
834.658653	2513.015192
834.975083	2447.480192
835.291469	2545.782692
835.607811	2460.083077
835.924110	2513.015192
836.240366	2399.589231
836.556578	2487.809423
836.872746	2482.768269
837.188871	2470.165385
837.504952	2535.700385
837.820990	2500.412308
838.136984	2523.097500
838.452935	2495.371154
838.768842	2555.865000
839.084706	2477.727115
839.400526	2470.165385
839.716303	2475.206538
840.032037	2548.303269
840.347727	2346.657115
840.663373	2518.056346
840.978977	2510.494615
841.294537	2507.974038
841.610054	2507.974038
841.925527	2452.521346
842.240957	2477.727115
842.556344	2475.206538
842.871687	2462.603654
843.186987	2482.768269
843.502244	2480.247692
843.817458	2457.562500
844.132629	2427.315577
844.447756	2465.124231
844.762840	2525.618077
845.077881	2465.124231
845.392879	2497.891731
845.707833	2502.932885
846.022745	2502.932885
846.337613	2442.439038
846.652438	2548.303269
846.967221	2437.397885
847.281960	2550.823846
847.596656	2505.453462
847.911309	2429.836154
848.225919	2568.467885
848.540485	2477.727115
848.855009	2475.206538
849.169490	2558.385577
849.483928	2485.288846
849.798323	2467.644808
850.112675	2492.850577
850.426984	2553.344423
850.741251	2523.097500
851.055474	2432.356731
851.369654	2502.932885
851.683792	2485.288846
851.997887	2535.700385
852.311938	2576.029615
852.625947	2500.412308
852.939914	2520.576923
853.253837	2452.521346
853.567718	2452.521346
853.881555	2502.932885
854.195350	2515.535769
854.509103	2515.535769
854.822812	2500.412308
855.136479	2439.918462
855.450103	2515.535769
855.763685	2442.439038
856.077224	2437.397885
856.390720	2555.865000
856.704173	2495.371154
857.017584	2553.344423
857.330953	2510.494615
857.644278	2523.097500
857.957561	2447.480192
858.270802	2467.644808
858.584000	2490.330000
858.897155	2480.247692
859.210268	2560.906154
859.523339	2482.768269
859.836367	2543.262115
860.149352	2530.659231
860.462295	2505.453462
860.775195	2515.535769
861.088054	2480.247692
861.400869	2510.494615
861.713642	2444.959615
862.026373	2533.179808
862.339062	2528.138654
862.651708	2434.877308
862.964312	2460.083077
863.276873	2487.809423
863.589392	2480.247692
863.901869	2533.179808
864.214303	2502.932885
864.526696	2500.412308
864.839045	2553.344423
865.151353	2450.000769
865.463619	2485.288846
865.775842	2399.589231
866.088023	2540.741538
866.400162	2586.111923
866.712258	2545.782692
867.024313	2457.562500
867.336325	2429.836154
867.648296	2500.412308
867.960224	2447.480192
868.272110	2553.344423
868.583954	2497.891731
868.895755	2515.535769
869.207515	2470.165385
869.519233	2518.056346
869.830909	2434.877308
870.142542	2507.974038
870.454134	2513.015192
870.765684	2495.371154
871.077191	2452.521346
871.388657	2487.809423
871.700081	2578.550192
872.011463	2545.782692
872.322803	2502.932885
872.634101	2495.371154
872.945357	2437.397885
873.256571	2487.809423
873.567744	2482.768269
873.878874	2450.000769
874.189963	2502.932885
874.501010	2432.356731
874.812015	2548.303269
875.122979	2424.795000
875.433900	2550.823846
875.744780	2565.947308
876.055618	2505.453462
876.366415	2497.891731
876.677169	2497.891731
876.987882	2470.165385
877.298554	2573.509038
877.609183	2437.397885
877.919771	2523.097500
878.230317	2472.685962
878.540822	2505.453462
878.851285	2500.412308
879.161707	2482.768269
879.472087	2344.136538
879.782425	2485.288846
880.092722	2412.192115
880.402977	2560.906154
880.713191	2439.918462
881.023363	2543.262115
881.333494	2447.480192
881.643583	2530.659231
881.953631	2460.083077
882.263637	2434.877308
882.573602	2485.288846
882.883526	2457.562500
883.193408	2470.165385
883.503248	2434.877308
883.813048	2432.356731
884.122806	2422.274423
884.432522	2477.727115
884.742197	2495.371154
885.051831	2417.233269
885.361424	2495.371154
885.670975	2444.959615
885.980485	2568.467885
886.289954	2518.056346
886.599382	2502.932885
886.908768	2477.727115
887.218113	2462.603654
887.527417	2523.097500
887.836680	2447.480192
888.145901	2480.247692
888.455082	2447.480192
888.764221	2485.288846
889.073319	2495.371154
889.382376	2452.521346
889.691392	2540.741538
890.000366	2462.603654
890.309300	2487.809423
890.618193	2502.932885
890.927044	2515.535769
891.235855	2475.206538
891.544625	2510.494615
891.853353	2553.344423
892.162041	2485.288846
892.470687	2427.315577
892.779293	2568.467885
893.087858	2455.041923
893.396381	2419.753846
893.704864	2507.974038
894.013306	2422.274423
894.321707	2538.220962
894.630068	2397.068654
894.938387	2525.618077
895.246665	2513.015192
895.554903	2455.041923
895.863100	2523.097500
896.171256	2502.932885
896.479371	2513.015192
896.787446	2560.906154
897.095480	2482.768269
897.403473	2515.535769
897.711425	2490.330000
898.019336	2545.782692
898.327207	2475.206538
898.635038	2530.659231
898.942827	2487.809423
899.250576	2490.330000
899.558284	2452.521346
899.865952	2538.220962
900.173579	2641.564615
900.481165	2497.891731
900.788711	2510.494615
901.096216	2470.165385
901.403681	2507.974038
901.711105	2399.589231
902.018489	2432.356731
902.325832	2475.206538
902.633135	2399.589231
902.940397	2437.397885
903.247619	2601.235385
903.554800	2495.371154
903.861941	2467.644808
904.169041	2520.576923
904.476101	2487.809423
904.783121	2591.153077
905.090100	2558.385577
905.397039	2538.220962
905.703938	2495.371154
906.010796	2462.603654
906.317614	2475.206538
906.624391	2568.467885
906.931129	2417.233269
907.237826	2543.262115
907.544483	2550.823846
907.851099	2467.644808
908.157675	2507.974038
908.464211	2528.138654
908.770707	2455.041923
909.077163	2525.618077
909.383578	2477.727115
909.689954	2523.097500
909.996289	2523.097500
910.302584	2502.932885
910.608839	2457.562500
910.915054	2447.480192
911.221229	2485.288846
911.527363	2530.659231
911.833458	2480.247692
912.139513	2558.385577
912.445527	2533.179808
912.751502	2523.097500
913.057436	2485.288846
913.363331	2515.535769
913.669186	2502.932885
913.975000	2470.165385
914.280775	2540.741538
914.586510	2518.056346
914.892205	2502.932885
915.197859	2480.247692
915.503475	2505.453462
915.809050	2485.288846
916.114585	2457.562500
916.420081	2591.153077
916.725536	2460.083077
917.030952	2513.015192
917.336328	2462.603654
917.641665	2523.097500
917.946961	2500.412308
918.252218	2470.165385
918.557435	2490.330000
918.862612	2525.618077
919.167750	2616.358846
919.472848	2485.288846
919.777906	2586.111923
920.082925	2439.918462
920.387904	2417.233269
920.692843	2543.262115
920.997743	2523.097500
921.302603	2543.262115
921.607423	2535.700385
921.912204	2467.644808
922.216946	2505.453462
922.521647	2470.165385
922.826310	2450.000769
923.130932	2553.344423
923.435516	2563.426731
923.740059	2492.850577
924.044564	2535.700385
924.349028	2414.712692
924.653454	2414.712692
924.957840	2465.124231
925.262186	2455.041923
925.566493	2492.850577
925.870761	2432.356731
926.174989	2553.344423
926.479178	2518.056346
926.783328	2613.838269
927.087438	2485.288846
927.391509	2550.823846
927.695541	2576.029615
927.999533	2462.603654
928.303486	2570.988462
928.607400	2492.850577
928.911275	2530.659231
929.215110	2462.603654
929.518906	2500.412308
929.822663	2419.753846
930.126381	2515.535769
930.430060	2515.535769
930.733699	2530.659231
931.037299	2480.247692
931.340861	2520.576923
931.644383	2548.303269
931.947866	2507.974038
932.251309	2510.494615
932.554714	2399.589231
932.858080	2510.494615
933.161407	2513.015192
933.464694	2417.233269
933.767943	2560.906154
934.071153	2429.836154
934.374323	2490.330000
934.677455	2520.576923
934.980548	2447.480192
935.283602	2480.247692
935.586617	2465.124231
935.889593	2515.535769
936.192530	2545.782692
936.495428	2467.644808
936.798287	2510.494615
937.101108	2482.768269
937.403890	2497.891731
937.706632	2462.603654
938.009336	2432.356731
938.312002	2409.671538
938.614628	2429.836154
938.917216	2507.974038
939.219765	2490.330000
939.522275	2500.412308
939.824747	2374.383462
940.127179	2570.988462
940.429573	2457.562500
940.731929	2515.535769
941.034246	2490.330000
941.336524	2427.315577
941.638763	2450.000769
941.940964	2477.727115
942.243126	2492.850577
942.545250	2586.111923
942.847335	2442.439038
943.149381	2444.959615
943.451389	2472.685962
943.753359	2530.659231
944.055290	2386.986346
944.357182	2495.371154
944.659036	2437.397885
944.960851	2450.000769
945.262628	2535.700385
945.564367	2513.015192
945.866067	2457.562500
946.167729	2487.809423
946.469352	2465.124231
946.770937	2457.562500
947.072484	2480.247692
947.373992	2457.562500
947.675462	2397.068654
947.976893	2528.138654
948.278286	2523.097500
948.579641	2490.330000
948.880958	2492.850577
949.182236	2533.179808
949.483476	2462.603654
949.784678	2550.823846
950.085841	2480.247692
950.386967	2465.124231
950.688054	2434.877308
950.989103	2500.412308
951.290114	2560.906154
951.591087	2510.494615
951.892021	2538.220962
952.192917	2533.179808
952.493776	2500.412308
952.794596	2495.371154
953.095378	2480.247692
953.396122	2507.974038
953.696828	2490.330000
953.997496	2465.124231
954.298126	2437.397885
954.598718	2540.741538
954.899272	2442.439038
955.199788	2460.083077
955.500266	2533.179808
955.800706	2487.809423
956.101108	2384.465769
956.401472	2545.782692
956.701798	2475.206538
957.002087	2500.412308
957.302337	2422.274423
957.602550	2558.385577
957.902724	2573.509038
958.202861	2422.274423
958.502960	2470.165385
958.803022	2455.041923
959.103045	2507.974038
959.403031	2525.618077
959.702979	2555.865000
960.002889	2450.000769
960.302762	2543.262115
960.602596	2502.932885
960.902393	2467.644808
961.202153	2548.303269
961.501875	2510.494615
961.801559	2550.823846
962.101205	2555.865000
962.400814	2472.685962
962.700385	2502.932885
962.999918	2520.576923
963.299414	2485.288846
963.598873	2573.509038
963.898293	2560.906154
964.197677	2495.371154
964.497022	2565.947308
964.796331	2507.974038
965.095601	2470.165385
965.394835	2540.741538
965.694030	2513.015192
965.993189	2462.603654
966.292309	2477.727115
966.591393	2500.412308
966.890439	2439.918462
967.189447	2490.330000
967.488419	2460.083077
967.787353	2492.850577
968.086249	2545.782692
968.385108	2439.918462
968.683930	2485.288846
968.982714	2475.206538
969.281462	2485.288846
969.580172	2442.439038
969.878844	2530.659231
970.177480	2538.220962
970.476078	2427.315577
970.774639	2588.632500
971.073162	2500.412308
971.371649	2520.576923
971.670098	2533.179808
971.968510	2412.192115
972.266885	2392.027500
972.565223	2444.959615
972.863524	2460.083077
973.161788	2424.795000
973.460014	2465.124231
973.758204	2510.494615
974.056356	2427.315577
974.354471	2424.795000
974.652550	2513.015192
974.950591	2497.891731
975.248595	2500.412308
975.546563	2507.974038
975.844493	2502.932885
976.142386	2439.918462
976.440243	2402.109808
976.738062	2525.618077
977.035845	2523.097500
977.333590	2439.918462
977.631299	2540.741538
977.928971	2470.165385
978.226606	2513.015192
978.524204	2465.124231
978.821765	2535.700385
979.119290	2550.823846
979.416777	2555.865000
979.714228	2480.247692
980.011642	2457.562500
980.309020	2487.809423
980.606360	2455.041923
980.903664	2477.727115
981.200931	2495.371154
981.498162	2447.480192
981.795356	2513.015192
982.092513	2513.015192
982.389633	2482.768269
982.686717	2467.644808
982.983764	2452.521346
983.280775	2540.741538
983.577749	2424.795000
983.874686	2434.877308
984.171587	2432.356731
984.468451	2495.371154
984.765279	2455.041923
985.062070	2462.603654
985.358824	2502.932885
985.655543	2495.371154
985.952224	2528.138654
986.248869	2563.426731
986.545478	2520.576923
986.842050	2485.288846
987.138586	2593.673654
987.435086	2497.891731
987.731549	2505.453462
988.027975	2455.041923
988.324366	2553.344423
988.620719	2500.412308
988.917037	2502.932885
989.213318	2492.850577
989.509563	2487.809423
989.805772	2555.865000
990.101944	2485.288846
990.398080	2520.576923
990.694180	2485.288846
990.990244	2548.303269
991.286271	2407.150962
991.582262	2467.644808
991.878217	2490.330000
992.174136	2497.891731
992.470019	2462.603654
992.765865	2417.233269
993.061676	2553.344423
993.357450	2424.795000
993.653188	2518.056346
993.948890	2480.247692
994.244556	2518.056346
994.540186	2540.741538
994.835780	2502.932885
995.131337	2553.344423
995.426859	2480.247692
995.722345	2397.068654
996.017795	2500.412308
996.313208	2490.330000
996.608586	2510.494615
996.903928	2480.247692
997.199234	2447.480192
997.494504	2555.865000
997.789738	2399.589231
998.084936	2424.795000
998.380099	2520.576923
998.675225	2467.644808
998.970316	2492.850577
999.265371	2500.412308
999.560390	2442.439038
999.855373	2570.988462
1000.150320	2437.397885
1000.445232	2535.700385
1000.740108	2586.111923
1001.034948	2480.247692
1001.329752	2455.041923
1001.624521	2482.768269
1001.919254	2518.056346
1002.213951	2482.768269
1002.508613	2414.712692
1002.803239	2376.904038
1003.097829	2490.330000
1003.392384	2507.974038
1003.686903	2530.659231
1003.981386	2533.179808
1004.275834	2487.809423
1004.570246	2444.959615
1004.864623	2452.521346
1005.158964	2510.494615
1005.453270	2480.247692
1005.747540	2437.397885
1006.041775	2533.179808
1006.335974	2455.041923
1006.630138	2450.000769
1006.924266	2439.918462
1007.218359	2462.603654
1007.512416	2359.260000
1007.806438	2528.138654
1008.100425	2470.165385
1008.394376	2480.247692
1008.688292	2419.753846
1008.982172	2540.741538
1009.276017	2417.233269
1009.569827	2555.865000
1009.863602	2515.535769
1010.157341	2520.576923
1010.451045	2444.959615
1010.744714	2487.809423
1011.038347	2452.521346
1011.331945	2528.138654
1011.625508	2450.000769
1011.919036	2492.850577
1012.212528	2452.521346
1012.505986	2455.041923
1012.799408	2593.673654
1013.092795	2490.330000
1013.386147	2485.288846
1013.679464	2429.836154
1013.972745	2518.056346
1014.265992	2460.083077
1014.559204	2434.877308
1014.852380	2467.644808
1015.145521	2399.589231
1015.438628	2397.068654
1015.731699	2450.000769
1016.024736	2472.685962
1016.317737	2523.097500
1016.610703	2540.741538
1016.903635	2558.385577
1017.196531	2455.041923
1017.489393	2495.371154
1017.782219	2525.618077
1018.075011	2500.412308
1018.367768	2407.150962
1018.660490	2523.097500
1018.953177	2523.097500
1019.245829	2523.097500
