Dividing Wavelength (nm)	Counts (n)	Blue Motor Position (mm): 39.000000	Red Motor Position (mm): 0.000000	
326.493990	2096.925916
326.888308	2096.925916
327.282561	2096.925916
327.676750	2073.149313
328.070874	2075.667370
328.464933	2083.269430
328.858929	2092.484659
329.252859	2106.897318
329.646726	2118.088679
330.040528	2133.353293
330.434265	2156.625780
330.827938	2173.412822
331.221547	2192.947293
331.615091	2214.765407
332.008571	2236.205435
332.401986	2255.792838
332.795338	2275.899480
333.188625	2295.252470
333.581847	2316.198464
333.975006	2333.020794
334.368100	2351.849504
334.761129	2371.104191
335.154095	2382.436705
335.546996	2429.657193
335.939833	2511.633916
336.332606	2522.893333
336.725315	2537.553009
337.117960	2549.860986
337.510540	2553.906512
337.903056	2567.116855
338.295508	2571.825293
338.687896	2580.606983
339.080220	2589.829774
339.472480	2587.707448
339.864676	2594.976792
340.256807	2595.836309
340.648875	2600.242277
341.040879	2601.555498
341.432818	2600.136413
341.824694	2601.270673
342.216506	2599.831423
342.608253	2599.390322
342.999937	2599.692792
343.391557	2598.989551
343.783113	2596.186669
344.174605	2596.045517
344.566033	2594.104672
344.957397	2591.531163
345.348697	2592.675505
345.739934	2586.973960
346.131106	2587.775504
346.522215	2587.626790
346.913260	2584.977663
347.304241	2581.789134
347.695159	2580.801067
348.086012	2579.006417
348.476802	2580.120512
348.867528	2578.845100
349.258191	2576.042218
349.648789	2575.459965
350.039324	2576.221179
350.429796	2577.113463
350.820203	2571.457289
351.210548	2574.376117
351.600828	2569.934860
351.991045	2569.869325
352.381198	2570.612896
352.771288	2571.913513
353.161314	2571.119532
353.551276	2569.408060
353.941175	2570.103739
354.331010	2569.806311
354.720782	2572.374779
355.110490	2576.742939
355.500135	2570.675910
355.889717	2571.666497
356.279235	2570.025601
356.668689	2571.293451
357.058080	2572.178174
357.447408	2570.570046
357.836672	2573.413257
358.225873	2570.557443
358.615010	2568.601475
359.004084	2576.072465
359.393095	2574.960891
359.782043	2578.479616
360.170927	2578.908114
360.559748	2578.257805
360.948505	2578.300655
361.337199	2583.291397
361.725830	2580.637230
362.114398	2581.826942
362.502903	2581.958012
362.891344	2583.377097
363.279722	2577.373083
363.668037	2583.283836
364.056289	2583.790472
364.444478	2584.637386
364.832603	2581.471541
365.220665	2584.546645
365.608665	2586.764752
365.996601	2586.852973
366.384474	2587.515884
366.772284	2585.685946
367.160031	2586.391707
367.547715	2591.200968
367.935336	2588.564444
368.322893	2590.107037
368.710388	2588.549321
369.097820	2592.287337
369.485189	2590.868252
369.872495	2591.664754
370.259738	2592.443612
370.646918	2593.736668
371.034035	2597.310846
371.421090	2596.005187
371.808081	2593.817327
372.195010	2592.766246
372.581875	2598.296392
372.968678	2600.726228
373.355418	2596.534509
373.742096	2598.760178
374.128710	2599.586927
374.515262	2598.182966
374.901751	2600.459047
375.288177	2599.717997
375.674540	2601.883173
376.060841	2600.030549
376.447079	2603.549274
376.833254	2602.571290
377.219367	2601.941146
377.605417	2603.345107
377.991404	2603.045159
378.377329	2606.231168
378.763191	2603.957608
379.148991	2609.941457
379.534727	2606.770572
379.920402	2608.744183
380.306013	2611.816767
380.691563	2612.746859
381.077049	2614.954885
381.462474	2615.030502
381.847835	2612.388937
382.233134	2618.496295
382.618371	2616.590739
383.003545	2616.590739
383.388657	2621.011831
383.773706	2618.929835
384.158693	2621.616770
384.543618	2625.634569
384.928480	2625.800927
385.313280	2623.746657
385.698017	2622.609877
386.082692	2628.515589
386.467305	2627.116668
386.851856	2628.311422
387.236344	2630.259828
387.620770	2631.920888
388.005133	2631.714201
388.389435	2633.753347
388.773674	2634.910292
389.157851	2631.978861
389.541965	2637.188894
389.926018	2639.959008
390.310008	2640.778195
390.693936	2644.586787
391.077802	2643.734832
391.461606	2646.305821
391.845348	2647.871099
392.229027	2650.830256
392.612645	2653.355874
392.996200	2657.918118
393.379694	2660.645383
393.763125	2669.671569
394.146494	2673.969152
394.529801	2678.644822
394.913047	2685.399969
395.296230	2692.288705
395.679351	2697.329859
396.062410	2712.967518
396.445408	2720.937583
396.828343	2738.289234
397.211217	2753.669795
397.594028	2764.178080
397.976778	2786.248251
398.359466	2811.711119
398.742092	2832.253821
399.124656	2866.110211
399.507158	2905.428690
399.889598	2941.455296
400.271977	2986.709734
400.654294	3029.357896
401.036549	3088.979622
401.418742	3137.029380
401.800874	3214.779096
402.182944	3275.709002
402.564952	3372.007643
402.946898	3421.458842
403.328783	3492.869307
403.710606	3590.476127
404.092367	3700.789176
404.474067	3833.568128
404.855705	3890.016448
405.237282	3966.087459
405.618797	4132.778252
406.000250	4277.497176
406.381642	4459.407213
406.762972	4554.216193
407.144240	4613.593424
407.525447	4788.042553
407.906593	4894.357967
408.287677	5075.937808
408.668700	5241.912757
409.049661	5367.944124
409.430560	5543.817378
409.811399	5671.340927
410.192176	5851.380695
410.572891	6015.598802
410.953545	6332.142935
411.334138	6279.762826
411.714669	6653.680330
412.095139	6524.498242
412.475547	6866.782506
412.855894	6952.998839
413.236180	7243.593632
413.616405	7256.138544
413.996568	7529.827827
414.376670	7673.530959
414.756711	7760.445492
415.136691	8051.551962
415.516609	8289.499465
415.896466	8481.138928
416.276262	8800.039800
416.655997	9208.705978
417.035670	9395.132888
417.415283	9931.894785
417.794834	10141.435386
418.174324	10134.924736
418.553753	10235.977185
418.933121	10708.323218
419.312428	10744.692622
419.691674	10825.580457
420.070859	11299.078393
420.449983	11195.459997
420.829045	11743.108265
421.208047	11700.492871
421.586988	12173.655571
421.965867	12514.152746
422.344686	12657.530723
422.723444	13261.423145
423.102141	12302.814974
423.480777	13428.091253
423.859352	13136.163075
424.237866	14167.562987
424.616319	14058.111976
424.994712	14718.240989
425.373044	14656.859900
425.751314	15369.903385
426.129524	14702.101735
426.507673	15765.525577
426.885762	15612.312309
427.263789	15871.790580
427.641756	16125.350536
428.019662	16262.444715
428.397508	16393.376083
428.775292	16734.263948
429.153016	16785.542564
429.530679	16938.486131
429.908282	17035.223353
430.285824	16849.955908
430.663305	17562.558292
431.040726	17266.524094
431.418086	17142.128582
431.795385	17817.968352
432.172624	18291.829251
432.549802	17913.402435
432.926920	18142.787538
433.303977	18065.531855
433.680974	18360.388944
434.057910	18689.909006
434.434786	18748.109127
434.811601	18705.352581
435.188355	19772.222052
435.565050	19459.564649
435.941683	19448.970664
436.318257	20352.287460
436.694770	20172.955974
437.071222	20782.517173
437.447614	19870.451455
437.823946	19916.883002
438.200218	20103.448544
438.576429	19896.352903
438.952580	20206.283042
439.328670	20185.820998
439.704700	20611.642223
440.080670	20188.747388
440.456580	20797.083587
440.832429	20988.654995
441.208218	20000.629171
441.583947	20449.813622
441.959616	20580.261040
442.335224	20826.362609
442.710773	20971.890638
443.086261	21528.683560
443.461689	20870.470184
443.837057	21027.572703
444.212365	21693.075587
444.587612	21694.731606
444.962800	21291.058691
445.337927	21724.328220
445.712995	20440.832807
446.088002	22354.555630
446.462949	22557.192370
446.837837	22745.368561
447.212664	22778.955249
447.587431	25776.972291
447.962139	28746.095960
448.336786	31025.854443
448.711374	29317.840944
449.085901	25592.279537
449.460369	25614.992456
449.834776	25642.388607
450.209124	28205.654020
450.583412	27674.394543
450.957640	28141.964083
451.331808	26780.983614
451.705917	25422.864001
452.079965	25479.007331
452.453954	25861.280548
452.827883	25775.124708
453.201752	25573.092906
453.575562	25740.859985
453.949311	26884.360036
454.323001	26961.759391
454.696632	26739.031132
455.070202	28355.051135
455.443713	28532.935810
455.817164	29131.668612
456.190556	29668.823718
456.563888	29086.318392
456.937160	29503.143677
457.310373	27784.909238
457.683526	28255.163192
458.056619	28264.350695
458.429653	28230.597650
458.802628	28855.201652
459.175542	28995.446552
459.548398	30366.020337
459.921194	32007.989679
460.293930	32762.063116
460.666607	34859.382241
461.039224	36628.887735
461.411782	36990.119176
461.784280	35672.714441
462.156719	35128.156400
462.529099	34569.193261
462.901419	33222.401120
463.273680	32185.967616
463.645882	32323.016424
464.018024	32330.300892
464.390106	33281.982518
464.762130	36222.580817
465.134094	40592.709196
465.505999	46086.238544
465.877845	50574.498801
466.249631	51534.909185
466.621358	49681.791113
466.993026	47449.991647
467.364634	45322.879302
467.736184	43368.532341
468.107674	42088.457350
468.479105	41290.460341
468.850477	40568.771277
469.221790	39114.131211
469.593043	37337.860488
469.964238	36440.487213
470.335373	36394.030460
470.706449	38302.694485
471.077467	41119.103960
471.448425	45761.195026
471.819324	48459.825503
472.190164	46397.018117
472.560945	42783.377887
472.931667	39640.145368
473.302330	38551.631703
473.672934	37722.180414
474.043479	38264.278372
474.413965	37466.140210
474.784393	37096.681606
475.154761	38020.190744
475.525070	38062.947290
475.895321	37585.214784
476.265513	38208.296358
476.635645	39227.708407
477.005719	39059.157428
477.375734	39588.902039
477.745691	40306.280916
478.115588	41686.221164
478.485427	43840.923744
478.855207	47332.686518
479.224928	49979.554427
479.594591	51487.915548
479.964194	50393.528939
480.333739	50519.482168
480.703226	50603.049376
481.072653	51276.267745
481.442022	51736.883013
481.811333	51945.959828
482.180584	50659.497696
482.549777	50136.296503
482.918912	49605.279001
483.287988	49288.404673
483.657005	48439.751628
484.025964	47780.212430
484.394864	47782.506155
484.763706	47344.034155
485.132489	46448.027032
485.501213	46290.838814
485.869879	46448.906713
486.238487	46026.614297
486.607036	46223.383134
486.975527	45657.685014
487.343959	45890.324182
487.712333	45949.088912
488.080648	45843.890114
488.448905	46304.066802
488.817104	46126.998793
489.185244	47156.891401
489.553326	48950.160894
489.921350	51691.646219
490.289315	54490.774619
490.657222	54985.251317
491.025070	55189.849067
491.392861	54280.906343
491.760593	53015.894320
492.128267	51310.988692
492.495883	49766.210275
492.863440	48350.596302
493.230939	46982.152405
493.598380	45885.378810
493.965763	45539.086829
494.333088	44708.569336
494.700354	44212.219848
495.067563	43918.066001
495.434713	43773.889001
495.801805	43844.755021
496.168839	43450.420844
496.535815	43105.575674
496.902733	43133.339829
497.269593	42694.119218
497.636395	42627.545740
498.003139	43027.644477
498.369825	42472.857934
498.736453	42776.995787
499.103023	42289.876652
499.469535	42153.321877
499.835989	42251.952052
500.202385	41907.626121
500.568723	41918.459560
500.935003	42116.387863
501.301226	41898.801581
501.667390	42529.759958
502.033497	42781.174903
502.399546	42199.677807
502.765537	41491.327636
503.131470	41875.214022
503.497345	42242.323448
503.863163	40868.563655
504.228923	41503.529749
504.594625	41924.950046
504.960269	41182.982941
505.325856	41889.223389
505.691385	41245.205903
506.056856	41383.610781
506.422270	41822.465909
506.787625	41378.879658
507.152924	41596.324788
507.518164	41689.089581
507.883347	40879.535726
508.248472	41127.447069
508.613540	41625.997020
508.978550	41924.415684
509.343503	41670.729699
509.708398	41879.355330
510.073236	42424.067127
510.438016	42393.432035
510.802738	41862.870757
511.167403	42492.692354
511.532010	42715.544121
511.896561	43028.627502
512.261053	43886.702462
512.625488	43427.299592
512.989866	43307.189060
513.354186	43142.093792
513.718449	43132.989468
514.082655	43815.939786
514.446803	43481.139115
514.810894	44020.154408
515.174927	43930.699133
515.538904	43810.694465
515.902822	44495.086553
516.266684	43928.659986
516.630488	44365.423034
516.994235	44211.110795
517.357925	44782.734791
517.721558	44978.848278
518.085133	45277.176201
518.448651	45412.052272
518.812112	45171.501014
519.175516	45279.452282
519.538863	45612.982582
519.902152	45583.630464
520.265385	46031.753753
520.628560	46061.748618
520.991678	45852.669283
521.354739	46098.327231
521.717743	46401.066163
522.080690	46297.384752
522.443580	46841.683174
522.806413	46870.024541
523.169189	46850.721963
523.531908	47019.451903
523.894569	46868.071094
524.257174	47032.606794
524.619722	47322.894076
524.982213	47324.116556
525.344647	47234.590705
525.707025	47295.039181
526.069345	47685.486628
526.431608	47590.770909
526.793815	47925.276673
527.155964	47441.812375
527.518057	47613.798900
527.880093	47396.399140
528.242072	47922.090663
528.603995	47629.045870
528.965860	47618.610681
529.327669	47725.626816
529.689421	47616.745454
530.051117	47577.709280
530.412755	47733.014627
530.774337	47795.300603
531.135862	47590.770909
531.497331	47796.810429
531.858743	47683.051751
532.220098	48027.032363
532.581396	47738.159124
532.942638	47390.614416
533.303824	47715.746154
533.664953	47692.327474
534.026025	47397.810663
534.387040	47870.043271
534.747999	47839.413220
535.108902	47975.920104
535.469748	47475.731778
535.830537	47604.840770
536.191270	47788.351372
536.551947	47444.731203
536.912567	47755.493132
537.273131	47885.854850
537.633638	47380.827016
537.994089	47703.221408
538.354483	47297.801733
538.714821	47866.988331
539.075103	48206.008448
539.435328	47962.273701
539.795497	47849.369499
540.155609	47826.318823
540.515665	48316.412238
540.875665	47753.932895
541.235609	48064.835976
541.595496	48055.678720
541.955328	48718.973578
542.315102	48072.369980
542.674821	47855.733955
543.034483	47893.169564
543.394090	47861.221251
543.753640	47811.959096
544.113134	48823.496862
544.472571	47792.157444
544.831953	49046.078928
545.191278	48242.806351
545.550548	47961.948546
545.909761	48433.848437
546.268918	48614.712434
546.628019	48922.479918
546.987064	48488.073609
547.346053	47736.961850
547.704986	48621.076891
548.063863	48153.156991
548.422684	48334.545268
548.781449	48164.769289
549.140158	48560.663703
549.498811	48416.290098
549.857408	47822.454778
550.215949	48680.328093
550.574434	48590.983723
550.932864	48345.474490
551.291237	49059.163243
551.649555	48647.696704
552.007817	48877.830418
552.366022	48535.155465
552.724173	48692.268066
553.082267	49090.680537
553.440305	49351.398931
553.798288	48639.837545
554.156215	48950.294484
554.514086	49166.852371
554.871902	48890.801307
555.229661	48901.324716
555.587365	48715.091890
555.945014	48825.649435
556.302606	48731.941947
556.660143	48953.951841
557.017625	49024.898520
557.375050	48799.001896
557.732421	49142.175923
558.089735	49102.121435
558.446994	49016.275626
558.804197	49490.539818
559.161345	49383.543849
559.518437	48622.947159
559.875474	48945.071849
560.232455	49098.453996
560.589381	49279.706162
560.946251	48964.296289
561.303065	49626.424120
561.659825	49419.280588
562.016528	49077.765100
562.373177	48795.430238
562.729770	49264.096229
563.086307	48783.588568
563.442789	49231.603472
563.799216	49247.440257
564.155587	49027.353562
564.511904	49058.376823
564.868164	49130.235950
565.224370	49355.570486
565.580520	49096.939129
565.936615	49287.030958
566.292654	49004.123925
566.648638	49253.696328
567.004567	49187.747954
567.360441	49241.579915
567.716260	49098.907700
568.072023	49365.451147
568.427732	49335.022743
568.783385	48871.125684
569.138982	49250.061657
569.494525	49182.500113
569.850013	48940.461714
570.205445	48920.985216
570.560823	48858.825268
570.916145	48718.038444
571.271412	48757.180483
571.626625	48488.751644
571.981782	48509.632103
572.336884	48196.699958
572.691931	48512.014048
573.046923	48102.833673
573.401860	47933.566850
573.756743	47905.348992
574.111570	47996.949278
574.466342	47837.895832
574.821059	47938.043395
575.175722	47449.358982
575.530330	47462.271898
575.884882	47156.084816
576.239380	47102.141949
576.593823	47070.279336
576.948211	46984.882190
577.302544	46494.130904
577.656823	46504.321597
578.011047	46711.044193
578.365216	46437.065043
578.719330	46199.046964
579.073389	46049.420477
579.427394	46138.825340
579.781344	46078.349138
580.135239	45716.842955
580.489080	45794.106199
580.842866	45267.421569
581.196597	45701.008690
581.550273	45643.703374
581.903895	45497.572927
582.257463	45897.628814
582.610975	45272.981961
582.964434	45554.260702
583.317837	45181.278332
583.671186	45005.112690
584.024481	45204.356734
584.377721	44712.395571
584.730906	45000.862997
585.084037	45031.767791
585.437113	44730.609260
585.790135	44747.729019
586.143103	44334.493035
586.496016	44441.675528
586.848874	44452.887054
587.201679	44472.857585
587.554428	43936.874546
587.907124	44123.185510
588.259765	43888.229932
588.612352	44099.482004
588.964884	43484.136081
589.317362	43760.421558
589.669786	43696.708936
590.022155	43454.045433
590.374470	43858.855128
590.726731	43373.875964
591.078937	42871.708985
591.431090	42978.722599
591.783188	42635.687203
592.135232	42294.448979
592.487222	42551.794842
592.839157	42621.070378
593.191038	42269.323868
593.542866	42017.757688
593.894639	41429.591146
594.246358	41707.895605
594.598022	41670.797754
594.949633	41276.892075
595.301190	41233.674263
595.652692	41055.252705
596.004141	41360.650846
596.355535	40377.172142
596.706876	40311.473305
597.058162	40165.463845
597.409395	40607.240322
597.760573	40685.917610
598.111698	40256.396178
598.462768	40268.789855
598.813785	40308.378036
599.164748	39756.679201
599.515657	40129.931273
599.866511	39608.136561
600.217312	40235.855997
600.568060	39202.726969
600.918753	39951.043408
601.269392	39897.493751
601.619978	39537.444461
601.970510	39750.990258
602.320988	39934.369791
602.671412	40233.395914
603.021783	39990.591260
603.372100	39630.355447
603.722363	39726.545703
604.072572	39803.599740
604.422728	39813.729939
604.772830	39628.898553
605.122878	39739.491387
605.472872	39662.016414
605.822813	39933.787538
606.172701	39761.680025
606.522534	40003.731027
606.872314	40264.046129
607.222041	40024.019151
607.571714	40398.723075
607.921333	39849.570022
608.270899	40132.247683
608.620411	40479.943625
608.969870	40270.032500
609.319276	40279.131782
609.668627	40321.215335
610.017926	40811.124748
610.367171	40963.302059
610.716362	41048.593341
611.065500	40979.814358
611.414585	41166.689931
611.763616	41468.531538
612.112594	41413.404001
612.461518	41627.216979
612.810389	41926.096908
613.159207	41790.197483
613.507971	41859.311702
613.856682	42318.749861
614.205340	42226.408525
614.553945	42934.103346
614.902496	42385.000705
615.250994	42859.383364
615.599439	42917.956531
615.947830	43118.632262
616.296169	43184.638610
616.644454	43304.555057
616.992686	43490.009025
617.340864	43992.458308
617.688990	43710.604876
618.037063	44325.721427
618.385082	44271.271925
618.733048	44573.118573
619.080961	44575.921454
619.428821	44608.711640
619.776628	44711.026898
620.124382	44543.335436
620.472083	44669.991906
620.819731	44800.267924
621.167326	44461.046161
621.514868	44448.965036
621.862357	43985.403213
622.209793	44040.535792
622.557176	43693.480077
622.904506	43435.980459
623.251783	43086.721758
623.599007	42857.734907
623.946179	42648.302691
624.293297	42604.381638
624.640363	42007.309897
624.987376	41991.142917
625.334336	41745.517737
625.681243	41394.497153
626.028097	41357.300999
626.374899	41226.281411
626.721647	41202.124202
627.068343	41085.565163
627.414987	40850.518844
627.761577	40630.807716
628.108115	40960.736112
628.454600	40418.365931
628.801032	40617.088216
629.147412	40576.643038
629.493739	40559.452704
629.840014	40212.772554
630.186236	40554.688813
630.532405	40141.646914
630.878521	40376.453778
631.224585	40243.205999
631.570597	39952.018871
631.916556	40112.917378
632.262462	40071.307694
632.608316	40081.649622
632.954117	39971.991923
633.299866	39958.983225
633.645562	39877.198066
633.991206	39405.885469
634.336797	38949.872774
634.682336	38950.386972
635.027823	38704.189621
635.373257	38524.616159
635.718639	38290.129409
636.063968	38131.428845
636.409245	37564.961949
636.754470	37615.766697
637.099642	37378.708958
637.444762	36896.220123
637.789829	37046.098668
638.134845	36706.375311
638.479808	36642.251834
638.824719	36554.238329
639.169577	36166.613927
639.514383	36234.346870
639.859137	35898.031333
640.203839	36155.682185
640.548489	35797.188091
640.893086	35867.686107
641.237632	35623.401874
641.582125	35741.967292
641.926566	35666.634809
642.270955	35624.034539
642.615292	35655.171226
642.959576	35615.595647
643.303809	35624.450434
643.647990	35790.533768
643.992118	35748.298981
644.336195	35729.654274
644.680219	35829.567422
645.024192	36126.105736
645.368112	36638.705382
645.711981	36641.203274
646.055797	37514.008486
646.399562	37447.515667
646.743274	38401.750637
647.086935	38841.127524
647.430544	38710.753203
647.774101	38840.636012
648.117606	39084.307745
648.461059	39381.556861
648.804460	38969.550918
649.147810	38361.517188
649.491108	38109.469578
649.834354	37731.244408
650.177548	36894.478405
650.520690	36458.574873
650.863781	36480.826526
651.206820	36332.535944
651.549807	35880.694805
651.892742	35389.338580
652.235626	35213.593875
652.578458	35079.385757
652.921238	34476.062985
653.263967	34798.631296
653.606644	34482.482894
653.949269	34430.443063
654.291843	34007.059237
654.634365	34415.463275
654.976836	34017.368397
655.319255	34033.275758
655.661622	34027.244017
656.003938	33810.184535
656.346203	33670.912578
656.688416	33892.367946
657.030577	33675.686551
657.372687	33525.248437
657.714746	33781.651604
658.056753	33913.941564
658.398708	33360.450598
658.740612	33416.982097
659.082465	33701.421641
659.424266	33523.786503
659.766016	33635.831188
660.107715	33505.855119
660.449362	33626.542862
660.790958	33607.109214
661.132503	33622.146976
661.473996	33649.946419
661.815438	33778.972231
662.156829	33960.390755
662.498168	33719.927717
662.839456	33758.205198
663.180693	33895.135539
663.521879	34070.045934
663.863013	34014.857902
664.204097	34023.816032
664.545129	34463.258454
664.886110	34435.668219
665.227040	34493.215511
665.567918	34623.410871
665.908746	34690.637178
666.249522	34854.630954
666.590248	34864.882140
666.930922	34957.374710
667.271545	34923.109988
667.612118	34991.354608
667.952639	34759.761479
668.293109	34834.375597
668.633528	34726.731839
668.973896	34660.561654
669.314213	34687.201632
669.654480	34425.860654
669.994695	34451.089109
670.334859	34322.204449
670.674973	34224.753904
671.015035	34381.072523
671.355047	34326.887681
671.695008	34275.566214
672.034918	34168.918084
672.374777	34265.373001
672.714585	34092.927731
673.054342	34323.134542
673.394049	34068.029472
673.733705	34349.444324
674.073310	34015.861092
674.412864	34085.020681
674.752368	33693.287739
675.091820	34000.092362
675.431223	33570.757454
675.770574	33274.186373
676.109875	33123.181130
676.449125	32850.769779
676.788324	32777.993162
677.127473	32236.520307
677.466571	32156.721362
677.805619	31821.943376
678.144616	31822.011432
678.483562	31718.602243
678.822458	31413.688052
679.161303	31329.397439
679.500098	31249.278381
679.838842	31141.448101
680.177535	31293.590124
680.516179	31576.177044
680.854771	31831.209017
681.193314	32699.542726
681.531805	33839.395501
681.870247	34587.449800
682.208638	35295.905835
682.546978	35507.135222
682.885268	35579.934525
683.223508	35068.080969
683.561697	34721.660439
683.899836	34523.918658
684.237925	34036.169380
684.575963	33876.964700
684.913951	33414.373300
685.251889	33575.022270
685.589776	33557.302614
685.927614	33555.747418
686.265401	33706.074626
686.603137	33796.986794
686.940824	34312.686751
687.278460	34684.870098
687.616046	34793.328002
687.953582	35406.866672
688.291068	35257.209938
688.628504	35556.004168
688.965889	35480.535574
689.303224	35084.121921
689.640510	34729.615379
689.977745	33986.309848
690.314930	33170.976310
690.652065	32673.079188
690.989150	31932.097629
691.326185	31008.444818
691.663170	30318.066361
692.000105	29569.230683
692.336990	28884.730211
692.673825	28435.487786
693.010610	27919.581143
693.347345	27325.534094
693.684030	26663.688567
694.020665	26384.378397
694.357251	25709.854368
694.693786	25669.005899
695.030272	25434.877070
695.366707	24875.888726
695.703093	24596.603762
696.039429	24592.684265
696.375716	24320.872811
696.711952	24291.883656
697.048139	24125.487770
697.384276	23952.470329
697.720363	24084.009156
698.056400	23878.375450
698.392388	23646.840295
698.728326	23615.897693
699.064214	23406.210898
699.400053	23348.197300
699.735842	22984.886383
700.071581	22708.759702
700.407270	22419.026946
700.742910	22216.549002
701.078501	21950.938168
701.414042	21672.192607
701.749533	21363.406810
702.084974	21006.747696
702.420366	21220.323741
702.755709	20787.029006
703.091002	20487.453397
703.426246	20495.433544
703.761440	20399.795294
704.096584	20124.616349
704.431679	20074.562733
704.766725	19984.837756
705.101721	19927.885321
705.436668	20011.636530
705.771565	19686.789617
706.106413	20039.690551
706.441212	20020.256903
706.775961	20158.021555
707.110661	20231.365303
707.445311	20577.821121
707.779913	20414.747356
708.114465	20663.457722
708.448967	20949.270981
708.783421	21644.725880
709.117825	21911.619688
709.452180	22118.564095
709.786485	22527.434439
710.120742	23334.021575
710.454949	23335.768335
710.789107	23801.160096
711.123216	24510.515977
711.457275	24623.934377
711.791286	25162.742983
712.125247	25228.877880
712.459159	24920.671816
712.793023	25574.537196
713.126837	24464.462517
713.460602	24729.004626
713.794318	24351.994374
714.127985	23969.385921
714.461602	23052.909193
714.795171	23006.674250
715.128691	21982.384885
715.462162	21459.309721
715.795584	21032.215606
716.128957	20772.026532
716.462281	20377.107581
716.795556	20126.975609
717.128782	19622.109093
717.461960	19076.930990
717.795088	18992.877311
718.128167	18605.565461
718.461198	18134.194891
718.794180	17992.815732
719.127113	17626.573384
719.459997	17432.373014
719.792833	17083.003409
720.125619	17052.234726
720.458357	16727.284470
720.791046	16547.297634
721.123686	16397.862710
721.456278	16156.933365
721.788821	16118.209742
722.121315	15861.725916
722.453761	15940.556960
722.786158	15860.911770
723.118506	15863.644075
723.450805	15722.645523
723.783056	15890.878909
724.115259	15781.952177
724.447412	15709.783019
724.779518	15960.335927
725.111574	15974.549460
725.443582	16182.184505
725.775542	16165.825960
726.107453	16638.517312
726.439315	16505.014956
726.771129	16914.344045
727.102895	17275.741844
727.434612	17480.740365
727.766281	17613.007639
728.097901	17848.913474
728.429473	17901.061690
728.760996	17879.409935
729.092471	17965.946382
729.423897	17841.918873
729.755276	17712.598154
730.086606	17836.865117
730.417887	18368.863123
730.749120	18871.461121
731.080305	19048.299756
731.411442	19348.800417
731.742530	19425.262117
732.073570	19521.318783
732.404562	19808.745211
732.735506	19622.590523
733.066401	19322.639349
733.397249	18787.404921
733.728048	18156.577614
734.058798	17315.907237
734.389501	16633.551776
734.720156	16195.145311
735.050762	15652.757487
735.381320	15303.503827
735.711831	15062.282095
736.042293	14718.195619
736.372707	14732.915788
736.703073	14532.476991
737.033391	14714.467686
737.363661	14687.827708
737.693883	14785.374035
738.024056	14954.177072
738.354182	15139.371420
738.684260	15417.277629
739.014290	15636.771988
739.344272	15819.435677
739.674207	16088.519866
740.004093	16204.105962
740.333931	16195.399889
740.663722	16233.405148
740.993464	16220.129270
741.323159	16040.815427
741.652806	15765.260917
741.982405	15554.349122
742.311956	15212.022009
742.641460	15099.374905
742.970915	14802.143433
743.300323	14464.534840
743.629683	14256.509106
743.958996	13978.998628
744.288260	13707.877812
744.617477	13412.292277
744.946647	13345.126464
745.275768	13065.024832
745.604842	12879.354095
745.933869	12709.081562
746.262847	12668.185202
746.591778	12585.974065
746.920662	12486.063437
747.249498	12482.201913
747.578286	12602.879574
747.907027	12747.749733
748.235720	12964.030356
748.564365	12992.533040
748.892963	12893.081157
749.221514	12939.689145
749.550017	12797.142958
749.878473	12758.036207
750.206881	12521.868232
750.535242	12441.764297
750.863555	12359.240609
751.191821	12255.004671
751.520039	12279.741613
751.848210	12188.723580
752.176334	12218.060575
752.504411	12126.954322
752.832440	11963.643623
753.160421	12020.830472
753.488356	11906.434088
753.816243	11823.507107
754.144082	11670.671926
754.471875	11614.203441
754.799620	11560.875595
755.127318	11531.866275
755.454969	11500.333858
755.782572	11445.327308
756.110129	11460.387755
756.437638	11374.907429
756.765100	11375.651000
757.092515	11371.363498
757.419882	11387.054090
757.747203	11396.624720
758.074477	11461.335492
758.401703	11417.386712
758.728882	11580.740262
759.056014	11614.944490
759.383099	11733.882954
759.710138	11832.122439
760.037129	11917.703587
760.364073	11929.517532
760.690970	11913.552197
761.017820	11924.846903
761.344623	12106.361208
761.671379	12443.609360
761.998088	13099.728136
762.324751	14713.497264
762.651366	17618.147095
762.977935	21190.984225
763.304456	23281.001240
763.630931	23644.375171
763.957359	22430.586312
764.283740	20534.739421
764.610074	18684.525054
764.936362	16584.874394
765.262602	15102.326501
765.588796	13661.274865
765.914943	12654.145588
766.241044	11825.246305
766.567097	11201.703466
766.893104	10663.709007
767.219064	10306.364296
767.544978	9932.431668
767.870845	9628.563517
768.196665	9441.622409
768.522438	9246.625537
768.848165	9090.758101
769.173846	8918.703520
769.499479	8801.625243
769.825066	8644.414340
770.150607	8464.175446
770.476101	8402.940550
770.801548	8291.551214
771.126949	8150.897981
771.452303	8061.583858
771.777611	7906.712050
772.102872	7882.322948
772.428087	7766.986389
772.753256	7643.803274
773.078378	7557.375212
773.403453	7414.007318
773.728482	7308.289280
774.053465	7240.929383
774.378401	7156.933677
774.703291	7069.769607
775.028135	6967.590459
775.352932	6926.618481
775.677683	6848.052099
776.002388	6763.585045
776.327046	6761.790395
776.651658	6678.709659
776.976224	6605.549913
777.300743	6588.367141
777.625216	6520.031780
777.949643	6478.046530
778.274024	6482.666747
778.598359	6411.823412
778.922647	6418.273569
779.246889	6376.084152
779.571086	6385.511110
779.895236	6396.077368
780.219339	6392.404888
780.543397	6390.456482
780.867409	6447.106448
781.191374	6435.322751
781.515294	6405.703452
781.839167	6447.436644
782.162995	6421.520072
782.486776	6374.297063
782.810511	6327.134548
783.134201	6259.746924
783.457844	6250.705615
783.781441	6200.820877
784.104993	6154.880842
784.428498	6129.889322
784.751958	6112.890551
785.075372	6087.301654
785.398739	6044.875303
785.722061	6069.876906
786.045337	6071.232976
786.368568	6183.149112
786.691752	6204.543769
787.014891	6463.772503
787.337983	6745.172231
787.661030	7177.277253
787.984031	7594.309226
788.306987	7840.816608
788.629897	7907.143069
788.952760	7816.538411
789.275579	7636.133159
789.598351	7344.799837
789.921078	7082.543890
790.243759	6807.299411
790.566395	6606.540500
790.888984	6414.724596
791.211529	6284.070492
791.534027	6126.332788
791.856480	5995.809753
792.178888	5934.932779
792.501249	5864.858220
792.823566	5766.608652
793.145836	5760.201346
793.468062	5739.474642
793.790241	5702.228076
794.112375	5740.608901
794.434464	5846.084963
794.756507	5875.064036
795.078505	5991.847406
795.400457	6215.188165
795.722364	6447.441685
796.044226	6632.026053
796.366042	6782.098683
796.687812	6721.125927
797.009538	6752.123982
797.331218	6661.121073
797.652852	6599.447597
797.974442	6474.547969
798.295986	6402.363687
798.617484	6276.077742
798.938938	6170.846176
799.260346	6105.036433
799.581709	5967.632223
799.903026	5915.935191
800.224299	5841.477348
800.545526	5735.174537
800.866708	5666.670298
801.187845	5617.264469
801.508936	5544.775198
801.829983	5514.563563
802.150984	5414.968007
802.471940	5384.007760
802.792851	5365.305080
803.113717	5347.240105
803.434538	5320.098533
803.755314	5290.358245
804.076045	5282.799035
804.396731	5247.679837
804.717372	5263.609883
805.037967	5268.217498
805.358518	5291.719357
805.679024	5348.991906
805.999485	5357.145972
806.319901	5370.946131
806.640272	5386.278800
806.960598	5439.178148
807.280879	5427.863278
807.601115	5463.158917
807.921306	5428.011992
808.241453	5420.871198
808.561554	5429.398310
808.881611	5398.319596
809.201623	5393.510335
809.521590	5347.449313
809.841513	5333.782745
810.161390	5351.215055
810.481223	5260.819604
810.801011	5248.385598
811.120755	5223.799891
811.440453	5173.894989
811.760107	5142.420545
812.079716	5119.011947
812.399281	5067.176282
812.718801	5061.792330
813.038276	5027.968708
813.357707	4991.448069
813.677093	5012.522613
813.996434	4951.917861
814.315731	4973.892251
814.634983	4972.717662
814.954191	4978.537674
815.273354	5036.899112
815.592473	5081.765382
815.911547	5153.627030
816.230577	5203.864648
816.549562	5289.586949
816.868502	5342.322459
817.187399	5393.006220
817.506250	5473.868848
817.825058	5499.974463
818.143821	5654.657228
818.462539	5821.131252
818.781213	6054.602210
819.099843	6416.327683
819.418429	7046.260186
819.736970	7658.732652
820.055466	8348.901901
820.373919	9269.250235
820.692327	10750.096739
821.010691	13545.691290
821.329011	19887.147756
821.647286	29320.046448
821.965517	39251.374104
822.283704	44143.324919
822.601847	45256.527635
822.919945	40664.417088
823.237999	35695.273604
823.556010	30694.471674
823.873976	26159.641238
824.191897	22130.239407
824.509775	19164.034566
824.827609	16514.714136
825.145398	15043.604620
825.463144	14356.875958
825.780845	14712.909969
826.098502	16011.765778
826.416116	18416.375998
826.733685	20538.744617
827.051210	20895.670913
827.368692	19400.288241
827.686129	16897.919966
828.003522	14522.359395
828.320872	12389.086760
828.638177	10812.904475
828.955439	9614.158420
829.272656	8593.044982
829.589830	7780.085827
829.906960	7069.943526
830.224046	6553.605864
830.541088	6160.902500
830.858086	5913.938894
831.175041	5716.552515
831.491952	5666.536707
831.808819	5705.477100
832.125642	5960.723322
832.442421	6533.552154
832.759157	7659.337590
833.075849	9413.444879
833.392497	11188.432628
833.709101	12189.353724
834.025662	11858.452386
834.342179	10804.810903
834.658653	9542.659735
834.975083	8488.872058
835.291469	7616.921322
835.607811	6906.224493
835.924110	6404.929634
836.240366	5931.903046
836.556578	5490.895345
836.872746	5153.748017
837.188871	4888.885794
837.504952	4673.512578
837.820990	4511.658773
838.136984	4399.293974
838.452935	4360.961040
838.768842	4396.833891
839.084706	4700.066856
839.400526	5453.850426
839.716303	6323.683878
840.032037	6834.418298
840.347727	6648.359392
840.663373	6053.624226
840.978977	5498.782231
841.294537	5078.216409
841.610054	4759.643212
841.925527	4525.930279
842.240957	4328.143128
842.556344	4144.088081
842.871687	3993.980163
843.186987	3848.394161
843.502244	3734.738827
843.817458	3648.472082
844.132629	3578.959611
844.447756	3530.320038
844.762840	3486.842607
845.077881	3448.698717
845.392879	3417.161258
845.707833	3390.722927
846.022745	3365.033207
846.337613	3349.879498
846.652438	3331.668330
846.967221	3321.880930
847.281960	3300.965183
847.596656	3293.335396
847.911309	3285.231741
848.225919	3270.166253
848.540485	3259.123606
848.855009	3253.283429
849.169490	3243.059969
849.483928	3234.696695
849.798323	3227.949110
850.112675	3218.466700
850.426984	3219.853017
850.741251	3210.199207
851.055474	3211.537634
851.369654	3210.761296
851.683792	3209.949670
851.997887	3210.879763
852.311938	3210.443703
852.625947	3211.235165
852.939914	3202.113197
853.253837	3209.755586
853.567718	3204.931202
853.881555	3200.618495
854.195350	3205.725183
854.509103	3203.229812
854.822812	3201.349462
855.136479	3192.494675
855.450103	3199.622867
855.763685	3193.608770
856.077224	3196.399049
856.390720	3205.410111
856.704173	3212.805484
857.017584	3219.812688
857.330953	3222.192112
857.644278	3231.324163
857.957561	3236.816500
858.270802	3234.210223
858.584000	3230.439440
858.897155	3225.362998
859.210268	3216.109960
859.523339	3205.089998
859.836367	3199.670758
860.149352	3198.181097
860.462295	3191.239428
860.775195	3182.225845
861.088054	3177.068744
861.400869	3180.053107
861.713642	3175.362314
862.026373	3184.252389
862.339062	3189.354036
862.651708	3203.136551
862.964312	3217.140876
863.276873	3223.641444
863.589392	3253.233017
863.901869	3277.342336
864.214303	3298.638690
864.526696	3317.908501
864.839045	3329.409893
865.151353	3345.027388
865.463619	3346.391020
865.775842	3348.651977
866.088023	3351.311186
866.400162	3347.374045
866.712258	3347.706761
867.024313	3346.411184
867.336325	3343.063858
867.648296	3347.278263
867.960224	3340.797860
868.272110	3347.326154
868.583954	3344.903879
868.895755	3351.661546
869.207515	3349.201463
869.519233	3369.222406
869.830909	3376.680793
870.142542	3386.427864
870.454134	3394.423134
870.765684	3406.342942
871.077191	3424.390273
871.388657	3439.183539
871.700081	3454.160807
872.011463	3472.850885
872.322803	3493.796879
872.634101	3508.638036
872.945357	3533.609391
873.256571	3557.033113
873.567744	3572.920309
873.878874	3578.553798
874.189963	3589.714913
874.501010	3593.762960
874.812015	3590.171137
875.122979	3604.089763
875.433900	3602.388374
875.744780	3606.370885
876.055618	3615.495374
876.366415	3612.011937
876.677169	3619.876137
876.987882	3637.230309
877.298554	3652.144562
877.609183	3694.858259
877.919771	3741.163777
878.230317	3813.562308
878.540822	3911.332967
878.851285	4065.650248
879.161707	4286.682159
879.472087	4668.731044
879.782425	5303.563548
880.092722	6499.907493
880.402977	8421.895288
880.713191	10727.582946
881.023363	12986.476094
881.333494	14186.752139
881.643583	14569.476539
881.953631	14121.519609
882.263637	13312.043892
882.573602	12326.692399
882.883526	11417.787484
883.193408	10504.368216
883.503248	9621.158062
883.813048	8830.253956
884.122806	8086.313238
884.432522	7344.300763
884.742197	6704.008689
885.051831	6164.156565
885.361424	5690.492270
885.670975	5308.080422
885.980485	4999.844111
886.289954	4737.646138
886.599382	4530.981515
886.908768	4358.165720
887.218113	4193.065411
887.527417	4070.514961
887.836680	3950.837969
888.145901	3852.404399
888.455082	3774.574025
888.764221	3710.790826
889.073319	3652.696569
889.382376	3623.480562
889.691392	3597.311932
890.000366	3588.772217
890.309300	3588.482351
890.618193	3590.823967
890.927044	3583.907504
891.235855	3589.714913
891.544625	3606.590176
891.853353	3638.694764
892.162041	3695.687529
892.470687	3792.402065
892.779293	3912.215169
893.087858	4085.489709
893.396381	4365.140157
893.704864	4782.492242
894.013306	5338.284495
894.321707	5884.929574
894.630068	6202.920517
894.938387	6217.340738
895.246665	6032.274939
895.554903	5725.462754
895.863100	5400.111726
896.171256	5143.378364
896.479371	4915.792953
896.787446	4695.509653
897.095480	4509.722969
897.403473	4364.167214
897.711425	4225.333837
898.019336	4107.872432
898.327207	3984.732167
898.635038	3891.886716
898.942827	3783.514511
899.250576	3703.014846
899.558284	3622.379069
899.865952	3566.515523
900.173579	3502.364320
900.481165	3460.860500
900.788711	3417.400713
901.096216	3389.991959
901.403681	3361.474152
901.711105	3351.550641
902.018489	3352.042153
902.325832	3384.771845
902.633135	3447.582101
902.940397	3629.847539
903.247619	4044.396743
903.554800	4795.261485
903.861941	5721.888576
904.169041	6368.784561
904.476101	6535.117432
904.783121	6254.015132
905.090100	5862.072983
905.397039	5471.723837
905.703938	5127.614676
906.010796	4823.509591
906.317614	4572.545829
906.624391	4345.819934
906.931129	4155.103002
907.237826	3980.575735
907.544483	3815.445179
907.851099	3646.437976
908.157675	3493.791838
908.464211	3353.408306
908.770707	3260.719131
909.077163	3184.978315
909.383578	3121.837863
909.689954	3083.409147
909.996289	3053.910835
910.302584	3033.128679
910.608839	3019.457069
910.915054	3009.899042
911.221229	3004.126921
911.527363	3010.408198
911.833458	3018.804240
912.139513	3030.255221
912.445527	3039.840975
912.751502	3078.894794
913.057436	3123.577061
913.363331	3179.695186
913.669186	3268.648866
913.975000	3388.358626
914.280775	3575.292172
914.586510	3848.177391
914.892205	4217.162127
915.197859	4709.415676
915.503475	5268.484679
915.809050	5727.857303
916.114585	5989.057127
916.420081	6035.367687
916.725536	5965.371266
917.030952	5739.031020
917.336328	5537.314290
917.641665	5335.448846
917.946961	5118.137307
918.252218	4928.660498
918.557435	4708.798135
918.862612	4519.464999
919.167750	4351.234134
919.472848	4167.204292
919.777906	4004.490969
920.082925	3850.007330
920.387904	3700.700956
920.692843	3598.093311
920.997743	3503.775843
921.302603	3410.726225
921.607423	3346.723736
921.912204	3282.199487
922.216946	3234.285841
922.521647	3189.530477
922.826310	3151.109323
923.130932	3112.158847
923.435516	3071.943043
923.740059	3047.155689
924.044564	3014.501615
924.349028	2992.060919
924.653454	2964.551342
924.957840	2936.613268
925.262186	2919.059970
925.566493	2896.087432
925.870761	2871.726056
926.174989	2862.440251
926.479178	2848.690503
926.783328	2829.211485
927.087438	2821.019610
927.391509	2807.912610
927.695541	2795.924746
927.999533	2786.117181
928.303486	2776.448248
928.607400	2772.435490
928.911275	2768.228647
929.215110	2760.621546
929.518906	2754.950248
929.822663	2756.780187
930.126381	2755.411513
930.430060	2759.300763
930.733699	2763.036258
931.037299	2764.830909
931.340861	2763.101793
931.644383	2768.629419
931.947866	2767.396857
932.251309	2762.597678
932.554714	2763.527771
932.858080	2765.251846
933.161407	2756.568458
933.464694	2751.897829
933.767943	2753.127871
934.071153	2749.823394
934.374323	2742.937178
934.677455	2742.501118
934.980548	2737.959039
935.283602	2735.115828
935.586617	2733.069119
935.889593	2736.572721
936.192530	2738.206055
936.495428	2744.484812
936.798287	2752.966554
937.101108	2765.380395
937.403890	2789.507357
937.706632	2814.438384
938.009336	2846.754700
938.312002	2874.039946
938.614628	2893.692884
938.917216	2914.159968
939.219765	2922.346802
939.522275	2931.882145
939.824747	2935.050510
940.127179	2927.730755
940.429573	2921.772111
940.731929	2920.335382
941.034246	2912.811460
941.336524	2910.540420
941.638763	2903.949111
941.940964	2897.708163
942.243126	2880.681666
942.545250	2871.179091
942.847335	2857.482276
943.149381	2840.596931
943.451389	2833.254490
943.753359	2817.881492
944.055290	2811.043167
944.357182	2800.537402
944.659036	2798.853657
944.960851	2792.403500
945.262628	2787.987449
945.564367	2790.692028
945.866067	2788.300001
946.167729	2786.349074
946.469352	2787.470731
946.770937	2783.463014
947.072484	2778.696603
947.373992	2778.310955
947.675462	2771.724687
947.976893	2766.544902
948.278286	2763.714294
948.579641	2759.885537
948.880958	2758.494179
949.182236	2758.526946
949.483476	2753.858838
949.784678	2754.428488
950.085841	2759.386463
950.386967	2760.190527
950.688054	2764.999788
950.989103	2776.843979
951.290114	2779.730039
951.591087	2794.183027
951.892021	2803.700726
952.192917	2820.016420
952.493776	2825.017245
952.794596	2829.735765
953.095378	2831.006136
953.396122	2829.249294
953.696828	2825.909529
953.997496	2821.528767
954.298126	2811.217086
954.598718	2804.335911
954.899272	2792.680764
955.199788	2783.989814
955.500266	2770.708895
955.800706	2754.279774
956.101108	2740.101529
956.401472	2730.311608
956.701798	2715.566233
957.002087	2702.300437
957.302337	2695.484797
957.602550	2684.807633
957.902724	2673.122238
958.202861	2668.000426
958.502960	2657.673622
958.803022	2652.632469
959.103045	2646.714154
959.403031	2641.002527
959.702979	2637.551857
960.002889	2626.337810
960.302762	2623.345885
960.602596	2619.131481
960.902393	2616.928497
961.202153	2614.032354
961.501875	2613.760131
961.801559	2607.743514
962.101205	2608.784512
962.400814	2605.139758
962.700385	2603.705550
962.999918	2602.528441
963.299414	2602.851074
963.598873	2597.764550
963.898293	2595.657348
964.197677	2596.030393
964.497022	2593.320773
964.796331	2596.264807
965.095601	2593.474528
965.394835	2591.735330
965.694030	2591.447984
965.993189	2592.126020
966.292309	2589.507140
966.591393	2592.236925
966.890439	2589.900350
967.189447	2588.163673
967.488419	2588.594691
967.787353	2590.969075
968.086249	2590.701894
968.385108	2596.779005
968.683930	2590.951431
968.982714	2592.952769
969.281462	2593.759353
969.580172	2598.553491
969.878844	2596.718511
970.177480	2601.762185
970.476078	2604.376023
970.774639	2608.293000
971.073162	2607.801487
971.371649	2610.004472
971.670098	2608.585387
971.968510	2610.942126
972.266885	2611.884822
972.565223	2615.524535
972.863524	2616.812550
973.161788	2617.450256
973.460014	2617.243569
973.758204	2619.512088
974.056356	2621.931842
974.354471	2620.840432
974.652550	2622.773714
974.950591	2621.412603
975.248595	2621.609208
975.546563	2618.518981
975.844493	2615.431274
976.142386	2617.624176
976.440243	2611.398351
976.738062	2612.343567
977.035845	2607.758638
977.333590	2608.696292
977.631299	2604.794439
977.928971	2604.993565
978.226606	2603.589603
978.524204	2599.965014
978.821765	2600.892586
979.119290	2599.261773
979.416777	2599.357555
979.714228	2599.929726
980.011642	2599.667586
980.309020	2606.228647
980.606360	2610.107815
980.903664	2617.581326
981.200931	2632.475415
981.498162	2648.662560
981.795356	2677.646674
982.092513	2715.094885
982.389633	2756.122316
982.686717	2793.678912
982.983764	2823.265444
983.280775	2840.249091
983.577749	2839.888649
983.874686	2832.407577
984.171587	2815.108857
984.468451	2798.533543
984.765279	2782.243055
985.062070	2762.935435
985.358824	2748.217787
985.655543	2725.759446
985.952224	2706.764379
986.248869	2681.460307
986.545478	2654.205309
986.842050	2637.072947
987.138586	2619.136522
987.435086	2606.223606
987.731549	2591.967223
988.027975	2592.811617
988.324366	2582.280646
988.620719	2579.230748
988.917037	2575.649008
989.213318	2574.335788
989.509563	2571.016188
989.805772	2571.870663
990.101944	2568.288924
990.398080	2569.135837
990.694180	2567.081567
990.990244	2568.006619
991.286271	2569.415622
991.582262	2566.287586
991.878217	2572.173133
992.174136	2568.213306
992.470019	2572.770509
992.765865	2573.148596
993.061676	2572.389902
993.357450	2578.285532
993.653188	2580.375090
993.948890	2583.581264
994.244556	2590.404466
994.540186	2600.882504
994.835780	2612.666201
995.131337	2625.279168
995.426859	2642.545120
995.722345	2658.225629
996.017795	2680.031140
996.313208	2692.679395
996.608586	2697.871783
996.903928	2699.089222
997.199234	2700.954449
997.494504	2697.586958
997.789738	2687.718899
998.084936	2679.552230
998.380099	2669.505211
998.675225	2659.705207
998.970316	2645.431180
999.265371	2637.090591
999.560390	2619.723816
999.855373	2613.097220
1000.150320	2601.137082
1000.445232	2594.581062
1000.740108	2586.137129
1001.034948	2579.417271
1001.329752	2576.410222
1001.624521	2571.870663
1001.919254	2565.319684
1002.213951	2563.338511
1002.508613	2558.466235
1002.803239	2559.671071
1003.097829	2556.366595
1003.392384	2559.245094
1003.686903	2556.966492
1003.981386	2554.571944
1004.275834	2553.699824
1004.570246	2554.496327
1004.864623	2552.913404
1005.158964	2550.980122
1005.453270	2552.137067
1005.747540	2548.646068
1006.041775	2551.504402
1006.335974	2550.012220
1006.630138	2549.518187
1006.924266	2550.730585
1007.218359	2546.039791
1007.512416	2545.891077
1007.806438	2545.659184
1008.100425	2548.762014
1008.394376	2548.184802
1008.688292	2546.770758
1008.982172	2548.797302
1009.276017	2546.652291
1009.569827	2544.371169
1009.863602	2547.847045
1010.157341	2544.887887
1010.451045	2544.441745
1010.744714	2546.327137
1011.038347	2545.197918
1011.331945	2543.378062
1011.625508	2545.714637
1011.919036	2544.940820
1012.212528	2543.678011
1012.505986	2545.152548
1012.799408	2544.817311
1013.092795	2541.568288
1013.386147	2543.743546
1013.679464	2544.446787
1013.972745	2542.594162
1014.265992	2542.042156
1014.559204	2540.060983
1014.852380	2542.057280
1015.145521	2541.701878
1015.438628	2543.831766
1015.731699	2543.438556
1016.024736	2543.579708
1016.317737	2541.918648
1016.610703	2546.397713
1016.903635	2538.563760
1017.196531	2541.621220
1017.489393	2541.883360
1017.782219	2541.301107
1018.075011	2543.703216
1018.367768	2545.611293
1018.660490	2546.934596
1018.953177	2546.934596
1019.245829	2546.934596
