Dividing Wavelength (nm)	Counts (n)	Blue Motor Position (mm): 46.300000	Red Motor Position (mm): 0.000000	
326.493990	2131.427573
326.888308	2131.427573
327.282561	2131.427573
327.676750	2096.830134
328.070874	2096.676378
328.464933	2098.768457
328.858929	2104.792636
329.252859	2116.669595
329.646726	2126.719135
330.040528	2138.754890
330.434265	2158.415390
330.827938	2176.326609
331.221547	2192.942252
331.615091	2209.099150
332.008571	2229.861143
332.401986	2251.230594
332.795338	2270.253388
333.188625	2289.765174
333.581847	2310.242341
333.975006	2326.679023
334.368100	2344.408761
334.761129	2362.433406
335.154095	2377.337578
335.546996	2399.783315
335.939833	2426.388005
336.332606	2442.076075
336.725315	2453.466563
337.117960	2465.792184
337.510540	2473.293421
337.903056	2482.092755
338.295508	2489.904022
338.687896	2495.749240
339.080220	2508.871364
339.472480	2513.703310
339.864676	2517.209432
340.256807	2524.594723
340.648875	2522.812675
341.040879	2528.342821
341.432818	2527.180835
341.824694	2529.313243
342.216506	2529.625794
342.608253	2533.078985
342.999937	2531.049920
343.391557	2528.567152
343.783113	2528.799045
344.174605	2524.864424
344.566033	2526.981709
344.957397	2527.281658
345.348697	2521.272602
345.739934	2525.040865
346.131106	2521.123888
346.522215	2518.946110
346.913260	2517.874865
347.304241	2516.828825
347.695159	2513.005110
348.086012	2514.552744
348.476802	2509.506549
348.867528	2510.111488
349.258191	2505.004799
349.648789	2506.680983
350.039324	2505.398009
350.429796	2504.236023
350.820203	2503.021105
351.210548	2501.425580
351.600828	2501.266783
351.991045	2498.935250
352.381198	2498.496669
352.771288	2499.439365
353.161314	2499.023470
353.551276	2497.770743
353.941175	2499.951042
354.331010	2499.888028
354.720782	2499.956083
355.110490	2499.351145
355.500135	2498.105980
355.889717	2500.568583
356.279235	2497.904334
356.668689	2501.864160
357.058080	2498.378202
357.447408	2501.213851
357.836672	2497.942142
358.225873	2496.613798
358.615010	2494.846874
359.004084	2503.943636
359.393095	2502.862308
359.782043	2502.882473
360.170927	2502.353152
360.559748	2506.817094
360.948505	2505.241733
361.337199	2506.756600
361.725830	2506.766682
362.114398	2512.057373
362.502903	2507.210304
362.891344	2509.186436
363.279722	2507.437156
363.668037	2510.378669
364.056289	2509.730881
364.444478	2512.291787
364.832603	2512.546365
365.220665	2513.113495
365.608665	2512.064935
365.996601	2515.039216
366.384474	2513.715913
366.772284	2515.374452
367.160031	2514.930831
367.547715	2516.647344
367.935336	2514.252796
368.322893	2514.890502
368.710388	2515.639113
369.097820	2518.532735
369.485189	2517.642972
369.872495	2519.525843
370.259738	2515.823115
370.646918	2516.896881
371.034035	2520.849145
371.421090	2521.111285
371.808081	2523.286543
372.195010	2525.786956
372.581875	2528.894827
372.968678	2530.054292
373.355418	2533.008408
373.742096	2538.992258
374.128710	2541.805222
374.515262	2550.498692
374.901751	2555.680998
375.288177	2563.162070
375.674540	2574.454255
376.060841	2583.387179
376.447079	2596.277410
376.833254	2610.808536
377.219367	2618.672736
377.605417	2638.938174
377.991404	2650.593322
378.377329	2666.856084
378.763191	2683.922911
379.148991	2707.770089
379.534727	2731.108111
379.920402	2751.481934
380.306013	2768.846188
380.691563	2805.732311
381.077049	2829.377843
381.462474	2850.356605
381.847835	2887.111658
382.233134	2912.501429
382.618371	2923.970054
383.003545	2983.049856
383.388657	3001.172804
383.773706	3040.645039
384.158693	3064.139337
384.543618	3095.097062
384.928480	3139.343270
385.313280	3188.285312
385.698017	3197.581199
386.082692	3253.608583
386.467305	3272.959052
386.851856	3311.488591
387.236344	3344.188036
387.620770	3383.037688
388.005133	3420.344747
388.389435	3454.231383
388.773674	3476.099908
389.157851	3525.223432
389.541965	3550.988769
389.926018	3526.418185
390.310008	3603.189917
390.693936	3626.913587
391.077802	3676.742872
391.461606	3671.512675
391.845348	3740.992378
392.229027	3743.507914
392.612645	3761.661109
392.996200	3844.139427
393.379694	3886.127197
393.763125	3952.060449
394.146494	3924.273609
394.529801	3988.205522
394.913047	4041.399777
395.296230	4005.935260
395.679351	4065.695618
396.062410	4090.644288
396.445408	4073.295158
396.828343	4104.245322
397.211217	4132.654744
397.594028	4054.340419
397.976778	4123.822643
398.359466	4147.122856
398.742092	4177.175694
399.124656	4102.556535
399.507158	4181.619471
399.889598	4206.248028
400.271977	4271.462915
400.654294	4242.130962
401.036549	4251.469699
401.418742	4221.341243
401.800874	4324.044670
402.182944	4345.459492
402.564952	4404.088111
402.946898	4394.404055
403.328783	4389.524218
403.710606	4303.401145
404.092367	4495.133870
404.474067	4459.901246
404.855705	4467.374757
405.237282	4397.015372
405.618797	4506.385726
406.000250	4541.827558
406.381642	4625.684631
406.762972	4586.567798
407.144240	4595.639354
407.525447	4596.224128
407.906593	4652.662366
408.287677	4696.338923
408.668700	4627.786792
409.049661	4679.735883
409.430560	4717.625195
409.811399	4642.638032
410.192176	4804.638031
410.572891	4745.220471
410.953545	4846.978682
411.334138	4730.664140
411.714669	4795.705107
412.095139	4689.614024
412.475547	4834.595088
412.855894	4816.275535
413.236180	4827.076207
413.616405	4776.127786
413.996568	4865.293194
414.376670	4806.019307
414.756711	4760.081793
415.136691	4793.161844
415.516609	4871.002301
415.896466	4906.459257
416.276262	4943.420997
416.655997	4920.380403
417.035670	5105.383187
417.415283	5193.621024
417.794834	5139.272344
418.174324	5100.825984
418.553753	5000.368391
418.933121	5184.050393
419.312428	5253.434314
419.691674	5194.878792
420.070859	5319.796063
420.449983	5228.543617
420.829045	5344.306153
421.208047	5253.081433
421.586988	5325.832845
421.965867	5336.646120
422.344686	5472.230473
422.723444	5322.722453
423.102141	5140.177231
423.480777	5440.375422
423.859352	5207.257345
424.237866	5470.148477
424.616319	5463.428619
424.994712	5570.469959
425.373044	5448.731135
425.751314	5583.327422
426.129524	5391.287187
426.507673	5585.240540
426.885762	5669.755484
427.263789	5600.154793
427.641756	5481.586855
428.019662	5602.917346
428.397508	5614.572493
428.775292	5559.613834
429.153016	5656.479605
429.530679	5585.422021
429.908282	5670.244476
430.285824	5541.465680
430.663305	5814.668492
431.040726	5544.951638
431.418086	5549.987751
431.795385	5656.744266
432.172624	5666.415719
432.549802	5659.736191
432.926920	5672.039127
433.303977	5681.266959
433.680974	5721.429831
434.057910	5737.261575
434.434786	5746.381022
434.811601	5713.462288
435.188355	5946.572803
435.565050	5819.313916
435.941683	5805.506195
436.318257	6016.100397
436.694770	5998.136245
437.071222	6035.183685
437.447614	5966.457635
437.823946	5880.387494
438.200218	6036.436412
438.576429	5896.057921
438.952580	5996.109702
439.328670	6043.118461
439.704700	5953.821982
440.080670	5939.210198
440.456580	6210.376384
440.832429	6093.335915
441.208218	5936.427481
441.583947	6090.928764
441.959616	6094.875988
442.335224	6020.771026
442.710773	6160.922665
443.086261	6188.099525
443.461689	5983.716025
443.837057	6130.474096
444.212365	6284.793897
444.587612	6177.167783
444.962800	6334.696279
445.337927	6313.467980
445.712995	5922.778557
446.088002	6503.716085
446.462949	6324.820659
446.837837	6263.139621
447.212664	6433.800322
447.587431	6578.688125
447.962139	7118.434385
448.336786	8043.518883
448.711374	7789.790049
449.085901	6860.627257
449.460369	6779.429392
449.834776	6713.483538
450.209124	7108.019361
450.583412	7261.071313
450.957640	7406.314517
451.331808	7166.400964
451.705917	6718.847326
452.079965	6648.964330
452.453954	6854.784560
452.827883	6732.836528
453.201752	6824.542678
453.575562	6628.456917
453.949311	6829.571229
454.323001	6720.100052
454.696632	6794.830117
455.070202	6926.104284
455.443713	7083.179076
455.817164	7182.323448
456.190556	7270.581449
456.563888	7341.228179
456.937160	7388.158801
457.310373	7044.420164
457.683526	7066.679379
458.056619	6954.811134
458.429653	6948.799558
458.802628	6885.979220
459.175542	6990.759602
459.548398	7350.027513
459.921194	7507.671956
460.293930	7509.446442
460.666607	8040.229531
461.039224	8349.663115
461.411782	8475.807908
461.784280	8496.189293
462.156719	8384.215184
462.529099	8261.760516
462.901419	7849.111827
463.273680	7738.987821
463.645882	7759.328877
464.018024	7624.800645
464.390106	7788.834750
464.762130	8183.166407
465.134094	8654.652923
465.505999	9667.919805
465.877845	10886.641432
466.249631	11546.520909
466.621358	11157.923565
466.993026	10530.622545
467.364634	10275.545202
467.736184	9914.969111
468.107674	9582.560467
468.479105	9613.573646
468.850477	9377.733346
469.221790	9149.515270
469.593043	8819.415475
469.964238	8677.789299
470.335373	8691.024848
470.706449	8748.851924
471.077467	8734.146878
471.448425	10041.781857
471.819324	11115.451844
472.190164	11141.227263
472.560945	9890.416171
472.931667	9100.928629
473.302330	8964.673802
473.672934	8605.446220
474.043479	8964.537691
474.413965	8910.153723
474.784393	8792.155435
475.154761	8945.842572
475.525070	9036.626191
475.895321	8865.607567
476.265513	9036.497642
476.635645	9212.161689
477.005719	9202.545688
477.375734	9327.102517
477.745691	9555.018123
478.115588	9695.474752
478.485427	9934.458212
478.855207	10470.494182
479.224928	11286.803184
479.594591	11917.595203
479.964194	11729.000596
480.333739	11671.723006
480.703226	11584.642115
481.072653	11667.541369
481.442022	11914.399111
481.811333	12098.930548
482.180584	11906.698749
482.549777	11620.136879
482.918912	11446.438882
483.287988	11461.096037
483.657005	11475.092800
484.025964	11158.470530
484.394864	11286.417535
484.763706	11255.790005
485.132489	11017.716474
485.501213	10983.915537
485.869879	11052.006402
486.238487	10903.667930
486.607036	11005.471511
486.975527	10784.815166
487.343959	10974.463374
487.712333	11026.704851
488.080648	10957.247833
488.448905	11008.223981
488.817104	10931.984091
489.185244	11206.260669
489.553326	11358.692558
489.921350	11900.087275
490.289315	12959.717649
490.657222	13301.099547
491.025070	13216.216598
491.392861	13088.524171
491.760593	12700.118391
492.128267	12353.299609
492.495883	12025.115452
492.863440	11694.753518
493.230939	11350.299037
493.598380	11284.897628
493.965763	11155.342494
494.333088	11059.820191
494.700354	10972.545215
495.067563	11032.459328
495.434713	10866.083607
495.801805	10991.928451
496.168839	10915.938098
496.535815	10854.728408
496.902733	10855.396361
497.269593	10782.397933
497.636395	10882.537933
498.003139	10873.269772
498.369825	10738.063505
498.736453	10899.876982
499.103023	10823.962246
499.469535	10861.816270
499.835989	10846.944867
500.202385	10801.042640
500.568723	10654.894549
500.935003	10876.609536
501.301226	10682.106698
501.667390	10944.546646
502.033497	11042.735720
502.399546	10898.422609
502.765537	10811.654269
503.131470	10875.417303
503.497345	11056.051928
503.863163	10664.641620
504.228923	10974.531429
504.594625	11038.228929
504.960269	10786.791298
505.325856	11007.314053
505.691385	10801.294698
506.056856	10953.199787
506.422270	10988.558440
506.787625	10866.244924
507.152924	10985.783285
507.518164	10970.435492
507.883347	10887.909283
508.248472	10809.017746
508.613540	11045.982223
508.978550	10928.346898
509.343503	10900.905377
509.708398	11014.550629
510.073236	11130.303083
510.438016	11136.947324
510.802738	11087.949829
511.167403	11140.599640
511.532010	11036.514936
511.896561	11271.336924
512.261053	11342.258397
512.625488	11211.574045
512.989866	11193.798936
513.354186	11176.288488
513.718449	11078.701832
514.082655	11274.832964
514.446803	11169.147694
514.810894	11290.334512
515.174927	11151.942236
515.538904	11186.753924
515.902822	11335.178096
516.266684	11222.518390
516.630488	11159.355253
516.994235	11226.228679
517.357925	11285.568101
517.721558	11366.602128
518.085133	11382.353214
518.448651	11400.140925
518.812112	11278.654158
519.175516	11293.896087
519.538863	11406.454970
519.902152	11326.933289
520.265385	11488.978659
520.628560	11401.633107
520.991678	11377.022193
521.354739	11441.690115
521.717743	11376.520599
522.080690	11362.576767
522.443580	11487.783905
522.806413	11446.847215
523.169189	11479.526495
523.531908	11529.272601
523.894569	11357.187774
524.257174	11362.181037
524.619722	11472.511730
524.982213	11420.749162
525.344647	11479.549180
525.707025	11426.874164
526.069345	11518.628205
526.431608	11440.709611
526.793815	11550.589120
527.155964	11335.130205
527.518057	11390.197249
527.880093	11339.369815
528.242072	11409.134343
528.603995	11307.421503
528.965860	11237.699825
529.327669	11284.701022
529.689421	11229.661705
530.051117	11198.078876
530.412755	11301.770369
530.774337	11196.087620
531.135862	11177.780670
531.497331	11201.075842
531.858743	11051.149406
532.220098	11220.189377
532.581396	11085.640981
532.942638	11077.312994
533.303824	11035.645337
533.664953	11049.513552
534.026025	10970.271654
534.387040	11066.429143
534.747999	11061.088041
535.108902	11115.315733
535.469748	10877.600123
535.830537	10984.976700
536.191270	10964.408792
536.551947	10990.703451
536.912567	10988.782771
537.273131	10914.569425
537.633638	10892.320292
537.994089	10881.121369
538.354483	10830.107413
538.714821	10972.177210
539.075103	10976.807510
539.435328	10945.733838
539.795497	10774.266552
540.155609	10929.566857
540.515665	11012.690443
540.875665	10755.906669
541.235609	10822.845631
541.595496	10812.773405
541.955328	10972.300719
542.315102	10859.313338
542.674821	10807.023969
543.034483	10807.664196
543.394090	10815.092336
543.753640	10741.418393
544.113134	10966.132867
544.472571	10816.324898
544.831953	10957.608276
545.191278	10763.833884
545.550548	10796.281270
545.909761	10926.990828
546.268918	10906.367468
546.628019	10990.083389
546.987064	10851.991062
547.346053	10777.354258
547.704986	10874.036027
548.063863	10862.300221
548.422684	10852.797646
548.781449	10769.689184
549.140158	10876.107942
549.498811	10746.605740
549.857408	10607.850501
550.215949	10834.478093
550.574434	10688.695486
550.932864	10789.236258
551.291237	10846.914620
551.649555	10794.375714
552.007817	10806.474483
552.366022	10766.853535
552.724173	10764.350602
553.082267	10740.760523
553.440305	10886.578418
553.798288	10677.932622
554.156215	10838.001860
554.514086	10817.696092
554.871902	10667.885603
555.229661	10700.126302
555.587365	10674.461788
555.945014	10569.767105
556.302606	10691.866371
556.660143	10588.615979
557.017625	10741.781356
557.375050	10642.536160
557.732421	10769.963927
558.089735	10694.525580
558.446994	10684.395381
558.804197	10725.453059
559.161345	10727.429191
559.518437	10571.090407
559.875474	10663.298152
560.232455	10696.136229
560.589381	10647.683178
560.946251	10640.839812
561.303065	10749.905176
561.659825	10680.422952
562.016528	10616.425504
562.373177	10489.118725
562.729770	10608.115162
563.086307	10523.060814
563.442789	10610.146747
563.799216	10491.843469
564.155587	10538.176714
564.511904	10493.736422
564.868164	10481.294855
565.224370	10501.124233
565.580520	10430.628738
565.936615	10431.619325
566.292654	10302.996805
566.648638	10431.067318
567.004567	10388.789682
567.360441	10368.685560
567.716260	10285.191449
568.072023	10382.324402
568.427732	10329.624179
568.783385	10230.255475
569.138982	10306.457557
569.494525	10326.538993
569.850013	10202.277072
570.205445	10279.862950
570.560823	10171.684829
570.916145	10096.284291
571.271412	10169.459160
571.626625	10110.631415
571.981782	10083.610831
572.336884	10057.842973
572.691931	10066.959899
573.046923	10008.767340
573.401860	9970.033634
573.756743	9901.617615
574.111570	9948.586045
574.466342	9933.512995
574.821059	9959.389238
575.175722	9852.539462
575.530330	9866.591678
575.884882	9847.770530
576.239380	9776.458368
576.593823	9758.668136
576.948211	9776.539026
577.302544	9653.623093
577.656823	9671.569600
578.011047	9668.008025
578.365216	9634.764136
578.719330	9561.256551
579.073389	9578.330939
579.427394	9529.464515
579.781344	9503.467284
580.135239	9451.487947
580.489080	9465.542684
580.842866	9362.231797
581.196597	9364.959062
581.550273	9407.894569
581.903895	9373.284527
582.257463	9449.282442
582.610975	9314.323192
582.964434	9351.962967
583.317837	9267.349720
583.671186	9250.983614
584.024481	9245.304755
584.377721	9170.975462
584.730906	9138.548240
585.084037	9178.501904
585.437113	9106.882232
585.790135	9125.920149
586.143103	9026.438019
586.496016	8998.860387
586.848874	9054.381135
587.201679	9048.488026
587.554428	8930.572917
587.907124	8980.379517
588.259765	8952.731309
588.612352	8952.023027
588.964884	8826.977206
589.317362	8848.719702
589.669786	8846.279784
590.022155	8888.754025
590.374470	8912.737315
590.726731	8841.939350
591.078937	8698.100107
591.431090	8807.871232
591.783188	8681.262654
592.135232	8677.012961
592.487222	8674.895676
592.839157	8727.726969
593.191038	8658.227101
593.542866	8602.945808
593.894639	8508.769492
594.246358	8556.652892
594.598022	8574.624606
594.949633	8471.774985
595.301190	8450.435781
595.652692	8479.026685
596.004141	8587.827388
596.355535	8360.350362
596.706876	8344.642126
597.058162	8281.705841
597.409395	8352.092952
597.760573	8415.498064
598.111698	8328.444899
598.462768	8309.717012
598.813785	8280.208618
599.164748	8241.772341
599.515657	8236.816887
599.866511	8145.375397
600.217312	8267.517513
600.568060	8129.727655
600.918753	8234.626505
601.269392	8203.830096
601.619978	8116.545038
601.970510	8175.849172
602.320988	8173.827669
602.671412	8224.408086
603.021783	8169.683841
603.372100	8138.804253
603.722363	8141.816342
604.072572	8120.638455
604.422728	8125.354454
604.772830	8060.348776
605.122878	8060.855412
605.472872	8062.541678
605.822813	8091.724917
606.172701	8033.023201
606.522534	8105.585570
606.872314	8106.447607
607.222041	8077.047598
607.571714	8132.296123
607.921333	8088.485976
608.270899	8099.032070
608.620411	8188.454577
608.969870	8097.612985
609.319276	8088.168383
609.668627	8100.693130
610.017926	8139.696537
610.367171	8182.274122
610.716362	8162.338880
611.065500	8150.323289
611.414585	8173.981424
611.763616	8167.022112
612.112594	8145.945047
612.461518	8162.381729
612.810389	8229.960917
613.159207	8167.012029
613.507971	8116.419009
613.856682	8238.959377
614.205340	8190.027417
614.553945	8269.067668
614.902496	8160.589599
615.250994	8216.488434
615.599439	8195.257614
615.947830	8213.879637
616.296169	8182.251437
616.644454	8196.540588
616.992686	8198.070578
617.340864	8255.433868
617.688990	8158.835278
618.037063	8250.843897
618.385082	8195.154271
618.733048	8280.135522
619.080961	8225.000422
619.428821	8235.501145
619.776628	8237.676403
620.124382	8197.016977
620.472083	8174.966970
620.819731	8202.985703
621.167326	8097.739014
621.514868	8106.689582
621.862357	7989.661716
622.209793	8010.627875
622.557176	7948.125129
622.904506	7913.396620
623.251783	7850.914039
623.599007	7800.444527
623.946179	7808.986762
624.293297	7760.626974
624.640363	7684.901281
624.987376	7665.860843
625.334336	7612.679191
625.681243	7563.129689
626.028097	7547.154273
626.374899	7528.459154
626.721647	7522.523195
627.068343	7448.045188
627.414987	7423.832526
627.761577	7372.677418
628.108115	7411.690907
628.454600	7304.674773
628.801032	7362.219544
629.147412	7315.455280
629.493739	7308.526214
629.840014	7243.588591
630.186236	7298.496839
630.532405	7184.362595
630.878521	7239.167499
631.224585	7194.543205
631.570597	7114.285516
631.916556	7144.348437
632.262462	7144.227449
632.608316	7105.619772
632.954117	7081.172697
633.299866	7066.601241
633.645562	7064.584780
633.991206	6983.598643
634.336797	6925.164108
634.682336	6883.115844
635.027823	6844.387180
635.373257	6843.318455
635.718639	6770.851869
636.063968	6781.889475
636.409245	6681.315935
636.754470	6677.724113
637.099642	6635.469162
637.444762	6580.754998
637.789829	6586.615340
638.134845	6533.254726
638.479808	6518.716038
638.824719	6519.008425
639.169577	6448.306243
639.514383	6469.847093
639.859137	6395.071658
640.203839	6406.096662
640.548489	6392.914044
640.893086	6368.950919
641.237632	6342.326065
641.582125	6359.549167
641.926566	6333.501526
642.270955	6345.827147
642.615292	6338.842628
642.959576	6353.025914
643.303809	6338.038564
643.647990	6346.432085
643.992118	6339.180385
644.336195	6286.896058
644.680219	6310.697866
645.024192	6301.432225
645.368112	6395.671555
645.711981	6420.302633
646.055797	6494.808366
646.399562	6456.538447
646.743274	6575.907929
647.086935	6634.667618
647.430544	6626.369879
647.774101	6649.826368
648.117606	6654.207130
648.461059	6647.449464
648.804460	6604.758452
649.147810	6517.075143
649.491108	6490.425083
649.834354	6462.524817
650.177548	6377.561210
650.520690	6293.008457
650.863781	6271.795282
651.206820	6294.054497
651.549807	6211.203133
651.892742	6151.170553
652.235626	6163.559188
652.578458	6146.769625
652.921238	6056.616151
653.263967	6090.570842
653.606644	6030.739908
653.949269	6039.070415
654.291843	5978.717721
654.634365	6026.328898
654.976836	5980.381302
655.319255	5980.613195
655.661622	5953.567404
656.003938	5955.117559
656.346203	5913.671713
656.688416	5949.088339
657.030577	5900.370628
657.372687	5866.917531
657.714746	5856.747003
658.056753	5897.661008
658.398708	5838.314024
658.740612	5829.302962
659.082465	5877.877000
659.424266	5867.348550
659.766016	5864.868302
660.107715	5842.876269
660.449362	5858.841603
660.790958	5850.826168
661.132503	5836.811761
661.473996	5878.537391
661.815438	5865.190936
662.156829	5860.174988
662.498168	5851.110993
662.839456	5826.737015
663.180693	5860.419484
663.521879	5860.807653
663.863013	5855.738773
664.204097	5871.590681
664.545129	5912.739099
664.886110	5911.773718
665.227040	5946.350993
665.567918	5907.624849
665.908746	5935.000835
666.249522	5941.216577
666.590248	5925.127735
666.930922	5955.102436
667.271545	5967.521318
667.612118	5972.421320
667.952639	5943.739675
668.293109	5958.832889
668.633528	5921.510707
668.973896	5926.723260
669.314213	5913.477628
669.654480	5896.448611
669.994695	5888.493670
670.334859	5881.347834
670.674973	5874.418768
671.015035	5877.534201
671.355047	5877.884562
671.695008	5861.223548
672.034918	5837.043654
672.374777	5849.298699
672.714585	5834.177758
673.054342	5833.272871
673.394049	5827.803219
673.733705	5861.321851
674.073310	5847.062947
674.412864	5809.660106
674.752368	5800.165093
675.091820	5804.871010
675.431223	5738.698304
675.770574	5739.633438
676.109875	5692.289442
676.449125	5695.604000
676.788324	5662.445811
677.127473	5600.084217
677.466571	5600.285863
677.805619	5586.871353
678.144616	5570.434671
678.483562	5549.897010
678.822458	5524.681158
679.161303	5513.199931
679.500098	5507.495865
679.838842	5487.464840
680.177535	5488.425180
680.516179	5508.534343
680.854771	5516.610271
681.193314	5599.796871
681.531805	5708.610177
681.870247	5861.581470
682.208638	5965.456966
682.546978	5970.367049
682.885268	5953.832065
683.223508	5865.213621
683.561697	5812.704963
683.899836	5779.897134
684.237925	5741.130661
684.575963	5704.420978
684.913951	5663.191902
685.251889	5724.010902
685.589776	5689.942784
685.927614	5659.101005
686.265401	5733.780658
686.603137	5716.439089
686.940824	5795.723836
687.278460	5816.914326
687.616046	5823.750131
687.953582	5897.862654
688.291068	5872.074632
688.628504	5943.321259
688.965889	5903.985136
689.303224	5845.802658
689.640510	5799.182068
689.977745	5724.189863
690.314930	5621.166322
690.652065	5569.043312
690.989150	5472.212829
691.326185	5397.381942
691.663170	5349.879149
692.000105	5266.770687
692.336990	5191.972566
692.673825	5168.473228
693.010610	5102.625676
693.347345	5025.160786
693.684030	5011.577397
694.020665	4971.999298
694.357251	4883.161564
694.693786	4894.168923
695.030272	4860.690621
695.366707	4824.873223
695.703093	4794.580929
696.039429	4814.649763
696.375716	4796.685611
696.711952	4769.544039
697.048139	4759.406278
697.384276	4737.028596
697.720363	4751.380761
698.056400	4759.681021
698.392388	4709.345100
698.728326	4686.002037
699.064214	4664.297349
699.400053	4663.142925
699.735842	4623.310248
700.071581	4603.889203
700.407270	4572.255962
700.742910	4557.102254
701.078501	4503.187113
701.414042	4503.907998
701.749533	4472.904902
702.084974	4406.059202
702.420366	4463.225887
702.755709	4403.309253
703.091002	4348.363197
703.426246	4398.240373
703.761440	4356.487016
704.096584	4319.197601
704.431679	4340.279706
704.766725	4322.214732
705.101721	4309.284172
705.436668	4340.884645
705.771565	4288.028147
706.106413	4314.179132
706.441212	4347.349925
706.775961	4356.595401
707.110661	4330.063808
707.445311	4360.482130
707.779913	4384.604052
708.114465	4399.160383
708.448967	4422.185853
708.783421	4484.751614
709.117825	4525.489178
709.452180	4528.604611
709.786485	4570.078184
710.120742	4661.330630
710.454949	4644.107528
710.789107	4709.965162
711.123216	4788.460968
711.457275	4777.856901
711.791286	4850.525134
712.125247	4867.518864
712.459159	4774.454122
712.793023	4846.328373
713.126837	4802.593843
713.460602	4798.719717
713.794318	4715.679310
714.127985	4724.612234
714.461602	4639.227691
714.795171	4613.104432
715.128691	4545.437024
715.462162	4489.039115
715.795584	4437.495838
716.128957	4417.870626
716.462281	4370.239284
716.795556	4343.301878
717.128782	4303.915343
717.461960	4236.840271
717.795088	4248.387033
718.128167	4206.268193
718.461198	4148.352897
718.794180	4142.273266
719.127113	4122.990852
719.459997	4099.166359
719.792833	4059.575657
720.125619	4049.737846
720.458357	4012.788708
720.791046	4017.192156
721.123686	3991.351202
721.456278	3950.026343
721.788821	3966.304229
722.121315	3939.366823
722.453761	3913.651897
722.786158	3925.654885
723.118506	3948.337557
723.450805	3898.309146
723.783056	3925.854010
724.115259	3940.251546
724.447412	3945.045683
724.779518	3938.996298
725.111574	3942.338583
725.443582	3972.802276
725.775542	3955.884164
726.107453	4004.165815
726.439315	4009.116228
726.771129	4022.311448
727.102895	4057.108012
727.434612	4106.952421
727.766281	4114.420891
728.097901	4116.976756
728.429473	4124.697283
728.760996	4129.914877
729.092471	4124.916573
729.423897	4111.212196
729.755276	4112.636322
730.086606	4115.025829
730.417887	4152.532014
730.749120	4215.173391
731.080305	4282.366931
731.411442	4306.950118
731.742530	4277.913072
732.073570	4282.404740
732.404562	4337.192000
732.735506	4333.471628
733.066401	4292.653405
733.397249	4225.119588
733.728048	4150.545799
734.058798	4067.197882
734.389501	3996.238600
734.720156	3932.490689
735.050762	3889.086355
735.381320	3881.380951
735.711831	3828.131243
736.042293	3800.533446
736.372707	3823.332065
736.703073	3796.790390
737.033391	3782.526445
737.363661	3806.620640
737.693883	3829.656192
738.024056	3837.250690
738.354182	3835.153570
738.684260	3895.730596
739.014290	3921.248916
739.344272	3911.383378
739.674207	3955.929534
740.004093	3959.508753
740.333931	3954.502888
740.663722	3955.170841
740.993464	3953.895429
741.323159	3931.142181
741.652806	3900.524733
741.982405	3871.606154
742.311956	3841.608768
742.641460	3833.152232
742.970915	3812.168429
743.300323	3767.571862
743.629683	3731.754464
743.958996	3722.997980
744.288260	3700.237170
744.617477	3660.709483
744.946647	3648.930827
745.275768	3626.487610
745.604842	3623.581385
745.933869	3574.379723
746.262847	3566.492838
746.591778	3604.009105
746.920662	3573.978951
747.249498	3542.804456
747.578286	3587.605190
747.907027	3609.181329
748.235720	3606.897686
748.564365	3631.289309
748.892963	3632.282416
749.221514	3612.059827
749.550017	3589.490582
749.878473	3591.118874
750.206881	3558.169893
750.535242	3555.180489
750.863555	3557.935479
751.191821	3550.063718
751.520039	3530.924977
751.848210	3508.668283
752.176334	3544.513407
752.504411	3550.305693
752.832440	3509.061493
753.160421	3494.732013
753.488356	3503.223837
753.816243	3514.710106
754.144082	3472.268631
754.471875	3454.884212
754.799620	3477.433293
755.127318	3465.697487
755.454969	3466.262097
755.782572	3473.937253
756.110129	3449.906073
756.437638	3439.014660
756.765100	3453.021506
757.092515	3463.118937
757.419882	3467.870225
757.747203	3441.046245
758.074477	3443.075309
758.401703	3460.792445
758.728882	3482.320692
759.056014	3490.091631
759.383099	3492.743278
759.710138	3486.928307
760.037129	3505.356245
760.364073	3536.813045
760.690970	3522.412989
761.017820	3500.307529
761.344623	3516.038450
761.671379	3563.410172
761.998088	3612.931947
762.324751	3740.362234
762.651366	3988.515553
762.977935	4459.891164
763.304456	4906.098814
763.630931	5000.018031
763.957359	4643.421931
764.283740	4294.236328
764.610074	4108.434520
764.936362	3907.950352
765.262602	3748.662494
765.588796	3638.997233
765.914943	3547.961556
766.241044	3460.462249
766.567097	3431.125254
766.893104	3384.161865
767.219064	3348.238603
767.544978	3319.796413
767.870845	3269.762961
768.196665	3251.037595
768.522438	3258.737957
768.848165	3253.603542
769.173846	3218.882595
769.499479	3202.234184
769.825066	3181.643592
770.150607	3168.355110
770.476101	3184.159127
770.801548	3179.264167
771.126949	3135.670789
771.452303	3119.125722
771.777611	3121.658902
772.102872	3129.787762
772.428087	3102.250460
772.753256	3092.379880
773.078378	3086.648088
773.403453	3050.137532
773.728482	3040.042621
774.053465	3061.787638
774.378401	3047.969836
774.703291	3015.230062
775.028135	3019.494878
775.352932	3013.014475
775.677683	3003.126252
776.002388	2994.765498
776.327046	2997.039058
776.651658	2988.837101
776.976224	2974.348825
777.300743	2978.429639
777.625216	2967.623926
777.949643	2960.558748
778.274024	2965.133596
778.598359	2956.674539
778.922647	2959.363995
779.246889	2960.331897
779.571086	2943.416305
779.895236	2936.441868
780.219339	2947.630709
780.543397	2963.434727
780.867409	2962.630663
781.191374	2958.121351
781.515294	2952.845783
781.839167	2955.905763
782.162995	2945.427725
782.486776	2952.719754
782.810511	2947.280349
783.134201	2938.360028
783.457844	2947.255143
783.781441	2935.486570
784.104993	2914.104516
784.428498	2916.758683
784.751958	2930.281578
785.075372	2924.849735
785.398739	2908.697878
785.722061	2923.158428
786.045337	2935.912547
786.368568	2920.675660
786.691752	2910.605955
787.014891	2959.227884
787.337983	2990.344406
787.661030	3017.649816
787.984031	3084.702203
788.306987	3131.463946
788.629897	3124.383646
788.952760	3108.284721
789.275579	3091.311156
789.598351	3033.554656
789.921078	2988.522029
790.243759	2979.689927
790.566395	2961.672843
790.888984	2938.692744
791.211529	2921.210022
791.534027	2914.601069
791.856480	2901.105901
792.178888	2886.355484
792.501249	2876.744525
792.823566	2875.156561
793.145836	2875.002806
793.468062	2871.416025
793.790241	2865.820344
794.112375	2874.037425
794.434464	2885.954713
794.756507	2890.204405
795.078505	2896.132802
795.400457	2909.212076
795.722364	2945.276491
796.044226	2971.956797
796.366042	2973.963177
796.687812	2963.016311
797.009538	2981.983652
797.331218	2968.009574
797.652852	2953.581792
797.974442	2939.161571
798.295986	2935.789039
798.617484	2930.727721
798.938938	2915.395051
799.260346	2898.461815
799.581709	2892.178017
799.903026	2884.878426
800.224299	2880.333826
800.545526	2869.611292
800.866708	2856.035465
801.187845	2844.161027
801.508936	2846.699248
801.829983	2856.348016
802.150984	2842.600790
802.471940	2828.165446
802.792851	2824.566062
803.113717	2827.391628
803.434538	2832.803307
803.755314	2826.827019
804.076045	2822.209322
804.396731	2817.631955
804.717372	2821.813592
805.037967	2812.900832
805.358518	2820.210505
805.679024	2831.416990
805.999485	2829.839109
806.319901	2831.774912
806.640272	2823.716627
806.960598	2831.235508
807.280879	2839.011488
807.601115	2845.814525
807.921306	2833.680468
808.241453	2830.504541
808.561554	2836.803463
808.881611	2840.690192
809.201623	2834.965962
809.521590	2832.747854
809.841513	2828.644355
810.161390	2833.461178
810.481223	2826.630414
810.801011	2817.967191
811.120755	2813.437715
811.440453	2817.221101
811.760107	2812.991572
812.079716	2813.692293
812.399281	2802.546302
812.718801	2799.009932
813.038276	2792.451391
813.357707	2797.341310
813.677093	2804.658545
813.996434	2798.329377
814.315731	2793.522636
814.634983	2789.368726
814.954191	2793.091618
815.273354	2806.851447
815.592473	2811.595173
815.911547	2816.197746
816.230577	2823.036072
816.549562	2832.798266
816.868502	2831.154850
817.187399	2843.021726
817.506250	2858.397245
817.825058	2850.066738
818.143821	2862.614170
818.462539	2880.341388
818.781213	2908.962539
819.099843	2943.164247
819.418429	3001.366889
819.736970	3062.846281
820.055466	3137.188176
820.373919	3240.355390
820.692327	3383.141031
821.010691	3555.515725
821.329011	4000.742871
821.647286	4899.754522
821.965517	6292.408560
822.283704	7046.756739
822.601847	7035.459513
822.919945	6393.894549
823.237999	5885.111056
823.556010	5296.412671
823.873976	4735.957351
824.191897	4323.321265
824.509775	4024.524515
824.827609	3752.415633
825.145398	3632.577324
825.463144	3619.266157
825.780845	3708.343345
826.098502	3813.771516
826.416116	4097.457408
826.733685	4419.062859
827.051210	4484.096264
827.368692	4364.149570
827.686129	4099.909929
828.003522	3770.210906
828.320872	3508.753982
828.638177	3315.675269
828.955439	3177.162006
829.272656	3090.572627
829.589830	3022.696011
829.906960	2973.184318
830.224046	2929.623708
830.541088	2894.549880
830.858086	2878.506408
831.175041	2860.128882
831.491952	2860.295240
831.808819	2873.853423
832.125642	2898.320663
832.442421	2943.645677
832.759157	3027.785056
833.075849	3204.711912
833.392497	3487.603821
833.709101	3692.562013
834.025662	3646.158192
834.342179	3482.953357
834.658653	3302.790080
834.975083	3155.442194
835.291469	3057.301011
835.607811	2970.618371
835.924110	2914.974115
836.240366	2862.087370
836.556578	2815.396203
836.872746	2794.903912
837.188871	2771.999430
837.504952	2752.787593
837.820990	2747.817015
838.136984	2734.470560
838.452935	2724.068139
838.768842	2723.337172
839.084706	2741.898700
839.400526	2822.899960
839.716303	2953.385187
840.032037	3035.717311
840.347727	3021.135774
840.663373	2961.022535
840.978977	2882.771224
841.294537	2812.048877
841.610054	2763.817637
841.925527	2741.258474
842.240957	2721.363560
842.556344	2696.195600
842.871687	2682.287056
843.186987	2672.960922
843.502244	2668.232319
843.817458	2661.522543
844.132629	2650.293373
844.447756	2642.146869
844.762840	2636.213431
845.077881	2638.890283
845.392879	2635.767288
845.707833	2630.075826
846.022745	2623.449229
846.337613	2627.540125
846.652438	2625.594240
846.967221	2628.145064
847.281960	2625.233797
847.596656	2623.537449
847.911309	2621.004269
848.225919	2620.855555
848.540485	2617.614093
848.855009	2618.322376
849.169490	2615.940430
849.483928	2617.220883
849.798323	2616.651233
850.112675	2615.716099
850.426984	2616.873044
850.741251	2613.651747
851.055474	2613.135028
851.369654	2617.127622
851.683792	2616.094186
851.997887	2614.024792
852.311938	2612.953547
852.625947	2614.738115
852.939914	2616.620986
853.253837	2618.082921
853.567718	2615.446397
853.881555	2612.540172
854.195350	2617.883795
854.509103	2613.843310
854.822812	2613.765173
855.136479	2609.308792
855.450103	2611.468927
855.763685	2616.585698
856.077224	2612.194853
856.390720	2610.622013
856.704173	2611.350460
857.017584	2618.897067
857.330953	2619.933024
857.644278	2623.729013
857.957561	2617.966974
858.270802	2615.534617
858.584000	2616.971346
858.897155	2619.481841
859.210268	2620.694238
859.523339	2615.849690
859.836367	2612.860285
860.149352	2613.997066
860.462295	2613.765173
860.775195	2609.475151
861.088054	2610.725357
861.400869	2608.232506
861.713642	2607.995572
862.026373	2606.024481
862.339062	2608.217383
862.651708	2614.526387
862.964312	2617.979577
863.276873	2615.738784
863.589392	2615.222066
863.901869	2621.397479
864.214303	2628.765126
864.526696	2630.048099
864.839045	2632.926598
865.151353	2633.652524
865.463619	2634.202010
865.775842	2634.544809
866.088023	2634.111269
866.400162	2635.502628
866.712258	2636.566311
867.024313	2634.091105
867.336325	2629.513737
867.648296	2632.195631
867.960224	2636.891466
868.272110	2636.168060
868.583954	2626.670526
868.895755	2628.692029
869.207515	2635.858029
869.519233	2641.451189
869.830909	2638.411374
870.142542	2634.567494
870.454134	2635.011115
870.765684	2637.733338
871.077191	2643.807929
871.388657	2648.808753
871.700081	2643.621406
872.011463	2643.986890
872.322803	2646.041160
872.634101	2650.109371
872.945357	2659.405259
873.256571	2662.314005
873.567744	2662.424910
873.878874	2658.316370
874.189963	2659.304436
874.501010	2665.197545
874.812015	2668.643173
875.122979	2669.497649
875.433900	2658.911226
875.744780	2658.661689
876.055618	2666.082267
876.366415	2668.958245
876.677169	2669.598472
876.987882	2663.201248
877.298554	2660.526916
877.609183	2673.901097
877.919771	2678.964936
878.230317	2687.721420
878.540822	2698.373378
878.851285	2712.516335
879.161707	2735.446023
879.472087	2777.090995
879.782425	2825.488593
880.092722	2939.542178
880.402977	3132.739358
880.713191	3395.786766
881.023363	3699.329762
881.333494	3889.149369
881.643583	4064.846184
881.953631	4066.184610
882.263637	3890.616345
882.573602	3663.744257
882.883526	3532.525543
883.193408	3412.775454
883.503248	3307.170843
883.813048	3192.126671
884.122806	3076.250709
884.432522	2988.297698
884.742197	2922.054415
885.051831	2881.364742
885.361424	2848.133456
885.670975	2813.757828
885.980485	2779.278856
886.289954	2761.947369
886.599382	2746.022364
886.908768	2734.185735
887.218113	2714.358877
887.527417	2700.321784
887.836680	2691.507327
888.145901	2688.149918
888.455082	2679.879905
888.764221	2666.609068
889.073319	2662.621515
889.382376	2662.230826
889.691392	2659.407779
890.000366	2664.441372
890.309300	2659.871566
890.618193	2659.248983
890.927044	2663.475991
891.235855	2663.009684
891.544625	2659.392656
891.853353	2662.999602
892.162041	2673.132321
892.470687	2690.960361
892.779293	2701.113245
893.087858	2714.608414
893.396381	2737.097001
893.704864	2780.372787
894.013306	2852.214270
894.321707	2947.333281
894.630068	2997.747340
894.938387	3020.694673
895.246665	3011.408867
895.554903	2966.194758
895.863100	2919.342275
896.171256	2861.096783
896.479371	2802.853812
896.787446	2759.860332
897.095480	2742.009606
897.403473	2732.817062
897.711425	2717.875082
898.019336	2698.925384
898.327207	2685.939372
898.635038	2685.198323
898.942827	2680.129442
899.250576	2671.912362
899.558284	2659.448109
899.865952	2657.673623
900.173579	2652.695483
900.481165	2652.057777
900.788711	2644.319606
901.096216	2640.712660
901.403681	2631.497431
901.711105	2632.107411
902.018489	2631.459622
902.325832	2637.849285
902.633135	2637.158647
902.940397	2655.820998
903.247619	2691.126719
903.554800	2762.149015
903.861941	2893.919736
904.169041	3026.159283
904.476101	3086.781679
904.783121	3080.913776
905.090100	3024.238604
905.397039	2946.892180
905.703938	2868.383771
906.010796	2806.801036
906.317614	2754.284815
906.624391	2714.880636
906.931129	2689.143025
907.237826	2664.985816
907.544483	2642.663587
907.851099	2631.184880
908.157675	2621.684825
908.464211	2615.292642
908.770707	2601.898296
909.077163	2598.306474
909.383578	2597.378902
909.689954	2596.040476
909.996289	2592.476380
910.302584	2591.531163
910.608839	2588.108220
910.915054	2590.142326
911.221229	2591.216091
911.527363	2593.081318
911.833458	2591.647110
912.139513	2589.789445
912.445527	2594.722214
912.751502	2601.994078
913.057436	2607.446086
913.363331	2612.194853
913.669186	2625.359826
913.975000	2639.472537
914.280775	2654.684218
914.586510	2672.603000
914.892205	2712.511294
915.197859	2781.529731
915.503475	2865.964017
915.809050	2936.504883
916.114585	2954.400979
916.420081	2965.695684
916.725536	2977.096254
917.030952	2948.102057
917.336328	2899.134809
917.641665	2848.982890
917.946961	2798.140333
918.252218	2760.245980
918.557435	2735.488873
918.862612	2710.754452
919.167750	2693.415403
919.472848	2675.841941
919.777906	2660.683191
920.082925	2648.178609
920.387904	2639.548154
920.692843	2636.704943
920.997743	2628.626494
921.302603	2619.880092
921.607423	2613.845831
921.912204	2607.037753
922.216946	2604.444079
922.521647	2601.880652
922.826310	2598.361927
923.130932	2594.548294
923.435516	2588.753488
923.740059	2586.472366
924.044564	2586.875658
924.349028	2584.773497
924.653454	2574.338308
924.957840	2571.729511
925.262186	2569.352607
925.566493	2568.712381
925.870761	2566.355641
926.174989	2567.252967
926.479178	2564.674416
926.783328	2562.516803
927.087438	2561.342214
927.391509	2561.811041
927.695541	2560.152501
927.999533	2563.071329
928.303486	2556.285936
928.607400	2558.463715
928.911275	2557.780638
929.215110	2557.067315
929.518906	2555.985988
929.822663	2558.118396
930.126381	2556.933725
930.430060	2554.597150
930.733699	2555.688560
931.037299	2555.635627
931.340861	2555.451625
931.644383	2557.077397
931.947866	2558.249466
932.251309	2558.844322
932.554714	2555.391132
932.858080	2557.899106
933.161407	2557.800803
933.464694	2553.800648
933.767943	2555.771739
934.071153	2556.106975
934.374323	2554.060267
934.677455	2556.989177
934.980548	2552.300904
935.283602	2555.870041
935.586617	2552.968857
935.889593	2554.987839
936.192530	2553.649413
936.495428	2555.502037
936.798287	2554.687891
937.101108	2556.064126
937.403890	2561.415310
937.706632	2561.548901
938.009336	2561.543860
938.312002	2567.941084
938.614628	2572.291600
938.917216	2577.758731
939.219765	2577.514235
939.522275	2579.732343
939.824747	2579.770152
940.127179	2573.173802
940.429573	2568.603996
940.731929	2570.756568
941.034246	2568.576269
941.336524	2568.087277
941.638763	2568.220868
941.940964	2568.588872
942.243126	2566.181721
942.545250	2565.443192
942.847335	2559.517316
943.149381	2562.330280
943.451389	2560.928839
943.753359	2561.193500
944.055290	2559.625701
944.357182	2559.973540
944.659036	2556.273333
944.960851	2555.660833
945.262628	2555.698642
945.564367	2557.521019
945.866067	2558.239383
946.167729	2555.678477
946.469352	2556.243087
946.770937	2558.733417
947.072484	2556.356512
947.373992	2556.091852
947.675462	2556.696790
947.976893	2557.420196
948.278286	2555.512119
948.579641	2553.987170
948.880958	2553.848538
949.182236	2554.776111
949.483476	2553.624207
949.784678	2555.814588
950.085841	2553.599001
950.386967	2556.487582
950.688054	2556.175031
950.989103	2554.980277
951.290114	2557.357182
951.591087	2559.981102
951.892021	2560.104610
952.192917	2560.404559
952.493776	2560.878428
952.794596	2562.741134
953.095378	2561.962276
953.396122	2562.110990
953.696828	2560.752399
953.997496	2558.461194
954.298126	2556.853066
954.598718	2556.419527
954.899272	2555.617983
955.199788	2552.479865
955.500266	2552.031203
955.800706	2546.301931
956.101108	2548.091541
956.401472	2543.231868
956.701798	2543.632640
957.002087	2544.320758
957.302337	2545.936447
957.602550	2545.303783
957.902724	2543.365459
958.202861	2545.218083
958.502960	2541.737166
958.803022	2545.850748
959.103045	2542.793288
959.403031	2543.126004
959.702979	2541.265818
960.002889	2543.289842
960.302762	2541.439738
960.602596	2542.170706
960.902393	2540.670962
961.202153	2540.638195
961.501875	2538.084850
961.801559	2540.582742
962.101205	2538.631816
962.400814	2540.711292
962.700385	2540.088709
962.999918	2538.924203
963.299414	2539.498894
963.598873	2537.172402
963.898293	2538.384799
964.197677	2538.732639
964.497022	2541.278421
964.796331	2534.699716
965.095601	2537.900848
965.394835	2537.474871
965.694030	2537.202648
965.993189	2538.843544
966.292309	2537.971424
966.591393	2539.841693
966.890439	2535.148378
967.189447	2540.572660
967.488419	2535.607123
967.787353	2536.602751
968.086249	2536.126362
968.385108	2539.685417
968.683930	2536.264994
968.982714	2536.159130
969.281462	2537.434542
969.580172	2537.968904
969.878844	2538.087371
970.177480	2534.004036
970.476078	2537.409336
970.774639	2538.649460
971.073162	2539.151054
971.371649	2538.846065
971.670098	2536.557381
971.968510	2538.788091
972.266885	2534.281300
972.565223	2540.575180
972.863524	2538.389840
973.161788	2538.435211
973.460014	2540.862526
973.758204	2537.827752
974.056356	2540.635674
974.354471	2539.297248
974.652550	2540.081147
974.950591	2540.151723
975.248595	2537.086702
975.546563	2539.095602
975.844493	2537.164840
976.142386	2537.797505
976.440243	2537.865560
976.738062	2537.069058
977.035845	2535.710467
977.333590	2536.660724
977.631299	2536.985879
977.928971	2538.609130
978.226606	2538.467978
978.524204	2535.917154
978.821765	2535.047555
979.119290	2535.710467
979.416777	2536.839685
979.714228	2540.706250
980.011642	2536.118800
980.309020	2540.769265
980.606360	2534.432534
980.903664	2534.931609
981.200931	2538.266332
981.498162	2538.851106
981.795356	2543.879657
982.092513	2543.743546
982.389633	2545.306303
982.686717	2549.916438
982.983764	2552.139587
983.280775	2554.695452
983.577749	2553.324258
983.874686	2550.294525
984.171587	2546.057435
984.468451	2546.251520
984.765279	2544.141797
985.062070	2541.351518
985.358824	2541.928730
985.655543	2540.101312
985.952224	2539.324974
986.248869	2537.341280
986.545478	2532.494211
986.842050	2533.091588
987.138586	2534.482946
987.435086	2534.306506
987.731549	2531.206196
988.027975	2534.815662
988.324366	2533.996475
988.620719	2537.265663
988.917037	2535.874304
989.213318	2533.580579
989.509563	2534.780374
989.805772	2533.630991
990.101944	2533.547812
990.398080	2533.875487
990.694180	2534.805580
990.990244	2533.678882
991.286271	2533.928419
991.582262	2533.278110
991.878217	2533.837678
992.174136	2534.109901
992.470019	2532.489170
992.765865	2534.792977
993.061676	2532.287523
993.357450	2536.232226
993.653188	2533.446989
993.948890	2534.200641
994.244556	2535.649973
994.540186	2535.947401
994.835780	2533.121834
995.131337	2536.466640
995.426859	2535.357586
995.722345	2536.075951
996.017795	2539.647608
996.313208	2541.472506
996.608586	2537.679038
996.903928	2539.382947
997.199234	2538.810777
997.494504	2537.545447
997.789738	2537.905889
998.084936	2535.871784
998.380099	2536.817000
998.675225	2534.818183
998.970316	2537.280786
999.265371	2535.279448
999.560390	2534.351876
999.855373	2536.822041
1000.150320	2533.890610
1000.445232	2532.713501
1000.740108	2532.794159
1001.034948	2534.520755
1001.329752	2534.157792
1001.624521	2533.532688
1001.919254	2527.992460
1002.213951	2529.983716
1002.508613	2526.797707
1002.803239	2530.865918
1003.097829	2527.397604
1003.392384	2530.550846
1003.686903	2532.842050
1003.981386	2533.096629
1004.275834	2529.051103
1004.570246	2533.169725
1004.864623	2530.752492
1005.158964	2530.878521
1005.453270	2531.896834
1005.747540	2531.949766
1006.041775	2531.962369
1006.335974	2533.134437
1006.630138	2530.349200
1006.924266	2531.919519
1007.218359	2532.589993
1007.512416	2533.300795
1007.806438	2532.572349
1008.100425	2531.609488
1008.394376	2532.564787
1008.688292	2530.452543
1008.982172	2533.159643
1009.276017	2530.634025
1009.569827	2532.373223
1009.863602	2532.330373
1010.157341	2531.460774
1010.451045	2534.059489
1010.744714	2531.140661
1011.038347	2530.881042
1011.331945	2529.232584
1011.625508	2529.799714
1011.919036	2530.339118
1012.212528	2530.505476
1012.505986	2531.702750
1012.799408	2531.690147
1013.092795	2531.649818
1013.386147	2528.604961
1013.679464	2528.788963
1013.972745	2529.255269
1014.265992	2530.964221
1014.559204	2533.913296
1014.852380	2530.477749
1015.145521	2531.811134
1015.438628	2533.787267
1015.731699	2531.097811
1016.024736	2529.550177
1016.317737	2532.058151
1016.610703	2533.164684
1016.903635	2526.855680
1017.196531	2527.725279
1017.489393	2530.603778
1017.782219	2526.941380
1018.075011	2529.066226
1018.367768	2532.461443
1018.660490	2528.806607
1018.953177	2528.806607
1019.245829	2528.806607
