Dividing Wavelength (nm)	Counts (n)	Blue Motor Position (mm): 21.600000	Red Motor Position (mm): 0.000000	
326.493990	2057.713300
326.888308	2057.713300
327.282561	2057.713300
327.676750	2035.181863
328.070874	2036.868129
328.464933	2042.945240
328.858929	2051.144677
329.252859	2060.511141
329.646726	2073.908007
330.040528	2089.825450
330.434265	2108.339088
330.827938	2132.208951
331.221547	2152.310552
331.615091	2170.637667
332.008571	2191.898733
332.401986	2211.269367
332.795338	2233.372306
333.188625	2253.030286
333.581847	2271.324633
333.975006	2285.674277
334.368100	2304.397123
334.761129	2322.661223
335.154095	2339.813749
335.546996	2388.014742
335.939833	2485.067035
336.332606	2493.347131
336.725315	2505.035046
337.117960	2516.599453
337.510540	2523.936852
337.903056	2534.747607
338.295508	2540.539892
338.687896	2549.054401
339.080220	2551.149001
339.472480	2557.291647
339.864676	2560.023952
340.256807	2562.640311
340.648875	2566.771536
341.040879	2569.700447
341.432818	2568.843451
341.824694	2570.880077
342.216506	2568.987123
342.608253	2569.092988
342.999937	2569.730694
343.391557	2567.189952
343.783113	2566.585014
344.174605	2564.515620
344.566033	2561.334652
344.957397	2560.155022
345.348697	2558.536812
345.739934	2557.342058
346.131106	2554.907181
346.522215	2552.951213
346.913260	2551.837118
347.304241	2552.565565
347.695159	2550.201264
348.086012	2548.252858
348.476802	2546.785882
348.867528	2541.364121
349.258191	2538.959491
349.648789	2541.061652
350.039324	2535.561753
350.429796	2540.328164
350.820203	2541.348997
351.210548	2537.527803
351.600828	2539.738349
351.991045	2535.934798
352.381198	2536.973276
352.771288	2537.825231
353.161314	2538.021836
353.551276	2536.287679
353.941175	2534.278779
354.331010	2534.203162
354.720782	2538.014274
355.110490	2540.650798
355.500135	2535.891948
355.889717	2539.614841
356.279235	2536.716177
356.668689	2536.597710
357.058080	2537.502597
357.447408	2536.391023
357.836672	2539.428318
358.225873	2538.848585
358.615010	2539.451003
359.004084	2541.243133
359.393095	2542.052238
359.782043	2540.418905
360.170927	2539.854295
360.559748	2539.219110
360.948505	2544.850079
361.337199	2545.729760
361.725830	2543.947712
362.114398	2545.611293
362.502903	2547.635316
362.891344	2545.583567
363.279722	2542.841179
363.668037	2545.550799
364.056289	2545.878474
364.444478	2544.686241
364.832603	2548.008362
365.220665	2547.496685
365.608665	2545.853268
365.996601	2548.346119
366.384474	2549.858465
366.772284	2548.555327
367.160031	2547.274874
367.547715	2551.297715
367.935336	2548.058773
368.322893	2546.599359
368.710388	2543.950233
369.097820	2548.106664
369.485189	2546.685059
369.872495	2551.890050
370.259738	2549.029195
370.646918	2549.467776
371.034035	2552.074052
371.421090	2550.034906
371.808081	2552.510112
372.195010	2552.540359
372.581875	2552.656306
372.968678	2552.643703
373.355418	2552.414330
373.742096	2550.949875
374.128710	2554.546738
374.515262	2555.149156
374.901751	2556.321224
375.288177	2554.629917
375.674540	2555.479352
376.060841	2556.941286
376.447079	2552.641182
376.833254	2555.859959
377.219367	2557.072356
377.605417	2556.326266
377.991404	2555.502037
378.377329	2557.155535
378.763191	2556.480021
379.148991	2553.455328
379.534727	2557.752912
379.920402	2559.124106
380.306013	2559.724003
380.691563	2560.636452
381.077049	2558.360371
381.462474	2558.488921
381.847835	2561.561504
382.233134	2560.313818
382.618371	2559.638304
383.003545	2559.809703
383.388657	2561.790876
383.773706	2561.054868
384.158693	2559.265258
384.543618	2560.381874
384.928480	2562.466391
385.313280	2561.397666
385.698017	2561.253993
386.082692	2562.252142
386.467305	2560.447409
386.851856	2562.269786
387.236344	2561.296843
387.620770	2560.598643
388.005133	2558.125958
388.389435	2560.268448
388.773674	2558.675443
389.157851	2564.762637
389.541965	2564.966803
389.926018	2563.446895
390.310008	2562.698284
390.693936	2565.894376
391.077802	2567.444530
391.461606	2566.781619
391.845348	2563.114179
392.229027	2565.538974
392.612645	2564.606361
392.996200	2566.055692
393.379694	2568.120045
393.763125	2565.841443
394.146494	2567.822617
394.529801	2565.092832
394.913047	2567.694068
395.296230	2565.864129
395.679351	2568.732545
396.062410	2567.293296
396.445408	2566.537123
396.828343	2567.187432
397.211217	2568.818245
397.594028	2571.117011
397.976778	2568.160374
398.359466	2567.421845
398.742092	2571.207752
399.124656	2566.280024
399.507158	2568.624160
399.889598	2569.057700
400.271977	2567.749520
400.654294	2571.411918
401.036549	2571.807649
401.418742	2572.120201
401.800874	2571.094326
402.182944	2570.307906
402.564952	2570.406208
402.946898	2573.572053
403.328783	2573.582135
403.710606	2571.510221
404.092367	2571.840417
404.474067	2575.664132
404.855705	2572.059707
405.237282	2571.706826
405.618797	2572.165571
406.000250	2576.138000
406.381642	2574.214800
406.762972	2572.737742
407.144240	2570.595252
407.525447	2570.943091
407.906593	2566.781619
408.287677	2573.748493
408.668700	2578.184709
409.049661	2577.572208
409.430560	2577.115984
409.811399	2575.338977
410.192176	2577.365521
410.572891	2580.170923
410.953545	2576.175809
411.334138	2575.472568
411.714669	2574.146744
412.095139	2577.098340
412.475547	2574.287897
412.855894	2578.081365
413.236180	2577.683114
413.616405	2577.882239
413.996568	2577.683114
414.376670	2580.057497
414.756711	2578.547672
415.136691	2580.216294
415.516609	2580.448187
415.896466	2580.526325
416.276262	2580.367528
416.655997	2577.620099
417.035670	2579.434915
417.415283	2581.526994
417.794834	2581.862230
418.174324	2578.250244
418.553753	2580.365008
418.933121	2579.432394
419.312428	2582.658733
419.691674	2581.975656
420.070859	2581.337950
420.449983	2582.028588
420.829045	2577.617579
421.208047	2580.352405
421.586988	2581.947930
421.965867	2582.361305
422.344686	2581.075810
422.723444	2582.930955
423.102141	2581.176633
423.480777	2583.714854
423.859352	2585.020513
424.237866	2581.249730
424.616319	2583.913980
424.994712	2582.371387
425.373044	2584.213929
425.751314	2580.980028
426.129524	2576.722774
426.507673	2578.519945
426.885762	2578.950964
427.263789	2583.566140
427.641756	2580.891808
428.019662	2580.851479
428.397508	2581.408527
428.775292	2584.544124
429.153016	2584.662591
429.530679	2584.793661
429.908282	2586.051429
430.285824	2585.355750
430.663305	2584.612180
431.040726	2585.814495
431.418086	2586.212746
431.795385	2585.575040
432.172624	2584.571851
432.549802	2583.669484
432.926920	2585.902715
433.303977	2583.039340
433.680974	2585.764083
434.057910	2586.454722
434.434786	2585.176789
434.811601	2584.687797
435.188355	2585.943044
435.565050	2587.344485
435.941683	2586.805082
436.318257	2587.604105
436.694770	2587.568817
437.071222	2584.813826
437.447614	2587.261306
437.823946	2586.018662
438.200218	2588.420772
438.576429	2587.556214
438.952580	2586.757191
439.328670	2590.497727
439.704700	2585.995977
440.080670	2588.103179
440.456580	2588.609815
440.832429	2588.695514
441.208218	2588.587130
441.583947	2587.704928
441.959616	2590.233066
442.335224	2589.048395
442.710773	2588.763570
443.086261	2593.202306
443.461689	2590.661564
443.837057	2591.344641
444.212365	2591.450505
444.587612	2589.476893
444.962800	2586.880699
445.337927	2593.330855
445.712995	2586.374063
446.088002	2591.553849
446.462949	2593.358582
446.837837	2593.247676
447.212664	2590.918663
447.587431	2596.370671
447.962139	2595.455702
448.336786	2593.819847
448.711374	2597.487287
449.085901	2596.040476
449.460369	2594.883531
449.834776	2598.465271
450.209124	2597.207503
450.583412	2597.038624
450.957640	2595.831268
451.331808	2598.593820
451.705917	2598.004005
452.079965	2599.082812
452.453954	2599.856629
452.827883	2597.630960
453.201752	2599.125662
453.575562	2600.796804
453.949311	2600.900148
454.323001	2599.975096
454.696632	2599.937287
455.070202	2604.358379
455.443713	2602.394850
455.817164	2604.116404
456.190556	2605.716970
456.563888	2606.374841
456.937160	2607.176384
457.310373	2608.509770
457.683526	2606.745366
458.056619	2609.820470
458.429653	2607.161261
458.802628	2610.392641
459.175542	2608.940788
459.548398	2613.051849
459.921194	2611.864657
460.293930	2615.083434
460.666607	2621.180710
461.039224	2616.121912
461.411782	2620.011162
461.784280	2621.387397
462.156719	2619.325565
462.529099	2621.236162
462.901419	2620.449742
463.273680	2619.358333
463.645882	2617.477982
464.018024	2622.060391
464.390106	2623.489558
464.762130	2628.908799
465.134094	2631.799900
465.505999	2639.623771
465.877845	2645.499236
466.249631	2652.088024
466.621358	2650.938641
466.993026	2650.162303
467.364634	2651.220946
467.736184	2649.123826
468.107674	2646.762045
468.479105	2646.688948
468.850477	2651.352016
469.221790	2649.980822
469.593043	2650.893271
469.964238	2650.452170
470.335373	2654.013745
470.706449	2657.010711
471.077467	2666.004129
471.448425	2680.888136
471.819324	2688.565813
472.190164	2689.316945
472.560945	2684.154804
472.931667	2682.657581
473.302330	2685.730164
473.672934	2688.429702
474.043479	2696.387163
474.413965	2699.968903
474.784393	2702.383616
475.154761	2713.436346
475.525070	2719.521018
475.895321	2727.813717
476.265513	2738.634553
476.635645	2750.846748
477.005719	2758.509302
477.375734	2774.472116
477.745691	2786.890998
478.115588	2806.604431
478.485427	2832.614264
478.855207	2875.154041
479.224928	2910.061510
479.594591	2939.486725
479.964194	2950.005093
480.333739	2969.206848
480.703226	2998.170797
481.072653	3034.809903
481.442022	3067.232084
481.811333	3102.583176
482.180584	3112.113477
482.549777	3144.029022
482.918912	3167.684637
483.287988	3206.390616
483.657005	3235.324318
484.025964	3265.319184
484.394864	3301.625574
484.763706	3336.664113
485.132489	3365.822147
485.501213	3406.741193
485.869879	3458.166003
486.238487	3501.814834
486.607036	3561.930594
486.975527	3597.732868
487.343959	3665.778363
487.712333	3734.254876
488.080648	3793.160759
488.448905	3870.464332
488.817104	3936.011935
489.185244	4043.587638
489.553326	4194.255123
489.921350	4389.161255
490.289315	4614.543681
490.657222	4755.436370
491.025070	4870.404924
491.392861	4939.577117
491.760593	4977.121110
492.128267	5001.260675
492.495883	5020.175084
492.863440	5057.993821
493.230939	5087.282924
493.598380	5148.588396
493.965763	5243.717490
494.333088	5306.991533
494.700354	5394.143000
495.067563	5506.031410
495.434713	5611.575527
495.801805	5753.491570
496.168839	5862.314958
496.535815	5971.574406
496.902733	6106.137925
497.269593	6211.656837
497.636395	6354.916347
498.003139	6528.379930
498.369825	6633.256095
498.736453	6820.686195
499.103023	6942.858558
499.469535	7098.393278
499.835989	7262.966787
500.202385	7392.607619
500.568723	7552.172742
500.935003	7766.278107
501.301226	7902.674086
501.667390	8191.819547
502.033497	8398.736228
502.399546	8524.757512
502.765537	8613.522149
503.131470	8876.975369
503.497345	9147.529055
503.863163	9109.576728
504.228923	9453.020458
504.594625	9728.993384
504.960269	9799.163725
505.325856	10141.989913
505.691385	10255.625082
506.056856	10530.007524
506.422270	10849.785557
506.787625	10930.948134
507.152924	11245.740465
507.518164	11507.119251
507.883347	11585.720922
508.248472	11836.581340
508.613540	12251.667427
508.978550	12545.705328
509.343503	12730.730798
509.708398	13068.767889
510.073236	13488.020490
510.438016	13744.292587
510.802738	13869.308161
511.167403	14283.519608
511.532010	14598.805972
511.896561	15014.255023
512.261053	15535.880855
512.625488	15690.946747
512.989866	15913.871612
513.354186	16171.971127
513.718449	16395.478244
514.082655	17000.094072
514.446803	17139.179507
514.810894	17641.568296
515.174927	17904.343482
515.538904	18155.718098
515.902822	18712.155618
516.266684	18830.531993
516.630488	19234.804805
516.994235	19485.090531
517.357925	20032.688388
517.721558	20401.388298
518.085133	20848.929334
518.448651	21210.546423
518.812112	21394.540977
519.175516	21733.180486
519.538863	22224.730795
519.902152	22500.786900
520.265385	23069.048447
520.628560	23338.757739
520.991678	23557.884094
521.354739	23938.723102
521.717743	24405.309617
522.080690	24606.053405
522.443580	25259.621357
522.806413	25522.714135
523.169189	25858.041606
523.531908	26250.245896
523.894569	26411.368735
524.257174	26792.752188
524.619722	27243.844716
524.982213	27572.989213
525.344647	27846.837293
525.707025	28164.286312
526.069345	28704.093066
526.431608	28894.550379
526.793815	29387.663445
527.155964	29317.765326
527.518057	29713.054802
527.880093	29844.029020
528.242072	30521.260149
528.603995	30557.863967
528.965860	30734.425339
529.327669	31112.363163
529.689421	31365.081247
530.051117	31545.365511
530.412755	31975.771665
530.774337	32244.785278
531.135862	32408.315268
531.497331	32739.952615
531.858743	32930.959413
532.220098	33444.804225
532.581396	33453.628765
532.942638	33470.330108
533.303824	33867.898185
533.664953	34103.146150
534.026025	34053.442893
534.387040	34685.412022
534.747999	34941.885765
535.108902	35371.147577
535.469748	35022.793764
535.830537	35409.851035
536.191270	35793.387061
536.551947	35769.257578
536.912567	36171.334968
537.273131	36472.362429
537.633638	36318.198903
537.994089	36647.126630
538.354483	36596.977231
538.714821	37299.025960
539.075103	37700.339615
539.435328	37745.858713
539.795497	37702.852630
540.155609	37977.444280
540.515665	38614.951116
540.875665	38198.256901
541.235609	38590.062939
541.595496	38838.924540
541.955328	39492.124488
542.315102	39152.171758
542.674821	39177.823669
543.034483	39229.752595
543.394090	39390.701514
543.753640	39516.813539
544.113134	40582.032032
544.472571	39931.952558
544.831953	41086.661614
545.191278	40546.693543
545.550548	40376.789015
545.909761	41101.674170
546.268918	41343.977230
546.628019	41855.334232
546.987064	41463.939047
547.346053	40911.315160
547.704986	41874.662016
548.063863	41661.539675
548.422684	41955.358286
548.781449	41713.269475
549.140158	42305.975577
549.498811	42191.921992
549.857408	41734.220511
550.215949	42631.344249
550.574434	42597.596245
550.932864	42612.172741
551.291237	43404.926951
551.649555	43258.274744
552.007817	43517.211091
552.366022	43321.626925
552.724173	43457.627173
553.082267	43933.131489
553.440305	44349.011558
553.798288	43725.753543
554.156215	44187.029203
554.514086	44457.078773
554.871902	44177.261967
555.229661	44424.391932
555.587365	44196.546901
555.945014	44426.723465
556.302606	44498.033107
556.660143	44677.674624
557.017625	44941.810921
557.375050	44731.577162
557.732421	45206.511827
558.089735	45317.545761
558.446994	45252.746770
558.804197	45808.420555
559.161345	45725.138173
559.518437	45138.017670
559.875474	45466.499255
560.232455	45743.540905
560.589381	45877.766668
560.946251	45730.469193
561.303065	46430.163703
561.659825	46174.335228
562.016528	46029.717127
562.373177	45673.741089
562.729770	46348.280241
563.086307	45929.887157
563.442789	46492.903383
563.799216	46417.003771
564.155587	46341.275558
564.511904	46356.605707
564.868164	46453.509287
565.224370	46798.646844
565.580520	46571.404231
565.936615	46803.088100
566.292654	46494.783734
566.648638	46900.611742
567.004567	46856.794033
567.360441	46989.404105
567.716260	46744.779594
568.072023	47145.568969
568.427732	47122.205742
568.783385	46679.063113
569.138982	47116.300030
569.494525	47282.355637
569.850013	46889.329640
570.205445	47026.486833
570.560823	46839.956579
570.916145	46768.498223
571.271412	47010.871859
571.626625	46695.867799
571.981782	46782.734442
572.336884	46406.649241
572.691931	46754.556912
573.046923	46447.444779
573.401860	46298.582026
573.756743	46334.989239
574.111570	46495.476893
574.466342	46440.374560
574.821059	46583.218175
575.175722	46109.203520
575.530330	46220.313072
575.884882	45883.223717
576.239380	45793.849100
576.593823	45913.624395
576.948211	45856.765221
577.302544	45420.042501
577.656823	45417.398416
578.011047	45692.721033
578.365216	45515.128745
578.719330	45258.501247
579.073389	45245.921047
579.427394	45313.845554
579.781344	45257.104847
580.135239	45012.886149
580.489080	45086.592860
580.842866	44587.410244
581.196597	45084.430205
581.550273	45085.239310
581.903895	45016.737591
582.257463	45476.445451
582.610975	44901.403552
582.964434	45251.761224
583.317837	44763.591009
583.671186	44720.131222
584.024481	44998.070198
584.377721	44551.212239
584.730906	44782.628927
585.084037	44904.592082
585.437113	44615.623062
585.790135	44766.403973
586.143103	44297.677488
586.496016	44466.147809
586.848874	44591.901912
587.201679	44605.565960
587.554428	44127.341941
587.907124	44418.763483
588.259765	44169.120504
588.612352	44343.236916
588.964884	43796.148216
589.317362	44106.151451
589.669786	44109.992810
590.022155	43975.290659
590.374470	44414.299542
590.726731	44003.163198
591.078937	43354.301163
591.431090	43683.309549
591.783188	43224.476328
592.135232	43024.992830
592.487222	43304.764265
592.839157	43445.470431
593.191038	43092.408180
593.542866	42891.238415
593.894639	42294.459061
594.246358	42611.174593
594.598022	42611.136784
594.949633	42188.478884
595.301190	42178.734333
595.652692	42115.669499
596.004141	42595.287396
596.355535	41519.449713
596.706876	41531.109902
597.058162	41239.930335
597.409395	41747.337593
597.760573	41965.891777
598.111698	41565.722464
598.462768	41496.124294
598.813785	41511.855215
599.164748	41106.574172
599.515657	41393.645198
599.866511	40897.318396
600.217312	41603.770573
600.568060	40528.870544
600.918753	41371.403627
601.269392	41303.035499
601.619978	41008.122958
601.970510	41213.544936
602.320988	41346.656603
602.671412	41610.964299
603.021783	41485.898313
603.372100	41050.773640
603.722363	41170.032216
604.072572	41198.151773
604.422728	41196.946937
604.772830	40982.355100
605.122878	41141.504327
605.472872	41003.573316
605.822813	41253.428024
606.172701	41020.133507
606.522534	41346.676768
606.872314	41544.587427
607.222041	41386.045659
607.571714	41716.364744
607.921333	41203.223173
608.270899	41416.607654
608.620411	41817.510455
608.969870	41535.856148
609.319276	41563.607700
609.668627	41590.149375
610.017926	42007.506502
610.367171	42119.399953
610.716362	42175.447501
611.065500	42064.025398
611.414585	42283.537401
611.763616	42459.428300
612.112594	42349.241280
612.461518	42486.925274
612.810389	42871.887946
613.159207	42670.715661
613.507971	42658.087570
613.856682	43129.637101
614.205340	42982.468176
614.553945	43664.813555
614.902496	42976.078514
615.250994	43399.263215
615.599439	43473.259791
615.947830	43575.438939
616.296169	43581.828601
616.644454	43634.934636
616.992686	43791.999346
617.340864	44233.014608
617.688990	43764.540181
618.037063	44456.060460
618.385082	44265.393939
618.733048	44611.885046
619.080961	44484.485006
619.428821	44507.563408
619.776628	44520.287281
620.124382	44321.459132
620.472083	44441.161330
620.819731	44531.617274
621.167326	44093.102424
621.514868	44093.238535
621.862357	43580.359105
622.209793	43653.501206
622.557176	43222.585896
622.904506	42975.314779
623.251783	42599.811832
623.599007	42286.299954
623.946179	42211.562327
624.293297	41951.015332
624.640363	41403.351940
624.987376	41256.561102
625.334336	41062.096071
625.681243	40650.322022
626.028097	40573.131875
626.374899	40377.653572
626.721647	40352.558709
627.068343	40149.470785
627.414987	39836.216005
627.761577	39590.525290
628.108115	39929.754615
628.454600	39177.158237
628.801032	39405.991333
629.147412	39297.223398
629.493739	39218.319258
629.840014	38790.637848
630.186236	39183.774751
630.532405	38634.047007
630.878521	38877.028101
631.224585	38653.064759
631.570597	38316.834921
631.916556	38481.647885
632.262462	38363.200934
632.608316	38287.124881
632.954117	38165.363372
633.299866	38113.626010
633.645562	38027.949080
633.991206	37506.330809
634.336797	37095.691019
634.682336	37011.231528
635.027823	36763.947808
635.373257	36637.288818
635.718639	36304.426471
636.063968	36196.636519
636.409245	35548.747427
636.754470	35504.470973
637.099642	35280.984020
637.444762	34727.863578
637.789829	34859.278898
638.134845	34483.818800
638.479808	34406.651338
638.824719	34338.905792
639.169577	33837.452136
639.514383	33925.309366
639.859137	33547.726943
640.203839	33722.972574
640.548489	33417.216511
640.893086	33416.732560
641.237632	33138.095384
641.582125	33249.855244
641.926566	33035.759961
642.270955	33054.066911
642.615292	33000.645804
642.959576	32886.486354
643.303809	32894.143867
643.647990	32957.309525
643.992118	32930.535957
644.336195	32764.913888
644.680219	32862.024155
645.024192	33057.353743
645.368112	33582.765482
645.711981	33595.597739
646.055797	34325.524049
646.399562	34128.616580
646.743274	35000.821895
647.086935	35408.149646
647.430544	35356.687027
647.774101	35402.117905
648.117606	35704.077980
648.461059	35834.674111
648.804460	35427.512718
649.147810	34910.398718
649.491108	34568.555555
649.834354	34423.743370
650.177548	33614.963332
650.520690	33109.335601
650.863781	33107.987093
651.206820	32917.451642
651.549807	32521.199305
651.892742	31933.496549
652.235626	31824.579899
652.578458	31708.179657
652.921238	31020.972085
653.263967	31324.338642
653.606644	31031.026667
653.949269	30930.548909
654.291843	30556.054192
654.634365	30908.466134
654.976836	30444.984970
655.319255	30528.642918
655.661622	30402.344371
656.003938	30272.688414
656.346203	30078.077191
656.688416	30323.442751
657.030577	30097.828431
657.372687	29923.407029
657.714746	30080.857387
658.056753	30285.813058
658.398708	29656.326698
658.740612	29726.960825
659.082465	29920.715053
659.424266	29820.479270
659.766016	29818.374588
660.107715	29679.982312
660.449362	29785.707912
660.790958	29761.674211
661.132503	29696.091320
661.473996	29761.369221
661.815438	29857.088129
662.156829	29974.489041
662.498168	29770.846590
662.839456	29744.544370
663.180693	29880.799197
663.521879	29962.798605
663.863013	29935.730129
664.204097	29919.386709
664.545129	30319.513172
664.886110	30256.251732
665.227040	30351.895023
665.567918	30342.775576
665.908746	30433.909555
666.249522	30504.442859
666.590248	30523.397598
666.930922	30626.584976
667.271545	30634.388682
667.612118	30694.025532
667.952639	30494.647897
668.293109	30535.178774
668.633528	30404.355791
668.973896	30352.762102
669.314213	30337.331130
669.654480	30142.581275
669.994695	30133.194646
670.334859	30055.107173
670.674973	29874.971623
671.015035	30065.683514
671.355047	30004.771252
671.695008	29932.987742
672.034918	29838.209008
672.374777	29957.293665
672.714585	29822.218468
673.054342	29943.659864
673.394049	29790.943150
673.733705	30012.572437
674.073310	29728.745394
674.412864	29775.532343
674.752368	29482.311108
675.091820	29709.974657
675.431223	29312.383895
675.770574	29118.218813
676.109875	28951.417115
676.449125	28740.926256
676.788324	28648.481577
677.127473	28153.778027
677.466571	28066.311487
677.805619	27791.639178
678.144616	27739.236384
678.483562	27684.237396
678.822458	27372.361372
679.161303	27295.778683
679.500098	27202.396349
679.838842	27142.459551
680.177535	27222.235810
680.516179	27470.079098
680.854771	27593.468900
681.193314	28368.019503
681.531805	29377.187927
681.870247	30121.635280
682.208638	30840.108088
682.546978	31107.470724
682.885268	31256.245256
683.223508	30806.627265
683.561697	30541.760001
683.899836	30385.209489
684.237925	29975.414093
684.575963	29828.403964
684.913951	29461.327306
685.251889	29624.690937
685.589776	29660.215948
685.927614	29660.228551
686.265401	29836.477372
686.603137	29953.757296
686.940824	30470.631841
687.278460	30791.271910
687.616046	30946.224377
687.953582	31617.746398
688.291068	31525.029497
688.628504	31871.727291
688.965889	31864.957021
689.303224	31600.858533
689.640510	31322.632211
689.977745	30684.558245
690.314930	29955.178901
690.652065	29517.964669
690.989150	28847.909623
691.326185	28017.377007
691.663170	27388.717396
692.000105	26646.518397
692.336990	26035.593565
692.673825	25609.439625
693.010610	25130.620750
693.347345	24616.143274
693.684030	23986.019208
694.020665	23797.880826
694.357251	23131.760401
694.693786	23120.974852
695.030272	22896.562847
695.366707	22392.094582
695.703093	22125.581381
696.039429	22195.290456
696.375716	21942.869801
696.711952	21957.441256
697.048139	21807.676137
697.384276	21650.099750
697.720363	21771.972165
698.056400	21659.337665
698.392388	21497.819095
698.728326	21495.512767
699.064214	21339.506700
699.400053	21345.636743
699.735842	20944.754107
700.071581	20742.152654
700.407270	20505.551140
700.742910	20335.119811
701.078501	20085.945658
701.414042	19879.800275
701.749533	19571.947092
702.084974	19264.393857
702.420366	19501.018057
702.755709	19090.307691
703.091002	18780.846380
703.426246	18846.043623
703.761440	18779.646586
704.096584	18544.824598
704.431679	18477.946131
704.766725	18419.912368
705.101721	18351.529116
705.436668	18485.197831
705.771565	18195.891052
706.106413	18512.309156
706.441212	18583.402028
706.775961	18685.984468
707.110661	18770.824566
707.445311	19125.641139
707.779913	19001.583384
708.114465	19300.256626
708.448967	19611.822618
708.783421	20243.905173
709.117825	20598.288206
709.452180	20839.792243
709.786485	21281.987135
710.120742	22049.086912
710.454949	22161.542452
710.789107	22672.833919
711.123216	23373.657647
711.457275	23592.383230
711.791286	24142.657940
712.125247	24296.539161
712.459159	24033.648029
712.793023	24783.242401
713.126837	23764.455455
713.460602	24016.976934
713.794318	23693.425598
714.127985	23428.064300
714.461602	22523.900590
714.795171	22514.551771
715.128691	21531.945186
715.462162	21017.019047
715.795584	20580.467727
716.128957	20315.169444
716.462281	19931.144427
716.795556	19653.089504
717.128782	19173.204425
717.461960	18572.578671
717.795088	18538.445018
718.128167	18195.563378
718.461198	17732.750166
718.794180	17606.562524
719.127113	17271.350999
719.459997	17089.020026
719.792833	16714.230402
720.125619	16752.283552
720.458357	16415.121100
720.791046	16283.703261
721.123686	16130.013603
721.456278	15910.431024
721.788821	15895.647841
722.121315	15626.054495
722.453761	15726.973353
722.786158	15611.798112
723.118506	15699.105855
723.450805	15590.174082
723.783056	15764.529950
724.115259	15658.809392
724.447412	15644.789943
724.779518	15858.275247
725.111574	15914.484112
725.443582	16184.901687
725.775542	16136.972916
726.107453	16654.001217
726.439315	16581.804332
726.771129	16988.350704
727.102895	17404.928973
727.434612	17679.709666
727.766281	17848.333742
728.097901	18172.207712
728.429473	18253.201410
728.760996	18272.267054
729.092471	18394.013440
729.423897	18285.903375
729.755276	18156.224733
730.086606	18273.358464
730.417887	18861.139358
730.749120	19413.924563
731.080305	19627.752665
731.411442	20022.084321
731.742530	20141.496653
732.073570	20305.772733
732.404562	20625.046651
732.735506	20478.570884
733.066401	20258.670713
733.397249	19762.926164
733.728048	19143.169231
734.058798	18292.308161
734.389501	17521.379627
734.720156	17005.200761
735.050762	16429.833708
735.381320	16050.333126
735.711831	15777.747855
736.042293	15411.097174
736.372707	15438.558860
736.703073	15225.590274
737.033391	15421.555048
737.363661	15420.163689
737.693883	15544.307144
738.024056	15730.161883
738.354182	15951.569360
738.684260	16312.727704
739.014290	16594.392093
739.344272	16826.015468
739.674207	17169.786872
740.004093	17340.281216
740.333931	17399.182057
740.663722	17480.884038
740.993464	17522.637395
741.323159	17363.856172
741.652806	17074.677943
741.982405	16904.027324
742.311956	16550.939867
742.641460	16450.351204
742.970915	16126.280629
743.300323	15772.464726
743.629683	15552.383072
743.958996	15240.572583
744.288260	14926.833853
744.617477	14615.459424
744.946647	14578.064145
745.275768	14271.675417
745.604842	14065.356114
745.933869	13888.547725
746.262847	13862.921019
746.591778	13775.202422
746.920662	13664.735617
747.249498	13663.563549
747.578286	13825.992047
747.907027	13993.025638
748.235720	14260.499179
748.564365	14334.049614
748.892963	14258.434827
749.221514	14353.510988
749.550017	14215.161562
749.878473	14192.284806
750.206881	13971.217607
750.535242	13896.217840
750.863555	13810.112412
751.191821	13711.285632
751.520039	13734.474940
751.848210	13661.466429
752.176334	13703.686093
752.504411	13631.537099
752.832440	13453.481024
753.160421	13564.376327
753.488356	13457.856746
753.816243	13362.294113
754.144082	13208.614538
754.471875	13149.416268
754.799620	13118.277061
755.127318	13087.677257
755.454969	13080.536463
755.782572	13047.998335
756.110129	13064.077096
756.437638	12965.855254
756.765100	12974.944454
757.092515	12997.843896
757.419882	13038.649516
757.747203	13053.800703
758.074477	13143.324034
758.401703	13119.481897
758.728882	13320.984378
759.056014	13360.169267
759.383099	13527.585986
759.710138	13655.848063
760.037129	13778.373307
760.364073	13837.022091
760.690970	13858.588148
761.017820	13885.049164
761.344623	14106.743987
761.671379	14493.198841
761.998088	15195.227405
762.324751	16966.986294
762.651366	20361.480004
762.977935	24837.316337
763.304456	27796.778635
763.630931	28843.995167
763.957359	27651.427046
764.283740	25400.682924
764.610074	23145.837823
764.936362	20516.787872
765.262602	18644.815885
765.588796	16709.153960
765.914943	15430.424958
766.241044	14330.412421
766.567097	13536.997820
766.893104	12810.670895
767.219064	12346.688136
767.544978	11870.873789
767.870845	11478.979530
768.196665	11258.413926
768.522438	11024.136383
768.848165	10823.563995
769.173846	10611.873342
769.499479	10478.721346
769.825066	10318.868878
770.150607	10080.155120
770.476101	9999.786524
770.801548	9881.410150
771.126949	9722.336540
771.452303	9613.813101
771.777611	9412.877750
772.102872	9402.245956
772.428087	9259.782948
772.753256	9103.429041
773.078378	9016.799333
773.403453	8838.828958
773.728482	8723.615908
774.053465	8640.807394
774.378401	8543.863485
774.703291	8414.303311
775.028135	8299.972462
775.352932	8261.009384
775.677683	8158.613467
776.002388	8052.567755
776.327046	8062.077891
776.651658	7961.612736
776.976224	7862.859053
777.300743	7863.960545
777.625216	7781.363760
777.949643	7726.195893
778.274024	7741.359684
778.598359	7654.233422
778.922647	7676.732091
779.246889	7626.491952
779.571086	7632.987479
779.895236	7636.448231
780.219339	7651.483472
780.543397	7651.778380
780.867409	7731.438693
781.191374	7736.610917
781.515294	7704.639919
781.839167	7800.961246
782.162995	7773.784385
782.486776	7715.828760
782.810511	7670.208838
783.134201	7582.268430
783.457844	7577.854900
783.781441	7521.106631
784.104993	7458.704708
784.428498	7429.677744
784.751958	7419.708862
785.075372	7392.728607
785.398739	7335.236768
785.722061	7385.610498
786.045337	7387.221147
786.368568	7542.292080
786.691752	7567.374341
787.014891	7909.303203
787.337983	8264.394519
787.661030	8860.324438
787.984031	9487.123863
788.306987	9883.734122
788.629897	10095.228170
788.952760	10044.614985
789.275579	9823.353702
789.598351	9423.869986
789.921078	9071.480729
790.243759	8663.411928
790.566395	8365.721711
790.888984	8121.399669
791.211529	7910.245899
791.534027	7685.458329
791.856480	7481.793193
792.178888	7410.428098
792.501249	7310.025958
792.823566	7152.656258
793.145836	7158.335118
793.468062	7130.938967
793.790241	7081.097079
794.112375	7152.822616
794.434464	7302.446583
794.756507	7339.385638
795.078505	7505.738673
795.400457	7812.986918
795.722364	8166.439858
796.044226	8443.821787
796.366042	8725.735713
796.687812	8671.649173
797.009538	8749.431657
797.331218	8652.870875
797.652852	8565.893327
797.974442	8413.020337
798.295986	8327.408942
798.617484	8130.040207
798.938938	7988.903023
799.260346	7888.163125
799.581709	7688.972013
799.903026	7609.682225
800.224299	7504.327150
800.545526	7326.807959
800.866708	7240.982315
801.187845	7167.721746
801.508936	7061.585293
801.829983	7023.416197
802.150984	6868.501539
802.471940	6826.909499
802.792851	6817.391801
803.113717	6782.892665
803.434538	6745.867910
803.755314	6689.081833
804.076045	6691.768768
804.396731	6638.211549
804.717372	6663.732391
805.037967	6669.517115
805.358518	6710.113527
805.679024	6791.462626
805.999485	6804.030223
806.319901	6842.554720
806.640272	6867.480706
806.960598	6950.596730
807.280879	6942.331758
807.601115	7029.019439
807.921306	6971.673794
808.241453	6987.077039
808.561554	7010.099989
808.881611	6975.111861
809.201623	6985.216854
809.521590	6926.515138
809.841513	6907.290697
810.161390	6951.211750
810.481223	6820.630742
810.801011	6807.143135
811.120755	6778.325379
811.440453	6699.287649
811.760107	6670.220356
812.079716	6646.831922
812.399281	6576.296098
812.718801	6566.196146
813.038276	6517.692684
813.357707	6464.039684
813.677093	6500.514952
813.996434	6404.564151
814.315731	6446.216684
814.634983	6436.877947
814.954191	6452.092149
815.273354	6560.335805
815.592473	6621.681606
815.911547	6748.360761
816.230577	6830.466033
816.549562	6975.512633
816.868502	7079.899805
817.187399	7178.832449
817.506250	7331.627302
817.825058	7364.868670
818.143821	7631.641491
818.462539	7905.247595
818.781213	8271.545395
819.099843	8822.694745
819.418429	9821.536366
819.736970	10793.049891
820.055466	11972.301804
820.373919	13503.658149
820.692327	15871.160436
821.010691	20023.332007
821.329011	29017.040335
821.647286	41984.430620
821.965517	55394.300623
822.283704	60776.279319
822.601847	62764.336476
822.919945	60098.216400
823.237999	55935.271883
823.556010	49807.429270
823.873976	43123.015546
824.191897	36575.181802
824.509775	31724.709601
824.827609	27201.720835
825.145398	24612.730413
825.463144	23223.020409
825.780845	23530.059445
826.098502	25303.456710
826.416116	29064.318796
826.733685	32695.053578
827.051210	33839.697970
827.368692	32052.853428
827.686129	28103.127033
828.003522	23996.840045
828.320872	20287.364960
828.638177	17443.090507
828.955439	15294.976716
829.272656	13482.550838
829.589830	11999.516473
829.906960	10722.786288
830.224046	9786.389441
830.541088	9035.277683
830.858086	8577.515708
831.175041	8192.779887
831.491952	8075.631033
831.808819	8122.886810
832.125642	8521.122840
832.442421	9419.708513
832.759157	11211.836185
833.075849	14131.067554
833.392497	17335.441708
833.709101	19504.803963
834.025662	19356.019349
834.342179	17667.300866
834.658653	15472.531195
834.975083	13553.031210
835.291469	11935.869385
835.607811	10613.093301
835.924110	9701.014980
836.240366	8832.169594
836.556578	8029.418776
836.872746	7383.525981
837.188871	6879.347582
837.504952	6466.227545
837.820990	6151.102497
838.136984	5931.840031
838.452935	5838.843346
838.768842	5872.361978
839.084706	6295.642460
839.400526	7500.616861
839.716303	9074.971728
840.032037	10175.954687
840.347727	10098.789745
840.663373	9130.716807
840.978977	8090.958662
841.294537	7275.751153
841.610054	6677.073804
841.925527	6243.176652
842.240957	5883.795314
842.556344	5551.976486
842.871687	5264.340850
843.186987	4983.122604
843.502244	4758.161113
843.817458	4590.343622
844.132629	4454.519814
844.447756	4365.392214
844.762840	4285.265594
845.077881	4207.107545
845.392879	4145.706291
845.707833	4096.698714
846.022745	4049.561405
846.337613	4023.564175
846.652438	3978.932319
846.967221	3961.303404
847.281960	3929.022376
847.596656	3912.999068
847.911309	3892.421078
848.225919	3869.395608
848.540485	3853.470603
848.855009	3839.113397
849.169490	3819.296621
849.483928	3805.453612
849.798323	3797.561686
850.112675	3778.627112
850.426984	3782.518883
850.741251	3771.297275
851.055474	3763.264196
851.369654	3771.360289
851.683792	3766.278806
851.997887	3771.940022
852.311938	3773.447327
852.625947	3777.767596
852.939914	3765.540277
853.253837	3774.846247
853.567718	3776.892955
853.881555	3761.293105
854.195350	3778.964870
854.509103	3773.253242
854.822812	3771.806431
855.136479	3766.155298
855.450103	3775.554529
855.763685	3761.409051
856.077224	3763.559103
856.390720	3778.092750
856.704173	3800.770381
857.017584	3814.568019
857.330953	3822.270902
857.644278	3841.268490
857.957561	3853.722661
858.270802	3852.043956
858.584000	3857.483361
858.897155	3847.141434
859.210268	3831.397911
859.523339	3807.402018
859.836367	3808.427893
860.149352	3801.007315
860.462295	3795.825009
860.775195	3780.031074
861.088054	3779.569808
861.400869	3777.018984
861.713642	3773.386833
862.026373	3785.871250
862.339062	3791.429123
862.651708	3807.686844
862.964312	3847.917772
863.276873	3856.812888
863.589392	3914.561826
863.901869	3961.447077
864.214303	4008.208820
864.526696	4039.509344
864.839045	4084.242023
865.151353	4113.495839
865.463619	4124.014206
865.775842	4127.729537
866.088023	4147.415243
866.400162	4138.058861
866.712258	4144.778719
867.024313	4146.079337
867.336325	4143.205879
867.648296	4152.302641
867.960224	4152.809277
868.272110	4161.676667
868.583954	4163.796472
868.895755	4182.075696
869.207515	4175.297864
869.519233	4219.581880
869.830909	4229.069332
870.142542	4252.767796
870.454134	4269.022997
870.765684	4297.722286
871.077191	4336.743337
871.388657	4355.861913
871.700081	4396.145773
872.011463	4440.144964
872.322803	4471.831137
872.634101	4503.310622
872.945357	4545.298392
873.256571	4598.863172
873.567744	4634.236949
873.878874	4646.340759
874.189963	4684.986245
874.501010	4696.659036
874.812015	4693.147873
875.122979	4740.640583
875.433900	4736.683277
875.744780	4748.083847
876.055618	4776.604175
876.366415	4776.271458
876.677169	4796.370539
876.987882	4842.318136
877.298554	4898.895005
877.609183	4972.405111
877.919771	5080.938632
878.230317	5228.987238
878.540822	5446.160146
878.851285	5764.395586
879.161707	6228.096040
879.472087	6993.749007
879.782425	8219.676963
880.092722	10397.828470
880.402977	13704.807749
880.713191	17450.803473
881.023363	21155.993577
881.333494	23351.085881
881.643583	24572.509567
881.953631	24582.460805
882.263637	23757.050000
882.573602	22278.676182
882.883526	20733.439020
883.193408	19065.875739
883.503248	17369.787089
883.813048	15831.726010
884.122806	14401.797680
884.432522	12932.195470
884.742197	11668.282419
885.051831	10575.309853
885.361424	9574.106452
885.670975	8755.977595
885.980485	8058.357520
886.289954	7482.569530
886.599382	7006.929103
886.908768	6637.629296
887.218113	6263.757162
887.527417	5982.425489
887.836680	5709.641093
888.145901	5484.835878
888.455082	5326.894008
888.764221	5175.767777
889.073319	5041.531933
889.382376	4966.486796
889.691392	4907.916150
890.000366	4881.805494
890.309300	4862.339078
890.618193	4869.328638
890.927044	4853.781719
891.235855	4878.869022
891.544625	4908.682405
891.853353	4973.990553
892.162041	5089.180919
892.470687	5276.837871
892.779293	5524.545047
893.087858	5900.007665
893.396381	6477.645758
893.704864	7274.813498
894.013306	8428.383253
894.321707	9596.229556
894.630068	10410.423793
894.938387	10614.414084
895.246665	10373.590603
895.554903	9774.852760
895.863100	9086.074869
896.171256	8521.919342
896.479371	8021.932663
896.787446	7521.852722
897.095480	7098.884791
897.403473	6772.218021
897.711425	6454.395957
898.019336	6195.678900
898.327207	5921.417446
898.635038	5690.477147
898.942827	5444.420948
899.250576	5252.489098
899.558284	5061.318462
899.865952	4936.950676
900.173579	4788.839055
900.481165	4682.057334
900.788711	4587.873457
901.096216	4515.492570
901.403681	4452.112663
901.711105	4422.553858
902.018489	4412.511879
902.325832	4481.653825
902.633135	4602.132361
902.940397	4947.625319
903.247619	5738.960444
903.554800	7181.191709
903.861941	9093.291281
904.169041	10610.416449
904.476101	11238.135884
904.783121	10880.274455
905.090100	10152.304113
905.397039	9315.238161
905.703938	8567.425838
906.010796	7874.042853
906.317614	7323.967269
906.624391	6787.492718
906.931129	6359.768458
907.237826	5956.546726
907.544483	5584.280200
907.851099	5208.479825
908.157675	4855.667111
908.464211	4533.388666
908.770707	4295.980567
909.077163	4095.388014
909.383578	3950.210345
909.689954	3836.000484
909.996289	3763.425513
910.302584	3695.851366
910.608839	3666.378260
910.915054	3633.958600
911.221229	3620.551651
911.527363	3634.787870
911.833458	3647.020229
912.139513	3672.924198
912.445527	3704.055844
912.751502	3785.657001
913.057436	3889.608114
913.363331	4019.450593
913.669186	4225.996749
913.975000	4485.666583
914.280775	4909.302467
914.586510	5486.060879
914.892205	6284.350276
915.197859	7320.710683
915.503475	8531.890745
915.809050	9584.239172
916.114585	10225.176513
916.420081	10489.461524
916.725536	10448.182036
917.030952	10007.716259
917.336328	9600.401111
917.641665	9198.129637
917.946961	8720.228252
918.252218	8301.326012
918.557435	7794.979917
918.862612	7360.316508
919.167750	6986.991340
919.472848	6566.077679
919.777906	6194.393406
920.082925	5831.304300
920.387904	5467.912725
920.692843	5210.821441
920.997743	4957.936999
921.302603	4721.658118
921.607423	4563.428902
921.912204	4399.760281
922.216946	4283.498670
922.521647	4161.558200
922.826310	4055.255388
923.130932	3957.986325
923.435516	3861.130636
923.740059	3791.330820
924.044564	3716.315930
924.349028	3656.064059
924.653454	3590.488730
924.957840	3522.531456
925.262186	3475.341215
925.566493	3416.969694
925.870761	3359.369470
926.174989	3321.530570
926.479178	3284.094961
926.783328	3245.875453
927.087438	3214.481668
927.391509	3177.976152
927.695541	3149.654950
927.999533	3123.420785
928.303486	3105.030656
928.607400	3088.014241
928.911275	3074.607292
929.215110	3057.172462
929.518906	3048.196687
929.822663	3046.752397
930.126381	3043.158054
930.430060	3052.373283
930.733699	3052.345557
931.037299	3062.800910
931.340861	3062.004408
931.644383	3069.485480
931.947866	3068.890624
932.251309	3063.552042
932.554714	3063.428534
932.858080	3057.757236
933.161407	3049.091492
933.464694	3040.544216
933.767943	3035.132537
934.071153	3025.486289
934.374323	3020.150228
934.677455	3013.271574
934.980548	3004.920902
935.283602	3003.516941
935.586617	2997.883452
935.889593	3007.312930
936.192530	3011.870133
936.495428	3022.219622
936.798287	3046.011347
937.101108	3080.147521
937.403890	3130.569141
937.706632	3191.935107
938.009336	3267.048299
938.312002	3339.492201
938.614628	3404.250863
938.917216	3458.513843
939.219765	3491.268740
939.522275	3520.305786
939.824747	3527.000439
940.127179	3523.834594
940.429573	3521.029192
940.731929	3518.208666
941.034246	3504.844568
941.336524	3488.228924
941.638763	3477.113180
941.940964	3462.841674
942.243126	3418.051022
942.545250	3396.610994
942.847335	3359.258565
943.149381	3322.874037
943.451389	3292.052423
943.753359	3256.650920
944.055290	3231.853484
944.357182	3205.662169
944.659036	3196.328473
944.960851	3184.151566
945.262628	3169.890141
945.564367	3171.331911
945.866067	3162.338493
946.167729	3160.115344
946.469352	3158.633245
946.770937	3156.160559
947.072484	3143.625730
947.373992	3144.505411
947.675462	3138.687920
947.976893	3117.683952
948.278286	3110.729680
948.579641	3104.806325
948.880958	3097.320211
949.182236	3101.201900
949.483476	3094.908019
949.784678	3092.561362
950.085841	3094.643358
950.386967	3108.546861
950.688054	3121.142184
950.989103	3142.110863
951.290114	3164.755726
951.591087	3192.499716
951.892021	3220.193295
952.192917	3244.589959
952.493776	3272.454937
952.794596	3275.575411
953.095378	3284.160496
953.396122	3278.708488
953.696828	3272.424690
953.997496	3260.716610
954.298126	3239.853795
954.598718	3218.040722
954.899272	3190.798327
955.199788	3165.925274
955.500266	3134.541571
955.800706	3099.301385
956.101108	3062.044737
956.401472	3030.872762
956.701798	2996.456805
957.002087	2958.685960
957.302337	2927.637493
957.602550	2898.103893
957.902724	2871.899976
958.202861	2844.460975
958.502960	2828.767863
958.803022	2803.357927
959.103045	2785.572737
959.403031	2768.183277
959.702979	2753.127871
960.002889	2743.564802
960.302762	2728.348079
960.602596	2715.122612
960.902393	2709.012733
961.202153	2698.867411
961.501875	2692.523119
961.801559	2683.930472
962.101205	2679.834535
962.400814	2671.846827
962.700385	2667.382885
962.999918	2660.027841
963.299414	2653.436533
963.598873	2653.638179
963.898293	2644.596869
964.197677	2648.017292
964.497022	2647.238434
964.796331	2639.308699
965.095601	2641.342805
965.394835	2637.166209
965.694030	2634.322998
965.993189	2633.791156
966.292309	2632.984572
966.591393	2634.542288
966.890439	2631.905765
967.189447	2628.634056
967.488419	2634.360807
967.787353	2633.851650
968.086249	2634.552370
968.385108	2636.480612
968.683930	2640.095119
968.982714	2643.477733
969.281462	2645.252219
969.580172	2653.340751
969.878844	2656.249497
970.177480	2665.396670
970.476078	2673.046621
970.774639	2680.321006
971.073162	2687.532377
971.371649	2696.019159
971.670098	2699.830272
971.968510	2704.034594
972.266885	2705.940150
972.565223	2712.186140
972.863524	2713.040615
973.161788	2720.309959
973.460014	2722.384394
973.758204	2722.621328
974.056356	2725.172152
974.354471	2728.121227
974.652550	2726.492934
974.950591	2725.335989
975.248595	2724.272306
975.546563	2719.891543
975.844493	2720.594784
976.142386	2713.620348
976.440243	2711.427446
976.738062	2705.985520
977.035845	2697.531505
977.333590	2692.293747
977.631299	2688.190247
977.928971	2681.556089
978.226606	2672.900428
978.524204	2672.560150
978.821765	2665.994047
979.119290	2668.660817
979.416777	2669.898421
979.714228	2673.674245
980.011642	2674.498473
980.309020	2684.517767
980.606360	2699.409335
980.903664	2722.500340
981.200931	2755.015783
981.498162	2803.952784
981.795356	2879.055894
982.092513	2968.541416
982.389633	3067.675706
982.686717	3169.040707
982.983764	3239.828589
983.280775	3289.337761
983.577749	3295.762712
983.874686	3284.556227
984.171587	3253.122112
984.468451	3211.759445
984.765279	3169.701098
985.062070	3121.500106
985.358824	3074.277097
985.655543	3020.457738
985.952224	2970.434369
986.248869	2904.579256
986.545478	2847.485668
986.842050	2790.717234
987.138586	2746.697879
987.435086	2705.521734
987.731549	2681.140194
988.027975	2655.619352
988.324366	2638.723925
988.620719	2624.079373
988.917037	2612.336005
989.213318	2603.445931
989.509563	2595.359920
989.805772	2592.461256
990.101944	2586.875658
990.398080	2584.586974
990.694180	2584.105544
990.990244	2584.319793
991.286271	2580.453228
991.582262	2584.103023
991.878217	2589.842377
992.174136	2592.927563
992.470019	2593.560228
992.765865	2596.413521
993.061676	2600.544747
993.357450	2609.911210
993.653188	2618.312293
993.948890	2632.551032
994.244556	2654.028868
994.540186	2675.350428
994.835780	2704.319419
995.131337	2742.614544
995.426859	2781.859927
995.722345	2831.162412
996.017795	2880.943806
996.313208	2917.812284
996.608586	2944.669032
996.903928	2958.633028
997.199234	2957.077832
997.494504	2955.280660
997.789738	2941.709874
998.084936	2917.429157
998.380099	2886.612583
998.675225	2856.784076
998.970316	2827.220229
999.265371	2790.563479
999.560390	2754.793972
999.855373	2728.577451
1000.150320	2696.639221
1000.445232	2672.734070
1000.740108	2653.706234
1001.034948	2629.039869
1001.329752	2619.648199
1001.624521	2609.540686
1001.919254	2594.586103
1002.213951	2586.663929
1002.508613	2579.200501
1002.803239	2573.017526
1003.097829	2567.237843
1003.392384	2564.429920
1003.686903	2556.384239
1003.981386	2557.568910
1004.275834	2549.256047
1004.570246	2550.571788
1004.864623	2546.465769
1005.158964	2542.528627
1005.453270	2540.638195
1005.747540	2541.487629
1006.041775	2536.761547
1006.335974	2539.070396
1006.630138	2536.191897
1006.924266	2536.017977
1007.218359	2532.216947
1007.512416	2529.179652
1007.806438	2525.862573
1008.100425	2530.124868
1008.394376	2526.044054
1008.688292	2530.921371
1008.982172	2530.671834
1009.276017	2530.036648
1009.569827	2528.000022
1009.863602	2528.582275
1010.157341	2529.008253
1010.451045	2526.354085
1010.744714	2523.818385
1011.038347	2525.920546
1011.331945	2524.879548
1011.625508	2522.227901
1011.919036	2522.847963
1012.212528	2520.544156
1012.505986	2524.458612
1012.799408	2518.827643
1013.092795	2517.448887
1013.386147	2521.572551
1013.679464	2521.607839
1013.972745	2515.802950
1014.265992	2516.808661
1014.559204	2516.644823
1014.852380	2516.836387
1015.145521	2516.667508
1015.438628	2517.408558
1015.731699	2518.797396
1016.024736	2519.021727
1016.317737	2519.919052
1016.610703	2523.596574
1016.903635	2524.113292
1017.196531	2523.838550
1017.489393	2526.462470
1017.782219	2527.581606
1018.075011	2526.971627
1018.367768	2529.618233
1018.660490	2528.592358
1018.953177	2528.592358
1019.245829	2528.592358
