Dividing Wavelength (nm)	Counts (n)	Blue Motor Position (mm): 24.400000	Red Motor Position (mm): 0.000000	
326.493990	2055.782538
326.888308	2055.782538
327.282561	2055.782538
327.676750	2031.693385
328.070874	2036.046421
328.464933	2039.620599
328.858929	2050.207022
329.252859	2057.733465
329.646726	2072.554457
330.040528	2089.149936
330.434265	2108.114757
330.827938	2127.472787
331.221547	2150.420120
331.615091	2167.544919
332.008571	2191.003929
332.401986	2207.596887
332.795338	2232.253170
333.188625	2250.862589
333.581847	2266.265835
333.975006	2288.494803
334.368100	2306.040539
334.761129	2320.254072
335.154095	2338.001454
335.546996	2385.509288
335.939833	2484.787251
336.332606	2495.509786
336.725315	2509.758607
337.117960	2520.408044
337.510540	2529.950949
337.903056	2536.648122
338.295508	2542.919317
338.687896	2550.692776
339.080220	2554.473642
339.472480	2562.569735
339.864676	2564.581155
340.256807	2567.358831
340.648875	2569.907134
341.040879	2571.023750
341.432818	2570.801939
341.824694	2570.323029
342.216506	2568.856053
342.608253	2570.496949
342.999937	2570.910324
343.391557	2570.577607
343.783113	2568.299006
344.174605	2566.007802
344.566033	2565.765826
344.957397	2562.698284
345.348697	2562.615105
345.739934	2559.590413
346.131106	2556.182593
346.522215	2559.872717
346.913260	2558.468756
347.304241	2555.771739
347.695159	2552.472303
348.086012	2552.250493
348.476802	2547.773948
348.867528	2545.671787
349.258191	2540.290355
349.648789	2542.485778
350.039324	2538.034439
350.429796	2545.734801
350.820203	2541.754810
351.210548	2544.000644
351.600828	2542.019471
351.991045	2540.199614
352.381198	2538.629295
352.771288	2538.460416
353.161314	2539.216589
353.551276	2539.894625
353.941175	2535.312216
354.331010	2538.155427
354.720782	2542.513504
355.110490	2542.909235
355.500135	2540.668442
355.889717	2537.769778
356.279235	2541.906045
356.668689	2540.260108
357.058080	2539.014943
357.447408	2539.919830
357.836672	2541.636343
358.225873	2540.887732
358.615010	2543.700696
359.004084	2542.919317
359.393095	2543.741025
359.782043	2543.148689
360.170927	2546.780841
360.559748	2544.822353
360.948505	2544.590459
361.337199	2549.145142
361.725830	2546.362425
362.114398	2545.137425
362.502903	2544.187167
362.891344	2548.391489
363.279722	2546.974925
363.668037	2549.230842
364.056289	2548.542724
364.444478	2550.153373
364.832603	2549.210677
365.220665	2552.951213
365.608665	2550.234031
365.996601	2551.413661
366.384474	2549.679504
366.772284	2551.275029
367.160031	2551.504402
367.547715	2552.651264
367.935336	2552.396686
368.322893	2550.060111
368.710388	2548.545245
369.097820	2554.657644
369.485189	2549.397200
369.872495	2554.786193
370.259738	2553.765359
370.646918	2556.638817
371.034035	2557.626883
371.421090	2557.026986
371.808081	2556.265772
372.195010	2557.369784
372.581875	2556.157387
372.968678	2556.774928
373.355418	2556.459856
373.742096	2559.386246
374.128710	2559.141750
374.515262	2556.732078
374.901751	2557.977243
375.288177	2560.596123
375.674540	2557.256358
376.060841	2560.359189
376.447079	2557.621842
376.833254	2559.350958
377.219367	2559.018242
377.605417	2561.498489
377.991404	2558.478838
378.377329	2561.944632
378.763191	2560.462532
379.148991	2560.570917
379.534727	2562.990671
379.920402	2562.756257
380.306013	2562.983109
380.691563	2563.945970
381.077049	2559.759291
381.462474	2561.954714
381.847835	2563.978737
382.233134	2565.037379
382.618371	2561.800959
383.003545	2564.883624
383.388657	2561.720300
383.773706	2564.250959
384.158693	2565.538974
384.543618	2566.453944
384.928480	2564.823130
385.313280	2564.881104
385.698017	2565.019735
386.082692	2565.755744
386.467305	2564.581155
386.851856	2567.336146
387.236344	2565.864129
387.620770	2565.770867
388.005133	2561.755588
388.389435	2564.999571
388.773674	2564.371947
389.157851	2566.953018
389.541965	2566.564849
389.926018	2568.951835
390.310008	2568.964438
390.693936	2571.396795
391.077802	2570.083574
391.461606	2569.372772
391.845348	2572.052145
392.229027	2570.323029
392.612645	2570.817062
392.996200	2570.696075
393.379694	2569.902093
393.763125	2570.466702
394.146494	2573.541806
394.529801	2570.781774
394.913047	2570.401167
395.296230	2569.241702
395.679351	2575.306210
396.062410	2572.934347
396.445408	2570.544840
396.828343	2573.072979
397.211217	2572.306723
397.594028	2575.157496
397.976778	2570.683472
398.359466	2572.831003
398.742092	2575.480130
399.124656	2572.185736
399.507158	2574.761765
399.889598	2577.123546
400.271977	2575.671693
400.654294	2576.097671
401.036549	2574.761765
401.418742	2574.275294
401.800874	2579.016499
402.182944	2575.361663
402.564952	2578.174626
402.946898	2579.576067
403.328783	2578.797209
403.710606	2577.804102
404.092367	2579.233269
404.474067	2575.996848
404.855705	2577.347877
405.237282	2577.189081
405.618797	2579.933989
406.000250	2577.693196
406.381642	2580.254102
406.762972	2577.622620
407.144240	2577.496591
407.525447	2579.346695
407.906593	2575.591035
408.287677	2580.667477
408.668700	2579.661767
409.049661	2582.976325
409.430560	2582.142014
409.811399	2580.188567
410.192176	2581.539597
410.572891	2584.181161
410.953545	2581.995821
411.334138	2584.201326
411.714669	2585.328024
412.095139	2585.595205
412.475547	2582.184864
412.855894	2584.980184
413.236180	2581.466500
413.616405	2583.679566
413.996568	2584.649988
414.376670	2584.904567
414.756711	2584.347519
415.136691	2585.383476
415.516609	2585.895153
415.896466	2586.363981
416.276262	2586.555545
416.655997	2584.750812
417.035670	2585.912798
417.415283	2587.367170
417.794834	2586.053950
418.174324	2588.161152
418.553753	2589.237438
418.933121	2586.658888
419.312428	2585.781727
419.691674	2587.568817
420.070859	2589.456729
420.449983	2588.103179
420.829045	2584.569330
421.208047	2589.943200
421.586988	2584.735688
421.965867	2588.781214
422.344686	2590.399424
422.723444	2588.743405
423.102141	2590.283478
423.480777	2588.932449
423.859352	2589.159301
424.237866	2589.308015
424.616319	2591.160639
424.994712	2590.764908
425.373044	2593.892944
425.751314	2590.175093
426.129524	2586.588312
426.507673	2587.760380
426.885762	2586.505133
427.263789	2591.687439
427.641756	2594.888572
428.019662	2594.389498
428.397508	2590.331369
428.775292	2590.253231
429.153016	2592.362954
429.530679	2591.059816
429.908282	2595.543922
430.285824	2593.661051
430.663305	2593.106524
431.040726	2595.483428
431.418086	2594.964189
431.795385	2595.453181
432.172624	2594.286154
432.549802	2595.586772
432.926920	2593.824888
433.303977	2595.732965
433.680974	2596.242122
434.057910	2598.167842
434.434786	2597.482246
434.811601	2596.801690
435.188355	2599.037442
435.565050	2595.415372
435.941683	2599.869232
436.318257	2597.152050
436.694770	2599.334870
437.071222	2601.424428
437.447614	2600.655652
437.823946	2604.166816
438.200218	2600.632967
438.576429	2599.145826
438.952580	2599.904520
439.328670	2601.381578
439.704700	2603.531630
440.080670	2601.207658
440.456580	2601.187494
440.832429	2604.237392
441.208218	2605.328802
441.583947	2604.199583
441.959616	2606.241250
442.335224	2608.179574
442.710773	2606.977259
443.086261	2607.713267
443.461689	2607.055397
443.837057	2611.751232
444.212365	2609.152517
444.587612	2607.400716
444.962800	2608.053545
445.337927	2610.231324
445.712995	2604.224789
446.088002	2610.957250
446.462949	2615.466562
446.837837	2611.688217
447.212664	2617.006634
447.587431	2618.902108
447.962139	2621.218518
448.336786	2625.405197
448.711374	2624.533077
449.085901	2623.325721
449.460369	2622.284722
449.834776	2621.780607
450.209124	2629.241515
450.583412	2629.594396
450.957640	2632.490538
451.331808	2630.665641
451.705917	2629.697739
452.079965	2632.596403
452.453954	2634.847278
452.827883	2635.497587
453.201752	2636.531023
453.575562	2640.137969
453.949311	2645.799185
454.323001	2643.782723
454.696632	2649.123826
455.070202	2654.941317
455.443713	2658.331493
455.817164	2664.050682
456.190556	2667.226609
456.563888	2674.417815
456.937160	2678.012158
457.310373	2678.934689
457.683526	2683.542303
458.056619	2690.741071
458.429653	2697.322297
458.802628	2705.451158
459.175542	2715.374669
459.548398	2729.615929
459.921194	2745.974473
460.293930	2760.868562
460.666607	2787.034671
461.039224	2807.269863
461.411782	2825.503716
461.784280	2831.280879
462.156719	2843.747652
462.529099	2853.582943
462.901419	2858.719879
463.273680	2865.777494
463.645882	2883.227448
464.018024	2903.361817
464.390106	2931.592278
464.762130	2996.940756
465.134094	3082.844538
465.505999	3193.830581
465.877845	3295.593833
466.249631	3356.954758
466.621358	3363.707383
466.993026	3360.090355
467.364634	3372.776419
467.736184	3381.122049
468.107674	3397.997312
468.479105	3430.795059
468.850477	3460.580716
469.221790	3477.755927
469.593043	3484.306907
469.964238	3508.950587
470.335373	3557.365829
470.706449	3661.616890
471.077467	3797.854073
471.448425	4022.306407
471.819324	4186.756407
472.190164	4204.299623
472.560945	4133.612563
472.931667	4077.360848
473.302330	4117.470789
473.672934	4138.734376
474.043479	4238.239191
474.413965	4285.820121
474.784393	4331.601360
475.154761	4465.968275
475.525070	4543.896951
475.895321	4600.549438
476.265513	4730.228080
476.635645	4873.268300
477.005719	4963.822546
477.375734	5090.242082
477.745691	5255.291979
478.115588	5434.731850
478.485427	5708.617739
478.855207	6105.611125
479.224928	6487.360062
479.594591	6783.255628
479.964194	6814.699825
480.333739	6987.192986
480.703226	7166.199318
481.072653	7409.636637
481.442022	7640.287070
481.811333	7846.339192
482.180584	7887.197744
482.549777	8002.438521
482.918912	8110.341898
483.287988	8258.110720
483.657005	8370.886373
484.025964	8451.265051
484.394864	8641.981983
484.763706	8786.365670
485.132489	8832.961055
485.501213	9012.902521
485.869879	9224.212567
486.238487	9380.387513
486.607036	9620.449780
486.975527	9724.191685
487.343959	9985.144493
487.712333	10252.920503
488.080648	10430.691752
488.448905	10737.670295
488.817104	10914.231667
489.185244	11385.400591
489.553326	11976.700211
489.921350	12862.617464
490.289315	13913.945058
490.657222	14386.112130
491.025070	14771.173105
491.392861	14887.152411
491.760593	14832.869266
492.128267	14690.033213
492.495883	14578.328806
492.863440	14484.321369
493.230939	14380.965112
493.598380	14402.155602
493.965763	14580.567078
494.333088	14619.575526
494.700354	14760.223719
495.067563	14982.992307
495.434713	15169.935936
495.801805	15531.888261
496.168839	15697.611153
496.535815	15864.614497
496.902733	16163.756567
497.269593	16303.978782
497.636395	16621.818490
498.003139	16993.618710
498.369825	17119.982793
498.736453	17574.790652
499.103023	17728.790340
499.469535	18014.268362
499.835989	18340.998145
500.202385	18502.075614
500.568723	18774.066028
500.935003	19199.045380
501.301226	19376.425940
501.667390	20013.179123
502.033497	20382.065556
502.399546	20481.651029
502.765537	20473.653239
503.131470	21005.363900
503.497345	21512.340139
503.863163	21089.188206
504.228923	21812.397178
504.594625	22301.492444
504.960269	22199.582999
505.325856	22875.745403
505.691385	22880.584910
506.056856	23320.259225
506.422270	23897.567123
506.787625	23788.955463
507.152924	24332.706920
507.518164	24701.910945
507.883347	24591.739048
508.248472	24925.972589
508.613540	25643.180068
508.978550	26025.312132
509.343503	26130.732741
509.708398	26604.575997
510.073236	27289.063866
510.438016	27560.983705
510.802738	27523.106995
511.167403	28174.625718
511.532010	28546.647749
511.896561	29153.305244
512.261053	29958.795929
512.625488	29973.274123
512.989866	30109.914598
513.354186	30327.836117
513.718449	30491.681178
514.082655	31405.604562
514.446803	31339.023523
514.810894	32023.057688
515.174927	32208.050390
515.538904	32374.942829
515.902822	33109.890128
516.266684	33009.513193
516.630488	33473.382526
516.994235	33644.333094
517.357925	34307.411183
517.721558	34701.001790
518.085133	35177.801683
518.448651	35492.717522
518.812112	35530.916866
519.175516	35811.038661
519.538863	36339.124732
519.902152	36526.128855
520.265385	37151.121027
520.628560	37308.213463
520.991678	37385.227170
521.354739	37724.005311
521.717743	38189.830612
522.080690	38225.010304
522.443580	38964.366092
522.806413	39107.527299
523.169189	39320.435391
523.531908	39657.474334
523.894569	39635.678905
524.257174	39923.135580
524.619722	40338.090597
524.982213	40553.632692
525.344647	40685.673114
525.707025	40888.448486
526.069345	41401.569892
526.431608	41398.857751
526.793815	41859.044521
527.155964	41512.109793
527.518057	41829.934378
527.880093	41761.319233
528.242072	42433.456276
528.603995	42252.574634
528.965860	42256.826848
529.327669	42525.452292
529.689421	42638.784992
530.051117	42638.409426
530.412755	42994.438396
530.774337	43121.334321
531.135862	43114.712765
531.497331	43304.187053
531.858743	43358.021535
532.220098	43791.293585
532.581396	43583.310700
532.942638	43390.148808
533.303824	43687.095455
533.664953	43778.892346
534.026025	43501.402033
534.387040	44099.108959
534.747999	44213.623810
535.108902	44559.391511
535.469748	43929.453968
535.830537	44202.659300
536.191270	44493.218805
536.551947	44264.632725
536.912567	44567.709415
537.273131	44742.831538
537.633638	44397.015946
537.994089	44615.877640
538.354483	44389.645779
538.714821	45064.210137
539.075103	45371.039965
539.435328	45220.178395
539.795497	45028.705290
540.155609	45146.393547
540.515665	45765.495130
540.875665	45106.646570
541.235609	45399.726651
541.595496	45539.091870
541.955328	46120.125180
542.315102	45574.304330
542.674821	45472.974617
543.034483	45368.007711
543.394090	45398.731023
543.753640	45384.454476
544.113134	46462.916080
544.472571	45576.640904
544.831953	46727.327120
545.191278	45995.220511
545.550548	45684.829107
545.909761	46360.608383
546.268918	46481.870818
546.628019	46911.881241
546.987064	46365.531070
547.346053	45654.536814
547.704986	46577.645180
548.063863	46227.524442
548.422684	46444.367154
548.781449	46049.448203
549.140158	46585.590038
549.498811	46353.485233
549.857408	45754.248316
550.215949	46591.258816
550.574434	46444.394881
550.932864	46379.681589
551.291237	47096.102647
551.649555	46870.962196
552.007817	47031.434725
552.366022	46707.094449
552.724173	46778.666230
553.082267	47190.203345
553.440305	47551.328922
553.798288	46804.209757
554.156215	47206.103144
554.514086	47410.564783
554.871902	47028.291566
555.229661	47204.890747
555.587365	46912.556756
555.945014	47029.211577
556.302606	47044.604740
556.660143	47161.930034
557.017625	47364.067700
557.375050	47079.885255
557.732421	47502.918721
558.089735	47565.295438
558.446994	47423.744879
558.804197	47914.173531
559.161345	47783.718552
559.518437	47141.392373
559.875474	47391.975528
560.232455	47627.336919
560.589381	47683.011422
560.946251	47460.353739
561.303065	48157.101694
561.659825	47834.067076
562.016528	47656.784819
562.373177	47231.155158
562.729770	47856.502731
563.086307	47380.224598
563.442789	47923.333308
563.799216	47801.453331
564.155587	47673.105554
564.511904	47637.585584
564.868164	47709.709372
565.224370	48010.908232
565.580520	47763.213659
565.936615	47937.042726
566.292654	47607.126933
566.648638	47953.973441
567.004567	47911.211853
567.360441	48023.924492
567.716260	47743.336389
568.072023	48093.071478
568.427732	48036.582829
568.783385	47571.528825
569.138982	47961.315882
569.494525	48112.759705
569.850013	47717.553408
570.205445	47839.514043
570.560823	47635.896798
570.916145	47487.949015
571.271412	47747.633973
571.626625	47375.548928
571.981782	47474.915112
572.336884	47036.894295
572.691931	47387.733397
573.046923	47041.895120
573.401860	46884.573311
573.756743	46902.136691
574.111570	47044.108186
574.466342	46964.460476
574.821059	47109.895244
575.175722	46626.307438
575.530330	46730.167810
575.884882	46356.368773
576.239380	46257.925120
576.593823	46356.504884
576.948211	46279.909592
577.302544	45832.492065
577.656823	45832.005594
578.011047	46093.177692
578.365216	45906.042500
578.719330	45628.325334
579.073389	45595.719151
579.427394	45657.385066
579.781344	45594.965499
580.135239	45360.198964
580.489080	45408.989772
580.842866	44899.802986
581.196597	45378.901645
581.550273	45402.978196
581.903895	45321.429970
582.257463	45764.431447
582.610975	45187.499116
582.964434	45534.131375
583.317837	45036.347679
583.671186	44993.381925
584.024481	45273.377692
584.377721	44815.230069
584.730906	45031.367019
585.084037	45142.499256
585.437113	44856.975864
585.790135	44977.030942
586.143103	44533.260690
586.496016	44704.924581
586.848874	44808.812680
587.201679	44814.524307
587.554428	44328.607488
587.907124	44608.875477
588.259765	44374.018202
588.612352	44532.249939
588.964884	43987.293646
589.317362	44306.280217
589.669786	44293.064833
590.022155	44150.185930
590.374470	44614.014933
590.726731	44158.834029
591.078937	43497.379192
591.431090	43851.961351
591.783188	43383.343251
592.135232	43177.661653
592.487222	43446.115698
592.839157	43595.853091
593.191038	43239.993000
593.542866	43048.053588
593.894639	42463.937612
594.246358	42759.197993
594.598022	42735.938109
594.949633	42324.456447
595.301190	42292.770275
595.652692	42228.586304
596.004141	42718.959503
596.355535	41630.695375
596.706876	41637.780717
597.058162	41360.504653
597.409395	41861.436549
597.760573	42071.894639
598.111698	41678.447705
598.462768	41598.563061
598.813785	41626.720426
599.164748	41222.112377
599.515657	41491.640188
599.866511	40986.866933
600.217312	41695.239789
600.568060	40620.337239
600.918753	41454.358334
601.269392	41364.852648
601.619978	41085.287900
601.970510	41289.046297
602.320988	41421.479929
602.671412	41701.173227
603.021783	41565.115005
603.372100	41128.172995
603.722363	41242.080387
604.072572	41271.160283
604.422728	41265.466300
604.772830	41045.276262
605.122878	41210.532846
605.472872	41066.650754
605.822813	41322.703561
606.172701	41072.924470
606.522534	41396.221228
606.872314	41596.919645
607.222041	41439.479369
607.571714	41764.759821
607.921333	41259.439600
608.270899	41484.522078
608.620411	41869.898125
608.969870	41599.898967
609.319276	41618.788170
609.668627	41651.074240
610.017926	42059.490880
610.367171	42175.475227
610.716362	42223.323339
611.065500	42098.920265
611.414585	42323.899400
611.763616	42507.503264
612.112594	42415.469439
612.461518	42535.988304
612.810389	42917.830502
613.159207	42714.641755
613.507971	42689.914895
613.856682	43182.544011
614.205340	43018.590564
614.553945	43697.051734
614.902496	43021.244732
615.250994	43466.436590
615.599439	43515.154300
615.947830	43624.456598
616.296169	43619.198675
616.644454	43657.072863
616.992686	43805.862519
617.340864	44276.683603
617.688990	43793.607474
618.037063	44472.824817
618.385082	44301.163446
618.733048	44648.498946
619.080961	44508.617009
619.428821	44530.462850
619.776628	44548.762238
620.124382	44352.678997
620.472083	44471.524199
620.819731	44557.957303
621.167326	44127.588958
621.514868	44098.917395
621.862357	43577.057149
622.209793	43667.810521
622.557176	43232.600148
622.904506	42991.948066
623.251783	42630.116728
623.599007	42305.133704
623.946179	42228.389699
624.293297	41971.699186
624.640363	41446.320215
624.987376	41272.665067
625.334336	41083.911665
625.681243	40655.779071
626.028097	40573.938459
626.374899	40387.171271
626.721647	40364.181089
627.068343	40150.988172
627.414987	39855.480775
627.761577	39609.384247
628.108115	39922.286146
628.454600	39181.591932
628.801032	39403.430427
629.147412	39288.378693
629.493739	39207.712670
629.840014	38759.607025
630.186236	39197.390908
630.532405	38639.816607
630.878521	38877.985921
631.224585	38647.285077
631.570597	38319.468924
631.916556	38482.658636
632.262462	38365.290492
632.608316	38296.246849
632.954117	38173.058693
633.299866	38118.339489
633.645562	38051.544200
633.991206	37504.584049
634.336797	37106.317772
634.682336	36991.868456
635.027823	36744.229335
635.373257	36624.728783
635.718639	36300.597714
636.063968	36195.865223
636.409245	35534.027258
636.754470	35494.837327
637.099642	35272.335920
637.444762	34698.622366
637.789829	34837.755691
638.134845	34468.859176
638.479808	34377.773088
638.824719	34350.291238
639.169577	33822.439580
639.514383	33919.691000
639.859137	33533.122720
640.203839	33708.696026
640.548489	33409.296858
640.893086	33402.458533
641.237632	33124.126347
641.582125	33222.421285
641.926566	33014.244316
642.270955	33055.324679
642.615292	33003.040352
642.959576	32872.993706
643.303809	32875.766341
643.647990	32969.209168
643.992118	32914.139604
644.336195	32762.431120
644.680219	32850.411857
645.024192	33046.190108
645.368112	33576.461519
645.711981	33597.634366
646.055797	34323.245447
646.399562	34138.381295
646.743274	35000.229559
647.086935	35406.627218
647.430544	35357.990165
647.774101	35397.399385
648.117606	35684.697264
648.461059	35830.386610
648.804460	35419.083909
649.147810	34917.637815
649.491108	34563.748815
649.834354	34425.096920
650.177548	33598.191413
650.520690	33092.646861
650.863781	33092.026799
651.206820	32905.345311
651.549807	32497.979751
651.892742	31919.935845
652.235626	31823.012101
652.578458	31696.156505
652.921238	31003.186895
653.263967	31304.932720
653.606644	31016.041837
653.949269	30926.493301
654.291843	30540.978622
654.634365	30901.181667
654.976836	30428.805387
655.319255	30508.047284
655.661622	30386.457174
656.003938	30246.282850
656.346203	30071.256509
656.688416	30311.638889
657.030577	30090.206207
657.372687	29903.779296
657.714746	30066.918597
658.056753	30248.100186
658.398708	29632.035898
658.740612	29705.679594
659.082465	29919.709342
659.424266	29799.931527
659.766016	29811.097683
660.107715	29668.604428
660.449362	29777.077456
660.790958	29752.063251
661.132503	29681.151860
661.473996	29754.132644
661.815438	29833.404789
662.156829	29963.637957
662.498168	29759.161195
662.839456	29745.512271
663.180693	29871.152949
663.521879	29957.185280
663.863013	29910.552087
664.204097	29880.680729
664.545129	30300.568516
664.886110	30241.483672
665.227040	30345.142398
665.567918	30323.951908
665.908746	30415.917677
666.249522	30497.029843
666.590248	30517.219664
666.930922	30617.926794
667.271545	30609.092172
667.612118	30671.201708
667.952639	30473.671656
668.293109	30512.906957
668.633528	30368.359432
668.973896	30341.437150
669.314213	30323.112556
669.654480	30122.709046
669.994695	30109.866707
670.334859	30042.579906
670.674973	29876.206705
671.015035	30052.326977
671.355047	29992.397740
671.695008	29920.760423
672.034918	29835.469141
672.374777	29933.590160
672.714585	29788.268818
673.054342	29932.292062
673.394049	29783.706573
673.733705	30007.869041
674.073310	29716.190400
674.412864	29779.628280
674.752368	29472.004469
675.091820	29715.308198
675.431223	29303.413161
675.770574	29103.528891
676.109875	28940.966803
676.449125	28729.969308
676.788324	28626.544996
677.127473	28147.398447
677.466571	28054.636175
677.805619	27776.861036
678.144616	27714.181850
678.483562	27665.806937
678.822458	27344.561929
679.161303	27284.776365
679.500098	27209.332977
679.838842	27137.027707
680.177535	27216.564512
680.516179	27457.125853
680.854771	27589.342716
681.193314	28355.293111
681.531805	29370.732730
681.870247	30120.848860
682.208638	30847.279130
682.546978	31117.041354
682.885268	31248.144122
683.223508	30813.969706
683.561697	30535.629958
683.899836	30377.214219
684.237925	29959.189139
684.575963	29817.683950
684.913951	29445.979513
685.251889	29624.146493
685.589776	29650.862087
685.927614	29654.521965
686.265401	29847.593116
686.603137	29943.959813
686.940824	30439.714444
687.278460	30782.959048
687.616046	30957.720728
687.953582	31613.589967
688.291068	31524.863139
688.628504	31860.719931
688.965889	31843.668228
689.303224	31591.444178
689.640510	31299.694961
689.977745	30673.956699
690.314930	29930.956157
690.652065	29494.367028
690.989150	28838.333952
691.326185	27997.373708
691.663170	27346.245674
692.000105	26614.887677
692.336990	26017.795772
692.673825	25577.198926
693.010610	25105.183088
693.347345	24587.138995
693.684030	23971.420026
694.020665	23769.710858
694.357251	23099.134053
694.693786	23095.058280
695.030272	22877.038458
695.366707	22373.192776
695.703093	22100.773863
696.039429	22159.447853
696.375716	21925.959250
696.711952	21932.051485
697.048139	21786.863733
697.384276	21636.276906
697.720363	21744.737331
698.056400	21631.505454
698.392388	21472.439406
698.728326	21467.231894
699.064214	21311.876136
699.400053	21314.941157
699.735842	20936.826892
700.071581	20740.022767
700.407270	20483.755711
700.742910	20308.300872
701.078501	20065.581917
701.414042	19858.970227
701.749533	19546.587567
702.084974	19242.827801
702.420366	19466.390371
702.755709	19062.160409
703.091002	18766.605121
703.426246	18820.621084
703.761440	18759.159336
704.096584	18519.949025
704.431679	18449.743396
704.766725	18395.505621
705.101721	18325.783943
705.436668	18446.312890
705.771565	18179.187189
706.106413	18495.262494
706.441212	18563.146672
706.775961	18665.963525
707.110661	18746.523684
707.445311	19106.159600
707.779913	18980.614704
708.114465	19279.378687
708.448967	19585.724565
708.783421	20216.554393
709.117825	20571.471788
709.452180	20804.657921
709.786485	21258.606263
710.120742	22026.588243
710.454949	22116.817335
710.789107	22625.764666
711.123216	23333.840094
711.457275	23555.635739
711.791286	24120.953252
712.125247	24274.829432
712.459159	24005.384800
712.793023	24747.974488
713.126837	23732.055959
713.460602	23984.479135
713.794318	23646.016066
714.127985	23387.614082
714.461602	22476.796049
714.795171	22460.981949
715.128691	21487.220069
715.462162	20960.028803
715.795584	20543.548837
716.128957	20273.151427
716.462281	19894.893489
716.795556	19619.664133
717.128782	19138.801071
717.461960	18539.032313
717.795088	18498.350201
718.128167	18141.885171
718.461198	17705.878296
718.794180	17574.321824
719.127113	17243.818737
719.459997	17045.933284
719.792833	16681.533478
720.125619	16716.287193
720.458357	16381.710853
720.791046	16246.186994
721.123686	16098.438336
721.456278	15878.923813
721.788821	15867.666916
722.121315	15601.478870
722.453761	15715.640840
722.786158	15600.586585
723.118506	15666.081256
723.450805	15555.702672
723.783056	15731.606174
724.115259	15625.799916
724.447412	15624.511902
724.779518	15837.412431
725.111574	15887.836573
725.443582	16151.012530
725.775542	16113.592045
726.107453	16619.907893
726.439315	16539.874535
726.771129	16963.898588
727.102895	17374.427472
727.434612	17642.939490
727.766281	17812.165983
728.097901	18137.317886
728.429473	18218.992140
728.760996	18237.772959
729.092471	18355.496504
729.423897	18252.140247
729.755276	18117.715359
730.086606	18233.929079
730.417887	18816.323500
730.749120	19366.925885
731.080305	19576.685776
731.411442	19980.025975
731.742530	20092.363047
732.073570	20253.700135
732.404562	20570.350131
732.735506	20413.061090
733.066401	20212.289577
733.397249	19717.480162
733.728048	19108.314693
734.058798	18233.142659
734.389501	17478.683574
734.720156	16966.482179
735.050762	16390.527831
735.381320	16002.868142
735.711831	15730.411420
736.042293	15365.651172
736.372707	15402.436472
736.703073	15196.701942
737.033391	15397.682664
737.363661	15375.877153
737.693883	15505.109652
738.024056	15707.461568
738.354182	15932.254179
738.684260	16284.648477
739.014290	16551.282666
739.344272	16782.638860
739.674207	17136.001059
740.004093	17305.288047
740.333931	17360.037498
740.663722	17435.690094
740.993464	17483.331518
741.323159	17331.602870
741.652806	17031.613887
741.982405	16865.505347
742.311956	16506.096283
742.641460	16407.259421
742.970915	16066.817699
743.300323	15728.500823
743.629683	15503.998078
743.958996	15202.842068
744.288260	14883.769797
744.617477	14577.355863
744.946647	14540.457137
745.275768	14235.754675
745.604842	14026.108210
745.933869	13854.638403
746.262847	13822.911902
746.591778	13734.646339
746.920662	13622.717600
747.249498	13624.807158
747.578286	13789.078198
747.907027	13962.098159
748.235720	14221.145412
748.564365	14297.783553
748.892963	14220.618611
749.221514	14316.385411
749.550017	14187.054609
749.878473	14158.970341
750.206881	13931.125310
750.535242	13860.160988
750.863555	13778.539666
751.191821	13680.413606
751.520039	13695.398436
751.848210	13622.042086
752.176334	13670.568233
752.504411	13597.842027
752.832440	13411.261361
753.160421	13527.371737
753.488356	13425.290892
753.816243	13332.039628
754.144082	13164.723732
754.471875	13110.203653
754.799620	13089.797063
755.127318	13056.810272
755.454969	13044.943396
755.782572	13015.082121
756.110129	13030.344215
756.437638	12942.953292
756.765100	12941.544290
757.092515	12968.302734
757.419882	12998.791633
757.747203	13021.789377
758.074477	13111.668108
758.401703	13091.347217
758.728882	13288.917598
759.056014	13328.841016
759.383099	13500.053724
759.710138	13617.593267
760.037129	13743.279315
760.364073	13792.967448
760.690970	13827.585051
761.017820	13839.973687
761.344623	14070.296444
761.671379	14448.239310
761.998088	15144.689837
762.324751	16915.644663
762.651366	20313.286573
762.977935	24773.520535
763.304456	27731.069715
763.630931	28772.599826
763.957359	27577.221261
764.283740	25339.747977
764.610074	23085.563267
764.936362	20453.498706
765.262602	18584.369930
765.588796	16666.009245
765.914943	15379.332864
766.241044	14280.625986
766.567097	13500.154547
766.893104	12775.440791
767.219064	12310.477528
767.544978	11831.378869
767.870845	11442.902512
768.196665	11231.630275
768.522438	10993.430715
768.848165	10786.554364
769.173846	10587.330485
769.499479	10454.924579
769.825066	10286.169433
770.150607	10060.545031
770.476101	9979.339604
770.801548	9853.484678
771.126949	9698.320483
771.452303	9588.642620
771.777611	9388.211384
772.102872	9380.264005
772.428087	9234.965348
772.753256	9080.471627
773.078378	8986.837235
773.403453	8803.926530
773.728482	8694.488121
774.053465	8625.847770
774.378401	8519.993622
774.703291	8400.359479
775.028135	8271.368955
775.352932	8244.348370
775.677683	8137.483471
776.002388	8034.369189
776.327046	8039.304479
776.651658	7942.645395
776.976224	7846.329110
777.300743	7842.825508
777.625216	7752.697239
777.949643	7711.934469
778.274024	7725.989206
778.598359	7642.114488
778.922647	7655.561766
779.246889	7605.296421
779.571086	7612.722040
779.895236	7620.205633
780.219339	7625.536653
780.543397	7628.707539
780.867409	7709.449180
781.191374	7725.737148
781.515294	7689.372785
781.839167	7775.573995
782.162995	7753.032475
782.486776	7701.290072
782.810511	7648.126064
783.134201	7563.414515
783.457844	7557.546612
783.781441	7504.707758
784.104993	7438.328364
784.428498	7416.611073
784.751958	7397.184987
785.075372	7368.727674
785.398739	7316.607184
785.722061	7365.685337
786.045337	7368.163064
786.368568	7521.257866
786.691752	7549.528656
787.014891	7885.551807
787.337983	8246.082527
787.661030	8835.348042
787.984031	9458.298546
788.306987	9862.541111
788.629897	10070.687833
788.952760	10017.004585
789.275579	9796.617942
789.598351	9397.310667
789.921078	9048.803098
790.243759	8634.150550
790.566395	8346.119184
790.888984	8097.164322
791.211529	7884.188175
791.534027	7666.748086
791.856480	7465.222920
792.178888	7394.215747
792.501249	7294.622712
792.823566	7139.224104
793.145836	7132.970552
793.468062	7110.245031
793.790241	7062.659059
794.112375	7131.367465
794.434464	7279.252234
794.756507	7322.066754
795.078505	7483.071125
795.400457	7789.411962
795.722364	8149.700707
796.044226	8433.910878
796.366042	8696.297895
796.687812	8653.543869
797.009538	8731.134789
797.331218	8623.470866
797.652852	8538.978607
797.974442	8392.396977
798.295986	8300.214437
798.617484	8112.396168
798.938938	7966.699261
799.260346	7870.514045
799.581709	7667.068199
799.903026	7589.484842
800.224299	7483.660940
800.545526	7312.670043
800.866708	7214.188582
801.187845	7148.023438
801.508936	7043.976543
801.829983	7007.279463
802.150984	6854.908068
802.471940	6811.002138
802.792851	6798.295910
803.113717	6761.651763
803.434538	6731.732515
803.755314	6671.543658
804.076045	6672.418299
804.396731	6618.210771
804.717372	6651.343755
805.037967	6654.093704
805.358518	6692.214910
805.679024	6776.364370
805.999485	6786.403828
806.319901	6829.334294
806.640272	6848.873807
806.960598	6928.526558
807.280879	6928.713081
807.601115	7011.161152
807.921306	6953.714683
808.241453	6970.169009
808.561554	6992.599623
808.881611	6952.971113
809.201623	6964.759851
809.521590	6909.236583
809.841513	6891.153964
810.161390	6934.707013
810.481223	6802.061652
810.801011	6785.052799
811.120755	6763.554798
811.440453	6683.390370
811.760107	6654.121431
812.079716	6620.990968
812.399281	6554.891358
812.718801	6546.250821
813.038276	6500.154510
813.357707	6440.467248
813.677093	6484.307643
813.996434	6386.368106
814.315731	6429.873264
814.634983	6417.885400
814.954191	6439.774090
815.273354	6542.764863
815.592473	6602.943637
815.911547	6725.436114
816.230577	6812.166645
816.549562	6958.302133
816.868502	7059.699902
817.187399	7158.471229
817.506250	7308.342212
817.825058	7342.233890
818.143821	7614.062987
818.462539	7875.777010
818.781213	8250.158300
819.099843	8795.638873
819.418429	9791.604515
819.736970	10762.772721
820.055466	11936.675970
820.373919	13469.216986
820.692327	15822.596480
821.010691	19964.963007
821.329011	28940.883624
821.647286	41942.329424
821.965517	55382.736216
822.283704	60788.541925
822.601847	62780.727787
822.919945	60081.862897
823.237999	55895.212354
823.556010	49719.088090
823.873976	43016.896737
824.191897	36476.470969
824.509775	31639.146096
824.827609	27111.660621
825.145398	24505.585729
825.463144	23155.297548
825.780845	23445.431075
826.098502	25216.990839
826.416116	28975.738161
826.733685	32602.843312
827.051210	33759.594036
827.368692	31970.967445
827.686129	28030.461321
828.003522	23926.609210
828.320872	20226.059488
828.638177	17389.810552
828.955439	15248.847637
829.272656	13426.692333
829.589830	11962.665639
829.906960	10695.937103
830.224046	9751.232434
830.541088	9000.783587
830.858086	8548.123260
831.175041	8167.314498
831.491952	8050.899133
831.808819	8090.278106
832.125642	8490.558324
832.442421	9377.786278
832.759157	11164.850110
833.075849	14087.098610
833.392497	17287.785160
833.709101	19458.843764
834.025662	19302.799888
834.342179	17617.065768
834.658653	15433.280772
834.975083	13511.570240
835.291469	11898.516956
835.607811	10578.634494
835.924110	9672.073716
836.240366	8803.901324
836.556578	8005.185950
836.872746	7357.546394
837.188871	6864.796291
837.504952	6445.188289
837.820990	6130.148941
838.136984	5918.710346
838.452935	5820.985058
838.768842	5858.216500
839.084706	6274.174707
839.400526	7480.306052
839.716303	9049.856699
840.032037	10150.038115
840.347727	10073.243698
840.663373	9110.529507
840.978977	8064.900937
841.294537	7255.326918
841.610054	6660.679972
841.925527	6229.598304
842.240957	5867.439291
842.556344	5532.560482
842.871687	5250.202934
843.186987	4970.197085
843.502244	4747.965380
843.817458	4580.601592
844.132629	4447.250470
844.447756	4355.115822
844.762840	4275.158081
845.077881	4199.318963
845.392879	4135.104745
845.707833	4086.911314
846.022745	4042.655024
846.337613	4012.662680
846.652438	3968.668530
846.967221	3951.304276
847.281960	3920.560799
847.596656	3904.456833
847.911309	3882.802557
848.225919	3860.079556
848.540485	3845.498018
848.855009	3831.115606
849.169490	3809.980569
849.483928	3799.920946
849.798323	3789.778145
850.112675	3769.490021
850.426984	3774.987399
850.741251	3765.746964
851.055474	3758.097013
851.369654	3763.803599
851.683792	3760.292436
851.997887	3764.297632
852.311938	3766.729989
852.625947	3771.614867
852.939914	3761.532560
853.253837	3768.416255
853.567718	3771.244343
853.881555	3761.900564
854.195350	3772.068571
854.509103	3767.755864
854.822812	3769.565638
855.136479	3757.134153
855.450103	3768.028086
855.763685	3754.913525
856.077224	3757.136673
856.390720	3776.439252
856.704173	3794.012714
857.017584	3810.361176
857.330953	3815.432577
857.644278	3837.946370
857.957561	3844.141948
858.270802	3847.592617
858.584000	3850.292155
858.897155	3840.240095
859.210268	3822.432219
859.523339	3801.009835
859.836367	3802.197027
860.149352	3793.279226
860.462295	3785.798154
860.775195	3774.392543
861.088054	3769.958848
861.400869	3770.389867
861.713642	3770.538581
862.026373	3781.982000
862.339062	3785.215900
862.651708	3806.487049
862.964312	3840.343438
863.276873	3853.636961
863.589392	3908.593100
863.901869	3955.349802
864.214303	3999.263293
864.526696	4032.544990
864.839045	4078.752207
865.151353	4106.859160
865.463619	4114.231847
865.775842	4120.114874
866.088023	4136.584323
866.400162	4130.015700
866.712258	4135.896206
867.024313	4141.141527
867.336325	4133.990650
867.648296	4144.032628
867.960224	4141.020539
868.272110	4153.101664
868.583954	4155.123167
868.895755	4171.993388
869.207515	4163.741019
869.519233	4206.248028
869.830909	4225.197726
870.142542	4248.843258
870.454134	4262.076287
870.765684	4289.878250
871.077191	4322.807067
871.388657	4350.646839
871.700081	4386.116398
872.011463	4432.200106
872.322803	4465.943069
872.634101	4498.534128
872.945357	4537.358575
873.256571	4585.887242
873.567744	4619.176502
873.878874	4641.355058
874.189963	4675.188762
874.501010	4683.413405
874.812015	4685.016492
875.122979	4731.410230
875.433900	4723.898911
875.744780	4735.982557
876.055618	4764.583543
876.366415	4767.769552
876.677169	4785.627840
876.987882	4833.233976
877.298554	4883.791708
877.609183	4963.890602
877.919771	5072.504782
878.230317	5215.282862
878.540822	5429.123567
878.851285	5752.758082
879.161707	6215.157918
879.472087	6969.990048
879.782425	8206.887556
880.092722	10384.338343
880.402977	13688.187065
880.713191	17442.898944
881.023363	21166.668220
881.333494	23390.391758
881.643583	24614.966165
881.953631	24606.166831
882.263637	23767.245734
882.573602	22283.790433
882.883526	20732.907178
883.193408	19050.860662
883.503248	17355.044235
883.813048	15815.480892
884.122806	14386.389393
884.432522	12911.057912
884.742197	11646.807103
885.051831	10557.905270
885.361424	9548.439418
885.670975	8735.039162
885.980485	8038.681896
886.289954	7461.358876
886.599382	6989.373285
886.908768	6614.669361
887.218113	6250.453557
887.527417	5962.896059
887.836680	5699.399989
888.145901	5478.211802
888.455082	5315.879087
888.764221	5162.696065
889.073319	5030.927866
889.382376	4960.313903
889.691392	4901.075304
890.000366	4874.823496
890.309300	4856.360270
890.618193	4860.385631
890.927044	4845.226881
891.235855	4871.456005
891.544625	4898.975664
891.853353	4961.029747
892.162041	5076.983847
892.470687	5265.003762
892.779293	5515.791084
893.087858	5881.012598
893.396381	6461.317461
893.704864	7261.482167
894.013306	8411.064369
894.321707	9586.860572
894.630068	10397.614221
894.938387	10602.920253
895.246665	10359.500578
895.554903	9755.895501
895.863100	9068.846726
896.171256	8510.024740
896.479371	8007.101588
896.787446	7510.991556
897.095480	7078.258910
897.403473	6758.974910
897.711425	6447.958403
898.019336	6178.944790
898.327207	5909.301032
898.635038	5677.299571
898.942827	5434.540287
899.250576	5238.177262
899.558284	5047.619126
899.865952	4925.832411
900.173579	4778.587869
900.481165	4673.845295
900.788711	4579.921037
901.096216	4503.300539
901.403681	4445.934729
901.711105	4417.474895
902.018489	4402.356475
902.325832	4473.635870
902.633135	4596.897122
902.940397	4938.064771
903.247619	5728.643723
903.554800	7163.976169
903.861941	9076.524403
904.169041	10599.174676
904.476101	11224.038298
904.783121	10874.446881
905.090100	10139.078646
905.397039	9308.573756
905.703938	8550.974033
906.010796	7858.760595
906.317614	7307.414640
906.624391	6771.943278
906.931129	6349.774370
907.237826	5946.124141
907.544483	5569.418878
907.851099	5198.649575
908.157675	4846.711501
908.464211	4523.250906
908.770707	4285.721819
909.077163	4089.923403
909.383578	3942.134417
909.689954	3827.848938
909.996289	3758.127260
910.302584	3693.373639
910.608839	3664.379443
910.915054	3626.989205
911.221229	3617.584932
911.527363	3627.579020
911.833458	3639.526554
912.139513	3670.108714
912.445527	3700.368240
912.751502	3781.699696
913.057436	3882.986559
913.363331	4016.042773
913.669186	4220.058269
913.975000	4479.092919
914.280775	4900.135129
914.586510	5481.591896
914.892205	6275.160252
915.197859	7307.487737
915.503475	8520.326338
915.809050	9576.291793
916.114585	10224.753056
916.420081	10481.047838
916.725536	10447.718249
917.030952	10015.376293
917.336328	9600.852294
917.641665	9189.405920
917.946961	8716.119712
918.252218	8289.633055
918.557435	7781.857793
918.862612	7355.729058
919.167750	6983.747357
919.472848	6559.320012
919.777906	6180.550397
920.082925	5826.053938
920.387904	5459.312517
920.692843	5195.392989
920.997743	4951.290238
921.302603	4720.007140
921.607423	4553.255853
921.912204	4393.143766
922.216946	4275.465591
922.521647	4154.639216
922.826310	4047.875139
923.130932	3950.354018
923.435516	3859.358671
923.740059	3784.794964
924.044564	3710.712688
924.349028	3651.549706
924.653454	3588.348760
924.957840	3516.966022
925.262186	3470.882314
925.566493	3409.937285
925.870761	3354.323275
926.174989	3318.039571
926.479178	3282.340640
926.783328	3238.807756
927.087438	3210.925134
927.391509	3173.910462
927.695541	3145.717809
927.999533	3122.979684
928.303486	3102.552929
928.607400	3084.026688
928.911275	3070.473546
929.215110	3054.815722
929.518906	3043.848692
929.822663	3043.422715
930.126381	3041.393650
930.430060	3051.765824
930.733699	3051.213818
931.037299	3059.730848
931.340861	3057.295970
931.644383	3067.854667
931.947866	3066.375088
932.251309	3063.075653
932.554714	3060.025755
932.858080	3053.573078
933.161407	3044.685524
933.464694	3036.173536
933.767943	3032.561549
934.071153	3027.112062
934.374323	3016.172758
934.677455	3014.194105
934.980548	3003.216992
935.283602	2996.923112
935.586617	2995.839264
935.889593	3003.053155
936.192530	3007.527179
936.495428	3022.680887
936.798287	3044.365411
937.101108	3075.575194
937.403890	3127.514202
937.706632	3186.067204
938.009336	3266.435799
938.312002	3341.967407
938.614628	3403.736665
938.917216	3457.871096
939.219765	3483.901094
939.522275	3521.142618
939.824747	3523.968185
940.127179	3521.238400
940.429573	3516.305631
940.731929	3513.255733
941.034246	3499.122858
941.336524	3488.501147
941.638763	3473.733087
941.940964	3459.529636
942.243126	3414.474323
942.545250	3392.436919
942.847335	3355.026516
943.149381	3321.235662
943.451389	3289.857000
943.753359	3255.141094
944.055290	3227.555900
944.357182	3203.547405
944.659036	3192.857638
944.960851	3182.906401
945.262628	3166.305881
945.564367	3171.765451
945.866067	3161.408400
946.167729	3160.589212
946.469352	3156.621824
946.770937	3154.680980
947.072484	3137.641880
947.373992	3142.211686
947.675462	3135.098618
947.976893	3118.677059
948.278286	3108.798918
948.579641	3102.804987
948.880958	3093.309973
949.182236	3100.493617
949.483476	3092.016917
949.784678	3089.398038
950.085841	3092.891557
950.386967	3103.495625
950.688054	3119.072790
950.989103	3137.730100
951.290114	3158.343378
951.591087	3187.819005
951.892021	3215.366390
952.192917	3246.583735
952.493776	3270.955194
952.794596	3278.287552
953.095378	3281.927265
953.396122	3278.138838
953.696828	3272.177673
953.997496	3259.557145
954.298126	3235.954463
954.598718	3218.081052
954.899272	3187.960157
955.199788	3162.653565
955.500266	3129.921353
955.800706	3094.373657
956.101108	3057.485013
956.401472	3027.863193
956.701798	2994.934377
957.002087	2951.555248
957.302337	2924.728748
957.602550	2895.737072
957.902724	2868.532485
958.202861	2845.469206
958.502960	2823.472131
958.803022	2804.343473
959.103045	2782.295987
959.403031	2766.154212
959.702979	2749.596542
960.002889	2736.595407
960.302762	2724.995712
960.602596	2715.535986
960.902393	2706.393854
961.202153	2699.981506
961.501875	2689.190916
961.801559	2685.818384
962.101205	2679.847138
962.400814	2672.308092
962.700385	2666.442710
962.999918	2661.356185
963.299414	2652.299752
963.598873	2651.909063
963.898293	2643.109729
964.197677	2643.165182
964.497022	2643.686941
964.796331	2640.649646
965.095601	2637.864408
965.394835	2637.466157
965.694030	2634.484315
965.993189	2631.184880
966.292309	2631.094139
966.591393	2630.143881
966.890439	2631.237812
967.189447	2629.377626
967.488419	2632.359468
967.787353	2631.673872
968.086249	2633.251753
968.385108	2634.721249
968.683930	2633.952473
968.982714	2639.785088
969.281462	2645.302631
969.580172	2651.213384
969.878844	2655.211019
970.177480	2662.419869
970.476078	2672.086281
970.774639	2676.469565
971.073162	2687.262675
971.371649	2692.132430
971.670098	2694.963037
971.968510	2701.584593
972.266885	2705.078113
972.565223	2708.959801
972.863524	2712.080275
973.161788	2715.689742
973.460014	2721.237531
973.758204	2723.228787
974.056356	2724.539487
974.354471	2727.029817
974.652550	2725.406566
974.950591	2725.094014
975.248595	2725.298181
975.546563	2719.702500
975.844493	2719.445401
976.142386	2714.172354
976.440243	2706.419060
976.738062	2705.771271
977.035845	2697.528985
977.333590	2692.273582
977.631299	2684.167407
977.928971	2679.784123
978.226606	2672.035870
978.524204	2669.956394
978.821765	2663.095383
979.119290	2665.537822
979.416777	2668.630570
979.714228	2670.571415
980.011642	2672.398833
980.309020	2683.020544
980.606360	2699.696681
980.903664	2720.816595
981.200931	2752.953951
981.498162	2801.187711
981.795356	2876.953733
982.092513	2964.740386
982.389633	3069.077147
982.686717	3167.125068
982.983764	3240.322622
983.280775	3290.998821
983.577749	3299.251190
983.874686	3282.683438
984.171587	3249.227821
984.468451	3209.793395
984.765279	3168.836540
985.062070	3123.176289
985.358824	3076.457396
985.655543	3020.417409
985.952224	2967.631487
986.248869	2902.585479
986.545478	2846.149762
986.842050	2792.206895
987.138586	2747.638054
987.435086	2706.744214
987.731549	2675.347908
988.027975	2654.517860
988.324366	2634.817031
988.620719	2622.864455
988.917037	2608.905500
989.213318	2601.091712
989.509563	2594.170208
989.805772	2589.101327
990.101944	2587.248703
990.398080	2584.226532
990.694180	2578.968608
990.990244	2582.525142
991.286271	2583.185533
991.582262	2583.230904
991.878217	2584.985225
992.174136	2588.892119
992.470019	2590.769949
992.765865	2596.322780
993.061676	2598.427462
993.357450	2606.057248
993.653188	2614.203753
993.948890	2632.689664
994.244556	2650.885709
994.540186	2674.896725
994.835780	2704.548792
995.131337	2744.041191
995.426859	2784.945113
995.722345	2828.651917
996.017795	2884.603683
996.313208	2916.758683
996.608586	2945.904114
996.903928	2961.393059
997.199234	2956.818212
997.494504	2955.502471
997.789738	2938.798608
998.084936	2915.649629
998.380099	2882.435987
998.675225	2858.319107
998.970316	2824.984477
999.265371	2789.971143
999.560390	2754.191554
999.855373	2726.082080
1000.150320	2695.464632
1000.445232	2669.243071
1000.740108	2651.987201
1001.034948	2629.468367
1001.329752	2616.401696
1001.624521	2605.197732
1001.919254	2592.352872
1002.213951	2585.718713
1002.508613	2575.853175
1002.803239	2570.179356
1003.097829	2565.170970
1003.392384	2561.604354
1003.686903	2556.054043
1003.981386	2554.826522
1004.275834	2548.711603
1004.570246	2541.858154
1004.864623	2544.320758
1005.158964	2539.050231
1005.453270	2537.863040
1005.747540	2535.135775
1006.041775	2536.343132
1006.335974	2536.723739
1006.630138	2532.630322
1006.924266	2533.739376
1007.218359	2533.129396
1007.512416	2530.626463
1007.806438	2526.419620
1008.100425	2526.563293
1008.394376	2523.251255
1008.688292	2527.319466
1008.982172	2528.647810
1009.276017	2529.940866
1009.569827	2526.933818
1009.863602	2525.766791
1010.157341	2525.940711
1010.451045	2523.888961
1010.744714	2522.510206
1011.038347	2522.769825
1011.331945	2520.430730
1011.625508	2521.401152
1011.919036	2521.063394
1012.212528	2520.148425
1012.505986	2519.004083
1012.799408	2519.452746
1013.092795	2516.891840
1013.386147	2517.368229
1013.679464	2519.407375
1013.972745	2518.255472
1014.265992	2516.841428
1014.559204	2516.143228
1014.852380	2515.404699
1015.145521	2513.889832
1015.438628	2517.055677
1015.731699	2519.911491
1016.024736	2520.917201
1016.317737	2517.630369
1016.610703	2519.258661
1016.903635	2521.252438
1017.196531	2520.183713
1017.489393	2522.240504
1017.782219	2522.810154
1018.075011	2526.948942
1018.367768	2528.610002
1018.660490	2529.474560
1018.953177	2529.474560
1019.245829	2529.474560
