Dividing Wavelength (nm)	Counts (n)	Blue Motor Position (mm): 14.200000	Red Motor Position (mm): 0.000000	
326.493990	2134.117028
326.888308	2134.117028
327.282561	2134.117028
327.676750	2104.139807
328.070874	2101.193252
328.464933	2102.035125
328.858929	2112.482916
329.252859	2120.437857
329.646726	2132.173663
330.040528	2145.131949
330.434265	2159.451347
330.827938	2183.341375
331.221547	2198.275793
331.615091	2217.843032
332.008571	2239.381362
332.401986	2258.129413
332.795338	2274.525766
333.188625	2294.524023
333.581847	2312.830973
333.975006	2332.204127
334.368100	2351.526870
334.761129	2366.206710
335.154095	2385.423588
335.546996	2406.362021
335.939833	2422.110586
336.332606	2437.808739
336.725315	2449.441201
337.117960	2457.554938
337.510540	2465.885445
337.903056	2481.485296
338.295508	2486.294556
338.687896	2494.804024
339.080220	2502.927843
339.472480	2509.793895
339.864676	2515.308917
340.256807	2517.093486
340.648875	2519.737571
341.040879	2524.907274
341.432818	2525.028262
341.824694	2527.450536
342.216506	2525.683612
342.608253	2526.316277
342.999937	2527.379960
343.391557	2526.883407
343.783113	2526.777542
344.174605	2525.050947
344.566033	2522.656399
344.957397	2520.816378
345.348697	2519.112468
345.739934	2518.953672
346.131106	2517.393434
346.522215	2514.761952
346.913260	2511.442352
347.304241	2513.849503
347.695159	2508.732732
348.086012	2508.556292
348.476802	2502.622854
348.867528	2505.035046
349.258191	2503.651249
349.648789	2502.423728
350.039324	2500.523213
350.429796	2499.338542
350.820203	2498.869715
351.210548	2498.705877
351.600828	2496.016422
351.991045	2496.349138
352.381198	2497.269148
352.771288	2493.127840
353.161314	2494.768736
353.551276	2494.985506
353.941175	2492.124651
354.331010	2494.279744
354.720782	2494.282265
355.110490	2495.340907
355.500135	2493.556338
355.889717	2494.902327
356.279235	2493.899137
356.668689	2494.400732
357.058080	2494.977944
357.447408	2493.947028
357.836672	2489.412510
358.225873	2493.851246
358.615010	2491.449136
359.004084	2496.563387
359.393095	2495.159425
359.782043	2497.223778
360.170927	2497.725373
360.559748	2498.547081
360.948505	2500.140085
361.337199	2500.306443
361.725830	2501.901969
362.114398	2499.252842
362.502903	2499.484735
362.891344	2501.546567
363.279722	2501.029849
363.668037	2500.664365
364.056289	2504.931702
364.444478	2502.554798
364.832603	2503.840292
365.220665	2502.068327
365.608665	2504.374655
365.996601	2502.794253
366.384474	2502.557319
366.772284	2508.228617
367.160031	2504.236023
367.547715	2506.378513
367.935336	2505.188801
368.322893	2505.385406
368.710388	2504.977072
369.097820	2506.844820
369.485189	2506.096209
369.872495	2508.548730
370.259738	2508.757938
370.646918	2506.880108
371.034035	2507.036384
371.421090	2509.766169
371.808081	2508.284069
372.195010	2508.911693
372.581875	2510.013185
372.968678	2506.076044
373.355418	2504.697288
373.742096	2508.931858
374.128710	2508.649553
374.515262	2508.984790
374.901751	2508.901611
375.288177	2514.353619
375.674540	2508.457989
376.060841	2511.336488
376.447079	2511.457476
376.833254	2511.482682
377.219367	2508.160561
377.605417	2510.824811
377.991404	2508.715088
378.377329	2510.572753
378.763191	2508.818432
379.148991	2512.876561
379.534727	2512.581653
379.920402	2514.749349
380.306013	2510.396313
380.691563	2512.793382
381.077049	2513.973012
381.462474	2513.569719
381.847835	2514.063752
382.233134	2513.098371
382.618371	2512.276663
383.003545	2517.418640
383.388657	2516.841428
383.773706	2515.109792
384.158693	2517.947961
384.543618	2513.978053
384.928480	2517.090965
385.313280	2514.668691
385.698017	2515.913856
386.082692	2515.820594
386.467305	2516.493588
386.851856	2517.544669
387.236344	2517.804288
387.620770	2516.138187
388.005133	2515.865965
388.389435	2519.440143
388.773674	2517.698424
389.157851	2517.627848
389.541965	2517.718589
389.926018	2518.860410
390.310008	2518.182375
390.693936	2519.455266
391.077802	2518.487365
391.461606	2518.910822
391.845348	2518.820081
392.229027	2520.324865
392.612645	2518.933507
392.996200	2519.755215
393.379694	2523.284023
393.763125	2519.354443
394.146494	2522.300998
394.529801	2522.815195
394.913047	2522.069105
395.296230	2520.907119
395.679351	2522.172448
396.062410	2522.464835
396.445408	2522.825278
396.828343	2520.876872
397.211217	2517.005266
397.594028	2520.458456
397.976778	2518.910822
398.359466	2519.193126
398.742092	2518.363857
399.124656	2521.139012
399.507158	2521.524660
399.889598	2522.600946
400.271977	2523.989784
400.654294	2524.113293
401.036549	2523.296626
401.418742	2525.388704
401.800874	2523.450381
402.182944	2523.830988
402.564952	2527.145547
402.946898	2524.846780
403.328783	2525.413910
403.710606	2525.146729
404.092367	2523.674712
404.474067	2526.442306
404.855705	2525.973478
405.237282	2527.417769
405.618797	2527.654703
406.000250	2528.746113
406.381642	2525.093797
406.762972	2527.896678
407.144240	2529.033459
407.525447	2527.942049
407.906593	2525.131606
408.287677	2528.131092
408.668700	2528.060516
409.049661	2525.519774
409.430560	2527.992460
409.811399	2525.413910
410.192176	2529.098994
410.572891	2527.483304
410.953545	2526.462470
411.334138	2529.182173
411.714669	2528.269724
412.095139	2528.836854
412.475547	2527.833664
412.855894	2527.659744
413.236180	2531.632173
413.616405	2527.324508
413.996568	2530.303829
414.376670	2529.156967
414.756711	2530.659231
415.136691	2530.195445
415.516609	2529.973634
415.896466	2529.086391
416.276262	2531.806093
416.655997	2526.807789
417.035670	2526.845598
417.415283	2528.168901
417.794834	2527.667306
418.174324	2529.056144
418.553753	2530.145033
418.933121	2532.544622
419.312428	2530.996988
419.691674	2531.932122
420.070859	2531.077647
420.449983	2529.540095
420.829045	2531.024714
421.208047	2530.865918
421.586988	2531.760723
421.965867	2530.674354
422.344686	2531.775846
422.723444	2532.746268
423.102141	2531.463295
423.480777	2532.572349
423.859352	2533.068902
424.237866	2534.540919
424.616319	2530.828109
424.994712	2535.105528
425.373044	2536.297761
425.751314	2532.118645
426.129524	2534.341794
426.507673	2533.520086
426.885762	2531.697708
427.263789	2533.978831
427.641756	2533.825075
428.019662	2536.882535
428.397508	2533.285672
428.775292	2534.369520
429.153016	2535.599562
429.530679	2533.512524
429.908282	2532.285003
430.285824	2532.350538
430.663305	2530.681916
431.040726	2533.671320
431.418086	2532.985723
431.795385	2535.770961
432.172624	2535.125693
432.549802	2536.267514
432.926920	2534.152750
433.303977	2534.999664
433.680974	2536.433873
434.057910	2535.967566
434.434786	2535.939839
434.811601	2536.663245
435.188355	2534.866074
435.565050	2537.963863
435.941683	2536.474202
436.318257	2534.230888
436.694770	2533.494880
437.071222	2533.799870
437.447614	2530.797863
437.823946	2534.510672
438.200218	2537.613503
438.576429	2540.683565
438.952580	2534.619057
439.328670	2537.903369
439.704700	2536.219623
440.080670	2537.326157
440.456580	2535.229037
440.832429	2538.165509
441.208218	2535.231557
441.583947	2537.893287
441.959616	2535.498738
442.335224	2539.738349
442.710773	2537.386651
443.086261	2535.455889
443.461689	2537.517721
443.837057	2536.806918
444.212365	2535.108049
444.587612	2539.531662
444.962800	2540.219779
445.337927	2537.704243
445.712995	2537.217772
446.088002	2537.598379
446.462949	2539.322454
446.837837	2536.527134
447.212664	2539.952598
447.587431	2539.882022
447.962139	2542.609286
448.336786	2541.301107
448.711374	2537.931095
449.085901	2539.763555
449.460369	2541.868236
449.834776	2539.907227
450.209124	2540.292876
450.583412	2542.193391
450.957640	2539.635005
451.331808	2540.033256
451.705917	2538.878832
452.079965	2538.286497
452.453954	2542.082485
452.827883	2538.954449
453.201752	2540.499563
453.575562	2544.260264
453.949311	2539.380427
454.323001	2542.107691
454.696632	2540.434028
455.070202	2542.193391
455.443713	2537.857998
455.817164	2540.035777
456.190556	2537.553009
456.563888	2538.364634
456.937160	2536.350693
457.310373	2543.839328
457.683526	2541.837989
458.056619	2540.423946
458.429653	2543.584749
458.802628	2539.337577
459.175542	2542.460572
459.548398	2541.429656
459.921194	2541.958977
460.293930	2543.773793
460.666607	2543.456200
461.039224	2540.817156
461.411782	2543.393185
461.784280	2543.650284
462.156719	2544.681200
462.529099	2541.225489
462.901419	2543.362938
463.273680	2542.102650
463.645882	2543.483926
464.018024	2541.759852
464.390106	2544.323278
464.762130	2543.441076
465.134094	2544.073741
465.505999	2543.877136
465.877845	2543.494008
466.249631	2547.199257
466.621358	2544.146838
466.993026	2550.138249
467.364634	2548.525080
467.736184	2545.260933
468.107674	2543.917465
468.479105	2542.442928
468.850477	2541.643905
469.221790	2546.032229
469.593043	2545.023999
469.964238	2546.017106
470.335373	2544.192208
470.706449	2544.487116
471.077467	2545.142466
471.448425	2545.976777
471.819324	2545.001313
472.190164	2546.896787
472.560945	2545.870912
472.931667	2546.914431
473.302330	2546.332178
473.672934	2547.761345
474.043479	2544.681200
474.413965	2547.007693
474.784393	2539.690458
475.154761	2545.056766
475.525070	2541.527958
475.895321	2544.724050
476.265513	2541.044008
476.635645	2545.502908
477.005719	2548.078938
477.375734	2547.473999
477.745691	2545.323947
478.115588	2547.962991
478.485427	2547.834442
478.855207	2547.398382
479.224928	2546.798485
479.594591	2548.797302
479.964194	2547.552137
480.333739	2548.000800
480.703226	2550.284443
481.072653	2547.181612
481.442022	2548.525080
481.811333	2548.762014
482.180584	2547.869730
482.549777	2547.809236
482.918912	2549.245965
483.287988	2550.231511
483.657005	2547.879812
484.025964	2548.925852
484.394864	2549.921480
484.763706	2549.036757
485.132489	2551.138918
485.501213	2548.613300
485.869879	2548.356201
486.238487	2545.364277
486.607036	2548.487271
486.975527	2549.924000
487.343959	2551.756460
487.712333	2548.736808
488.080648	2548.930893
488.448905	2549.626572
488.817104	2551.872406
489.185244	2548.063814
489.553326	2551.630431
489.921350	2549.472817
490.289315	2548.799823
490.657222	2547.920142
491.025070	2551.726213
491.392861	2548.895605
491.760593	2549.523228
492.128267	2550.881819
492.495883	2548.245296
492.863440	2553.140256
493.230939	2550.758311
493.598380	2549.555996
493.965763	2544.981149
494.333088	2547.806716
494.700354	2545.787733
495.067563	2550.884340
495.434713	2544.255223
495.801805	2548.759494
496.168839	2549.649257
496.535815	2549.555996
496.902733	2552.300904
497.269593	2549.739998
497.636395	2548.739329
498.003139	2550.607077
498.369825	2552.522715
498.736453	2548.394010
499.103023	2551.847200
499.469535	2550.481048
499.835989	2546.785882
500.202385	2551.794268
500.568723	2550.667570
500.935003	2552.545400
501.301226	2550.891902
501.667390	2552.437015
502.033497	2551.814433
502.399546	2552.258054
502.765537	2548.749411
503.131470	2550.828887
503.497345	2552.873075
503.863163	2550.453321
504.228923	2550.541542
504.594625	2552.328631
504.960269	2552.444577
505.325856	2551.015410
505.691385	2554.166131
506.056856	2552.820143
506.422270	2553.757798
506.787625	2554.944989
507.152924	2553.596481
507.518164	2555.214691
507.883347	2554.614794
508.248472	2555.706204
508.613540	2554.135884
508.978550	2551.607746
509.343503	2553.359547
509.708398	2553.868703
510.073236	2553.525905
510.438016	2555.870041
510.802738	2554.733261
511.167403	2556.613611
511.532010	2555.083621
511.896561	2555.431461
512.261053	2557.473128
512.625488	2553.399876
512.989866	2552.013558
513.354186	2551.499361
513.718449	2550.428116
514.082655	2556.618653
514.446803	2557.145453
514.810894	2558.927501
515.174927	2560.225598
515.538904	2557.790721
515.902822	2558.675443
516.266684	2559.366081
516.630488	2557.846173
516.994235	2560.333983
517.357925	2561.553942
517.721558	2561.596792
518.085133	2558.030176
518.448651	2562.731052
518.812112	2560.031514
519.175516	2562.179045
519.538863	2562.216854
519.902152	2561.629559
520.265385	2563.272976
520.628560	2561.889179
520.991678	2561.601833
521.354739	2564.238357
521.717743	2564.044272
522.080690	2565.007132
522.443580	2565.508727
522.806413	2566.340518
523.169189	2565.571742
523.531908	2563.063768
523.894569	2564.480332
524.257174	2565.385219
524.619722	2564.863460
524.982213	2566.007802
525.344647	2566.915209
525.707025	2564.692060
526.069345	2567.096691
526.431608	2567.648697
526.793815	2568.994685
527.155964	2568.820765
527.518057	2568.044428
527.880093	2570.005437
528.242072	2571.028791
528.603995	2570.736404
528.965860	2570.703636
529.327669	2570.592731
529.689421	2569.791187
530.051117	2571.338822
530.412755	2569.571897
530.774337	2570.365879
531.135862	2569.103070
531.497331	2569.062741
531.858743	2565.760785
532.220098	2570.040725
532.581396	2568.251115
532.942638	2568.407391
533.303824	2573.335119
533.664953	2573.766137
534.026025	2571.134655
534.387040	2574.529872
534.747999	2571.989131
535.108902	2576.437949
535.469748	2572.105077
535.830537	2575.165057
536.191270	2575.197825
536.551947	2575.727146
536.912567	2578.305696
537.273131	2574.308061
537.633638	2577.630182
537.994089	2574.739080
538.354483	2578.623289
538.714821	2579.185378
539.075103	2578.295614
539.435328	2578.671180
539.795497	2579.686973
540.155609	2581.549679
540.515665	2581.050605
540.875665	2578.701427
541.235609	2579.112281
541.595496	2583.273753
541.955328	2581.867272
542.315102	2582.729309
542.674821	2584.284505
543.034483	2584.534042
543.394090	2585.658219
543.753640	2584.443301
544.113134	2585.627972
544.472571	2586.966399
544.831953	2585.915318
545.191278	2589.628128
545.550548	2591.306832
545.909761	2589.471852
546.268918	2589.287850
546.628019	2591.200968
546.987064	2592.879672
547.346053	2593.136771
547.704986	2591.523602
548.063863	2594.528129
548.422684	2596.002667
548.781449	2597.154571
549.140158	2599.871752
549.498811	2596.990733
549.857408	2600.695981
550.215949	2599.115579
550.574434	2599.165991
550.932864	2601.527772
551.291237	2602.813266
551.649555	2606.773092
552.007817	2611.085799
552.366022	2609.253340
552.724173	2611.594956
553.082267	2611.904987
553.440305	2617.125102
553.798288	2613.770214
554.156215	2619.814557
554.514086	2622.418313
554.871902	2622.655247
555.229661	2623.479476
555.587365	2625.937038
555.945014	2629.102883
556.302606	2632.871146
556.660143	2631.230250
557.017625	2638.938174
557.375050	2639.154944
557.732421	2639.974131
558.089735	2645.380769
558.446994	2647.838331
558.804197	2652.478713
559.161345	2652.037612
559.518437	2654.646410
559.875474	2659.788387
560.232455	2663.712925
560.589381	2666.818276
560.946251	2674.758093
561.303065	2673.538134
561.659825	2680.636078
562.016528	2684.474917
562.373177	2678.934689
562.729770	2689.584126
563.086307	2693.564117
563.442789	2696.210723
563.799216	2701.786239
564.155587	2706.005685
564.511904	2708.531303
564.868164	2713.743856
565.224370	2718.348950
565.580520	2721.862634
565.936615	2727.213819
566.292654	2733.497617
566.648638	2739.264697
567.004567	2749.866244
567.360441	2753.072418
567.716260	2755.025865
568.072023	2763.288316
568.427732	2767.278389
568.783385	2767.969027
569.138982	2782.328754
569.494525	2784.330092
569.850013	2788.441153
570.205445	2807.340439
570.560823	2806.526293
570.916145	2816.149855
571.271412	2827.154694
571.626625	2831.094356
571.981782	2838.093998
572.336884	2849.431553
572.691931	2854.462625
573.046923	2865.636342
573.401860	2872.366282
573.756743	2880.974053
574.111570	2890.854714
574.466342	2898.048441
574.821059	2911.767941
575.175722	2916.317582
575.530330	2925.101793
575.884882	2937.104780
576.239380	2945.828497
576.593823	2950.725978
576.948211	2965.761219
577.302544	2964.261476
577.656823	2981.212356
578.011047	2989.850373
578.365216	3008.469875
578.719330	3010.302334
579.073389	3029.388143
579.427394	3030.245139
579.781344	3044.846841
580.135239	3053.961247
580.489080	3070.579411
580.842866	3078.761203
581.196597	3094.318204
581.550273	3108.647684
581.903895	3121.797534
582.257463	3139.628095
582.610975	3153.183757
582.964434	3164.841426
583.317837	3174.936336
583.671186	3182.717357
584.024481	3201.183104
584.377721	3212.500494
584.730906	3225.221846
585.084037	3247.695310
585.437113	3249.353849
585.790135	3272.225564
586.143103	3279.968777
586.496016	3293.474028
586.848874	3313.978921
587.201679	3328.792352
587.554428	3335.698733
587.907124	3359.346785
588.259765	3369.048486
588.612352	3399.146695
588.964884	3396.978999
589.317362	3421.040426
589.669786	3440.169084
590.022155	3458.775983
590.374470	3481.231803
590.726731	3487.145076
591.078937	3490.903257
591.431090	3528.517826
591.783188	3522.496168
592.135232	3545.032646
592.487222	3555.563616
592.839157	3586.521342
593.191038	3592.091817
593.542866	3600.901233
593.894639	3605.040021
594.246358	3631.622025
594.598022	3654.501302
594.949633	3658.869462
595.301190	3673.619878
595.652692	3694.270964
596.004141	3738.970876
596.355535	3712.587997
596.706876	3725.977302
597.058162	3738.421390
597.409395	3774.410187
597.760573	3806.774395
598.111698	3803.933705
598.462768	3824.715861
598.813785	3834.745237
599.164748	3855.852548
599.515657	3862.479145
599.866511	3874.119169
600.217312	3922.541972
600.568060	3908.157040
600.918753	3953.217393
601.269392	3965.333807
601.619978	3969.205413
601.970510	4005.189169
602.320988	4023.196171
602.671412	4067.419693
603.021783	4063.699321
603.372100	4077.209613
603.722363	4102.624591
604.072572	4116.480202
604.422728	4141.335611
604.772830	4145.305520
605.122878	4168.053726
605.472872	4178.977907
605.822813	4212.183987
606.172701	4219.118094
606.522534	4267.354375
606.872314	4282.818114
607.222041	4301.737565
607.571714	4341.575283
607.921333	4349.683979
608.270899	4376.739852
608.620411	4423.821708
608.969870	4419.733332
609.319276	4440.601188
609.668627	4472.730983
610.017926	4508.263555
610.367171	4552.340884
610.716362	4560.331113
611.065500	4586.545113
611.414585	4618.001913
611.763616	4633.329541
612.112594	4653.209331
612.461518	4684.585473
612.810389	4726.401844
613.159207	4729.101382
613.507971	4731.725302
613.856682	4805.295902
614.205340	4801.804903
614.553945	4861.217421
614.902496	4848.032283
615.250994	4890.690527
615.599439	4905.773660
615.947830	4936.902785
616.296169	4949.278817
616.644454	4978.000791
616.992686	4999.403010
617.340864	5050.399322
617.688990	5033.579513
618.037063	5090.121094
618.385082	5093.218883
618.733048	5157.954860
619.080961	5146.781143
619.428821	5182.480074
619.776628	5208.308425
620.124382	5206.922108
620.472083	5224.412391
620.819731	5257.936064
621.167326	5234.265327
621.514868	5254.944140
621.862357	5225.433225
622.209793	5254.606382
622.557176	5247.712604
622.904506	5253.371300
623.251783	5240.362602
623.599007	5240.057612
623.946179	5265.510398
624.293297	5266.385038
624.640363	5243.041975
624.987376	5258.367083
625.334336	5245.043313
625.681243	5243.835957
626.028097	5256.824490
626.374899	5263.393113
626.721647	5285.687616
627.068343	5261.449749
627.414987	5266.919401
627.761577	5263.015027
628.108115	5298.756808
628.454600	5258.344398
628.801032	5310.996729
629.147412	5295.527949
629.493739	5313.781967
629.840014	5294.411333
630.186236	5349.014591
630.532405	5294.895284
630.878521	5342.103169
631.224585	5330.523639
631.570597	5305.254855
631.916556	5343.376060
632.262462	5352.661866
632.608316	5351.658676
632.954117	5352.487946
633.299866	5355.623544
633.645562	5379.536257
633.991206	5341.102500
634.336797	5320.252288
634.682336	5311.886493
635.027823	5304.360050
635.373257	5314.764992
635.718639	5290.063338
636.063968	5315.498480
636.409245	5261.512763
636.754470	5273.861069
637.099642	5261.986632
637.444762	5240.612139
637.789829	5264.023258
638.134845	5234.610646
638.479808	5239.389659
638.824719	5251.979941
639.169577	5216.006267
639.514383	5245.736472
639.859137	5210.695412
640.203839	5227.313575
640.548489	5233.602415
640.893086	5230.224842
641.237632	5223.658739
641.582125	5251.987503
641.926566	5240.584413
642.270955	5262.110140
642.615292	5274.839053
642.959576	5295.119615
643.303809	5297.204132
643.647990	5316.100898
643.992118	5317.673738
644.336195	5290.297752
644.680219	5322.525848
645.024192	5319.077699
645.368112	5401.079628
645.711981	5428.624492
646.055797	5490.151775
646.399562	5471.406245
646.743274	5575.679991
647.086935	5624.899297
647.430544	5630.961284
647.774101	5662.355070
648.117606	5673.092728
648.461059	5679.626063
648.804460	5667.386142
649.147810	5604.729640
649.491108	5600.757211
649.834354	5588.343370
650.177548	5534.738260
650.520690	5482.844623
650.863781	5479.983768
651.206820	5503.462942
651.549807	5454.856137
651.892742	5411.668572
652.235626	5431.815543
652.578458	5427.661632
652.921238	5364.077559
653.263967	5402.758332
653.606644	5360.730233
653.949269	5370.328589
654.291843	5327.360315
654.634365	5380.783942
654.976836	5356.041959
655.319255	5353.113049
655.661622	5343.633159
656.003938	5356.505746
656.346203	5323.665149
656.688416	5364.846335
657.030577	5327.572043
657.372687	5310.444723
657.714746	5306.535308
658.056753	5351.774623
658.398708	5306.116892
658.740612	5303.001459
659.082465	5352.586248
659.424266	5349.201114
659.766016	5359.207804
660.107715	5345.218602
660.449362	5361.350294
660.790958	5364.780800
661.132503	5360.178226
661.473996	5401.545935
661.815438	5388.436414
662.156829	5398.748094
662.498168	5400.068877
662.839456	5378.253283
663.180693	5419.247946
663.521879	5421.614768
663.863013	5419.752062
664.204097	5444.733500
664.545129	5481.682637
664.886110	5487.369058
665.227040	5525.452455
665.567918	5496.077652
665.908746	5526.725346
666.249522	5535.837232
666.590248	5527.368093
666.930922	5554.804573
667.271545	5570.941307
667.612118	5578.548408
667.952639	5556.294234
668.293109	5585.419501
668.633528	5551.900869
668.973896	5563.873609
669.314213	5558.444286
669.654480	5549.105549
669.994695	5548.651845
670.334859	5547.053799
670.674973	5545.710332
671.015035	5554.741559
671.355047	5556.339605
671.695008	5545.952307
672.034918	5522.853740
672.374777	5540.485176
672.714585	5529.072003
673.054342	5534.423188
673.394049	5529.969329
673.733705	5568.569444
674.073310	5555.447320
674.412864	5524.797105
674.752368	5521.447258
675.091820	5529.361870
675.431223	5471.912881
675.770574	5481.150795
676.109875	5438.865597
676.449125	5444.126041
676.788324	5418.040590
677.127473	5371.351944
677.466571	5366.860276
677.805619	5359.984142
678.144616	5351.278069
678.483562	5335.421120
678.822458	5311.853725
679.161303	5306.449608
679.500098	5301.158917
679.838842	5288.548471
680.177535	5295.134739
680.516179	5313.527388
680.854771	5322.737577
681.193314	5404.948713
681.531805	5503.904043
681.870247	5637.169465
682.208638	5746.252473
682.546978	5756.843937
682.885268	5735.726544
683.223508	5662.549154
683.561697	5616.387309
683.899836	5588.245067
684.237925	5549.483635
684.575963	5516.209499
684.913951	5484.210775
685.251889	5543.532553
685.589776	5514.049365
685.927614	5487.979038
686.265401	5554.703750
686.603137	5537.921749
686.940824	5613.045024
687.278460	5633.736440
687.616046	5650.490714
687.953582	5708.171597
688.291068	5690.837589
688.628504	5754.852681
688.965889	5725.014092
689.303224	5663.988404
689.640510	5630.109329
689.977745	5565.585081
690.314930	5471.968333
690.652065	5418.867339
690.989150	5333.046736
691.326185	5262.634420
691.663170	5214.526689
692.000105	5142.526409
692.336990	5073.497889
692.673825	5048.128283
693.010610	4984.191328
693.347345	4922.492646
693.684030	4911.092077
694.020665	4873.427096
694.357251	4786.570536
694.693786	4795.884067
695.030272	4768.225777
695.366707	4734.666816
695.703093	4700.165159
696.039429	4722.618458
696.375716	4706.819482
696.711952	4683.730997
697.048139	4672.832023
697.384276	4654.923324
697.720363	4668.700797
698.056400	4676.731355
698.392388	4629.251248
698.728326	4610.740131
699.064214	4588.082665
699.400053	4585.413374
699.735842	4554.115370
700.071581	4528.750805
700.407270	4506.093339
700.742910	4490.122963
701.078501	4437.019449
701.414042	4437.969706
701.749533	4413.568001
702.084974	4345.562836
702.420366	4402.381681
702.755709	4348.736242
703.091002	4294.914363
703.426246	4342.954038
703.761440	4296.671205
704.096584	4264.503602
704.431679	4286.472951
704.766725	4271.407463
705.101721	4260.407665
705.436668	4288.587715
705.771565	4240.666506
706.106413	4263.790279
706.441212	4298.652378
706.775961	4305.468018
707.110661	4285.729381
707.445311	4314.297599
707.779913	4337.159232
708.114465	4351.019885
708.448967	4373.954614
708.783421	4430.329838
709.117825	4475.596878
709.452180	4477.658710
709.786485	4524.478427
710.120742	4612.406232
710.454949	4596.347637
710.789107	4657.998427
711.123216	4726.979056
711.457275	4717.015216
711.791286	4793.587822
712.125247	4807.292199
712.459159	4711.016242
712.793023	4783.134989
713.126837	4748.968569
713.460602	4738.699739
713.794318	4662.943799
714.127985	4668.852032
714.461602	4585.766255
714.795171	4558.082758
715.128691	4497.604036
715.462162	4444.329122
715.795584	4393.970515
716.128957	4377.738000
716.462281	4323.192715
716.795556	4301.235970
717.128782	4265.577368
717.461960	4197.564641
717.795088	4208.037638
718.128167	4167.335362
718.461198	4109.329325
718.794180	4106.470991
719.127113	4088.297631
719.459997	4068.364909
719.792833	4026.656923
720.125619	4012.503883
720.458357	3978.355107
720.791046	3984.122187
721.123686	3957.804843
721.456278	3920.664142
721.788821	3933.834157
722.121315	3910.473450
722.453761	3883.452865
722.786158	3894.349319
723.118506	3918.814039
723.450805	3868.730176
723.783056	3893.265471
724.115259	3908.817431
724.447412	3913.236002
724.779518	3907.012698
725.111574	3913.067124
725.443582	3942.973769
725.775542	3928.934155
726.107453	3978.012309
726.439315	3978.108091
726.771129	3987.376252
727.102895	4025.651212
727.434612	4074.018563
727.766281	4079.876384
728.097901	4082.349070
728.429473	4090.288887
728.760996	4096.229887
729.092471	4089.144545
729.423897	4078.439655
729.755276	4083.019543
730.086606	4084.224379
730.417887	4120.823156
730.749120	4183.242723
731.080305	4249.163371
731.411442	4271.616670
731.742530	4238.972679
732.073570	4245.538782
732.404562	4300.739416
732.735506	4292.527377
733.066401	4254.096140
733.397249	4192.339485
733.728048	4116.175212
734.058798	4036.053633
734.389501	3964.852377
734.720156	3904.275351
735.050762	3862.789176
735.381320	3857.369935
735.711831	3804.410094
736.042293	3779.716002
736.372707	3800.006646
736.703073	3768.839712
737.033391	3762.397118
737.363661	3782.337402
737.693883	3802.776760
738.024056	3811.732370
738.354182	3807.792708
738.684260	3872.788304
739.014290	3889.088875
739.344272	3885.716343
739.674207	3925.813681
740.004093	3933.272068
740.333931	3926.854679
740.663722	3928.213270
740.993464	3924.631531
741.323159	3898.967016
741.652806	3874.368706
741.982405	3847.413657
742.311956	3814.847803
742.641460	3807.981751
742.970915	3783.426291
743.300323	3742.527410
743.629683	3709.875856
743.958996	3695.185934
744.288260	3672.089887
744.617477	3639.975217
744.946647	3626.177579
745.275768	3603.893158
745.604842	3602.416100
745.933869	3553.121177
746.262847	3547.570867
746.591778	3583.955395
746.920662	3553.698389
747.249498	3523.411137
747.578286	3572.083478
747.907027	3586.735591
748.235720	3585.283739
748.564365	3610.227368
748.892963	3613.136114
749.221514	3589.077207
749.550017	3567.874114
749.878473	3568.133733
750.206881	3538.017880
750.535242	3535.441851
750.863555	3536.808003
751.191821	3532.452447
751.520039	3513.580887
751.848210	3491.225890
752.176334	3524.406765
752.504411	3529.175697
752.832440	3487.704644
753.160421	3473.980103
753.488356	3481.630054
753.816243	3496.196468
754.144082	3452.492185
754.471875	3437.454423
754.799620	3454.813636
755.127318	3451.136114
755.454969	3453.162658
755.782572	3456.136939
756.110129	3430.827826
756.437638	3420.042277
756.765100	3438.684464
757.092515	3444.030608
757.419882	3450.642081
757.747203	3423.611414
758.074477	3425.559820
758.401703	3444.055814
758.728882	3463.370995
759.056014	3470.174032
759.383099	3473.612099
759.710138	3469.637149
760.037129	3484.690034
760.364073	3518.659850
760.690970	3502.283661
761.017820	3476.442707
761.344623	3498.124709
761.671379	3540.992161
761.998088	3593.314297
762.324751	3720.341292
762.651366	3964.318014
762.977935	4427.824384
763.304456	4860.239437
763.630931	4951.214620
763.957359	4592.980146
764.283740	4261.025206
764.610074	4072.738110
764.936362	3879.379613
765.262602	3723.280284
765.588796	3613.788943
765.914943	3525.167979
766.241044	3440.758899
766.567097	3410.885022
766.893104	3364.798793
767.219064	3333.601613
767.544978	3309.497335
767.870845	3254.155548
768.196665	3237.555029
768.522438	3245.089033
768.848165	3241.988724
769.173846	3205.621840
769.499479	3187.014941
769.825066	3171.687313
770.150607	3158.053512
770.476101	3171.135306
770.801548	3164.735562
771.126949	3118.707306
771.452303	3103.563680
771.777611	3109.998713
772.102872	3115.468365
772.428087	3091.417020
772.753256	3081.180957
773.078378	3072.316088
773.403453	3038.948691
773.728482	3027.739685
774.053465	3053.724313
774.378401	3039.581356
774.703291	3007.038187
775.028135	3009.261336
775.352932	3005.346880
775.677683	2990.929180
776.002388	2990.435147
776.327046	2985.751915
776.651658	2978.041470
776.976224	2968.662403
777.300743	2968.433031
777.625216	2959.530353
777.949643	2952.467697
778.274024	2955.961216
778.598359	2945.228600
778.922647	2949.195988
779.246889	2949.611883
779.571086	2936.373813
779.895236	2928.086156
780.219339	2940.187446
780.543397	2952.019034
780.867409	2955.915846
781.191374	2945.853703
781.515294	2944.479988
781.839167	2944.127108
782.162995	2937.077054
782.486776	2944.583332
782.810511	2941.556119
783.134201	2927.818975
783.457844	2937.097218
783.781441	2928.197061
784.104993	2906.714184
784.428498	2906.142013
784.751958	2921.091555
785.075372	2914.485123
785.398739	2898.996178
785.722061	2917.976122
786.045337	2928.446598
786.368568	2911.868764
786.691752	2904.932136
787.014891	2951.693879
787.337983	2980.176399
787.661030	3008.069103
787.984031	3076.406984
788.306987	3119.118160
788.629897	3109.623147
788.952760	3097.594954
789.275579	3080.911255
789.598351	3020.520753
789.921078	2978.520380
790.243759	2972.322281
790.566395	2956.979529
790.888984	2929.963986
791.211529	2912.261974
791.534027	2904.377609
791.856480	2893.105589
792.178888	2879.010523
792.501249	2872.416694
792.823566	2868.134234
793.145836	2865.717001
793.468062	2860.816999
793.790241	2856.703417
794.112375	2868.272866
794.434464	2878.897097
794.756507	2880.863147
795.078505	2889.130640
795.400457	2902.527506
795.722364	2936.537650
796.044226	2961.022535
796.366042	2963.361630
796.687812	2952.991977
797.009538	2974.661376
797.331218	2960.863738
797.652852	2944.096861
797.974442	2927.836619
798.295986	2928.350817
798.617484	2920.287491
798.938938	2905.859709
799.260346	2892.261196
799.581709	2882.244423
799.903026	2877.709906
800.224299	2873.548433
800.545526	2861.540405
800.866708	2846.847962
801.187845	2838.668690
801.508936	2839.543330
801.829983	2845.527179
802.150984	2835.127279
802.471940	2823.018427
802.792851	2820.192861
803.113717	2818.786379
803.434538	2826.915239
803.755314	2821.654795
804.076045	2814.539207
804.396731	2812.628609
804.717372	2811.040646
805.037967	2810.128197
805.358518	2813.893939
805.679024	2827.104283
805.999485	2822.791576
806.319901	2824.714776
806.640272	2821.692604
806.960598	2822.572285
807.280879	2832.851198
807.601115	2842.293279
807.921306	2826.136381
808.241453	2821.498520
808.561554	2828.987154
808.881611	2829.776094
809.201623	2823.819971
809.521590	2823.207471
809.841513	2819.681184
810.161390	2824.359374
810.481223	2815.348312
810.801011	2810.760862
811.120755	2804.587969
811.440453	2807.957980
811.760107	2805.873463
812.079716	2806.007054
812.399281	2795.980199
812.718801	2790.175310
813.038276	2785.348405
813.357707	2790.326545
813.677093	2796.592699
813.996434	2791.753191
814.315731	2787.480813
814.634983	2782.225411
814.954191	2786.608694
815.273354	2798.374747
815.592473	2805.329019
815.911547	2808.618372
816.230577	2816.021306
816.549562	2822.983139
816.868502	2823.260403
817.187399	2832.831033
817.506250	2850.142356
817.825058	2842.285717
818.143821	2856.852132
818.462539	2871.506766
818.781213	2900.001888
819.099843	2930.082453
819.418429	2990.220898
819.736970	3047.881615
820.055466	3119.002214
820.373919	3224.833677
820.692327	3362.157228
821.010691	3522.342412
821.329011	3958.084627
821.647286	4838.408721
821.965517	6185.871335
822.283704	6890.707822
822.601847	6866.505242
822.919945	6249.644452
823.237999	5754.570377
823.556010	5190.669428
823.873976	4654.686389
824.191897	4256.410030
824.509775	3972.421669
824.827609	3711.282338
825.145398	3590.748350
825.463144	3580.958429
825.780845	3671.754651
826.098502	3775.998151
826.416116	4049.120304
826.733685	4358.347202
827.051210	4415.211417
827.368692	4300.499961
827.686129	4043.811969
828.003522	3723.600398
828.320872	3475.195021
828.638177	3285.052780
828.955439	3154.648213
829.272656	3070.418094
829.589830	3004.930985
829.906960	2958.927935
830.224046	2914.459917
830.541088	2881.881460
830.858086	2865.570807
831.175041	2849.900380
831.491952	2850.931296
831.808819	2861.386649
832.125642	2884.959085
832.442421	2928.222267
832.759157	3008.585821
833.075849	3185.840352
833.392497	3457.142649
833.709101	3659.597908
834.025662	3603.073971
834.342179	3446.805763
834.658653	3278.663118
834.975083	3130.193575
835.291469	3036.939791
835.607811	2956.102368
835.924110	2897.103224
836.240366	2848.672859
836.556578	2808.331026
836.872746	2786.530556
837.188871	2763.595827
837.504952	2747.635533
837.820990	2738.768144
838.136984	2726.863459
838.452935	2716.831563
838.768842	2716.743343
839.084706	2736.184552
839.400526	2811.073413
839.716303	2943.789350
840.032037	3016.187881
840.347727	3002.659945
840.663373	2945.150462
840.978977	2873.268649
841.294537	2801.986734
841.610054	2753.775659
841.925527	2732.708677
842.240957	2714.500029
842.556344	2691.913139
842.871687	2676.371262
843.186987	2668.998575
843.502244	2664.804335
843.817458	2658.986843
844.132629	2646.845224
844.447756	2640.637043
844.762840	2633.370220
845.077881	2635.421969
845.392879	2633.385343
845.707833	2629.848974
846.022745	2623.492079
846.337613	2627.018366
846.652438	2622.113323
846.967221	2622.259517
847.281960	2620.893364
847.596656	2618.345061
847.911309	2619.885133
848.225919	2616.303393
848.540485	2616.442025
848.855009	2615.116202
849.169490	2616.668877
849.483928	2614.919597
849.798323	2614.148300
850.112675	2612.537652
850.426984	2613.639144
850.741251	2609.213011
851.055474	2611.108484
851.369654	2615.769031
851.683792	2614.107971
851.997887	2612.925820
852.311938	2611.783999
852.625947	2610.493464
852.939914	2614.032354
853.253837	2614.579319
853.567718	2609.268463
853.881555	2611.673094
854.195350	2614.942282
854.509103	2614.702827
854.822812	2610.541355
855.136479	2611.839452
855.450103	2610.599328
855.763685	2615.234669
856.077224	2610.266612
856.390720	2607.420880
856.704173	2612.870368
857.017584	2616.326079
857.330953	2617.997221
857.644278	2620.921090
857.957561	2620.056532
858.270802	2615.544700
858.584000	2611.942795
858.897155	2616.497478
859.210268	2618.513939
859.523339	2615.380862
859.836367	2608.194697
860.149352	2612.706530
860.462295	2611.665532
860.775195	2609.860799
861.088054	2608.323247
861.400869	2608.892897
861.713642	2604.635643
862.026373	2604.212186
862.339062	2608.943309
862.651708	2614.498660
862.964312	2613.661829
863.276873	2612.933382
863.589392	2615.123763
863.901869	2620.548045
864.214303	2625.690022
864.526696	2626.405866
864.839045	2627.867800
865.151353	2630.582462
865.463619	2627.741772
865.775842	2632.641773
866.088023	2630.060702
866.400162	2634.461630
866.712258	2630.146402
867.024313	2630.353089
867.336325	2626.239508
867.648296	2628.732358
867.960224	2632.911475
868.272110	2633.040024
868.583954	2621.195833
868.895755	2627.164559
869.207515	2633.110600
869.519233	2638.194604
869.830909	2634.025570
870.142542	2629.554066
870.454134	2630.988275
870.765684	2637.758544
871.077191	2637.962711
871.388657	2643.535707
871.700081	2639.215438
872.011463	2638.512197
872.322803	2641.050418
872.634101	2644.180974
872.945357	2651.911584
873.256571	2655.256389
873.567744	2650.820174
873.878874	2648.632313
874.189963	2655.745381
874.501010	2658.207985
874.812015	2662.049344
875.122979	2663.095383
875.433900	2652.564413
875.744780	2653.255051
876.055618	2658.472645
876.366415	2664.653100
876.677169	2663.760816
876.987882	2657.537511
877.298554	2655.480721
877.609183	2668.174346
877.919771	2672.098884
878.230317	2680.084072
878.540822	2687.544980
878.851285	2703.540561
879.161707	2726.860938
879.472087	2760.006525
879.782425	2807.378248
880.092722	2915.097623
880.402977	3099.734924
880.713191	3350.514684
881.023363	3626.046509
881.333494	3807.278510
881.643583	3972.124241
881.953631	3973.639108
882.263637	3795.643527
882.573602	3582.770724
882.883526	3462.561890
883.193408	3354.257740
883.503248	3255.874582
883.813048	3146.479023
884.122806	3036.470964
884.432522	2957.339972
884.742197	2893.826474
885.051831	2859.042513
885.361424	2825.644869
885.670975	2793.696556
885.980485	2763.434510
886.289954	2746.803743
886.599382	2732.466702
886.908768	2724.360526
887.218113	2704.231199
887.527417	2689.185875
887.836680	2681.959381
888.145901	2682.108095
888.455082	2671.463699
888.764221	2658.497851
889.073319	2652.221615
889.382376	2652.554331
889.691392	2653.058446
890.000366	2655.445432
890.309300	2652.531646
890.618193	2653.872592
890.927044	2656.171359
891.235855	2657.396359
891.544625	2656.395690
891.853353	2656.728406
892.162041	2658.906185
892.470687	2683.867458
892.779293	2694.131247
893.087858	2701.335056
893.396381	2722.056719
893.704864	2762.985847
894.013306	2830.436485
894.321707	2917.661050
894.630068	2965.524285
894.938387	2985.041112
895.246665	2975.750266
895.554903	2937.137548
895.863100	2894.381001
896.171256	2841.305213
896.479371	2780.574433
896.787446	2745.762745
897.095480	2726.162739
897.403473	2719.941955
897.711425	2704.826055
898.019336	2689.082532
898.327207	2675.252126
898.635038	2674.692558
898.942827	2673.331446
899.250576	2664.655621
899.558284	2652.506440
899.865952	2647.888743
900.173579	2646.784730
900.481165	2641.289872
900.788711	2635.739562
901.096216	2628.802934
901.403681	2626.819240
901.711105	2626.589868
902.018489	2621.571399
902.325832	2629.153295
902.633135	2629.334776
902.940397	2641.219296
903.247619	2682.362673
903.554800	2746.420615
903.861941	2865.061651
904.169041	2985.121771
904.476101	3041.350801
904.783121	3037.544729
905.090100	2981.570278
905.397039	2910.447159
905.703938	2841.106087
906.010796	2782.454783
906.317614	2733.016187
906.624391	2698.721218
906.931129	2672.668535
907.237826	2648.959988
907.544483	2635.298461
907.851099	2622.146091
908.157675	2612.560337
908.464211	2608.383741
908.770707	2596.867225
909.077163	2592.398242
909.383578	2586.694176
909.689954	2592.577203
909.996289	2588.652665
910.302584	2586.449680
910.608839	2585.920359
910.915054	2583.745101
911.221229	2584.995307
911.527363	2587.659557
911.833458	2587.722572
912.139513	2587.392376
912.445527	2587.770463
912.751502	2594.087028
913.057436	2598.747575
913.363331	2609.379369
913.669186	2616.505040
913.975000	2629.163377
914.280775	2644.100316
914.586510	2661.472132
914.892205	2695.890610
915.197859	2760.732451
915.503475	2838.882939
915.809050	2900.843761
916.114585	2915.085020
916.420081	2922.987029
916.725536	2933.941456
917.030952	2909.343146
917.336328	2867.521734
917.641665	2818.672953
917.946961	2771.704522
918.252218	2742.266705
918.557435	2716.546738
918.862612	2695.240301
919.167750	2681.369566
919.472848	2663.869201
919.777906	2646.502426
920.082925	2638.875160
920.387904	2627.182203
920.692843	2622.289764
920.997743	2619.043261
921.302603	2610.833742
921.607423	2607.458689
921.912204	2602.294027
922.216946	2595.067533
922.521647	2596.738675
922.826310	2592.335227
923.130932	2587.893971
923.435516	2578.905594
923.740059	2582.578074
924.044564	2580.624627
924.349028	2577.282342
924.653454	2568.215827
924.957840	2570.718760
925.262186	2565.460836
925.566493	2571.018708
925.870761	2564.676937
926.174989	2567.200034
926.479178	2563.542677
926.783328	2562.915054
927.087438	2561.659806
927.391509	2560.578479
927.695541	2560.825495
927.999533	2557.130330
928.303486	2558.385577
928.607400	2556.190154
928.911275	2555.973385
929.215110	2557.515978
929.518906	2555.993549
929.822663	2556.737120
930.126381	2553.911553
930.430060	2552.983981
930.733699	2556.348951
931.037299	2559.882800
931.340861	2555.214691
931.644383	2561.495969
931.947866	2556.812737
932.251309	2555.865000
932.554714	2553.805689
932.858080	2555.093703
933.161407	2557.921791
933.464694	2555.292829
933.767943	2555.300391
934.071153	2555.718807
934.374323	2552.908363
934.677455	2554.561862
934.980548	2550.954916
935.283602	2553.810730
935.586617	2552.253013
935.889593	2553.261244
936.192530	2551.479196
936.495428	2553.034392
936.798287	2556.646379
937.101108	2555.255020
937.403890	2556.868190
937.706632	2563.323387
938.009336	2564.906309
938.312002	2565.917061
938.614628	2568.598955
938.917216	2573.342680
939.219765	2574.439131
939.522275	2575.404512
939.824747	2574.194635
940.127179	2568.614078
940.429573	2567.197514
940.731929	2567.494942
941.034246	2564.258521
941.336524	2564.926474
941.638763	2565.276834
941.940964	2565.826320
942.243126	2561.208623
942.545250	2563.151988
942.847335	2560.328942
943.149381	2560.523026
943.451389	2557.289126
943.753359	2560.709549
944.055290	2556.144784
944.357182	2557.873900
944.659036	2556.890875
944.960851	2556.888354
945.262628	2558.378015
945.564367	2555.817109
945.866067	2554.294681
946.167729	2555.733930
946.469352	2558.279713
946.770937	2558.534291
947.072484	2555.703683
947.373992	2557.458005
947.675462	2555.849877
947.976893	2556.779969
948.278286	2554.685370
948.579641	2553.344423
948.880958	2553.261244
949.182236	2552.847869
949.483476	2554.410627
949.784678	2549.961809
950.085841	2554.529094
950.386967	2555.192006
950.688054	2554.093034
950.989103	2554.584547
951.290114	2554.511450
951.591087	2558.257028
951.892021	2557.452963
952.192917	2558.521688
952.493776	2556.754764
952.794596	2561.750547
953.095378	2561.407749
953.396122	2560.034034
953.696828	2560.593602
953.997496	2558.995557
954.298126	2554.486244
954.598718	2556.694270
954.899272	2554.191337
955.199788	2556.167469
955.500266	2553.576316
955.800706	2549.414844
956.101108	2547.025337
956.401472	2545.230686
956.701798	2543.864533
957.002087	2546.221273
957.302337	2547.383259
957.602550	2544.930737
957.902724	2543.751107
958.202861	2545.621375
958.502960	2544.149358
958.803022	2545.321427
959.103045	2544.986190
959.403031	2542.720191
959.702979	2542.422763
960.002889	2544.136756
960.302762	2540.592824
960.602596	2543.088196
960.902393	2543.733463
961.202153	2544.595501
961.501875	2543.483926
961.801559	2542.110212
962.101205	2540.945705
962.400814	2540.991076
962.700385	2538.672145
962.999918	2543.748587
963.299414	2541.064172
963.598873	2540.522248
963.898293	2539.340098
964.197677	2539.897145
964.497022	2542.707588
964.796331	2540.648277
965.095601	2539.390509
965.394835	2539.942516
965.694030	2540.297917
965.993189	2543.239430
966.292309	2540.867567
966.591393	2536.509490
966.890439	2540.192053
967.189447	2541.013761
967.488419	2538.810777
967.787353	2540.197094
968.086249	2541.464944
968.385108	2539.098122
968.683930	2539.017464
968.982714	2541.409491
969.281462	2539.143493
969.580172	2539.829090
969.878844	2537.779861
970.177480	2540.272711
970.476078	2538.369676
970.774639	2540.703730
971.073162	2538.173071
971.371649	2540.733977
971.670098	2538.294058
971.968510	2539.544264
972.266885	2533.943543
972.565223	2544.812270
972.863524	2540.723894
973.161788	2542.589121
973.460014	2541.762372
973.758204	2541.946374
974.056356	2539.614841
974.354471	2542.944523
974.652550	2541.681714
974.950591	2541.346477
975.248595	2541.336395
975.546563	2542.006868
975.844493	2539.869419
976.142386	2542.374872
976.440243	2542.137938
976.738062	2537.031249
977.035845	2536.968235
977.333590	2538.896476
977.631299	2540.542413
977.928971	2539.758513
978.226606	2539.012423
978.524204	2539.995448
978.821765	2538.341949
979.119290	2537.978986
979.416777	2538.901517
979.714228	2540.923020
980.011642	2540.948226
980.309020	2541.091899
980.606360	2540.459234
980.903664	2538.228523
981.200931	2543.672969
981.498162	2540.214738
981.795356	2543.715819
982.092513	2544.655994
982.389633	2547.103475
982.686717	2550.138249
982.983764	2551.746377
983.280775	2556.807696
983.577749	2553.810730
983.874686	2554.312325
984.171587	2550.528939
984.468451	2547.801674
984.765279	2545.817980
985.062070	2546.324616
985.358824	2543.292362
985.655543	2542.505942
985.952224	2540.973432
986.248869	2541.265818
986.545478	2533.966228
986.842050	2538.273894
987.138586	2533.411701
987.435086	2537.986548
987.731549	2531.990095
988.027975	2537.416898
988.324366	2537.074099
988.620719	2536.446475
988.917037	2538.410005
989.213318	2537.409336
989.509563	2537.971424
989.805772	2534.505631
990.101944	2536.353214
990.398080	2538.084850
990.694180	2538.525951
990.990244	2538.241126
991.286271	2538.594007
991.582262	2536.542257
991.878217	2538.803215
992.174136	2536.597710
992.470019	2537.512679
992.765865	2539.410674
993.061676	2535.710467
993.357450	2536.257432
993.653188	2538.614172
993.948890	2538.893956
994.244556	2537.936136
994.540186	2538.510828
994.835780	2540.655839
995.131337	2539.456044
995.426859	2539.597197
995.722345	2537.966383
996.017795	2541.701878
996.313208	2541.142310
996.608586	2539.070396
996.903928	2543.062990
997.199234	2541.217927
997.494504	2543.597352
997.789738	2539.597197
998.084936	2542.831097
998.380099	2539.594676
998.675225	2538.856147
998.970316	2538.939326
999.265371	2537.255581
999.560390	2539.234233
999.855373	2539.435880
1000.150320	2536.254912
1000.445232	2541.273380
1000.740108	2535.690302
1001.034948	2537.210210
1001.329752	2535.430683
1001.624521	2536.116280
1001.919254	2533.076464
1002.213951	2535.405477
1002.508613	2533.419262
1002.803239	2533.751979
1003.097829	2530.991947
1003.392384	2536.204500
1003.686903	2534.596372
1003.981386	2536.542257
1004.275834	2537.618544
1004.570246	2538.316743
1004.864623	2536.285158
1005.158964	2534.132586
1005.453270	2534.172915
1005.747540	2539.067875
1006.041775	2534.626619
1006.335974	2537.432021
1006.630138	2535.965045
1006.924266	2537.185004
1007.218359	2534.762730
1007.512416	2537.628626
1007.806438	2536.592669
1008.100425	2533.630991
1008.394376	2534.188038
1008.688292	2536.663245
1008.982172	2535.851619
1009.276017	2538.231044
1009.569827	2534.246012
1009.863602	2537.331198
1010.157341	2538.283976
1010.451045	2536.804397
1010.744714	2536.378420
1011.038347	2535.720549
1011.331945	2532.302647
1011.625508	2535.990251
1011.919036	2533.749458
1012.212528	2537.984027
1012.505986	2535.271887
1012.799408	2532.511855
1013.092795	2533.908254
1013.386147	2533.998995
1013.679464	2535.934798
1013.972745	2534.752648
1014.265992	2539.166178
1014.559204	2534.855991
1014.852380	2536.766589
1015.145521	2535.226516
1015.438628	2535.793646
1015.731699	2536.002854
1016.024736	2535.662576
1016.317737	2536.741383
1016.610703	2535.697864
1016.903635	2532.320291
1017.196531	2532.448840
1017.489393	2530.591175
1017.782219	2529.832482
1018.075011	2533.578059
1018.367768	2535.760878
1018.660490	2535.110570
1018.953177	2535.110570
1019.245829	2535.110570
