Dividing Wavelength (nm)	Counts (n)	Blue Motor Position (mm): 10.700000	Red Motor Position (mm): 0.000000	
326.493990	2140.436114
326.888308	2140.436114
327.282561	2140.436114
327.676750	2106.909921
328.070874	2104.084354
328.464933	2110.534510
328.858929	2114.000304
329.252859	2123.964144
329.646726	2136.446041
330.040528	2148.605304
330.434265	2164.999137
330.827938	2183.298525
331.221547	2201.698737
331.615091	2219.758670
332.008571	2240.739953
332.401986	2260.314753
332.795338	2279.090530
333.188625	2298.317491
333.581847	2316.500933
333.975006	2333.817297
334.368100	2353.364371
334.761129	2371.290714
335.154095	2387.843342
335.546996	2405.114335
335.939833	2421.971954
336.332606	2435.005857
336.725315	2453.106120
337.117960	2458.424537
337.510540	2469.608337
337.903056	2481.404637
338.295508	2487.935452
338.687896	2496.079436
339.080220	2504.460354
339.472480	2509.516632
339.864676	2517.355626
340.256807	2515.568537
340.648875	2520.438291
341.040879	2523.094979
341.432818	2527.954652
341.824694	2526.064219
342.216506	2526.764939
342.608253	2528.073119
342.999937	2528.589837
343.391557	2525.953314
343.783113	2528.471370
344.174605	2526.371729
344.566033	2523.604136
344.957397	2523.341996
345.348697	2518.832684
345.739934	2518.505009
346.131106	2517.713548
346.522215	2514.519977
346.913260	2512.455624
347.304241	2513.524349
347.695159	2509.746004
348.086012	2508.089985
348.476802	2505.627381
348.867528	2506.282731
349.258191	2502.658142
349.648789	2503.177381
350.039324	2499.318377
350.429796	2500.986999
350.820203	2497.528768
351.210548	2497.138078
351.600828	2495.033397
351.991045	2495.860146
352.381198	2491.560042
352.771288	2493.349651
353.161314	2493.112717
353.551276	2494.299909
353.941175	2492.222953
354.331010	2492.580875
354.720782	2492.656493
355.110490	2493.412666
355.500135	2492.442243
355.889717	2495.991216
356.279235	2493.521050
356.668689	2495.482059
357.058080	2496.417193
357.447408	2493.384939
357.836672	2489.798158
358.225873	2492.694301
358.615010	2492.601040
359.004084	2497.848881
359.393095	2497.737976
359.782043	2498.302585
360.170927	2496.676813
360.559748	2498.380723
360.948505	2499.048676
361.337199	2500.543378
361.725830	2498.652945
362.114398	2500.132524
362.502903	2499.930877
362.891344	2502.723677
363.279722	2501.874242
363.668037	2503.931033
364.056289	2502.370796
364.444478	2502.607730
364.832603	2501.982627
365.220665	2503.270642
365.608665	2504.336846
365.996601	2504.858605
366.384474	2506.630571
366.772284	2507.175016
367.160031	2506.655777
367.547715	2507.056548
367.935336	2506.801970
368.322893	2510.025788
368.710388	2507.190139
369.097820	2511.228103
369.485189	2509.042763
369.872495	2506.965808
370.259738	2510.096364
370.646918	2508.957063
371.034035	2510.950840
371.421090	2508.581498
371.808081	2512.130470
372.195010	2507.185098
372.581875	2510.106447
372.968678	2511.202898
373.355418	2509.322547
373.742096	2508.389934
374.128710	2509.919924
374.515262	2510.421519
374.901751	2509.977897
375.288177	2509.662825
375.674540	2511.152486
376.060841	2510.527383
376.447079	2511.361694
376.833254	2512.180881
377.219367	2507.316168
377.605417	2511.270953
377.991404	2506.678462
378.377329	2508.697444
378.763191	2509.987979
379.148991	2511.482682
379.534727	2512.710203
379.920402	2515.014010
380.306013	2512.911849
380.691563	2514.401510
381.077049	2513.657939
381.462474	2516.523835
381.847835	2515.445028
382.233134	2511.646519
382.618371	2513.511746
383.003545	2515.172806
383.388657	2512.561488
383.773706	2516.584329
384.158693	2516.060049
384.543618	2516.690193
384.928480	2515.445028
385.313280	2517.219515
385.698017	2518.232787
386.082692	2518.111799
386.467305	2517.897550
386.851856	2516.654905
387.236344	2517.872344
387.620770	2518.116840
388.005133	2519.634227
388.389435	2517.229597
388.773674	2519.087262
389.157851	2517.650533
389.541965	2518.999042
389.926018	2521.698580
390.310008	2519.619104
390.693936	2518.010976
391.077802	2521.280164
391.461606	2521.489372
391.845348	2519.878723
392.229027	2521.653209
392.612645	2518.036182
392.996200	2521.091121
393.379694	2519.387211
393.763125	2522.432068
394.146494	2523.546163
394.529801	2522.341327
394.913047	2520.564320
395.296230	2524.786287
395.679351	2519.939217
396.062410	2524.526667
396.445408	2520.082890
396.828343	2521.401152
397.211217	2520.322345
397.594028	2520.468538
397.976778	2518.938548
398.359466	2523.919208
398.742092	2515.185409
399.124656	2524.811492
399.507158	2525.194620
399.889598	2525.124044
400.271977	2523.009280
400.654294	2525.204702
401.036549	2523.415093
401.418742	2525.131606
401.800874	2524.289733
402.182944	2523.586492
402.564952	2524.312418
402.946898	2524.791328
403.328783	2527.465660
403.710606	2524.246883
404.092367	2525.534898
404.474067	2522.265710
404.855705	2525.870135
405.237282	2526.575896
405.618797	2525.093797
406.000250	2526.991791
406.381642	2526.366688
406.762972	2525.222346
407.144240	2524.982892
407.525447	2529.308202
407.906593	2525.718900
408.287677	2528.761236
408.668700	2528.368026
409.049661	2530.296268
409.430560	2527.574045
409.811399	2529.010773
410.192176	2526.079343
410.572891	2529.197296
410.953545	2529.008253
411.334138	2529.497245
411.714669	2530.087060
412.095139	2531.853984
412.475547	2527.178314
412.855894	2527.979858
413.236180	2529.892975
413.616405	2531.886752
413.996568	2529.141843
414.376670	2528.418438
414.756711	2531.407842
415.136691	2531.503624
415.516609	2530.142513
415.896466	2530.611340
416.276262	2530.278624
416.655997	2527.395084
417.035670	2527.097656
417.415283	2532.373223
417.794834	2525.988602
418.174324	2529.376257
418.553753	2530.263500
418.933121	2530.518078
419.312428	2529.320804
419.691674	2531.128058
420.070859	2534.296423
420.449983	2534.119983
420.829045	2531.314581
421.208047	2532.050589
421.586988	2530.860877
421.965867	2532.842050
422.344686	2530.535723
422.723444	2533.525127
423.102141	2531.606968
423.480777	2532.164015
423.859352	2533.109232
424.237866	2533.734335
424.616319	2533.094108
424.994712	2533.678882
425.373044	2533.976310
425.751314	2534.825744
426.129524	2532.826927
426.507673	2534.994623
426.885762	2531.826258
427.263789	2535.178625
427.641756	2533.532688
428.019662	2532.572349
428.397508	2533.953625
428.775292	2536.138965
429.153016	2537.101825
429.530679	2537.482433
429.908282	2533.000847
430.285824	2532.746268
430.663305	2532.854653
431.040726	2535.450847
431.418086	2535.937319
431.795385	2536.391023
432.172624	2535.123172
432.549802	2541.038967
432.926920	2534.639222
433.303977	2537.565612
433.680974	2536.970755
434.057910	2536.464119
434.434786	2537.641229
434.811601	2537.802546
435.188355	2537.192566
435.565050	2534.659386
435.941683	2538.271373
436.318257	2534.878677
436.694770	2533.144520
437.071222	2533.850281
437.447614	2534.301464
437.823946	2534.329191
438.200218	2535.924716
438.576429	2540.701209
438.952580	2536.970755
439.328670	2538.170550
439.704700	2536.658204
440.080670	2538.783050
440.456580	2537.908410
440.832429	2537.580735
441.208218	2538.510828
441.583947	2539.050231
441.959616	2537.837834
442.335224	2539.299768
442.710773	2537.696682
443.086261	2539.582073
443.461689	2536.091074
443.837057	2538.989737
444.212365	2537.061496
444.587612	2538.911600
444.962800	2536.827083
445.337927	2540.212217
445.712995	2539.640046
446.088002	2539.531662
446.462949	2538.525951
446.837837	2543.214224
447.212664	2538.286497
447.587431	2541.212886
447.962139	2538.301620
448.336786	2540.043339
448.711374	2540.857485
449.085901	2541.951415
449.460369	2539.894625
449.834776	2539.786240
450.209124	2538.835982
450.583412	2544.116591
450.957640	2538.747762
451.331808	2539.319933
451.705917	2539.932433
452.079965	2541.974101
452.453954	2541.825387
452.827883	2539.483771
453.201752	2542.702547
453.575562	2539.587114
453.949311	2540.219779
454.323001	2541.580891
454.696632	2541.918648
455.070202	2543.035263
455.443713	2540.272711
455.817164	2538.604089
456.190556	2537.074099
456.563888	2539.206507
456.937160	2538.082330
457.310373	2542.752959
457.683526	2541.469985
458.056619	2539.912269
458.429653	2541.195242
458.802628	2543.078113
459.175542	2543.075593
459.548398	2541.810263
459.921194	2542.606765
460.293930	2542.324461
460.666607	2539.345139
461.039224	2542.843700
461.411782	2542.276570
461.784280	2542.531148
462.156719	2541.830428
462.529099	2540.451672
462.901419	2545.669266
463.273680	2544.353525
463.645882	2544.908052
464.018024	2540.542413
464.390106	2544.257743
464.762130	2543.294883
465.134094	2545.286139
465.505999	2541.722043
465.877845	2543.408309
466.249631	2542.742877
466.621358	2539.914789
466.993026	2547.738660
467.364634	2545.084493
467.736184	2544.114070
468.107674	2546.259081
468.479105	2544.351005
468.850477	2542.485778
469.221790	2543.186498
469.593043	2541.091899
469.964238	2545.858310
470.335373	2544.945861
470.706449	2546.553989
471.077467	2544.545089
471.448425	2545.810419
471.819324	2543.851930
472.190164	2549.412323
472.560945	2544.945861
472.931667	2546.216232
473.302330	2545.601211
473.672934	2544.063659
474.043479	2543.259595
474.413965	2544.570295
474.784393	2540.365972
475.154761	2543.851930
475.525070	2539.937474
475.895321	2545.127342
476.265513	2538.682227
476.635645	2546.465769
477.005719	2543.872095
477.375734	2546.279246
477.745691	2546.359904
478.115588	2546.977446
478.485427	2546.680018
478.855207	2544.953423
479.224928	2547.000131
479.594591	2545.543238
479.964194	2545.535676
480.333739	2548.910728
480.703226	2545.003834
481.072653	2547.975594
481.442022	2545.097095
481.811333	2545.828063
482.180584	2546.128011
482.549777	2547.544576
482.918912	2548.290666
483.287988	2546.546427
483.657005	2549.377035
484.025964	2550.150852
484.394864	2547.554658
484.763706	2548.036088
485.132489	2547.874771
485.501213	2548.348640
485.869879	2546.095244
486.238487	2549.613969
486.607036	2545.452497
486.975527	2547.970553
487.343959	2546.743032
487.712333	2550.286963
488.080648	2546.692621
488.448905	2547.708413
488.817104	2547.153886
489.185244	2547.758825
489.553326	2548.971222
489.921350	2547.443753
490.289315	2546.672456
490.657222	2546.944678
491.025070	2548.971222
491.392861	2548.988866
491.760593	2550.236552
492.128267	2551.121274
492.495883	2549.276212
492.863440	2547.824360
493.230939	2548.058773
493.598380	2548.603218
493.965763	2544.139276
494.333088	2547.022816
494.700354	2547.327806
495.067563	2547.965512
495.434713	2544.434184
495.801805	2550.854093
496.168839	2546.334699
496.535815	2549.243444
496.902733	2548.532642
497.269593	2549.384597
497.636395	2550.912066
498.003139	2548.230173
498.369825	2549.868547
498.736453	2548.988866
499.103023	2548.237734
499.469535	2549.016593
499.835989	2547.426108
500.202385	2547.589946
500.568723	2549.513146
500.935003	2550.972560
501.301226	2550.619679
501.667390	2552.298384
502.033497	2548.419216
502.399546	2549.939124
502.765537	2547.718495
503.131470	2549.003990
503.497345	2548.300749
503.863163	2550.100441
504.228923	2550.387786
504.594625	2550.970040
504.960269	2549.429967
505.325856	2552.220246
505.691385	2549.472817
506.056856	2550.954916
506.422270	2548.167158
506.787625	2552.646223
507.152924	2549.792930
507.518164	2552.109340
507.883347	2551.529608
508.248472	2551.945503
508.613540	2551.683363
508.978550	2548.275543
509.343503	2550.521377
509.708398	2551.053219
510.073236	2551.950544
510.438016	2550.062632
510.802738	2550.307128
511.167403	2548.041129
511.532010	2550.239072
511.896561	2550.523897
512.261053	2553.049516
512.625488	2547.388300
512.989866	2548.136911
513.354186	2546.743032
513.718449	2543.977959
514.082655	2551.390976
514.446803	2550.763352
514.810894	2552.051367
515.174927	2554.864331
515.538904	2549.901315
515.902822	2552.273178
516.266684	2550.702858
516.630488	2550.811243
516.994235	2551.890050
517.357925	2552.283260
517.721558	2553.243600
518.085133	2548.177240
518.448651	2551.096068
518.812112	2551.358208
519.175516	2552.656306
519.538863	2550.556665
519.902152	2553.364588
520.265385	2551.511964
520.628560	2553.427602
520.991678	2553.755277
521.354739	2551.978270
521.717743	2555.721327
522.080690	2555.675957
522.443580	2554.703014
522.806413	2552.520194
523.169189	2553.783003
523.531908	2554.801317
523.894569	2553.248641
524.257174	2553.599001
524.619722	2552.918446
524.982213	2555.779300
525.344647	2557.153015
525.707025	2555.570093
526.069345	2556.250648
526.431608	2555.615463
526.793815	2556.313663
527.155964	2553.110009
527.518057	2555.159238
527.880093	2556.979095
528.242072	2557.750392
528.603995	2559.310629
528.965860	2557.158056
529.327669	2557.510937
529.689421	2559.575289
530.051117	2559.035886
530.412755	2556.084290
530.774337	2560.281051
531.135862	2558.554456
531.497331	2556.175031
531.858743	2554.390462
532.220098	2559.290464
532.581396	2553.588919
532.942638	2555.865000
533.303824	2559.938252
533.664953	2558.738458
534.026025	2558.625032
534.387040	2557.584033
534.747999	2558.035217
535.108902	2558.839281
535.469748	2563.328428
535.830537	2561.390105
536.191270	2559.482028
536.551947	2563.933367
536.912567	2561.937070
537.273131	2561.357337
537.633638	2562.138716
537.994089	2561.437996
538.354483	2559.933211
538.714821	2563.613253
539.075103	2563.066288
539.435328	2561.551422
539.795497	2562.864642
540.155609	2563.885476
540.515665	2560.447409
540.875665	2564.190466
541.235609	2565.788511
541.595496	2566.020404
541.955328	2564.129972
542.315102	2566.280024
542.674821	2564.825651
543.034483	2566.322874
543.394090	2565.007132
543.753640	2566.474108
544.113134	2563.862791
544.472571	2565.155847
544.831953	2564.069478
545.191278	2566.143913
545.550548	2562.892368
545.909761	2568.835889
546.268918	2566.136351
546.628019	2569.387895
546.987064	2569.420663
547.346053	2566.557287
547.704986	2565.864129
548.063863	2568.551064
548.422684	2567.726835
548.781449	2570.917885
549.140158	2567.507545
549.498811	2567.381516
549.857408	2566.416135
550.215949	2565.102914
550.574434	2562.015208
550.932864	2565.579303
551.291237	2563.761967
551.649555	2566.995868
552.007817	2566.461505
552.366022	2566.937894
552.724173	2567.278172
553.082267	2567.290775
553.440305	2567.439489
553.798288	2567.310940
554.156215	2568.470405
554.514086	2568.914027
554.871902	2567.010991
555.229661	2566.736248
555.587365	2567.792370
555.945014	2566.942936
556.302606	2568.694737
556.660143	2567.295816
557.017625	2565.831361
557.375050	2569.715570
557.732421	2567.298337
558.089735	2568.972000
558.446994	2568.818245
558.804197	2568.886300
559.161345	2568.518296
559.518437	2566.380847
559.875474	2566.617781
560.232455	2572.284038
560.589381	2568.503173
560.946251	2571.006106
561.303065	2568.898903
561.659825	2567.154664
562.016528	2567.111814
562.373177	2566.272462
562.729770	2568.072154
563.086307	2566.395970
563.442789	2566.484191
563.799216	2567.830179
564.155587	2569.660117
564.511904	2569.100549
564.868164	2565.581824
565.224370	2567.275652
565.580520	2567.215158
565.936615	2569.365210
566.292654	2567.343707
566.648638	2566.577452
567.004567	2566.053172
567.360441	2564.997050
567.716260	2564.137533
568.072023	2564.177863
568.427732	2565.140723
568.783385	2566.932853
569.138982	2561.609395
569.494525	2561.785835
569.850013	2561.327090
570.205445	2566.395970
570.560823	2564.313974
570.916145	2564.661813
571.271412	2565.382698
571.626625	2566.345559
571.981782	2562.995712
572.336884	2565.987637
572.691931	2562.922615
573.046923	2564.545867
573.401860	2564.162739
573.756743	2564.956721
574.111570	2563.777091
574.466342	2564.775239
574.821059	2562.292471
575.175722	2562.108469
575.530330	2564.833213
575.884882	2565.044941
576.239380	2565.581824
576.593823	2568.722463
576.948211	2563.414128
577.302544	2567.658779
577.656823	2565.417987
578.011047	2566.630384
578.365216	2565.889334
578.719330	2562.748696
579.073389	2567.767164
579.427394	2563.991340
579.781344	2565.385219
580.135239	2565.049982
580.489080	2563.562842
580.842866	2567.789849
581.196597	2567.580642
581.550273	2564.931515
581.903895	2563.575445
582.257463	2563.681309
582.610975	2564.346741
582.964434	2563.910682
583.317837	2565.213820
583.671186	2564.893707
584.024481	2566.234653
584.377721	2566.111145
584.730906	2566.837071
585.084037	2566.390929
585.437113	2563.872873
585.790135	2564.918912
586.143103	2563.703994
586.496016	2566.988306
586.848874	2562.612584
587.201679	2563.958573
587.554428	2563.386402
587.907124	2562.549570
588.259765	2563.315825
588.612352	2566.446382
588.964884	2565.155847
589.317362	2563.983778
589.669786	2565.382698
590.022155	2568.379664
590.374470	2566.325394
590.726731	2564.684499
591.078937	2568.362020
591.431090	2568.097360
591.783188	2566.910168
592.135232	2566.239695
592.487222	2569.352607
592.839157	2568.135168
593.191038	2566.290106
593.542866	2567.951166
593.894639	2570.222206
594.246358	2568.427555
594.598022	2566.605178
594.949633	2567.436969
595.301190	2571.903431
595.652692	2570.260015
596.004141	2570.663307
596.355535	2569.496280
596.706876	2570.927968
597.058162	2569.125755
597.409395	2569.012329
597.760573	2569.524006
598.111698	2572.145406
598.462768	2572.175653
598.813785	2567.890672
599.164748	2569.765982
599.515657	2571.454768
599.866511	2571.215313
600.217312	2572.047104
600.568060	2572.717577
600.918753	2573.866960
601.269392	2572.949470
601.619978	2574.668504
601.970510	2576.669842
602.320988	2574.527352
602.671412	2578.829976
603.021783	2576.198494
603.372100	2575.207907
603.722363	2573.468709
604.072572	2578.164544
604.422728	2576.853844
604.772830	2573.604820
605.122878	2571.865622
605.472872	2574.479461
605.822813	2571.452248
606.172701	2575.079358
606.522534	2580.042374
606.872314	2581.257292
607.222041	2580.521283
607.571714	2583.150245
607.921333	2584.854155
608.270899	2582.968764
608.620411	2584.120667
608.969870	2586.404310
609.319276	2588.249372
609.668627	2590.603591
610.017926	2595.513675
610.367171	2598.747575
610.716362	2597.502410
611.065500	2596.249683
611.414585	2595.662389
611.763616	2594.011411
612.112594	2597.361258
612.461518	2596.960486
612.810389	2597.688933
613.159207	2598.815631
613.507971	2600.237236
613.856682	2605.069182
614.205340	2603.098091
614.553945	2605.797629
614.902496	2608.971035
615.250994	2603.894593
615.599439	2610.599328
615.947830	2613.674432
616.296169	2614.113012
616.644454	2614.843979
616.992686	2618.508898
617.340864	2623.386215
617.688990	2622.231790
618.037063	2625.591719
618.385082	2625.143057
618.733048	2632.913995
619.080961	2633.085395
619.428821	2636.757875
619.776628	2639.349028
620.124382	2638.355921
620.472083	2642.837507
620.819731	2643.659215
621.167326	2646.807415
621.514868	2646.152065
621.862357	2643.039153
622.209793	2648.657519
622.557176	2649.116264
622.904506	2647.472848
623.251783	2646.028557
623.599007	2653.910401
623.946179	2652.433343
624.293297	2655.720175
624.640363	2657.136740
624.987376	2658.581030
625.334336	2660.068171
625.681243	2664.592606
626.028097	2665.013542
626.374899	2669.527896
626.721647	2673.699451
627.068343	2673.979235
627.414987	2678.453259
627.761577	2678.438135
628.108115	2680.643640
628.454600	2685.256296
628.801032	2690.431040
629.147412	2691.378777
629.493739	2696.498069
629.840014	2698.353213
630.186236	2704.261446
630.532405	2705.272197
630.878521	2710.736808
631.224585	2715.180585
631.570597	2714.288301
631.916556	2724.317676
632.262462	2723.745505
632.608316	2732.660786
632.954117	2732.721280
633.299866	2735.763616
633.645562	2743.043042
633.991206	2743.695872
634.336797	2740.272928
634.682336	2745.490522
635.027823	2745.147724
635.373257	2750.267016
635.718639	2747.030595
636.063968	2753.909249
636.409245	2752.701893
636.754470	2755.643406
637.099642	2758.700866
637.444762	2762.963162
637.789829	2768.836106
638.134845	2769.299892
638.479808	2774.048659
638.824719	2775.341715
639.169577	2775.505552
639.514383	2784.259516
639.859137	2782.409413
640.203839	2788.123561
640.548489	2792.279992
640.893086	2794.508182
641.237632	2798.059675
641.582125	2804.766930
641.926566	2805.949081
642.270955	2815.315544
642.615292	2819.240083
642.959576	2827.747030
643.303809	2830.176866
643.647990	2839.354287
643.992118	2841.290090
644.336195	2842.809997
644.680219	2854.253417
645.024192	2854.576051
645.368112	2875.448948
645.711981	2884.676780
646.055797	2895.795045
646.399562	2903.505490
646.743274	2922.351843
647.086935	2936.928340
647.430544	2947.083744
647.774101	2960.266362
648.117606	2964.616877
648.461059	2967.581076
648.804460	2970.126858
649.147810	2964.808441
649.491108	2966.691312
649.834354	2968.004533
650.177548	2965.418421
650.520690	2961.274592
650.863781	2963.089408
651.206820	2978.268322
651.549807	2971.500573
651.892742	2974.094247
652.235626	2976.955101
652.578458	2982.591111
652.921238	2979.344608
653.263967	2987.090341
653.606644	2983.735453
653.949269	2995.234325
654.291843	2988.731237
654.634365	3005.977024
654.976836	3010.987931
655.319255	3010.889628
655.661622	3018.131246
656.003938	3029.456198
656.346203	3023.653830
656.688416	3038.106818
657.030577	3030.295550
657.372687	3039.472971
657.714746	3040.677807
658.056753	3053.449570
658.398708	3050.497974
658.740612	3048.960422
659.082465	3070.776016
659.424266	3071.549833
659.766016	3078.594845
660.107715	3087.631113
660.449362	3098.371292
660.790958	3102.434462
661.132503	3108.173815
661.473996	3124.834829
661.815438	3129.233236
662.156829	3133.737507
662.498168	3137.876294
662.839456	3136.830254
663.180693	3158.298008
663.521879	3161.244562
663.863013	3165.648010
664.204097	3183.375228
664.545129	3193.059284
664.886110	3205.916747
665.227040	3224.599263
665.567918	3219.114488
665.908746	3238.583424
666.249522	3239.813466
666.590248	3245.353694
666.930922	3260.981271
667.271545	3273.017026
667.612118	3277.911986
667.952639	3275.774537
668.293109	3297.403607
668.633528	3291.288688
668.973896	3294.084007
669.314213	3302.480049
669.654480	3307.808549
669.994695	3311.150834
670.334859	3314.810712
670.674973	3331.728824
671.015035	3333.914164
671.355047	3344.838344
671.695008	3352.374869
672.034918	3347.079137
672.374777	3359.515664
672.714585	3361.514481
673.054342	3370.906151
673.394049	3378.908983
673.733705	3400.777508
674.073310	3410.612799
674.412864	3395.696025
674.752368	3407.918303
675.091820	3414.764189
675.431223	3399.776839
675.770574	3409.163468
676.109875	3399.474370
676.449125	3409.977614
676.788324	3408.626585
677.127473	3399.678537
677.466571	3402.332704
677.805619	3411.530289
678.144616	3417.146135
678.483562	3418.298038
678.822458	3413.987852
679.161303	3423.722320
679.500098	3426.026127
679.838842	3419.281063
680.177535	3434.714556
680.516179	3441.250412
680.854771	3455.232052
681.193314	3485.330261
681.531805	3522.695293
681.870247	3584.618307
682.208638	3626.991725
682.546978	3636.156543
682.885268	3636.680823
683.223508	3619.215745
683.561697	3608.110083
683.899836	3609.861884
684.237925	3600.429886
684.575963	3593.160542
684.913951	3585.492947
685.251889	3625.723875
685.589776	3605.196297
685.927614	3603.885597
686.265401	3645.235661
686.603137	3640.421359
686.940824	3685.456507
687.278460	3692.922456
687.616046	3709.258315
687.953582	3736.104980
688.291068	3735.734455
688.628504	3782.637350
688.965889	3763.896861
689.303224	3748.964963
689.640510	3746.328440
689.977745	3724.464955
690.314930	3695.682487
690.652065	3681.118594
690.989150	3643.814056
691.326185	3629.751757
691.663170	3624.763535
692.000105	3596.689349
692.336990	3570.921492
692.673825	3577.885846
693.010610	3551.162689
693.347345	3517.084489
693.684030	3535.494783
694.020665	3521.581198
694.357251	3480.851196
694.693786	3500.952797
695.030272	3492.587002
695.366707	3486.880416
695.703093	3472.661841
696.039429	3489.365705
696.375716	3494.719410
696.711952	3481.221721
697.048139	3476.422542
697.384276	3474.610247
697.720363	3490.240345
698.056400	3507.430679
698.392388	3481.377996
698.728326	3475.187459
699.064214	3469.861480
699.400053	3477.902121
699.735842	3470.617653
700.071581	3460.923515
700.407270	3456.053760
700.742910	3452.401444
701.078501	3429.260027
701.414042	3439.765792
701.749533	3434.197838
702.084974	3396.421951
702.420366	3434.545677
702.755709	3411.192532
703.091002	3384.444170
703.426246	3426.759615
703.761440	3396.926067
704.096584	3377.981410
704.431679	3402.539391
704.766725	3397.006725
705.101721	3397.586458
705.436668	3418.003131
705.771565	3387.108419
706.106413	3406.106008
706.441212	3432.977878
706.775961	3444.965742
707.110661	3426.252979
707.445311	3441.469702
707.779913	3469.170842
708.114465	3472.293837
708.448967	3485.085765
708.783421	3521.397196
709.117825	3541.400495
709.452180	3550.247720
709.786485	3567.611974
710.120742	3620.019809
710.454949	3607.671503
710.789107	3646.289262
711.123216	3686.429450
711.457275	3680.067513
711.791286	3724.906056
712.125247	3738.670927
712.459159	3677.425949
712.793023	3718.977659
713.126837	3726.650296
713.460602	3723.693659
713.794318	3672.452851
714.127985	3691.052188
714.461602	3660.349040
714.795171	3639.614774
715.128691	3615.316413
715.462162	3593.248762
715.795584	3573.552974
716.128957	3571.455854
716.462281	3541.045093
716.795556	3534.322715
717.128782	3519.131197
717.461960	3486.151969
717.795088	3495.949452
718.128167	3477.599652
718.461198	3444.542285
718.794180	3449.061680
719.127113	3443.798715
719.459997	3438.016512
719.792833	3416.732760
720.125619	3410.280083
720.458357	3396.343813
720.791046	3402.743558
721.123686	3389.722258
721.456278	3365.602857
721.788821	3381.038870
722.121315	3367.006818
722.453761	3349.899663
722.786158	3366.278372
723.118506	3383.534241
723.450805	3350.242461
723.783056	3364.120758
724.115259	3387.443656
724.447412	3390.939696
724.779518	3380.154148
725.111574	3389.127402
725.443582	3414.355856
725.775542	3403.025863
726.107453	3439.070113
726.439315	3441.015998
726.771129	3446.780558
727.102895	3463.771767
727.434612	3502.225688
727.766281	3510.450331
728.097901	3506.757685
728.429473	3514.475692
728.760996	3526.312321
729.092471	3521.813091
729.423897	3517.762524
729.755276	3532.956562
730.086606	3532.870862
730.417887	3550.814849
730.749120	3595.981067
731.080305	3648.802277
731.411442	3661.352230
731.742530	3641.537975
732.073570	3650.579284
732.404562	3691.515974
732.735506	3687.034388
733.066401	3663.028413
733.397249	3629.968527
733.728048	3586.778441
734.058798	3546.605486
734.389501	3505.704084
734.720156	3463.902837
735.050762	3441.021039
735.381320	3442.966925
735.711831	3404.054258
736.042293	3390.627145
736.372707	3404.586100
736.703073	3388.719068
737.033391	3382.946947
737.363661	3396.091756
737.693883	3419.336516
738.024056	3421.214346
738.354182	3417.584715
738.684260	3461.533494
739.014290	3470.249649
739.344272	3468.835606
739.674207	3498.497755
740.004093	3501.514885
740.333931	3500.090759
740.663722	3506.556039
740.993464	3504.446316
741.323159	3489.640448
741.652806	3475.784836
741.982405	3459.852269
742.311956	3443.776030
742.641460	3439.175977
742.970915	3429.713731
743.300323	3400.734658
743.629683	3379.219014
743.958996	3378.667007
744.288260	3364.650079
744.617477	3341.831296
744.946647	3333.909123
745.275768	3320.552586
745.604842	3326.231446
745.933869	3284.974642
746.262847	3278.993313
746.591778	3321.759942
746.920662	3293.952937
747.249498	3274.234464
747.578286	3310.621513
747.907027	3321.850683
748.235720	3314.752738
748.564365	3337.727797
748.892963	3343.933457
749.221514	3328.008452
749.550017	3311.050011
749.878473	3314.336843
750.206881	3294.799851
750.535242	3294.625932
750.863555	3297.698515
751.191821	3294.953607
751.520039	3279.719240
751.848210	3262.294491
752.176334	3297.411169
752.504411	3302.220430
752.832440	3269.750358
753.160421	3251.186309
753.488356	3266.713063
753.816243	3277.072634
754.144082	3244.416039
754.471875	3231.167887
754.799620	3251.335023
755.127318	3241.441758
755.454969	3243.899321
755.782572	3254.896598
756.110129	3231.326683
756.437638	3223.477607
756.765100	3237.917992
757.092515	3248.282604
757.419882	3252.993562
757.747203	3230.436920
758.074477	3230.162177
758.401703	3246.490474
758.728882	3260.603184
759.056014	3268.754730
759.383099	3270.914864
759.710138	3265.546036
760.037129	3280.919034
760.364073	3313.270639
760.690970	3299.720018
761.017820	3280.190588
761.344623	3293.829429
761.671379	3335.711335
761.998088	3375.715412
762.324751	3477.377841
762.651366	3663.903054
762.977935	4013.809542
763.304456	4352.060883
763.630931	4438.020118
763.957359	4168.767050
764.283740	3914.463523
764.610074	3776.232564
764.936362	3624.040130
765.262602	3495.624297
765.588796	3411.096750
765.914943	3343.751976
766.241044	3272.613733
766.567097	3250.858634
766.893104	3216.238510
767.219064	3191.791434
767.544978	3173.063548
767.870845	3125.414562
768.196665	3112.693210
768.522438	3125.729634
768.848165	3120.138994
769.173846	3091.664037
769.499479	3078.436049
769.825066	3067.327866
770.150607	3049.877912
770.476101	3070.357600
770.801548	3067.317784
771.126949	3026.852442
771.452303	3016.429857
771.777611	3022.373377
772.102872	3027.318749
772.428087	3008.968949
772.753256	3000.459481
773.078378	2995.130982
773.403453	2965.433544
773.728482	2959.132102
774.053465	2975.881336
774.378401	2965.400777
774.703291	2942.264401
775.028135	2941.561160
775.352932	2939.781633
775.677683	2927.980292
776.002388	2927.677823
776.327046	2930.697474
776.651658	2920.282450
776.976224	2910.167375
777.300743	2912.027560
777.625216	2904.836354
777.949643	2899.505334
778.274024	2901.746127
778.598359	2890.060732
778.922647	2898.993657
779.246889	2896.851167
779.571086	2882.803992
779.895236	2875.025491
780.219339	2886.247100
780.543397	2899.822927
780.867409	2899.888462
781.191374	2895.454767
781.515294	2895.706825
781.839167	2894.015518
782.162995	2887.381359
782.486776	2894.716238
782.810511	2895.974006
783.134201	2884.220556
783.457844	2890.824467
783.781441	2881.337016
784.104993	2863.393029
784.428498	2866.110211
784.751958	2879.214690
785.075372	2872.066334
785.398739	2859.188706
785.722061	2874.113042
786.045337	2889.123078
786.368568	2871.042980
786.691752	2865.414531
787.014891	2909.428846
787.337983	2929.830395
787.661030	2951.696400
787.984031	3008.273270
788.306987	3048.544527
788.629897	3043.402550
788.952760	3033.736138
789.275579	3021.281967
789.598351	2971.046869
789.921078	2928.338214
790.243759	2929.540529
790.566395	2911.296593
790.888984	2890.464025
791.211529	2878.304762
791.534027	2869.931405
791.856480	2860.869931
792.178888	2849.489526
792.501249	2840.906962
792.823566	2840.286900
793.145836	2837.289934
793.468062	2834.492094
793.790241	2831.376661
794.112375	2837.453772
794.434464	2847.452900
794.756507	2851.415247
795.078505	2855.080166
795.400457	2865.986702
795.722364	2900.132958
796.044226	2920.073242
796.366042	2920.562234
796.687812	2915.712644
797.009538	2932.532454
797.331218	2919.344795
797.652852	2908.148393
797.974442	2894.726320
798.295986	2891.245404
798.617484	2884.001266
798.938938	2873.077085
799.260346	2859.246680
799.581709	2857.898171
799.903026	2852.607480
800.224299	2845.464165
800.545526	2838.958556
800.866708	2822.791576
801.187845	2814.201449
801.508936	2812.706747
801.829983	2821.317038
802.150984	2813.727581
802.471940	2798.009263
802.792851	2799.695529
803.113717	2800.963379
803.434538	2802.689975
803.755314	2797.903399
804.076045	2793.099179
804.396731	2792.423665
804.717372	2792.136319
805.037967	2787.730351
805.358518	2794.074643
805.679024	2800.920530
805.999485	2798.820889
806.319901	2804.149389
806.640272	2792.955507
806.960598	2800.771816
807.280879	2807.690799
807.601115	2815.313024
807.921306	2804.789615
808.241453	2801.296096
808.561554	2807.718526
808.881611	2810.884370
809.201623	2802.392547
809.521590	2801.548153
809.841513	2799.382978
810.161390	2803.960345
810.481223	2801.648976
810.801011	2790.750002
811.120755	2786.396965
811.440453	2789.202367
811.760107	2788.746143
812.079716	2787.485855
812.399281	2777.602672
812.718801	2771.583535
813.038276	2769.004985
813.357707	2776.312137
813.677093	2781.915380
813.996434	2776.072682
814.315731	2773.237033
814.634983	2768.137906
814.954191	2771.399533
815.273354	2781.212139
815.592473	2789.938376
815.911547	2791.670012
816.230577	2799.874490
816.549562	2806.309523
816.868502	2805.742393
817.187399	2815.650781
817.506250	2831.011177
817.825058	2826.143943
818.143821	2839.051817
818.462539	2850.797706
818.781213	2875.365769
819.099843	2909.174267
819.418429	2958.895168
819.736970	3014.647809
820.055466	3081.581729
820.373919	3179.894311
820.692327	3310.513128
821.010691	3460.560552
821.329011	3855.897918
821.647286	4626.513901
821.965517	5788.998937
822.283704	6408.677732
822.601847	6407.072125
822.919945	5894.308641
823.237999	5487.089274
823.556010	4982.789888
823.873976	4497.765352
824.191897	4135.134992
824.509775	3871.535578
824.827609	3631.773260
825.145398	3522.455838
825.463144	3512.192049
825.780845	3599.429217
826.098502	3693.527394
826.416116	3947.440231
826.733685	4223.387952
827.051210	4278.094553
827.368692	4178.224254
827.686129	3944.329839
828.003522	3651.277484
828.320872	3415.180085
828.638177	3240.748600
828.955439	3112.927623
829.272656	3043.057231
829.589830	2979.853765
829.906960	2932.822320
830.224046	2895.432082
830.541088	2862.921681
830.858086	2852.065556
831.175041	2835.323884
831.491952	2836.216168
831.808819	2848.526666
832.125642	2869.034080
832.442421	2910.968918
832.759157	2986.767707
833.075849	3148.276194
833.392497	3409.866708
833.709101	3593.591560
834.025662	3543.850495
834.342179	3394.148391
834.658653	3236.456057
834.975083	3099.981940
835.291469	3013.944568
835.607811	2935.284924
835.924110	2881.931872
836.240366	2832.165601
836.556578	2796.958183
836.872746	2773.254677
837.188871	2754.819178
837.504952	2737.651528
837.820990	2731.844119
838.136984	2720.476317
838.452935	2709.955429
838.768842	2708.707743
839.084706	2727.465877
839.400526	2801.800211
839.716303	2922.858479
840.032037	2992.184427
840.347727	2978.611120
840.663373	2923.712955
840.978977	2856.005218
841.294537	2789.895526
841.610054	2746.234093
841.925527	2725.540156
842.240957	2707.291179
842.556344	2687.149249
842.871687	2670.606703
843.186987	2664.320384
843.502244	2659.332162
843.817458	2655.059784
844.132629	2643.863382
844.447756	2634.504479
844.762840	2628.918881
845.077881	2631.661269
845.392879	2630.685805
845.707833	2625.193468
846.022745	2617.414968
846.337613	2621.778087
846.652438	2620.117026
846.967221	2622.309928
847.281960	2620.510236
847.596656	2618.871861
847.911309	2619.486882
848.225919	2613.329113
848.540485	2611.680655
848.855009	2614.246603
849.169490	2614.423043
849.483928	2611.763834
849.798323	2613.182919
850.112675	2606.296703
850.426984	2610.909359
850.741251	2612.209977
851.055474	2608.681169
851.369654	2616.923455
851.683792	2612.383896
851.997887	2610.690069
852.311938	2610.342229
852.625947	2611.912548
852.939914	2614.644854
853.253837	2615.017899
853.567718	2611.000100
853.881555	2607.531786
854.195350	2611.199225
854.509103	2609.583535
854.822812	2608.575305
855.136479	2605.225458
855.450103	2609.787702
855.763685	2611.678135
856.077224	2610.959770
856.390720	2607.877105
856.704173	2610.894235
857.017584	2615.007817
857.330953	2615.055708
857.644278	2619.081069
857.957561	2616.873044
858.270802	2612.527569
858.584000	2611.380707
858.897155	2617.873713
859.210268	2614.546551
859.523339	2610.523711
859.836367	2608.597990
860.149352	2606.142948
860.462295	2609.235696
860.775195	2603.740838
861.088054	2604.665890
861.400869	2604.088678
861.713642	2603.513986
862.026373	2605.515324
862.339062	2607.186467
862.651708	2609.974225
862.964312	2614.294494
863.276873	2608.792074
863.589392	2611.123608
863.901869	2618.370267
864.214303	2621.455453
864.526696	2621.405041
864.839045	2626.461318
865.151353	2628.757564
865.463619	2626.877214
865.775842	2629.004581
866.088023	2629.705301
866.400162	2630.993316
866.712258	2627.943418
867.024313	2627.872842
867.336325	2623.333283
867.648296	2625.289250
867.960224	2630.393418
868.272110	2627.777060
868.583954	2623.219857
868.895755	2625.909312
869.207515	2628.727317
869.519233	2636.369706
869.830909	2631.731845
870.142542	2628.611371
870.454134	2628.306381
870.765684	2635.905920
871.077191	2635.600930
871.388657	2638.613020
871.700081	2637.143523
872.011463	2635.689151
872.322803	2639.318781
872.634101	2639.454892
872.945357	2646.888074
873.256571	2653.192037
873.567744	2648.922179
873.878874	2646.623413
874.189963	2647.495533
874.501010	2654.769918
874.812015	2660.746206
875.122979	2659.821154
875.433900	2651.659526
875.744780	2648.609628
876.055618	2655.999959
876.366415	2660.763850
876.677169	2660.574807
876.987882	2655.947027
877.298554	2653.328148
877.609183	2662.792914
877.919771	2668.633091
878.230317	2677.046777
878.540822	2682.309741
878.851285	2698.123841
879.161707	2719.959599
879.472087	2753.853797
879.782425	2798.387350
880.092722	2901.294944
880.402977	3080.906214
880.713191	3311.118066
881.023363	3567.624577
881.333494	3734.138930
881.643583	3893.068866
881.953631	3897.502561
882.263637	3736.604054
882.573602	3532.515461
882.883526	3418.250147
883.193408	3319.327585
883.503248	3228.861559
883.813048	3122.745271
884.122806	3016.177799
884.432522	2939.678289
884.742197	2880.563199
885.051831	2844.914679
885.361424	2816.041471
885.670975	2783.029475
885.980485	2755.184661
886.289954	2739.403329
886.599382	2726.997050
886.908768	2716.657643
887.218113	2698.164170
887.527417	2687.973478
887.836680	2680.673887
888.145901	2677.336643
888.455082	2666.276352
888.764221	2658.311328
889.073319	2649.695997
889.382376	2651.551141
889.691392	2650.472334
890.000366	2651.016779
890.309300	2647.619041
890.618193	2651.311686
890.927044	2653.340751
891.235855	2653.963333
891.544625	2650.069042
891.853353	2650.673980
892.162041	2658.999446
892.470687	2677.601304
892.779293	2688.838036
893.087858	2697.453367
893.396381	2715.846017
893.704864	2753.959661
894.013306	2822.514312
894.321707	2906.210069
894.630068	2949.609362
894.938387	2967.891107
895.246665	2961.637555
895.554903	2919.589291
895.863100	2883.161913
896.171256	2828.712411
896.479371	2770.406425
896.787446	2737.452403
897.095480	2720.342727
897.403473	2716.362736
897.711425	2700.273893
898.019336	2684.290915
898.327207	2672.227434
898.635038	2670.329439
898.942827	2669.396826
899.250576	2658.949034
899.558284	2648.685245
899.865952	2643.323978
900.173579	2643.800367
900.481165	2640.737866
900.788711	2633.060189
901.096216	2625.679940
901.403681	2626.020217
901.711105	2626.879734
902.018489	2620.603498
902.325832	2625.684981
902.633135	2628.414766
902.940397	2640.561426
903.247619	2674.175840
903.554800	2738.944584
903.861941	2856.524457
904.169041	2969.756334
904.476101	3024.631814
904.783121	3016.603776
905.090100	2964.314408
905.397039	2895.996691
905.703938	2829.455981
906.010796	2774.933382
906.317614	2726.555949
906.624391	2694.592513
906.931129	2669.376661
907.237826	2648.423105
907.544483	2633.382823
907.851099	2622.682974
908.157675	2611.980604
908.464211	2605.505242
908.770707	2595.674992
909.077163	2593.348499
909.383578	2588.876996
909.689954	2589.413879
909.996289	2585.259968
910.302584	2584.460945
910.608839	2585.945565
910.915054	2583.659402
911.221229	2586.227870
911.527363	2587.949424
911.833458	2584.929772
912.139513	2588.687953
912.445527	2590.442274
912.751502	2590.139805
913.057436	2595.652307
913.363331	2604.852412
913.669186	2614.977570
913.975000	2626.234467
914.280775	2643.036632
914.586510	2657.300577
914.892205	2694.002698
915.197859	2754.990577
915.503475	2831.064109
915.809050	2888.853376
916.114585	2899.270921
916.420081	2907.172929
916.725536	2919.309507
917.030952	2898.184552
917.336328	2856.262317
917.641665	2811.932930
917.946961	2766.391146
918.252218	2734.021897
918.557435	2710.981304
918.862612	2687.933148
919.167750	2675.413443
919.472848	2662.109838
919.777906	2643.392034
920.082925	2633.103039
920.387904	2622.070473
920.692843	2618.836573
920.997743	2618.362705
921.302603	2610.911879
921.607423	2605.283431
921.912204	2600.756475
922.216946	2595.075095
922.521647	2597.565425
922.826310	2592.466297
923.130932	2587.142839
923.435516	2583.256109
923.740059	2582.182344
924.044564	2580.309555
924.349028	2580.042374
924.653454	2570.164233
924.957840	2567.825137
925.262186	2567.119376
925.566493	2570.406208
925.870761	2563.260373
926.174989	2567.225240
926.479178	2563.676268
926.783328	2562.514282
927.087438	2559.865156
927.391509	2563.668706
927.695541	2559.444219
927.999533	2557.354661
928.303486	2556.971533
928.607400	2558.226781
928.911275	2555.605381
929.215110	2553.667057
929.518906	2554.667726
929.822663	2554.713096
930.126381	2554.556821
930.430060	2555.985988
930.733699	2558.060423
931.037299	2557.677295
931.340861	2555.572613
931.644383	2555.554969
931.947866	2559.159394
932.251309	2559.303067
932.554714	2554.279557
932.858080	2558.551935
933.161407	2555.728889
933.464694	2555.950700
933.767943	2553.702345
934.071153	2554.173693
934.374323	2552.043805
934.677455	2553.793086
934.980548	2552.217725
935.283602	2553.573796
935.586617	2554.140925
935.889593	2555.590257
936.192530	2551.615307
936.495428	2553.500699
936.798287	2553.876265
937.101108	2555.549928
937.403890	2559.963458
937.706632	2561.843808
938.009336	2563.643500
938.312002	2565.937225
938.614628	2570.565005
938.917216	2572.732701
939.219765	2572.924265
939.522275	2575.008782
939.824747	2577.123546
940.127179	2568.525858
940.429573	2565.675085
940.731929	2565.566701
941.034246	2562.796587
941.336524	2566.582493
941.638763	2562.882286
941.940964	2565.239026
942.243126	2562.448747
942.545250	2559.474466
942.847335	2561.609395
943.149381	2562.776422
943.451389	2559.484548
943.753359	2559.169476
944.055290	2558.461194
944.357182	2558.740978
944.659036	2557.294167
944.960851	2555.733930
945.262628	2554.947510
945.564367	2557.669733
945.866067	2554.564382
946.167729	2557.546225
946.469352	2556.681667
946.770937	2556.658982
947.072484	2555.615463
947.373992	2553.775442
947.675462	2555.746533
947.976893	2558.788869
948.278286	2551.728733
948.579641	2555.595298
948.880958	2553.954403
949.182236	2554.660164
949.483476	2554.045143
949.784678	2555.355843
950.085841	2555.063457
950.386967	2553.561193
950.688054	2555.552448
950.989103	2554.153528
951.290114	2557.674774
951.591087	2558.133519
951.892021	2556.779969
952.192917	2558.110834
952.493776	2561.022100
952.794596	2562.073181
953.095378	2560.739796
953.396122	2560.691905
953.696828	2558.869528
953.997496	2560.328942
954.298126	2557.231153
954.598718	2554.309804
954.899272	2555.895247
955.199788	2554.614794
955.500266	2555.774259
955.800706	2549.848383
956.101108	2545.825542
956.401472	2547.693290
956.701798	2544.799667
957.002087	2545.389482
957.302337	2545.092054
957.602550	2547.015254
957.902724	2546.932075
958.202861	2545.994421
958.502960	2545.490305
958.803022	2542.896632
959.103045	2542.642053
959.403031	2543.862013
959.702979	2541.328833
960.002889	2543.763710
960.302762	2543.950233
960.602596	2542.911755
960.902393	2541.248174
961.202153	2544.237579
961.501875	2543.143648
961.801559	2544.648433
962.101205	2543.244471
962.400814	2540.688606
962.700385	2542.725233
962.999918	2542.097609
963.299414	2539.100643
963.598873	2542.180788
963.898293	2541.613658
964.197677	2542.931920
964.497022	2542.420243
964.796331	2543.494008
965.095601	2541.641384
965.394835	2541.661549
965.694030	2540.711292
965.993189	2540.519728
966.292309	2541.482588
966.591393	2540.270191
966.890439	2540.844882
967.189447	2543.015099
967.488419	2537.479912
967.787353	2540.277752
968.086249	2541.185160
968.385108	2542.518545
968.683930	2541.926210
968.982714	2540.494522
969.281462	2543.698175
969.580172	2538.893956
969.878844	2540.539892
970.177480	2541.250695
970.476078	2543.468803
970.774639	2543.322609
971.073162	2542.231199
971.371649	2539.546785
971.670098	2538.916641
971.968510	2542.412681
972.266885	2537.893287
972.565223	2539.927392
972.863524	2543.425953
973.161788	2542.095088
973.460014	2542.054759
973.758204	2542.732794
974.056356	2541.989224
974.354471	2544.131714
974.652550	2542.057280
974.950591	2544.852599
975.248595	2541.931251
975.546563	2541.729605
975.844493	2541.351518
976.142386	2541.661549
976.440243	2540.796991
976.738062	2541.686755
977.035845	2539.887063
977.333590	2540.923020
977.631299	2539.065355
977.928971	2541.699358
978.226606	2539.879501
978.524204	2538.331867
978.821765	2541.215407
979.119290	2541.389327
979.416777	2541.533000
979.714228	2539.579553
980.011642	2541.336395
980.309020	2542.528628
980.606360	2540.383617
980.903664	2542.904193
981.200931	2543.100798
981.498162	2546.357384
981.795356	2544.731612
982.092513	2548.167158
982.389633	2551.325441
982.686717	2553.745195
982.983764	2552.310987
983.280775	2556.845504
983.577749	2555.819630
983.874686	2555.416337
984.171587	2551.242262
984.468451	2549.929041
984.765279	2547.133722
985.062070	2546.788402
985.358824	2542.289173
985.655543	2542.826056
985.952224	2541.462423
986.248869	2544.010727
986.545478	2537.421939
986.842050	2536.680889
987.138586	2538.601569
987.435086	2538.084850
987.731549	2537.069058
988.027975	2540.988555
988.324366	2538.329346
988.620719	2541.477547
988.917037	2539.599717
989.213318	2540.181970
989.509563	2541.941333
989.805772	2537.585776
990.101944	2536.786753
990.398080	2538.160468
990.694180	2537.926054
990.990244	2540.562577
991.286271	2542.173226
991.582262	2538.248688
991.878217	2537.553009
992.174136	2535.687782
992.470019	2536.887576
992.765865	2540.270191
993.061676	2539.420756
993.357450	2541.480068
993.653188	2537.938657
993.948890	2539.977804
994.244556	2536.980838
994.540186	2542.669780
994.835780	2541.535520
995.131337	2542.715150
995.426859	2540.073586
995.722345	2541.853113
996.017795	2541.477547
996.313208	2546.158258
996.608586	2543.965356
996.903928	2542.737835
997.199234	2542.573998
997.494504	2543.408309
997.789738	2543.388144
998.084936	2539.340098
998.380099	2539.299768
998.675225	2540.275232
998.970316	2541.895963
999.265371	2542.415202
999.560390	2540.799512
999.855373	2542.989893
1000.150320	2539.418236
1000.445232	2539.554347
1000.740108	2537.069058
1001.034948	2537.527803
1001.329752	2539.844213
1001.624521	2539.433359
1001.919254	2533.139478
1002.213951	2537.797505
1002.508613	2534.024201
1002.803239	2536.118800
1003.097829	2534.107380
1003.392384	2541.981662
1003.686903	2539.909748
1003.981386	2540.229861
1004.275834	2537.595858
1004.570246	2540.572660
1004.864623	2537.873122
1005.158964	2540.431508
1005.453270	2538.659542
1005.747540	2538.246167
1006.041775	2539.047711
1006.335974	2536.582587
1006.630138	2536.474202
1006.924266	2536.945550
1007.218359	2538.682227
1007.512416	2537.374048
1007.806438	2536.610313
1008.100425	2536.396064
1008.394376	2537.805066
1008.688292	2540.378575
1008.982172	2535.266845
1009.276017	2537.908410
1009.569827	2541.059131
1009.863602	2542.236241
1010.157341	2537.323636
1010.451045	2538.934285
1010.744714	2537.132072
1011.038347	2539.952598
1011.331945	2537.981507
1011.625508	2538.606610
1011.919036	2537.840354
1012.212528	2538.679707
1012.505986	2537.432021
1012.799408	2538.543595
1013.092795	2537.512679
1013.386147	2538.941847
1013.679464	2537.910931
1013.972745	2534.840868
1014.265992	2538.717515
1014.559204	2539.917310
1014.852380	2538.031918
1015.145521	2536.600231
1015.438628	2539.088040
1015.731699	2537.195087
1016.024736	2537.989068
1016.317737	2537.129552
1016.610703	2539.274563
1016.903635	2533.888090
1017.196531	2532.088398
1017.489393	2536.827083
1017.782219	2532.998326
1018.075011	2537.890766
1018.367768	2538.150385
1018.660490	2538.173071
1018.953177	2538.173071
1019.245829	2538.173071
