Dividing Wavelength (nm)	Counts (n)	Blue Motor Position (mm): 2.400000	Red Motor Position (mm): 0.000000	
326.493990	2142.752525
326.888308	2142.752525
327.282561	2142.752525
327.676750	2109.334716
328.070874	2107.557709
328.464933	2112.460231
328.858929	2119.074225
329.252859	2131.488066
329.646726	2142.450055
330.040528	2151.365336
330.434265	2169.478202
330.827938	2185.556962
331.221547	2206.515559
331.615091	2226.559187
332.008571	2242.085941
332.401986	2263.578900
332.795338	2282.732764
333.188625	2301.337142
333.581847	2319.923877
333.975006	2338.198059
334.368100	2357.430061
334.761129	2375.242978
335.154095	2391.344424
335.546996	2412.910480
335.939833	2424.122006
336.332606	2439.792433
336.725315	2449.728547
337.117960	2460.340176
337.510540	2470.609006
337.903056	2483.348002
338.295508	2485.374546
338.687896	2497.299395
339.080220	2506.542351
339.472480	2511.588546
339.864676	2515.399658
340.256807	2518.767149
340.648875	2522.177489
341.040879	2524.027593
341.432818	2526.712007
341.824694	2529.829961
342.216506	2527.775691
342.608253	2528.549508
342.999937	2527.997502
343.391557	2530.203006
343.783113	2527.258973
344.174605	2525.615556
344.566033	2524.952645
344.957397	2524.551873
345.348697	2522.348889
345.739934	2523.795700
346.131106	2520.793693
346.522215	2515.858403
346.913260	2515.263547
347.304241	2513.733557
347.695159	2510.202228
348.086012	2512.400172
348.476802	2505.350118
348.867528	2506.295334
349.258191	2504.271311
349.648789	2504.094871
350.039324	2501.551608
350.429796	2502.922802
350.820203	2501.387771
351.210548	2499.250322
351.600828	2500.142606
351.991045	2497.243943
352.381198	2494.292347
352.771288	2497.223778
353.161314	2498.136227
353.551276	2495.512306
353.941175	2496.853253
354.331010	2496.618839
354.720782	2494.672954
355.110490	2495.958448
355.500135	2495.529950
355.889717	2493.906699
356.279235	2496.470125
356.668689	2496.621360
357.058080	2494.554487
357.447408	2495.401401
357.836672	2491.623056
358.225873	2495.698829
358.615010	2494.584734
359.004084	2499.840137
359.393095	2498.083295
359.782043	2498.509272
360.170927	2497.969869
360.559748	2497.826196
360.948505	2500.757627
361.337199	2501.970024
361.725830	2500.220744
362.114398	2500.593789
362.502903	2502.027997
362.891344	2502.796773
363.279722	2502.113697
363.668037	2502.133862
364.056289	2505.534120
364.444478	2505.866836
364.832603	2504.417504
365.220665	2506.912876
365.608665	2506.973369
365.996601	2507.449758
366.384474	2505.420694
366.772284	2506.653256
367.160031	2506.915396
367.547715	2505.433297
367.935336	2507.011178
368.322893	2508.142917
368.710388	2509.451097
369.097820	2509.476302
369.485189	2507.530417
369.872495	2510.844976
370.259738	2510.655932
370.646918	2509.730881
371.034035	2509.786333
371.421090	2510.298010
371.808081	2508.873884
372.195010	2512.042250
372.581875	2513.080727
372.968678	2511.258350
373.355418	2511.785151
373.742096	2508.697444
374.128710	2511.833042
374.515262	2512.881602
374.901751	2514.567868
375.288177	2513.224400
375.674540	2514.033505
376.060841	2513.199194
376.447079	2513.736077
376.833254	2511.192815
377.219367	2510.807167
377.605417	2511.951509
377.991404	2512.367404
378.377329	2509.257012
378.763191	2506.103770
379.148991	2515.492919
379.534727	2512.843793
379.920402	2515.772703
380.306013	2515.697086
380.691563	2516.919566
381.077049	2514.154493
381.462474	2516.639782
381.847835	2513.403361
382.233134	2517.368229
382.618371	2517.083403
383.003545	2517.776562
383.388657	2517.388393
383.773706	2517.315297
384.158693	2518.144566
384.543618	2517.907632
384.928480	2518.084073
385.313280	2520.024917
385.698017	2518.532735
386.082692	2518.600791
386.467305	2517.088445
386.851856	2519.596419
387.236344	2519.205729
387.620770	2521.207067
388.005133	2520.922242
388.389435	2522.477438
388.773674	2517.852179
389.157851	2518.381501
389.541965	2519.417458
389.926018	2521.373425
390.310008	2519.919053
390.693936	2520.322345
391.077802	2520.264372
391.461606	2521.229752
391.845348	2522.033817
392.229027	2521.428878
392.612645	2523.163035
392.996200	2522.996677
393.379694	2522.858045
393.763125	2520.849145
394.146494	2522.805113
394.529801	2524.738396
394.913047	2524.390556
395.296230	2522.492562
395.679351	2523.339475
396.062410	2523.026924
396.445408	2522.774866
396.828343	2526.449867
397.211217	2520.302180
397.594028	2521.524660
397.976778	2521.454084
398.359466	2524.491379
398.742092	2521.408713
399.124656	2526.452388
399.507158	2523.616739
399.889598	2525.068591
400.271977	2526.129754
400.654294	2525.870135
401.036549	2525.519774
401.418742	2524.529188
401.800874	2525.993643
402.182944	2526.994312
402.564952	2524.957686
402.946898	2527.014477
403.328783	2527.122861
403.710606	2527.473222
404.092367	2527.410207
404.474067	2527.606812
404.855705	2528.214271
405.237282	2526.722090
405.618797	2529.245187
406.000250	2526.545649
406.381642	2528.758716
406.762972	2529.429189
407.144240	2528.884745
407.525447	2532.910106
407.906593	2529.396422
408.287677	2530.003881
408.668700	2530.235774
409.049661	2529.121679
409.430560	2529.714014
409.811399	2530.712163
410.192176	2528.297450
410.572891	2530.273583
410.953545	2531.193593
411.334138	2531.170908
411.714669	2528.151257
412.095139	2532.020342
412.475547	2532.249715
412.855894	2529.671165
413.236180	2530.860877
413.616405	2533.101670
413.996568	2531.294416
414.376670	2532.000178
414.756711	2532.131248
415.136691	2533.399098
415.516609	2531.717873
415.896466	2532.073274
416.276262	2534.341794
416.655997	2530.044210
417.035670	2528.776360
417.415283	2529.961031
417.794834	2528.362985
418.174324	2532.526978
418.553753	2530.812986
418.933121	2531.571680
419.312428	2530.409694
419.691674	2531.763243
420.070859	2533.744417
420.449983	2530.341638
420.829045	2535.337422
421.208047	2532.819365
421.586988	2534.601413
421.965867	2532.968079
422.344686	2533.159643
422.723444	2535.574356
423.102141	2536.121321
423.480777	2535.077802
423.859352	2532.484128
424.237866	2536.191897
424.616319	2533.310878
424.994712	2535.221475
425.373044	2536.209541
425.751314	2535.145858
426.129524	2537.013605
426.507673	2539.274563
426.885762	2536.814480
427.263789	2536.448996
427.641756	2535.609644
428.019662	2538.223482
428.397508	2536.259953
428.775292	2537.568132
429.153016	2536.844727
429.530679	2537.517721
429.908282	2536.436393
430.285824	2536.985879
430.663305	2534.563604
431.040726	2539.239275
431.418086	2536.645601
431.795385	2537.895807
432.172624	2538.664583
432.549802	2538.886394
432.926920	2536.383461
433.303977	2540.277752
433.680974	2540.365973
434.057910	2535.997813
434.434786	2535.944881
434.811601	2536.920344
435.188355	2537.555529
435.565050	2537.752134
435.941683	2537.822710
436.318257	2536.696012
436.694770	2533.948584
437.071222	2538.974614
437.447614	2532.960518
437.823946	2537.164840
438.200218	2539.019984
438.576429	2539.284645
438.952580	2539.269522
439.328670	2538.281455
439.704700	2539.433359
440.080670	2540.181970
440.456580	2539.748431
440.832429	2538.788091
441.208218	2541.280942
441.583947	2539.506456
441.959616	2541.354039
442.335224	2540.123997
442.710773	2539.861857
443.086261	2538.596527
443.461689	2538.604089
443.837057	2539.267001
444.212365	2539.254398
444.587612	2538.495704
444.962800	2540.023174
445.337927	2540.360931
445.712995	2542.485778
446.088002	2540.721374
446.462949	2540.756662
446.837837	2545.124822
447.212664	2538.707433
447.587431	2540.875129
447.962139	2538.324305
448.336786	2539.330015
448.711374	2540.923020
449.085901	2542.964687
449.460369	2540.948226
449.834776	2543.856972
450.209124	2541.452341
450.583412	2541.263298
450.957640	2541.883360
451.331808	2540.610468
451.705917	2541.802701
452.079965	2543.453679
452.453954	2540.330684
452.827883	2544.504760
453.201752	2541.391847
453.575562	2543.325130
453.949311	2543.859492
454.323001	2542.115253
454.696632	2542.387475
455.070202	2544.146838
455.443713	2544.106509
455.817164	2539.997968
456.190556	2538.246167
456.563888	2541.293545
456.937160	2537.099305
457.310373	2544.580377
457.683526	2545.056766
458.056619	2542.994934
458.429653	2543.035263
458.802628	2540.986034
459.175542	2540.865047
459.548398	2544.981149
459.921194	2544.169523
460.293930	2542.775644
460.666607	2542.594162
461.039224	2545.530635
461.411782	2541.306148
461.784280	2546.498536
462.156719	2546.196067
462.529099	2545.850748
462.901419	2542.873947
463.273680	2546.306972
463.645882	2545.167672
464.018024	2545.515511
464.390106	2542.846220
464.762130	2545.263453
465.134094	2544.552651
465.505999	2546.480892
465.877845	2545.815460
466.249631	2544.005686
466.621358	2543.844369
466.993026	2549.838301
467.364634	2550.473486
467.736184	2547.400903
468.107674	2545.689431
468.479105	2545.686910
468.850477	2541.288504
469.221790	2544.794626
469.593043	2544.988711
469.964238	2545.462579
470.335373	2545.762528
470.706449	2545.467620
471.077467	2546.312013
471.448425	2547.295038
471.819324	2547.010213
472.190164	2546.498536
472.560945	2545.407126
472.931667	2545.520552
473.302330	2545.202960
473.672934	2545.243289
474.043479	2547.650440
474.413965	2545.981818
474.784393	2540.459234
475.154761	2545.757487
475.525070	2540.368493
475.895321	2545.281097
476.265513	2541.527958
476.635645	2548.819988
477.005719	2547.514329
477.375734	2545.966694
477.745691	2545.981818
478.115588	2545.671787
478.485427	2548.026006
478.855207	2546.599359
479.224928	2546.697662
479.594591	2544.905532
479.964194	2546.221273
480.333739	2547.078269
480.703226	2545.785213
481.072653	2548.204967
481.442022	2547.869730
481.811333	2545.875954
482.180584	2547.216901
482.549777	2548.981304
482.918912	2547.189174
483.287988	2549.117416
483.657005	2549.187992
484.025964	2546.647250
484.394864	2549.175389
484.763706	2550.982643
485.132489	2549.830739
485.501213	2549.102292
485.869879	2550.249155
486.238487	2546.460728
486.607036	2546.929555
486.975527	2546.440563
487.343959	2547.579864
487.712333	2549.321582
488.080648	2548.464586
488.448905	2545.921324
488.817104	2547.776469
489.185244	2546.672456
489.553326	2548.358722
489.921350	2548.706562
490.289315	2551.020451
490.657222	2550.594474
491.025070	2547.302600
491.392861	2548.590615
491.760593	2552.018600
492.128267	2551.002807
492.495883	2545.946530
492.863440	2548.635985
493.230939	2551.043136
493.598380	2550.125646
493.965763	2543.854451
494.333088	2545.689431
494.700354	2545.938968
495.067563	2547.448794
495.434713	2544.557692
495.801805	2547.983156
496.168839	2549.379556
496.535815	2552.230328
496.902733	2548.330996
497.269593	2550.901984
497.636395	2548.230172
498.003139	2549.823177
498.369825	2547.932744
498.736453	2549.177909
499.103023	2550.075235
499.469535	2551.736295
499.835989	2549.581202
500.202385	2553.072201
500.568723	2550.246634
500.935003	2550.037426
501.301226	2550.178578
501.667390	2551.529608
502.033497	2552.005997
502.399546	2548.469627
502.765537	2547.645399
503.131470	2549.679504
503.497345	2549.520708
503.863163	2552.409289
504.228923	2549.866027
504.594625	2549.135060
504.960269	2550.894422
505.325856	2552.028682
505.691385	2550.937272
506.056856	2551.302756
506.422270	2550.788558
506.787625	2548.590615
507.152924	2550.995245
507.518164	2548.593136
507.883347	2550.067673
508.248472	2550.740667
508.613540	2548.628424
508.978550	2550.690256
509.343503	2550.410472
509.708398	2549.969371
510.073236	2552.409289
510.438016	2551.751418
510.802738	2550.796120
511.167403	2552.560524
511.532010	2552.651264
511.896561	2551.781665
512.261053	2549.518187
512.625488	2548.825029
512.989866	2548.149514
513.354186	2547.007693
513.718449	2546.541386
514.082655	2550.808723
514.446803	2549.629093
514.810894	2553.659495
515.174927	2553.016748
515.538904	2552.202602
515.902822	2551.942982
516.266684	2549.223280
516.630488	2553.294012
516.994235	2553.684701
517.357925	2552.414330
517.721558	2551.927859
518.085133	2551.010369
518.448651	2551.761501
518.812112	2551.448949
519.175516	2553.031872
519.538863	2546.153217
519.902152	2553.357026
520.265385	2551.164124
520.628560	2549.417364
520.991678	2553.054557
521.354739	2551.882488
521.717743	2550.536500
522.080690	2552.192519
522.443580	2549.513146
522.806413	2552.416851
523.169189	2554.120761
523.531908	2553.125133
523.894569	2548.804864
524.257174	2549.520708
524.619722	2551.481717
524.982213	2553.987170
525.344647	2550.047508
525.707025	2552.860472
526.069345	2551.416182
526.431608	2550.327292
526.793815	2548.383928
527.155964	2552.905843
527.518057	2551.280071
527.880093	2549.823177
528.242072	2549.303938
528.603995	2553.049516
528.965860	2554.221584
529.327669	2552.560524
529.689421	2552.048847
530.051117	2553.465411
530.412755	2552.250493
530.774337	2554.655123
531.135862	2553.946841
531.497331	2549.233362
531.858743	2548.255378
532.220098	2551.174206
532.581396	2548.096582
532.942638	2548.671273
533.303824	2554.607232
533.664953	2554.682849
534.026025	2553.682180
534.387040	2551.083466
534.747999	2552.810061
535.108902	2553.649413
535.469748	2552.245452
535.830537	2550.140770
536.191270	2551.365770
536.551947	2552.220246
536.912567	2554.234187
537.273131	2553.147818
537.633638	2555.302911
537.994089	2555.194527
538.354483	2553.745195
538.714821	2552.084135
539.075103	2554.597150
539.435328	2552.615976
539.795497	2552.152190
540.155609	2555.406255
540.515665	2550.428116
540.875665	2554.718138
541.235609	2552.694114
541.595496	2552.731923
541.955328	2550.294525
542.315102	2553.556152
542.674821	2553.578837
543.034483	2551.103630
543.394090	2551.466593
543.753640	2553.614125
544.113134	2555.043292
544.472571	2553.888868
544.831953	2552.265616
545.191278	2554.859290
545.550548	2550.942313
545.909761	2553.110009
546.268918	2551.547252
546.628019	2553.367108
546.987064	2553.498178
547.346053	2553.520863
547.704986	2550.745708
548.063863	2552.374001
548.422684	2552.154711
548.781449	2553.414999
549.140158	2551.247303
549.498811	2551.121274
549.857408	2551.012889
550.215949	2551.176727
550.574434	2549.245965
550.932864	2550.191181
551.291237	2548.724206
551.649555	2555.078580
552.007817	2552.560524
552.366022	2552.132026
552.724173	2550.271840
553.082267	2552.434495
553.440305	2554.324928
553.798288	2552.005997
554.156215	2551.438867
554.514086	2551.821995
554.871902	2553.621687
555.229661	2554.960113
555.587365	2552.678991
555.945014	2556.197716
556.302606	2553.853580
556.660143	2552.182437
557.017625	2553.684701
557.375050	2552.820143
557.732421	2553.810730
558.089735	2555.496996
558.446994	2554.902140
558.804197	2551.721172
559.161345	2556.064126
559.518437	2555.270144
559.875474	2553.959444
560.232455	2552.517674
560.589381	2554.622356
560.946251	2554.554300
561.303065	2552.673950
561.659825	2554.070349
562.016528	2552.842828
562.373177	2552.742005
562.729770	2554.471121
563.086307	2553.246121
563.442789	2552.431974
563.799216	2555.507078
564.155587	2553.599001
564.511904	2554.274516
564.868164	2553.089845
565.224370	2554.327448
565.580520	2552.885678
565.936615	2553.084804
566.292654	2552.245452
566.648638	2553.145297
567.004567	2552.711758
567.360441	2553.752757
567.716260	2551.146480
568.072023	2552.106820
568.427732	2548.840152
568.783385	2552.028682
569.138982	2548.111705
569.494525	2548.951057
569.850013	2548.623382
570.205445	2553.982129
570.560823	2554.309804
570.916145	2552.820143
571.271412	2551.965667
571.626625	2551.890050
571.981782	2551.257385
572.336884	2553.599001
572.691931	2552.142108
573.046923	2552.857952
573.401860	2552.419371
573.756743	2553.420040
574.111570	2552.875596
574.466342	2555.791903
574.821059	2552.038764
575.175722	2553.238559
575.530330	2552.817623
575.884882	2552.628579
576.239380	2551.975750
576.593823	2553.747715
576.948211	2552.464742
577.302544	2552.961295
577.656823	2553.941800
578.011047	2557.460525
578.365216	2553.772921
578.719330	2551.648075
579.073389	2550.526418
579.427394	2552.643703
579.781344	2555.224773
580.135239	2553.430123
580.489080	2553.571275
580.842866	2556.149825
581.196597	2555.224773
581.550273	2553.856100
581.903895	2553.629248
582.257463	2554.755946
582.610975	2556.338868
582.964434	2551.917777
583.317837	2554.720658
583.671186	2554.645041
584.024481	2553.079762
584.377721	2552.313507
584.730906	2552.515153
585.084037	2552.096737
585.437113	2554.471121
585.790135	2555.532284
586.143103	2553.299053
586.496016	2553.495658
586.848874	2551.310317
587.201679	2552.905843
587.554428	2552.857952
587.907124	2550.536500
588.259765	2550.934752
588.612352	2553.246121
588.964884	2553.672098
589.317362	2554.561862
589.669786	2554.307283
590.022155	2552.749567
590.374470	2553.931718
590.726731	2556.316183
591.078937	2553.606563
591.431090	2556.117058
591.783188	2552.832746
592.135232	2554.672767
592.487222	2555.877603
592.839157	2553.727551
593.191038	2556.424568
593.542866	2556.240566
593.894639	2554.602191
594.246358	2554.894578
594.598022	2554.324927
594.949633	2551.948023
595.301190	2553.311656
595.652692	2555.832233
596.004141	2553.238559
596.355535	2553.344423
596.706876	2553.752757
597.058162	2554.259392
597.409395	2554.103117
597.760573	2554.887016
598.111698	2552.305945
598.462768	2553.624207
598.813785	2554.377860
599.164748	2555.076059
599.515657	2554.418189
599.866511	2555.958261
600.217312	2552.363919
600.568060	2555.176882
600.918753	2558.645196
601.269392	2551.615307
601.619978	2550.811243
601.970510	2553.493137
602.320988	2553.122612
602.671412	2552.343754
603.021783	2552.835267
603.372100	2553.707386
603.722363	2555.376008
604.072572	2552.358877
604.422728	2552.757129
604.772830	2552.167314
605.122878	2548.764535
605.472872	2553.253682
605.822813	2545.623896
606.172701	2554.151008
606.522534	2552.789896
606.872314	2554.597150
607.222041	2554.748384
607.571714	2552.792417
607.921333	2552.124464
608.270899	2555.257541
608.620411	2554.181255
608.969870	2556.411965
609.319276	2553.848538
609.668627	2558.829198
610.017926	2558.451112
610.367171	2561.067471
610.716362	2560.898592
611.065500	2558.360371
611.414585	2557.097562
611.763616	2557.435319
612.112594	2556.966492
612.461518	2554.798796
612.810389	2555.441543
613.159207	2555.847356
613.507971	2555.305432
613.856682	2558.277192
614.205340	2556.021276
614.553945	2558.315001
614.902496	2553.402396
615.250994	2554.087993
615.599439	2553.447767
615.947830	2553.687222
616.296169	2554.773590
616.644454	2554.768549
616.992686	2549.883671
617.340864	2552.830225
617.688990	2554.692932
618.037063	2553.646892
618.385082	2555.348282
618.733048	2554.236707
619.080961	2553.846018
619.428821	2552.079093
619.776628	2555.756615
620.124382	2556.772408
620.472083	2554.229146
620.819731	2555.184444
621.167326	2552.883157
621.514868	2554.168652
621.862357	2553.553631
622.209793	2555.169321
622.557176	2554.287119
622.904506	2553.190668
623.251783	2548.104144
623.599007	2552.026161
623.946179	2550.450801
624.293297	2550.465924
624.640363	2555.897767
624.987376	2553.679660
625.334336	2551.237221
625.681243	2556.391801
626.028097	2553.987170
626.374899	2554.254351
626.721647	2553.921635
627.068343	2555.474311
627.414987	2553.271326
627.761577	2553.518343
628.108115	2553.609084
628.454600	2553.296532
628.801032	2553.427602
629.147412	2553.687222
629.493739	2555.000442
629.840014	2554.123281
630.186236	2553.452808
630.532405	2553.505740
630.878521	2555.544887
631.224585	2553.775442
631.570597	2553.931718
631.916556	2553.205791
632.262462	2553.485575
632.608316	2553.402396
632.954117	2551.373332
633.299866	2554.569423
633.645562	2553.682180
633.991206	2554.531615
634.336797	2554.488765
634.682336	2553.309135
635.027823	2553.127653
635.373257	2553.944320
635.718639	2552.759649
636.063968	2553.838456
636.409245	2554.579506
636.754470	2552.590771
637.099642	2551.388455
637.444762	2556.071687
637.789829	2552.500030
638.134845	2553.674619
638.479808	2552.895760
638.824719	2551.494320
639.169577	2553.160421
639.514383	2556.762325
639.859137	2552.631100
640.203839	2555.915412
640.548489	2553.069680
640.893086	2552.331151
641.237632	2553.523384
641.582125	2549.697148
641.926566	2548.106664
642.270955	2556.258210
642.615292	2552.424413
642.959576	2554.161090
643.303809	2554.977757
643.647990	2552.815102
643.992118	2556.691749
644.336195	2551.204453
644.680219	2552.936090
645.024192	2554.171172
645.368112	2552.326110
645.711981	2555.005483
646.055797	2551.630431
646.399562	2552.489948
646.743274	2554.513971
647.086935	2553.354505
647.430544	2552.116902
647.774101	2553.256203
648.117606	2553.619166
648.461059	2554.279557
648.804460	2556.311142
649.147810	2551.953065
649.491108	2551.176727
649.834354	2553.104968
650.177548	2552.830225
650.520690	2551.670760
650.863781	2554.892057
651.206820	2555.146636
651.549807	2551.776624
651.892742	2551.713610
652.235626	2553.445246
652.578458	2553.319217
652.921238	2553.019269
653.263967	2554.017417
653.606644	2551.716130
653.949269	2553.054557
654.291843	2552.374001
654.634365	2551.479196
654.976836	2551.489278
655.319255	2555.892726
655.661622	2555.010524
656.003938	2555.134033
656.346203	2552.018600
656.688416	2554.667726
657.030577	2554.551779
657.372687	2553.319217
657.714746	2552.079093
658.056753	2553.853580
658.398708	2551.179247
658.740612	2550.181099
659.082465	2549.245965
659.424266	2550.498692
659.766016	2548.653629
660.107715	2553.299053
660.449362	2551.640513
660.790958	2550.660009
661.132503	2557.120247
661.473996	2552.971378
661.815438	2551.872406
662.156829	2555.859959
662.498168	2553.407437
662.839456	2554.176213
663.180693	2554.249310
663.521879	2552.915925
663.863013	2554.335010
664.204097	2553.858621
664.545129	2551.194371
664.886110	2554.685370
665.227040	2552.852911
665.567918	2551.456511
665.908746	2553.876265
666.249522	2553.820812
666.590248	2553.036913
666.930922	2552.391645
667.271545	2552.885678
667.612118	2553.747715
667.952639	2552.747046
668.293109	2551.615307
668.633528	2552.003476
668.973896	2550.924669
669.314213	2552.056408
669.654480	2554.524053
669.994695	2554.647561
670.334859	2552.336192
670.674973	2550.614638
671.015035	2553.921635
671.355047	2550.292004
671.695008	2550.186140
672.034918	2551.637993
672.374777	2553.044474
672.714585	2553.155380
673.054342	2550.874258
673.394049	2551.663198
673.733705	2551.827036
674.073310	2554.561862
674.412864	2555.817109
674.752368	2555.373487
675.091820	2553.505740
675.431223	2553.498178
675.770574	2553.389793
676.109875	2548.726726
676.449125	2549.177909
676.788324	2551.179247
677.127473	2550.581871
677.466571	2547.741181
677.805619	2550.821326
678.144616	2554.062787
678.483562	2553.783003
678.822458	2553.523384
679.161303	2555.325597
679.500098	2552.830225
679.838842	2551.650595
680.177535	2553.142777
680.516179	2553.094886
680.854771	2552.820143
681.193314	2552.505071
681.531805	2554.289639
681.870247	2554.579506
682.208638	2551.028013
682.546978	2553.604043
682.885268	2551.771583
683.223508	2553.014228
683.561697	2555.381049
683.899836	2553.833415
684.237925	2550.841490
684.575963	2554.201419
684.913951	2552.144628
685.251889	2550.486089
685.589776	2552.142108
685.927614	2553.246121
686.265401	2548.701520
686.603137	2551.456511
686.940824	2548.968702
687.278460	2551.617828
687.616046	2552.069011
687.953582	2551.058260
688.291068	2549.800492
688.628504	2552.111861
688.965889	2552.290822
689.303224	2551.942982
689.640510	2551.096068
689.977745	2551.529608
690.314930	2551.887530
690.652065	2551.756460
690.989150	2550.821326
691.326185	2548.883002
691.663170	2551.968188
692.000105	2554.826522
692.336990	2551.549772
692.673825	2552.202602
693.010610	2554.143446
693.347345	2547.045501
693.684030	2548.252858
694.020665	2550.793599
694.357251	2548.230173
694.693786	2549.918959
695.030272	2547.796633
695.366707	2553.785524
695.703093	2554.193858
696.039429	2552.520194
696.375716	2551.925338
696.711952	2550.108002
697.048139	2551.920297
697.384276	2551.065822
697.720363	2553.092365
698.056400	2552.144628
698.392388	2553.866182
698.728326	2551.665719
699.064214	2552.573127
699.400053	2550.629762
699.735842	2549.971891
700.071581	2550.574309
700.407270	2550.952396
700.742910	2554.229146
701.078501	2550.725544
701.414042	2551.305276
701.749533	2552.305945
702.084974	2552.232849
702.420366	2550.851573
702.755709	2550.249155
703.091002	2554.846687
703.426246	2552.820143
703.761440	2552.048847
704.096584	2554.017417
704.431679	2551.469114
704.766725	2553.044474
705.101721	2551.116233
705.436668	2551.839639
705.771565	2551.264947
706.106413	2551.408620
706.441212	2549.815615
706.775961	2553.616645
707.110661	2551.811912
707.445311	2549.964329
707.779913	2552.371480
708.114465	2554.309804
708.448967	2551.282591
708.783421	2550.531459
709.117825	2550.780996
709.452180	2551.615307
709.786485	2548.530121
710.120742	2550.859134
710.454949	2551.143959
710.789107	2549.994576
711.123216	2547.658002
711.457275	2549.707231
711.791286	2547.310162
712.125247	2546.793444
712.459159	2549.193033
712.793023	2554.461039
713.126837	2551.539690
713.460602	2550.803682
713.794318	2553.019269
714.127985	2554.098076
714.461602	2552.805020
714.795171	2549.495502
715.128691	2550.299566
715.462162	2554.360216
715.795584	2552.721841
716.128957	2551.131357
716.462281	2551.322920
716.795556	2554.584547
717.128782	2550.541542
717.461960	2552.822664
717.795088	2549.303938
718.128167	2550.806202
718.461198	2549.240924
718.794180	2553.445246
719.127113	2552.656306
719.459997	2550.075235
719.792833	2551.549772
720.125619	2552.545400
720.458357	2549.414844
720.791046	2553.800648
721.123686	2550.208825
721.456278	2550.095399
721.788821	2552.275698
722.121315	2552.144628
722.453761	2552.137067
722.786158	2551.043136
723.118506	2550.289484
723.450805	2551.988353
723.783056	2552.439536
724.115259	2549.702189
724.447412	2551.842159
724.779518	2551.325441
725.111574	2551.441388
725.443582	2551.784186
725.775542	2552.585729
726.107453	2551.234700
726.439315	2551.806871
726.771129	2554.995401
727.102895	2550.980122
727.434612	2551.348126
727.766281	2551.050698
728.097901	2545.371838
728.429473	2547.721016
728.760996	2549.936603
729.092471	2548.507436
729.423897	2550.571788
729.755276	2552.230328
730.086606	2550.775955
730.417887	2552.719320
730.749120	2550.201264
731.080305	2549.800492
731.411442	2549.918959
731.742530	2551.479196
732.073570	2548.872920
732.404562	2552.109340
732.735506	2552.590771
733.066401	2549.704710
733.397249	2551.549772
733.728048	2550.342416
734.058798	2551.751418
734.389501	2549.934082
734.720156	2550.934752
735.050762	2550.135729
735.381320	2553.145297
735.711831	2550.518856
736.042293	2550.314690
736.372707	2551.620348
736.703073	2550.050029
737.033391	2548.701520
737.363661	2550.208825
737.693883	2550.823846
738.024056	2553.442726
738.354182	2549.989535
738.684260	2550.816284
739.014290	2547.509288
739.344272	2553.636810
739.674207	2548.618341
740.004093	2554.143446
740.333931	2549.992056
740.663722	2550.571788
740.993464	2552.709238
741.323159	2548.514998
741.652806	2551.456511
741.982405	2550.871737
742.311956	2551.396017
742.641460	2549.679504
742.970915	2549.122457
743.300323	2552.031202
743.629683	2550.105482
743.958996	2551.973229
744.288260	2550.259237
744.617477	2550.158414
744.946647	2545.165151
745.275768	2546.319575
745.604842	2546.415357
745.933869	2548.169679
746.262847	2547.995759
746.591778	2552.494989
746.920662	2552.295863
747.249498	2550.904505
747.578286	2549.750080
747.907027	2549.218239
748.235720	2549.596325
748.564365	2552.351316
748.892963	2551.748898
749.221514	2551.557334
749.550017	2551.083466
749.878473	2550.735626
750.206881	2551.227138
750.535242	2553.490617
750.863555	2549.056922
751.191821	2550.801161
751.520039	2550.448280
751.848210	2548.759494
752.176334	2550.362581
752.504411	2550.292004
752.832440	2551.824515
753.160421	2550.859134
753.488356	2548.588094
753.816243	2549.805533
754.144082	2549.616490
754.471875	2549.795451
754.799620	2550.317210
755.127318	2549.319062
755.454969	2551.653116
755.782572	2551.075904
756.110129	2549.775286
756.437638	2551.333003
756.765100	2549.858465
757.092515	2549.629093
757.419882	2551.461552
757.747203	2548.678835
758.074477	2550.591953
758.401703	2550.034906
758.728882	2550.891902
759.056014	2551.363250
759.383099	2549.689587
759.710138	2549.598846
760.037129	2549.447611
760.364073	2549.979453
760.690970	2551.973229
761.017820	2551.673281
761.344623	2551.466593
761.671379	2549.853424
761.998088	2542.851261
762.324751	2547.118598
762.651366	2546.460728
762.977935	2548.386448
763.304456	2547.206818
763.630931	2550.120605
763.957359	2548.643547
764.283740	2551.801830
764.610074	2549.228321
764.936362	2555.340720
765.262602	2549.921480
765.588796	2550.884340
765.914943	2549.513146
766.241044	2549.916438
766.567097	2548.951058
766.893104	2552.827705
767.219064	2550.339895
767.544978	2548.033567
767.870845	2548.454504
768.196665	2550.962478
768.522438	2550.007179
768.848165	2549.954247
769.173846	2548.923331
769.499479	2547.736139
769.825066	2549.734957
770.150607	2555.149156
770.476101	2550.412992
770.801548	2548.615821
771.126949	2549.104813
771.452303	2547.821839
771.777611	2549.089689
772.102872	2549.187992
772.428087	2549.976932
772.753256	2550.181099
773.078378	2550.854093
773.403453	2549.805533
773.728482	2549.525749
774.053465	2551.703527
774.378401	2549.921480
774.703291	2548.373845
775.028135	2550.216387
775.352932	2550.176058
775.677683	2545.986859
776.002388	2552.177396
776.327046	2548.562889
776.651658	2550.901984
776.976224	2546.717826
777.300743	2550.032385
777.625216	2549.981973
777.949643	2550.072714
778.274024	2550.904505
778.598359	2546.085162
778.922647	2546.619524
779.246889	2547.514329
779.571086	2546.143135
779.895236	2546.934596
780.219339	2549.384597
780.543397	2551.186809
780.867409	2548.620862
781.191374	2549.480379
781.515294	2547.930224
781.839167	2549.399720
782.162995	2548.499874
782.486776	2551.471634
782.810511	2549.026675
783.134201	2549.891233
783.457844	2549.346788
783.781441	2550.672612
784.104993	2549.432488
784.428498	2547.519370
784.751958	2546.057435
785.075372	2550.564227
785.398739	2548.192364
785.722061	2550.082797
786.045337	2552.043805
786.368568	2548.925852
786.691752	2549.475338
787.014891	2548.774617
787.337983	2546.140614
787.661030	2550.816284
787.984031	2547.589946
788.306987	2550.375183
788.629897	2548.656150
788.952760	2550.095399
789.275579	2550.523897
789.598351	2552.469783
789.921078	2548.923331
790.243759	2549.770245
790.566395	2548.245296
790.888984	2548.930893
791.211529	2548.439380
791.534027	2551.345606
791.856480	2549.883671
792.178888	2548.451983
792.501249	2550.090358
792.823566	2550.619679
793.145836	2548.144473
793.468062	2548.578012
793.790241	2548.618341
794.112375	2550.665050
794.434464	2549.924000
794.756507	2549.402241
795.078505	2549.613969
795.400457	2545.838145
795.722364	2546.601880
796.044226	2548.535162
796.366042	2546.178423
796.687812	2546.546427
797.009538	2549.404761
797.331218	2548.078938
797.652852	2550.375183
797.974442	2550.448280
798.295986	2551.050698
798.617484	2547.128680
798.938938	2549.276212
799.260346	2549.475337
799.581709	2552.709238
799.903026	2550.516336
800.224299	2546.725388
800.545526	2549.906356
800.866708	2545.051725
801.187845	2552.169834
801.508936	2549.402241
801.829983	2546.284287
802.150984	2546.748073
802.471940	2548.825029
802.792851	2546.622044
803.113717	2550.990204
803.434538	2548.149514
803.755314	2549.019113
804.076045	2548.406613
804.396731	2546.599359
804.717372	2547.867209
805.037967	2548.595656
805.358518	2548.290666
805.679024	2552.936090
805.999485	2548.250337
806.319901	2549.334185
806.640272	2546.569112
806.960598	2546.256561
807.280879	2547.226983
807.601115	2548.146993
807.921306	2550.329813
808.241453	2548.661191
808.561554	2547.567261
808.881611	2548.643547
809.201623	2547.932744
809.521590	2548.179761
809.841513	2546.518701
810.161390	2549.041798
810.481223	2550.349978
810.801011	2549.535831
811.120755	2547.574822
811.440453	2548.835111
811.760107	2546.173382
812.079716	2546.117929
812.399281	2545.190357
812.718801	2546.309493
813.038276	2544.343443
813.357707	2550.591953
813.677093	2548.716644
813.996434	2550.352498
814.315731	2546.881664
814.634983	2549.437529
814.954191	2547.940306
815.273354	2549.591284
815.592473	2548.242775
815.911547	2550.372663
816.230577	2547.529452
816.549562	2549.067004
816.868502	2547.151366
817.187399	2549.563558
817.506250	2548.991387
817.825058	2547.030378
818.143821	2548.459545
818.462539	2546.082641
818.781213	2549.558517
819.099843	2548.031047
819.418429	2545.858310
819.736970	2546.680018
820.055466	2546.100285
820.373919	2548.421736
820.692327	2550.286963
821.010691	2548.630944
821.329011	2548.535162
821.647286	2551.025492
821.965517	2550.100441
822.283704	2548.880481
822.601847	2548.106664
822.919945	2549.535831
823.237999	2548.772097
823.556010	2549.843342
823.873976	2548.101623
824.191897	2548.013403
824.509775	2546.009544
824.827609	2546.715306
825.145398	2548.928372
825.463144	2548.691438
825.780845	2546.218752
826.098502	2547.365615
826.416116	2547.025337
826.733685	2547.985677
827.051210	2545.076931
827.368692	2549.586243
827.686129	2549.712272
828.003522	2546.433001
828.320872	2544.439225
828.638177	2546.390151
828.955439	2545.175233
829.272656	2544.398896
829.589830	2542.717671
829.906960	2547.063145
830.224046	2550.292004
830.541088	2548.169679
830.858086	2547.826880
831.175041	2550.675132
831.491952	2547.610111
831.808819	2548.303269
832.125642	2548.502395
832.442421	2550.234031
832.759157	2547.181613
833.075849	2549.729916
833.392497	2548.240255
833.709101	2547.307641
834.025662	2547.305121
834.342179	2548.943496
834.658653	2545.780172
834.975083	2549.185471
835.291469	2552.396686
835.607811	2548.787220
835.924110	2548.477189
836.240366	2548.948537
836.556578	2547.801674
836.872746	2548.013403
837.188871	2546.417878
837.504952	2548.991387
837.820990	2547.373176
838.136984	2545.213042
838.452935	2548.252858
838.768842	2544.761859
839.084706	2547.819318
839.400526	2546.097764
839.716303	2547.095913
840.032037	2547.080789
840.347727	2545.704554
840.663373	2547.476520
840.978977	2547.839483
841.294537	2546.682538
841.610054	2549.049360
841.925527	2544.149358
842.240957	2548.257899
842.556344	2548.774617
842.871687	2546.117929
843.186987	2547.995759
843.502244	2548.053732
843.817458	2545.888557
844.132629	2546.064997
844.447756	2546.564071
844.762840	2541.971580
845.077881	2545.702034
845.392879	2542.407640
845.707833	2547.400903
846.022745	2544.401416
846.337613	2548.744370
846.652438	2549.003990
846.967221	2547.842004
847.281960	2550.450801
847.596656	2550.574309
847.911309	2547.589946
848.225919	2549.301418
848.540485	2547.854607
848.855009	2549.271171
849.169490	2546.727909
849.483928	2548.058773
849.798323	2548.618341
850.112675	2547.521890
850.426984	2547.068187
850.741251	2545.709596
851.055474	2547.148845
851.369654	2546.768238
851.683792	2549.704710
851.997887	2550.551624
852.311938	2547.272353
852.625947	2546.957281
852.939914	2546.397713
853.253837	2549.997097
853.567718	2546.654812
853.881555	2547.060625
854.195350	2546.672456
854.509103	2546.294369
854.822812	2546.286808
855.136479	2548.343598
855.450103	2544.676159
855.763685	2545.079451
856.077224	2546.889226
856.390720	2549.782848
856.704173	2547.095913
857.017584	2547.312683
857.330953	2547.206818
857.644278	2546.987528
857.957561	2550.803682
858.270802	2548.502395
858.584000	2546.682538
858.897155	2547.915100
859.210268	2545.626417
859.523339	2547.859648
859.836367	2547.859648
860.149352	2545.447456
860.462295	2546.881664
860.775195	2541.691796
861.088054	2544.252702
861.400869	2546.062476
861.713642	2543.073072
862.026373	2543.264636
862.339062	2543.735984
862.651708	2547.131201
862.964312	2548.799823
863.276873	2546.584236
863.589392	2546.422919
863.901869	2547.300080
864.214303	2544.971067
864.526696	2545.749925
864.839045	2546.979966
865.151353	2547.869730
865.463619	2546.601880
865.775842	2546.644730
866.088023	2547.383259
866.400162	2547.307641
866.712258	2548.298228
867.024313	2549.470296
867.336325	2547.647919
867.648296	2546.667415
867.960224	2545.762528
868.272110	2546.168341
868.583954	2544.663556
868.895755	2549.109854
869.207515	2545.160110
869.519233	2546.438042
869.830909	2548.121788
870.142542	2547.572302
870.454134	2549.263609
870.765684	2545.865871
871.077191	2547.763866
871.388657	2548.068856
871.700081	2545.946530
872.011463	2546.105326
872.322803	2544.819832
872.634101	2548.744370
872.945357	2545.754966
873.256571	2546.564071
873.567744	2545.328988
873.878874	2547.405944
874.189963	2546.107847
874.501010	2550.362581
874.812015	2547.368135
875.122979	2543.698175
875.433900	2545.654143
875.744780	2547.053063
876.055618	2548.293187
876.366415	2547.113557
876.677169	2543.534338
876.987882	2544.741694
877.298554	2541.343956
877.609183	2545.986859
877.919771	2542.334543
878.230317	2544.734132
878.540822	2547.889895
878.851285	2546.029709
879.161707	2544.434184
879.472087	2545.520552
879.782425	2547.363094
880.092722	2546.821170
880.402977	2545.210521
880.713191	2546.445604
881.023363	2548.270502
881.333494	2544.363608
881.643583	2547.847045
881.953631	2546.680018
882.263637	2546.760676
882.573602	2546.380069
882.883526	2546.606921
883.193408	2547.544576
883.503248	2544.461910
883.813048	2544.328319
884.122806	2549.440049
884.432522	2548.083979
884.742197	2545.644061
885.051831	2548.028526
885.361424	2545.699513
885.670975	2547.617672
885.980485	2546.793444
886.289954	2546.352343
886.599382	2545.744884
886.908768	2545.654143
887.218113	2545.835624
887.527417	2547.955430
887.836680	2544.721529
888.145901	2543.851930
888.455082	2543.796478
888.764221	2546.743032
889.073319	2546.954761
889.382376	2544.139276
889.691392	2544.474513
890.000366	2546.465769
890.309300	2548.048691
890.618193	2548.207487
890.927044	2544.663556
891.235855	2547.973074
891.544625	2545.747404
891.853353	2545.999462
892.162041	2546.160779
892.470687	2547.594987
892.779293	2544.285470
893.087858	2543.113401
893.396381	2542.916796
893.704864	2544.159441
894.013306	2542.836138
894.321707	2548.220090
894.630068	2544.749256
894.938387	2548.966181
895.246665	2545.777651
895.554903	2547.370656
895.863100	2545.901159
896.171256	2544.678680
896.479371	2544.688762
896.787446	2544.527445
897.095480	2546.858979
897.403473	2545.412168
897.711425	2544.857641
898.019336	2545.419729
898.327207	2546.352343
898.635038	2545.384441
898.942827	2546.329657
899.250576	2547.126160
899.558284	2544.623227
899.865952	2547.897456
900.173579	2545.545758
900.481165	2546.685059
900.788711	2543.650284
901.096216	2546.705223
901.403681	2547.300080
901.711105	2546.785882
902.018489	2546.173382
902.325832	2548.152035
902.633135	2545.918803
902.940397	2549.130018
903.247619	2547.637837
903.554800	2544.469472
903.861941	2545.260933
904.169041	2546.672456
904.476101	2546.208670
904.783121	2546.339740
905.090100	2545.049204
905.397039	2545.553320
905.703938	2546.047353
906.010796	2548.346119
906.317614	2547.234545
906.624391	2546.987528
906.931129	2546.465769
907.237826	2544.724050
907.544483	2545.492826
907.851099	2545.631458
908.157675	2544.184647
908.464211	2545.485264
908.770707	2545.265974
909.077163	2544.769420
909.383578	2541.739687
909.689954	2545.588608
909.996289	2543.070552
910.302584	2547.534493
910.608839	2541.590973
910.915054	2545.901159
911.221229	2547.456355
911.527363	2545.001313
911.833458	2547.224462
912.139513	2546.362425
912.445527	2545.344112
912.751502	2544.003165
913.057436	2543.809081
913.363331	2546.934596
913.669186	2544.068700
913.975000	2546.448125
914.280775	2543.446118
914.586510	2547.085831
914.892205	2546.034750
915.197859	2545.452497
915.503475	2542.407640
915.809050	2546.715306
916.114585	2545.510470
916.420081	2543.055428
916.725536	2548.046170
917.030952	2544.449307
917.336328	2543.146169
917.641665	2545.901159
917.946961	2543.914945
918.252218	2543.592311
918.557435	2543.461241
918.862612	2544.214893
919.167750	2543.075593
919.472848	2545.434853
919.777906	2544.242620
920.082925	2544.237579
920.387904	2545.691952
920.692843	2544.948381
920.997743	2546.453166
921.302603	2543.627599
921.607423	2545.036602
921.912204	2547.214380
922.216946	2547.219421
922.521647	2545.016437
922.826310	2546.440563
923.130932	2543.189019
923.435516	2545.490305
923.740059	2545.356715
924.044564	2549.467776
924.349028	2545.830583
924.653454	2541.311189
924.957840	2543.032743
925.262186	2540.212217
925.566493	2544.207332
925.870761	2539.871939
926.174989	2546.617003
926.479178	2545.044163
926.783328	2545.008875
927.087438	2544.628268
927.391509	2546.947199
927.695541	2547.030378
927.999533	2546.193546
928.303486	2542.568957
928.607400	2546.443083
928.911275	2543.617517
929.215110	2547.345450
929.518906	2543.214224
929.822663	2544.832435
930.126381	2542.526107
930.430060	2544.184647
930.733699	2544.676159
931.037299	2544.928217
931.340861	2542.947043
931.644383	2544.605583
931.947866	2543.935109
932.251309	2544.101468
932.554714	2546.458207
932.858080	2547.968032
933.161407	2544.955943
933.464694	2546.059956
933.767943	2543.471323
934.071153	2544.398896
934.374323	2545.071890
934.677455	2545.477703
934.980548	2543.209183
935.283602	2542.730274
935.586617	2544.386293
935.889593	2544.524924
936.192530	2546.339740
936.495428	2545.439894
936.798287	2544.900490
937.101108	2544.449307
937.403890	2544.950902
937.706632	2545.724719
938.009336	2545.593649
938.312002	2545.157589
938.614628	2544.613145
938.917216	2545.253371
939.219765	2542.553833
939.522275	2545.409647
939.824747	2547.196736
940.127179	2544.028371
940.429573	2542.405119
940.731929	2542.649615
941.034246	2540.020653
941.336524	2544.885367
941.638763	2544.713968
941.940964	2546.364946
942.243126	2544.852599
942.545250	2545.686910
942.847335	2545.545758
943.149381	2543.801519
943.451389	2544.167002
943.753359	2544.542568
944.055290	2544.759338
944.357182	2544.857641
944.659036	2544.124153
944.960851	2546.155738
945.262628	2543.662887
945.564367	2545.392003
945.866067	2547.045501
946.167729	2544.930737
946.469352	2544.681200
946.770937	2543.738504
947.072484	2543.236910
947.373992	2544.315717
947.675462	2543.171375
947.976893	2544.325799
948.278286	2544.046015
948.579641	2544.197249
948.880958	2544.207332
949.182236	2542.435366
949.483476	2542.453010
949.784678	2543.804039
950.085841	2543.017619
950.386967	2545.429812
950.688054	2542.410160
950.989103	2544.708927
951.290114	2543.892260
951.591087	2543.700696
951.892021	2543.015099
952.192917	2545.366797
952.493776	2542.291693
952.794596	2546.853937
953.095378	2545.213042
953.396122	2547.128680
953.696828	2547.048022
953.997496	2544.015768
954.298126	2542.997455
954.598718	2544.749256
954.899272	2543.627599
955.199788	2545.185316
955.500266	2544.378731
955.800706	2541.031405
956.101108	2539.047711
956.401472	2541.175078
956.701798	2540.073586
957.002087	2541.107022
957.302337	2545.407126
957.602550	2544.897970
957.902724	2546.160779
958.202861	2543.710778
958.502960	2546.130532
958.803022	2545.326468
959.103045	2542.609286
959.403031	2547.826880
959.702979	2542.730274
960.002889	2543.335212
960.302762	2545.931406
960.602596	2543.229348
960.902393	2545.205480
961.202153	2545.167672
961.501875	2544.209852
961.801559	2543.438556
962.101205	2543.647764
962.400814	2543.005017
962.700385	2545.018958
962.999918	2546.415357
963.299414	2545.974256
963.598873	2544.000644
963.898293	2543.436035
964.197677	2545.152548
964.497022	2543.733463
964.796331	2544.892929
965.095601	2542.251364
965.394835	2545.452497
965.694030	2544.111550
965.993189	2545.901159
966.292309	2547.068187
966.591393	2546.312013
966.890439	2541.230530
967.189447	2542.576518
967.488419	2540.766744
967.787353	2542.558874
968.086249	2543.057949
968.385108	2543.728422
968.683930	2546.737991
968.982714	2542.858823
969.281462	2542.478216
969.580172	2545.681869
969.878844	2544.623227
970.177480	2546.523742
970.476078	2543.831766
970.774639	2544.789585
971.073162	2542.536189
971.371649	2544.149358
971.670098	2538.833462
971.968510	2541.800181
972.266885	2539.128369
972.565223	2543.680531
972.863524	2544.318237
973.161788	2542.291693
973.460014	2544.852599
973.758204	2546.095244
974.056356	2544.981149
974.354471	2544.096426
974.652550	2545.593649
974.950591	2544.272867
975.248595	2542.747918
975.546563	2544.797147
975.844493	2540.151723
976.142386	2543.062990
976.440243	2543.509132
976.738062	2543.678011
977.035845	2542.490819
977.333590	2544.093906
977.631299	2545.202960
977.928971	2543.816642
978.226606	2546.082641
978.524204	2542.914276
978.821765	2543.504091
979.119290	2543.234389
979.416777	2544.676159
979.714228	2542.926879
980.011642	2545.679349
980.309020	2546.813608
980.606360	2545.603731
980.903664	2542.999975
981.200931	2541.434697
981.498162	2540.844882
981.795356	2542.674821
982.092513	2544.406457
982.389633	2544.030891
982.686717	2542.891591
982.983764	2544.943340
983.280775	2541.948895
983.577749	2543.128525
983.874686	2543.831766
984.171587	2544.933258
984.468451	2544.164482
984.765279	2543.763710
985.062070	2544.320758
985.358824	2543.670449
985.655543	2541.432177
985.952224	2538.052083
986.248869	2542.785726
986.545478	2538.407484
986.842050	2540.650798
987.138586	2540.121477
987.435086	2540.275232
987.731549	2537.742052
988.027975	2541.916127
988.324366	2542.705068
988.620719	2546.349822
988.917037	2544.885367
989.213318	2543.458720
989.509563	2542.861344
989.805772	2542.929399
990.101944	2543.746066
990.398080	2545.260933
990.694180	2543.040305
990.990244	2544.958464
991.286271	2541.651467
991.582262	2546.274205
991.878217	2541.749769
992.174136	2542.629451
992.470019	2543.773793
992.765865	2543.511652
993.061676	2541.275901
993.357450	2545.427291
993.653188	2543.239430
993.948890	2545.124822
994.244556	2543.922507
994.540186	2545.913762
994.835780	2543.912424
995.131337	2545.457538
995.426859	2541.417053
995.722345	2542.216076
996.017795	2542.828576
996.313208	2543.045346
996.608586	2543.514173
996.903928	2543.625078
997.199234	2542.601724
997.494504	2542.770603
997.789738	2541.028884
998.084936	2545.901159
998.380099	2541.989224
998.675225	2543.559543
998.970316	2541.462423
999.265371	2542.347146
999.560390	2542.730274
999.855373	2543.473844
1000.150320	2541.613658
1000.445232	2543.486447
1000.740108	2544.776982
1001.034948	2541.469985
1001.329752	2541.354039
1001.624521	2543.017619
1001.919254	2538.820859
1002.213951	2539.398071
1002.508613	2538.888914
1002.803239	2540.267670
1003.097829	2536.015457
1003.392384	2545.323947
1003.686903	2542.667259
1003.981386	2544.998793
1004.275834	2542.994934
1004.570246	2543.370500
1004.864623	2543.322609
1005.158964	2541.744728
1005.453270	2542.775644
1005.747540	2543.957795
1006.041775	2542.710109
1006.335974	2545.006355
1006.630138	2543.627599
1006.924266	2544.950902
1007.218359	2543.703216
1007.512416	2540.870088
1007.806438	2542.732794
1008.100425	2541.285983
1008.394376	2544.827394
1008.688292	2545.797816
1008.982172	2542.949564
1009.276017	2542.027033
1009.569827	2542.490819
1009.863602	2543.804039
1010.157341	2543.534338
1010.451045	2541.175078
1010.744714	2540.388658
1011.038347	2541.928730
1011.331945	2542.458051
1011.625508	2540.202135
1011.919036	2541.901004
1012.212528	2540.686086
1012.505986	2542.528627
1012.799408	2544.035932
1013.092795	2543.562064
1013.386147	2541.742208
1013.679464	2540.799512
1013.972745	2541.275901
1014.265992	2542.072403
1014.559204	2541.565767
1014.852380	2544.325799
1015.145521	2540.408822
1015.438628	2543.705737
1015.731699	2542.170706
1016.024736	2541.275901
1016.317737	2543.678011
1016.610703	2545.213042
1016.903635	2541.381765
1017.196531	2541.142310
1017.489393	2539.251878
1017.782219	2536.136444
1018.075011	2539.919830
1018.367768	2545.044163
1018.660490	2541.772454
1018.953177	2541.772454
1019.245829	2541.772454
