Dividing Wavelength (nm)	Counts (n)	Blue Motor Position (mm): 8.500000	Red Motor Position (mm): 0.000000	
326.493990	2159.479073
326.888308	2159.479073
327.282561	2159.479073
327.676750	2134.807666
328.070874	2135.793212
328.464933	2140.940230
328.858929	2153.223001
329.252859	2160.608292
329.646726	2175.031033
330.040528	2191.717252
330.434265	2209.905735
330.827938	2230.322408
331.221547	2249.693042
331.615091	2268.141144
332.008571	2289.190482
332.401986	2308.276291
332.795338	2327.714980
333.188625	2346.568895
333.581847	2368.591176
333.975006	2388.675133
334.368100	2408.287742
334.761129	2422.755853
335.154095	2437.599531
335.546996	2460.977882
335.939833	2478.531179
336.332606	2493.319404
336.725315	2505.014881
337.117960	2513.100892
337.510540	2520.571882
337.903056	2533.121834
338.295508	2536.902700
338.687896	2540.681045
339.080220	2550.077755
339.472480	2559.489590
339.864676	2558.493962
340.256807	2565.004612
340.648875	2564.311453
341.040879	2567.676423
341.432818	2569.539130
341.824694	2569.975190
342.216506	2569.791187
342.608253	2567.991496
342.999937	2566.254818
343.391557	2567.421845
343.783113	2567.399160
344.174605	2565.352452
344.566033	2561.984961
344.957397	2563.315825
345.348697	2560.333983
345.739934	2558.372974
346.131106	2555.885165
346.522215	2556.008673
346.913260	2553.674619
347.304241	2552.406768
347.695159	2550.256716
348.086012	2547.010213
348.476802	2542.947043
348.867528	2546.140614
349.258191	2545.356715
349.648789	2544.721529
350.039324	2544.126673
350.429796	2542.533669
350.820203	2537.406815
351.210548	2539.365303
351.600828	2538.392361
351.991045	2539.370345
352.381198	2536.822041
352.771288	2536.199459
353.161314	2536.131403
353.551276	2536.219623
353.941175	2536.741383
354.331010	2537.260622
354.720782	2537.389171
355.110490	2540.509645
355.500135	2536.038142
355.889717	2538.175591
356.279235	2538.639377
356.668689	2541.916127
357.058080	2538.193235
357.447408	2538.465458
357.836672	2538.210879
358.225873	2534.908923
358.615010	2535.465971
359.004084	2540.030736
359.393095	2541.916127
359.782043	2541.666590
360.170927	2542.952084
360.559748	2542.286652
360.948505	2544.666077
361.337199	2544.028371
361.725830	2545.351674
362.114398	2543.647764
362.502903	2545.886036
362.891344	2548.883002
363.279722	2547.305121
363.668037	2545.860830
364.056289	2545.276056
364.444478	2548.706562
364.832603	2546.720347
365.220665	2546.730429
365.608665	2547.741181
365.996601	2546.183464
366.384474	2552.492468
366.772284	2549.818136
367.160031	2547.542055
367.547715	2548.550286
367.935336	2548.857796
368.322893	2553.132695
368.710388	2549.258568
369.097820	2554.219063
369.485189	2552.416851
369.872495	2554.153528
370.259738	2551.811912
370.646918	2550.818805
371.034035	2549.077086
371.421090	2555.141594
371.808081	2553.901471
372.195010	2552.547921
372.581875	2549.268650
372.968678	2555.345761
373.355418	2555.433981
373.742096	2554.420709
374.128710	2554.808878
374.515262	2553.518343
374.901751	2554.836605
375.288177	2555.199568
375.674540	2555.736451
376.060841	2553.404917
376.447079	2555.978426
376.833254	2555.471790
377.219367	2552.429454
377.605417	2554.496327
377.991404	2552.421892
378.377329	2554.987839
378.763191	2553.130174
379.148991	2556.706873
379.534727	2556.474980
379.920402	2555.963302
380.306013	2559.214847
380.691563	2558.922460
381.077049	2555.910370
381.462474	2559.275341
381.847835	2557.843653
382.233134	2557.866338
382.618371	2559.587892
383.003545	2559.877758
383.388657	2559.996226
383.773706	2562.496638
384.158693	2560.517985
384.543618	2560.139898
384.928480	2557.480690
385.313280	2563.131823
385.698017	2560.646534
386.082692	2559.136709
386.467305	2560.679302
386.851856	2559.618139
387.236344	2562.126113
387.620770	2563.285578
388.005133	2560.356668
388.389435	2560.507903
388.773674	2560.596123
389.157851	2560.364230
389.541965	2562.340362
389.926018	2565.075188
390.310008	2563.870352
390.693936	2564.414797
391.077802	2561.289282
391.461606	2564.447564
391.845348	2564.664334
392.229027	2563.593089
392.612645	2563.033521
392.996200	2564.039231
393.379694	2565.090312
393.763125	2566.569890
394.146494	2567.376475
394.529801	2564.094684
394.913047	2565.864129
395.296230	2566.244736
395.679351	2566.980744
396.062410	2567.913358
396.445408	2564.321536
396.828343	2568.881259
397.211217	2562.300033
397.594028	2566.826989
397.976778	2563.767009
398.359466	2564.185424
398.742092	2559.663509
399.124656	2566.645507
399.507158	2567.096691
399.889598	2570.834706
400.271977	2567.865467
400.654294	2569.486198
401.036549	2570.164233
401.418742	2567.005950
401.800874	2567.313460
402.182944	2570.345714
402.564952	2566.557287
402.946898	2568.016701
403.328783	2570.756568
403.710606	2573.430901
404.092367	2569.629871
404.474067	2568.299006
404.855705	2570.285221
405.237282	2568.074675
405.618797	2571.353945
406.000250	2571.694223
406.381642	2567.714232
406.762972	2572.470561
407.144240	2571.255643
407.525447	2571.507700
407.906593	2570.633060
408.287677	2569.057700
408.668700	2571.548030
409.049661	2570.847309
409.430560	2569.062741
409.811399	2573.682958
410.192176	2571.946281
410.572891	2574.129100
410.953545	2575.081878
411.334138	2574.272773
411.714669	2572.810839
412.095139	2573.017526
412.475547	2574.003072
412.855894	2570.839748
413.236180	2572.757907
413.616405	2571.414439
413.996568	2571.991651
414.376670	2575.044070
414.756711	2573.950139
415.136691	2574.877712
415.516609	2575.752352
415.896466	2575.296127
416.276262	2574.449214
416.655997	2566.763975
417.035670	2570.302865
417.415283	2571.721949
417.794834	2570.091136
418.174324	2572.246229
418.553753	2575.646488
418.933121	2574.683627
419.312428	2573.919892
419.691674	2574.227403
420.070859	2577.907445
420.449983	2572.382341
420.829045	2575.674214
421.208047	2576.629513
421.586988	2574.988617
421.965867	2577.242013
422.344686	2572.876374
422.723444	2578.895511
423.102141	2574.809656
423.480777	2577.524317
423.859352	2575.704461
424.237866	2580.173444
424.616319	2577.904925
424.994712	2578.741756
425.373044	2579.707137
425.751314	2577.728484
426.129524	2579.941551
426.507673	2577.922569
426.885762	2577.448700
427.263789	2579.724781
427.641756	2578.373752
428.019662	2579.213104
428.397508	2577.680593
428.775292	2579.059349
429.153016	2579.704617
429.530679	2580.196129
429.908282	2579.341653
430.285824	2577.960377
430.663305	2579.273598
431.040726	2578.429205
431.418086	2579.787796
431.795385	2583.112437
432.172624	2580.007086
432.549802	2581.030440
432.926920	2580.624627
433.303977	2579.334092
433.680974	2577.872157
434.057910	2579.245872
434.434786	2581.690831
434.811601	2581.348033
435.188355	2578.572877
435.565050	2581.595049
435.941683	2580.695203
436.318257	2579.508012
436.694770	2576.173288
437.071222	2576.750500
437.447614	2577.307548
437.823946	2578.812332
438.200218	2580.521283
438.576429	2579.926427
438.952580	2581.963053
439.328670	2581.685790
439.704700	2582.615883
440.080670	2580.932137
440.456580	2580.097827
440.832429	2584.239134
441.208218	2583.548496
441.583947	2581.184195
441.959616	2584.254258
442.335224	2582.575554
442.710773	2579.702096
443.086261	2581.411047
443.461689	2582.822570
443.837057	2582.542786
444.212365	2583.240986
444.587612	2579.470203
444.962800	2583.795513
445.337927	2583.195616
445.712995	2583.024216
446.088002	2585.454053
446.462949	2580.299473
446.837837	2582.303331
447.212664	2582.154617
447.587431	2582.129412
447.962139	2582.908270
448.336786	2584.854155
448.711374	2586.731985
449.085901	2584.559248
449.460369	2582.205029
449.834776	2583.800554
450.209124	2584.886923
450.583412	2585.194433
450.957640	2582.618403
451.331808	2583.026737
451.705917	2583.515729
452.079965	2585.625452
452.453954	2582.371387
452.827883	2581.963053
453.201752	2586.104361
453.575562	2587.462952
453.949311	2584.856676
454.323001	2585.179310
454.696632	2584.309711
455.070202	2589.081163
455.443713	2583.916501
455.817164	2583.258630
456.190556	2581.524473
456.563888	2584.234093
456.937160	2580.727971
457.310373	2585.585123
457.683526	2584.823908
458.056619	2586.089238
458.429653	2584.579412
458.802628	2584.418095
459.175542	2587.067222
459.548398	2587.347006
459.921194	2585.915318
460.293930	2586.416913
460.666607	2586.863055
461.039224	2584.720565
461.411782	2587.725092
461.784280	2586.676532
462.156719	2588.546800
462.529099	2587.258786
462.901419	2588.589650
463.273680	2586.106882
463.645882	2588.060329
464.018024	2586.865576
464.390106	2587.926738
464.762130	2583.843404
465.134094	2584.065215
465.505999	2587.364650
465.877845	2587.367170
466.249631	2585.726275
466.621358	2585.685946
466.993026	2590.343972
467.364634	2589.408838
467.736184	2589.050916
468.107674	2585.335585
468.479105	2586.661409
468.850477	2585.658219
469.221790	2586.313569
469.593043	2587.067222
469.964238	2588.229208
470.335373	2587.962027
470.706449	2586.941193
471.077467	2587.480596
471.448425	2588.990422
471.819324	2587.513364
472.190164	2587.034454
472.560945	2589.237438
472.931667	2588.771132
473.302330	2588.201481
473.672934	2588.897161
474.043479	2588.687953
474.413965	2587.571337
474.784393	2583.954309
475.154761	2585.146542
475.525070	2586.497571
475.895321	2584.864237
476.265513	2584.294587
476.635645	2591.168200
477.005719	2587.326841
477.375734	2589.645772
477.745691	2589.058477
478.115588	2589.308015
478.485427	2588.703076
478.855207	2588.582088
479.224928	2587.934300
479.594591	2589.605443
479.964194	2590.248190
480.333739	2588.146029
480.703226	2589.943200
481.072653	2591.155597
481.442022	2589.224836
481.811333	2589.764239
482.180584	2590.848087
482.549777	2589.766760
482.918912	2590.923704
483.287988	2590.439754
483.657005	2591.258941
484.025964	2588.715679
484.394864	2589.726430
484.763706	2592.597367
485.132489	2594.134919
485.501213	2589.113930
485.869879	2591.372367
486.238487	2589.786924
486.607036	2590.049064
486.975527	2590.091914
487.343959	2587.324321
487.712333	2591.072418
488.080648	2590.500247
488.448905	2589.751636
488.817104	2591.384970
489.185244	2589.136615
489.553326	2589.610484
489.921350	2590.888416
490.289315	2592.176431
490.657222	2592.965372
491.025070	2592.428489
491.392861	2595.886720
491.760593	2592.312542
492.128267	2592.085690
492.495883	2592.894796
492.863440	2592.672985
493.230939	2589.802048
493.598380	2595.435537
493.965763	2587.871286
494.333088	2587.031934
494.700354	2588.851790
495.067563	2592.539394
495.434713	2588.418251
495.801805	2591.989908
496.168839	2592.262131
496.535815	2594.013932
496.902733	2592.922522
497.269593	2592.587285
497.636395	2592.463777
498.003139	2589.552511
498.369825	2591.621904
498.736453	2593.156936
499.103023	2592.400762
499.469535	2594.329004
499.835989	2592.582244
500.202385	2591.314394
500.568723	2593.182141
500.935003	2591.231215
501.301226	2592.544435
501.667390	2592.655341
502.033497	2595.929570
502.399546	2593.771956
502.765537	2594.087028
503.131470	2592.317583
503.497345	2591.919332
503.863163	2594.513006
504.228923	2594.944025
504.594625	2591.274065
504.960269	2593.643407
505.325856	2594.170207
505.691385	2592.294898
506.056856	2593.368664
506.422270	2594.679364
506.787625	2591.120309
507.152924	2591.137953
507.518164	2592.201637
507.883347	2592.040320
508.248472	2592.567121
508.613540	2591.004363
508.978550	2593.547625
509.343503	2592.176431
509.708398	2593.252717
510.073236	2594.112234
510.438016	2593.953438
510.802738	2594.863366
511.167403	2593.837491
511.532010	2596.005187
511.896561	2592.914960
512.261053	2594.117275
512.625488	2588.808940
512.989866	2590.268354
513.354186	2589.471852
513.718449	2590.081832
514.082655	2591.085021
514.446803	2593.976123
514.810894	2592.453695
515.174927	2593.615681
515.538904	2593.288006
515.902822	2594.442430
516.266684	2592.108376
516.630488	2596.136257
516.994235	2592.095773
517.357925	2594.003849
517.721558	2596.042996
518.085133	2594.374374
518.448651	2593.983685
518.812112	2592.965372
519.175516	2597.462081
519.538863	2597.565425
519.902152	2597.749427
520.265385	2598.918974
520.628560	2597.900661
520.991678	2594.298757
521.354739	2595.380084
521.717743	2595.813624
522.080690	2596.365630
522.443580	2596.564756
522.806413	2598.898810
523.169189	2597.267997
523.531908	2597.255394
523.894569	2598.157760
524.257174	2595.594333
524.619722	2597.898141
524.982213	2598.737493
525.344647	2598.165322
525.707025	2597.749427
526.069345	2600.529623
526.431608	2598.820672
526.793815	2596.584920
527.155964	2601.137082
527.518057	2599.917123
527.880093	2599.551639
528.242072	2597.106680
528.603995	2597.567945
528.965860	2597.552822
529.327669	2601.048862
529.689421	2596.920157
530.051117	2601.240426
530.412755	2600.927874
530.774337	2601.729418
531.135862	2600.454006
531.497331	2596.587441
531.858743	2596.723552
532.220098	2597.051227
532.581396	2597.820003
532.942638	2597.444437
533.303824	2600.635487
533.664953	2600.532144
534.026025	2604.338215
534.387040	2601.628595
534.747999	2600.806887
535.108902	2601.041300
535.469748	2601.152206
535.830537	2601.147164
536.191270	2601.404263
536.551947	2600.327977
536.912567	2602.190683
537.273131	2603.014912
537.633638	2604.660849
537.994089	2606.082454
538.354483	2603.529110
538.714821	2604.834768
539.075103	2601.870570
539.435328	2604.668410
539.795497	2602.515838
540.155609	2602.919130
540.515665	2602.916609
540.875665	2604.582711
541.235609	2606.594131
541.595496	2602.843513
541.955328	2603.259408
542.315102	2602.515838
542.674821	2605.457351
543.034483	2602.460385
543.394090	2602.518358
543.753640	2607.060438
544.113134	2604.345777
544.472571	2605.417022
544.831953	2607.017588
545.191278	2604.323091
545.550548	2606.178236
545.909761	2604.960797
546.268918	2605.979110
546.628019	2606.077413
546.987064	2605.497680
547.346053	2607.068000
547.704986	2605.157402
548.063863	2604.350818
548.422684	2605.109511
548.781449	2605.837958
549.140158	2607.486415
549.498811	2606.097577
549.857408	2608.915582
550.215949	2602.777978
550.574434	2604.186980
550.932864	2602.599017
551.291237	2602.422576
551.649555	2603.024994
552.007817	2604.244953
552.366022	2606.957094
552.724173	2606.339553
553.082267	2605.301075
553.440305	2607.017588
553.798288	2607.642691
554.156215	2607.070520
554.514086	2603.619850
554.871902	2608.391302
555.229661	2604.416353
555.587365	2605.558174
555.945014	2604.660849
556.302606	2606.616816
556.660143	2608.071189
557.017625	2605.580859
557.375050	2608.953391
557.732421	2606.445417
558.089735	2608.161930
558.446994	2607.718308
558.804197	2608.393823
559.161345	2607.378031
559.518437	2605.744697
559.875474	2607.105808
560.232455	2606.783174
560.589381	2604.827207
560.946251	2609.389451
561.303065	2606.689913
561.659825	2611.718464
562.016528	2608.111518
562.373177	2606.155551
562.729770	2606.863833
563.086307	2611.058073
563.442789	2609.349122
563.799216	2608.116560
564.155587	2608.456838
564.511904	2605.613627
564.868164	2606.909203
565.224370	2608.446755
565.580520	2609.575974
565.936615	2607.294852
566.292654	2608.540017
566.648638	2607.115891
567.004567	2607.327619
567.360441	2606.556322
567.716260	2607.861981
568.072023	2609.548247
568.427732	2606.004316
568.783385	2607.587238
569.138982	2604.262597
569.494525	2605.394337
569.850013	2605.411981
570.205445	2607.672938
570.560823	2608.419029
570.916145	2607.554471
571.271412	2611.108484
571.626625	2609.626385
571.981782	2606.579008
572.336884	2609.729729
572.691931	2608.744183
573.046923	2609.633947
573.401860	2609.250819
573.756743	2609.444904
574.111570	2608.562702
574.466342	2610.657301
574.821059	2608.976076
575.175722	2609.676797
575.530330	2608.756786
575.884882	2611.148814
576.239380	2610.599328
576.593823	2611.642847
576.948211	2610.160747
577.302544	2610.596807
577.656823	2610.548916
578.011047	2610.942126
578.365216	2611.962960
578.719330	2609.568412
579.073389	2611.476489
579.427394	2612.041098
579.781344	2610.075048
580.135239	2611.415995
580.489080	2611.352980
580.842866	2608.499687
581.196597	2608.222424
581.550273	2607.753597
581.903895	2608.431632
582.257463	2609.986828
582.610975	2608.529934
582.964434	2608.726539
583.317837	2608.524893
583.671186	2613.066973
584.024481	2611.231993
584.377721	2608.945829
584.730906	2612.421705
585.084037	2610.896756
585.437113	2607.930037
585.790135	2609.512959
586.143103	2609.638988
586.496016	2610.806015
586.848874	2605.338884
587.201679	2609.394492
587.554428	2607.584718
587.907124	2607.980448
588.259765	2604.867536
588.612352	2608.845006
588.964884	2612.283073
589.317362	2611.957919
589.669786	2609.611262
590.022155	2612.149483
590.374470	2610.364914
590.726731	2611.158896
591.078937	2610.959770
591.431090	2613.152672
591.783188	2610.374997
592.135232	2609.192846
592.487222	2607.662856
592.839157	2612.096551
593.191038	2612.288114
593.542866	2611.347939
593.894639	2612.479678
594.246358	2608.915582
594.598022	2611.292487
594.949633	2614.244082
595.301190	2611.226952
595.652692	2610.516149
596.004141	2614.387755
596.355535	2611.342898
596.706876	2611.295007
597.058162	2614.758280
597.409395	2611.201746
597.760573	2611.718464
598.111698	2613.172837
598.462768	2614.528907
598.813785	2614.125615
599.164748	2614.518825
599.515657	2612.469596
599.866511	2611.960439
600.217312	2614.024792
600.568060	2615.065790
600.918753	2616.293311
601.269392	2614.271808
601.619978	2616.137035
601.970510	2617.583847
602.320988	2614.922117
602.671412	2618.219032
603.021783	2615.685852
603.372100	2617.735081
603.722363	2617.919083
604.072572	2617.331789
604.422728	2618.836573
604.772830	2615.237189
605.122878	2613.959257
605.472872	2614.226438
605.822813	2613.261057
606.172701	2616.626027
606.522534	2620.742129
606.872314	2622.100720
607.222041	2618.776079
607.571714	2621.508385
607.921333	2622.383025
608.270899	2622.297325
608.620411	2621.518467
608.969870	2624.016359
609.319276	2623.050978
609.668627	2623.658437
610.017926	2627.096504
610.367171	2623.824795
610.716362	2626.504168
611.065500	2625.594240
611.414585	2626.191617
611.763616	2628.646659
612.112594	2628.576082
612.461518	2628.911319
612.810389	2630.469036
613.159207	2626.126082
613.507971	2629.420476
613.856682	2631.941053
614.205340	2635.048924
614.553945	2636.188225
614.902496	2633.128244
615.250994	2636.820890
615.599439	2637.219141
615.947830	2638.567649
616.296169	2639.533030
616.644454	2639.669142
616.992686	2639.812814
617.340864	2645.801705
617.688990	2641.050418
618.037063	2645.705923
618.385082	2646.910759
618.733048	2649.796820
619.080961	2648.498722
619.428821	2648.445790
619.776628	2651.321769
620.124382	2654.926194
620.472083	2654.507778
620.819731	2653.512150
621.167326	2654.444763
621.514868	2657.182110
621.862357	2654.938797
622.209793	2654.401914
622.557176	2658.192861
622.904506	2655.687408
623.251783	2653.423930
623.599007	2655.538694
623.946179	2653.804537
624.293297	2656.491472
624.640363	2658.175217
624.987376	2661.595640
625.334336	2660.771412
625.681243	2664.285096
626.028097	2663.246618
626.374899	2662.808038
626.721647	2662.616474
627.068343	2667.977741
627.414987	2665.678975
627.761577	2665.681495
628.108115	2669.439676
628.454600	2669.737104
628.801032	2669.807680
629.147412	2675.110974
629.493739	2674.387568
629.840014	2676.411591
630.186236	2677.641633
630.532405	2679.093485
630.878521	2681.082220
631.224585	2682.975174
631.570597	2687.713858
631.916556	2689.684949
632.262462	2691.678726
632.608316	2693.445650
632.954117	2693.498582
633.299866	2695.565455
633.645562	2693.284333
633.991206	2697.158460
634.336797	2695.278110
634.682336	2697.917154
635.027823	2696.913964
635.373257	2699.905889
635.718639	2698.186855
636.063968	2700.994778
636.409245	2701.461085
636.754470	2704.639532
637.099642	2702.050900
637.444762	2705.662887
637.789829	2704.790767
638.134845	2706.154399
638.479808	2709.526931
638.824719	2710.895604
639.169577	2708.425439
639.514383	2712.803681
639.859137	2711.492981
640.203839	2718.608570
640.548489	2716.876933
640.893086	2714.610935
641.237632	2714.938610
641.582125	2722.591081
641.926566	2720.977912
642.270955	2724.884806
642.615292	2730.160374
642.959576	2731.534088
643.303809	2732.378481
643.647990	2739.592372
643.992118	2739.269739
644.336195	2741.475243
644.680219	2742.017167
645.024192	2749.130236
645.368112	2753.155597
645.711981	2755.277923
646.055797	2765.932401
646.399562	2766.867535
646.743274	2777.607714
647.086935	2787.410237
647.430544	2791.975002
647.774101	2795.193779
648.117606	2800.829789
648.461059	2803.776343
648.804460	2809.611479
649.147810	2806.034780
649.491108	2807.857157
649.834354	2806.964873
650.177548	2806.503607
650.520690	2802.488328
650.863781	2805.565953
651.206820	2810.493681
651.549807	2812.689103
651.892742	2809.613999
652.235626	2812.384113
652.578458	2813.815801
652.921238	2814.748415
653.263967	2820.795279
653.606644	2820.540700
653.949269	2823.535146
654.291843	2824.384580
654.634365	2832.994871
654.976836	2835.147444
655.319255	2836.856395
655.661622	2839.394616
656.003938	2840.856550
656.346203	2842.666325
656.688416	2850.679239
657.030577	2853.315762
657.372687	2854.649147
657.714746	2857.850280
658.056753	2863.072915
658.398708	2862.324304
658.740612	2865.752289
659.082465	2869.785212
659.424266	2871.153885
659.766016	2879.824670
660.107715	2886.219373
660.449362	2891.845301
660.790958	2895.545508
661.132503	2901.496590
661.473996	2906.986407
661.815438	2912.435894
662.156829	2917.459404
662.498168	2921.804878
662.839456	2927.277051
663.180693	2932.764347
663.521879	2940.673917
663.863013	2942.997889
664.204097	2947.625668
664.545129	2957.521453
664.886110	2963.467494
665.227040	2966.308184
665.567918	2976.698003
665.908746	2983.700165
666.249522	2991.040085
666.590248	2997.835561
666.930922	3006.450893
667.271545	3012.147396
667.612118	3020.387162
667.952639	3020.419930
668.293109	3029.660365
668.633528	3031.933925
668.973896	3033.093391
669.314213	3040.559339
669.654480	3044.204094
669.994695	3051.614590
670.334859	3053.391597
670.674973	3057.192627
671.015035	3065.339131
671.355047	3069.591344
671.695008	3077.962180
672.034918	3076.641398
672.374777	3086.237234
672.714585	3093.559510
673.054342	3106.535440
673.394049	3111.710185
673.733705	3120.398613
674.073310	3123.766104
674.412864	3131.176600
674.752368	3127.642752
675.091820	3138.120790
675.431223	3140.558188
675.770574	3140.351500
676.109875	3136.053917
676.449125	3140.033908
676.788324	3143.890390
677.127473	3143.512304
677.466571	3144.273518
677.805619	3148.263591
678.144616	3152.357008
678.483562	3155.714417
678.822458	3158.713903
679.161303	3164.221364
679.500098	3168.995337
679.838842	3171.919206
680.177535	3180.075793
680.516179	3191.685570
680.854771	3201.717466
681.193314	3223.893502
681.531805	3254.145466
681.870247	3284.354581
682.208638	3313.847851
682.546978	3334.256963
682.885268	3345.072758
683.223508	3344.810618
683.561697	3344.684589
683.899836	3346.156606
684.237925	3346.509487
684.575963	3349.672811
684.913951	3347.900845
685.251889	3364.166128
685.589776	3371.112838
685.927614	3378.069631
686.265401	3395.040675
686.603137	3408.377048
686.940824	3430.200203
687.278460	3449.588480
687.616046	3467.461891
687.953582	3495.485665
688.291068	3505.315915
688.628504	3525.203267
688.965889	3537.468395
689.303224	3535.227602
689.640510	3535.562838
689.977745	3525.704862
690.314930	3509.018643
690.652065	3503.924557
690.989150	3487.845797
691.326185	3468.389463
691.663170	3452.146866
692.000105	3438.916358
692.336990	3422.152000
692.673825	3413.942481
693.010610	3403.227509
693.347345	3388.706465
693.684030	3373.865308
694.020665	3367.334493
694.357251	3358.023482
694.693786	3361.595140
695.030272	3362.653782
695.366707	3356.095241
695.703093	3350.978470
696.039429	3354.751773
696.375716	3355.492823
696.711952	3357.758822
697.048139	3358.865355
697.384276	3360.884337
697.720363	3373.640977
698.056400	3375.753220
698.392388	3373.666183
698.728326	3381.981566
699.064214	3382.573902
699.400053	3382.226062
699.735842	3381.449724
700.071581	3378.961915
700.407270	3375.004609
700.742910	3371.057386
701.078501	3366.265769
701.414042	3365.943135
701.749533	3357.930221
702.084974	3353.476362
702.420366	3364.473639
702.755709	3353.967874
703.091002	3348.672142
703.426246	3356.720344
703.761440	3357.642875
704.096584	3354.172041
704.431679	3354.782020
704.766725	3357.834439
705.101721	3357.718493
705.436668	3368.912375
705.771565	3360.970037
706.106413	3382.490723
706.441212	3385.396948
706.775961	3401.644587
707.110661	3410.222110
707.445311	3431.369750
707.779913	3428.062753
708.114465	3449.845579
708.448967	3464.061633
708.783421	3501.905575
709.117825	3516.981145
709.452180	3537.246584
709.786485	3561.154256
710.120742	3605.796194
710.454949	3616.009572
710.789107	3638.689723
711.123216	3683.530786
711.457275	3699.531408
711.791286	3733.496183
712.125247	3750.104264
712.459159	3749.975714
712.793023	3790.801499
713.126837	3754.454780
713.460602	3773.364148
713.794318	3766.109927
714.127985	3757.214811
714.461602	3723.507136
714.795171	3730.108527
715.128691	3691.276519
715.462162	3667.494876
715.795584	3654.060201
716.128957	3648.167092
716.462281	3632.713435
716.795556	3625.368474
717.128782	3603.678909
717.461960	3580.661001
717.795088	3582.969849
718.128167	3565.741706
718.461198	3544.405022
718.794180	3545.020043
719.127113	3532.288609
719.459997	3528.233001
719.792833	3513.313706
720.125619	3520.416692
720.458357	3502.613857
720.791046	3502.787777
721.123686	3497.824761
721.456278	3489.645489
721.788821	3488.942248
722.121315	3479.482523
722.453761	3486.577947
722.786158	3485.695745
723.118506	3495.004235
723.450805	3492.760922
723.783056	3506.508148
724.115259	3505.504959
724.447412	3505.830113
724.779518	3522.176054
725.111574	3529.319369
725.443582	3546.353428
725.775542	3547.253274
726.107453	3583.695775
726.439315	3578.362235
726.771129	3608.493211
727.102895	3638.631749
727.434612	3655.446518
727.766281	3668.493024
728.097901	3691.878937
728.429473	3705.210268
728.760996	3710.639591
729.092471	3726.438567
729.423897	3730.950400
729.755276	3725.959658
730.086606	3734.128847
730.417887	3772.834827
730.749120	3814.094150
731.080305	3834.052078
731.411442	3869.075495
731.742530	3884.025036
732.073570	3900.139085
732.404562	3929.725617
732.735506	3932.727624
733.066401	3928.266202
733.397249	3911.217020
733.728048	3878.515055
734.058798	3831.770956
734.389501	3788.091879
734.720156	3762.192951
735.050762	3721.959502
735.381320	3702.992161
735.711831	3683.427442
736.042293	3654.309738
736.372707	3656.936179
736.703073	3645.540651
737.033391	3660.477590
737.363661	3660.031447
737.693883	3670.184331
738.024056	3683.077082
738.354182	3695.516129
738.684260	3719.070921
739.014290	3735.908375
739.344272	3755.062239
739.674207	3780.734315
740.004093	3798.665699
740.333931	3805.312460
740.663722	3814.830159
740.993464	3826.634020
741.323159	3822.885923
741.652806	3811.686999
741.982405	3802.978406
742.311956	3786.491312
742.641460	3784.676497
742.970915	3772.923047
743.300323	3749.280035
743.629683	3740.475660
743.958996	3724.527970
744.288260	3705.825289
744.617477	3683.273687
744.946647	3681.209335
745.275768	3664.122344
745.604842	3653.193122
745.933869	3640.839775
746.262847	3644.799601
746.591778	3643.226761
746.920662	3633.547746
747.249498	3635.307108
747.578286	3646.105260
747.907027	3658.977846
748.235720	3683.682021
748.564365	3686.994059
748.892963	3686.799974
749.221514	3701.842778
749.550017	3693.484544
749.878473	3694.530584
750.206881	3679.739838
750.535242	3679.233203
750.863555	3674.239940
751.191821	3665.438085
751.520039	3675.792615
751.848210	3671.825227
752.176334	3675.948891
752.504411	3670.708611
752.832440	3658.607322
753.160421	3663.749298
753.488356	3660.376767
753.816243	3655.083555
754.144082	3638.389774
754.471875	3638.412459
754.799620	3634.707211
755.127318	3635.279382
755.454969	3635.624701
755.782572	3633.462046
756.110129	3636.890031
756.437638	3630.384422
756.765100	3631.150677
757.092515	3635.657469
757.419882	3641.364055
757.747203	3645.565857
758.074477	3647.486536
758.401703	3647.834376
758.728882	3662.849452
759.056014	3672.183149
759.383099	3680.914427
759.710138	3699.705328
760.037129	3715.743759
760.364073	3727.540059
760.690970	3726.282291
761.017820	3727.973598
761.344623	3749.763986
761.671379	3789.274029
761.998088	3837.497707
762.324751	3960.537149
762.651366	4197.894837
762.977935	4546.631777
763.304456	4826.216690
763.630931	5001.976519
763.957359	4985.960773
764.283740	4847.802911
764.610074	4689.432542
764.936362	4486.725226
765.262602	4325.428467
765.588796	4148.141169
765.914943	4018.825490
766.241044	3900.693612
766.567097	3812.135662
766.893104	3736.336873
767.219064	3682.401568
767.544978	3630.734782
767.870845	3587.108637
768.196665	3566.142478
768.522438	3538.564846
768.848165	3519.857124
769.173846	3500.199144
769.499479	3486.177175
769.825066	3470.274855
770.150607	3447.075465
770.476101	3440.438786
770.801548	3435.624484
771.126949	3419.361722
771.452303	3411.368972
771.777611	3387.345354
772.102872	3391.753843
772.428087	3380.088613
772.753256	3365.930532
773.078378	3356.652288
773.403453	3341.526306
773.728482	3324.456959
774.053465	3323.978050
774.378401	3312.022953
774.703291	3305.368630
775.028135	3290.693832
775.352932	3284.956998
775.677683	3274.776388
776.002388	3268.036366
776.327046	3269.596603
776.651658	3258.939603
776.976224	3248.673294
777.300743	3246.452665
777.625216	3242.253384
777.949643	3237.960842
778.274024	3240.486460
778.598359	3227.636559
778.922647	3230.230232
779.246889	3225.529356
779.571086	3226.439285
779.895236	3224.367370
780.219339	3229.766446
780.543397	3230.252917
780.867409	3240.559557
781.191374	3241.272880
781.515294	3238.167529
781.839167	3249.051380
782.162995	3249.570619
782.486776	3244.668097
782.810511	3244.045514
783.134201	3236.645101
783.457844	3237.807087
783.781441	3236.272055
784.104993	3234.096797
784.428498	3232.191241
784.751958	3228.410376
785.075372	3228.440623
785.398739	3219.822770
785.722061	3229.955489
786.045337	3227.485324
786.368568	3245.520052
786.691752	3243.102819
787.014891	3272.596089
787.337983	3300.289668
787.661030	3351.553161
787.984031	3406.988210
788.306987	3454.911939
788.629897	3484.077534
788.952760	3498.981706
789.275579	3496.846777
789.598351	3470.675627
789.921078	3442.351904
790.243759	3406.131213
790.566395	3379.115670
790.888984	3348.072245
791.211529	3330.047599
791.534027	3302.737148
791.856480	3276.409722
792.178888	3268.991664
792.501249	3257.127309
792.823566	3236.146026
793.145836	3233.222157
793.468062	3227.576065
793.790241	3218.998542
794.112375	3222.761763
794.434464	3237.360944
794.756507	3234.731983
795.078505	3246.306472
795.400457	3269.324380
795.722364	3300.718166
796.044226	3329.150274
796.366042	3358.318390
796.687812	3354.325796
797.009538	3375.281873
797.331218	3368.619988
797.652852	3369.424052
797.974442	3353.481403
798.295986	3351.084334
798.617484	3334.758557
798.938938	3320.560148
799.260346	3314.606545
799.581709	3293.952938
799.903026	3286.802061
800.224299	3273.853857
800.545526	3252.875095
800.866708	3242.795308
801.187845	3234.358937
801.508936	3219.421998
801.829983	3217.642471
802.150984	3192.701362
802.471940	3191.526774
802.792851	3188.365970
803.113717	3183.193746
803.434538	3174.175122
803.755314	3172.680420
804.076045	3167.861077
804.396731	3159.374294
804.717372	3158.499654
805.037967	3159.858245
805.358518	3160.155673
805.679024	3166.305881
805.999485	3164.153308
806.319901	3165.436282
806.640272	3170.318639
806.960598	3176.574711
807.280879	3174.233095
807.601115	3186.798171
807.921306	3180.642922
808.241453	3183.440763
808.561554	3187.435877
808.881611	3187.579550
809.201623	3189.535518
809.521590	3181.590659
809.841513	3187.156093
810.161390	3193.354192
810.481223	3177.096471
810.801011	3179.135617
811.120755	3181.444466
811.440453	3171.783095
811.760107	3167.704801
812.079716	3163.780263
812.399281	3158.666012
812.718801	3159.747340
813.038276	3157.935045
813.357707	3155.648882
813.677093	3163.258503
813.996434	3148.548417
814.315731	3156.427740
814.634983	3157.380518
814.954191	3157.214160
815.273354	3172.088084
815.592473	3181.041174
815.911547	3196.706559
816.230577	3208.311295
816.549562	3227.530694
816.868502	3239.828589
817.187399	3255.614962
817.506250	3277.181019
817.825058	3289.065539
818.143821	3324.174655
818.462539	3361.733772
818.781213	3403.083836
819.099843	3463.665902
819.418429	3577.192687
819.736970	3688.639996
820.055466	3824.423474
820.373919	4005.012729
820.692327	4258.305504
821.010691	4627.154128
821.329011	5344.023849
821.647286	6384.389453
821.965517	7633.637788
822.283704	8589.790917
822.601847	9291.287639
822.919945	9216.872647
823.237999	8922.426412
823.556010	8432.332997
823.873976	7851.037547
824.191897	7218.743264
824.509775	6714.343055
824.827609	6188.389392
825.145398	5822.038659
825.463144	5566.066511
825.780845	5481.395291
826.098502	5515.826372
826.416116	5762.311068
826.733685	6103.209015
827.051210	6297.729498
827.368692	6268.158089
827.686129	5972.411237
828.003522	5598.380307
828.320872	5195.216549
828.638177	4861.106516
828.955439	4587.843210
829.272656	4336.582020
829.589830	4132.195999
829.906960	3943.029222
830.224046	3792.545738
830.541088	3659.492044
830.858086	3573.240422
831.175041	3504.166532
831.491952	3474.549753
831.808819	3460.873103
832.125642	3491.268740
832.442421	3569.315884
832.759157	3729.856469
833.075849	4002.275382
833.392497	4337.754088
833.709101	4619.166419
834.025662	4701.082649
834.342179	4626.274446
834.658653	4438.216723
834.975083	4243.063575
835.291469	4056.019123
835.607811	3888.783886
835.924110	3765.961213
836.240366	3645.016371
836.556578	3519.526928
836.872746	3418.340888
837.188871	3329.077177
837.504952	3257.744850
837.820990	3200.799976
838.136984	3160.889161
838.452935	3135.428814
838.768842	3123.549335
839.084706	3147.346101
839.400526	3247.181112
839.716303	3410.917789
840.032037	3570.119948
840.347727	3623.984677
840.663373	3566.228177
840.978977	3455.839511
841.294537	3352.326978
841.610054	3269.765481
841.925527	3212.964280
842.240957	3158.262720
842.556344	3111.332098
842.871687	3063.768812
843.186987	3015.983714
843.502244	2977.459217
843.817458	2947.761779
844.132629	2917.850093
844.447756	2902.777043
844.762840	2879.522200
845.077881	2870.362424
845.392879	2858.881196
845.707833	2847.954495
846.022745	2839.054338
846.337613	2837.272290
846.652438	2829.113182
846.967221	2825.997749
847.281960	2820.749908
847.596656	2821.763180
847.911309	2816.369146
848.225919	2809.913948
848.540485	2805.122331
848.855009	2805.182825
849.169490	2798.515899
849.483928	2802.085036
849.798323	2796.370888
850.112675	2791.244035
850.426984	2794.498100
850.741251	2794.871145
851.055474	2791.153294
851.369654	2789.711524
851.683792	2788.431071
851.997887	2791.745630
852.311938	2788.844446
852.625947	2791.690177
852.939914	2789.489713
853.253837	2791.571710
853.567718	2789.051133
853.881555	2788.831843
854.195350	2790.170269
854.509103	2791.170938
854.822812	2788.816719
855.136479	2789.106586
855.450103	2789.714045
855.763685	2786.598612
856.077224	2786.593570
856.390720	2791.944755
856.704173	2790.792852
857.017584	2793.517595
857.330953	2791.362502
857.644278	2795.367699
857.957561	2802.190900
858.270802	2800.504634
858.584000	2801.976651
858.897155	2797.278296
859.210268	2798.248718
859.523339	2795.040024
859.836367	2795.090435
860.149352	2796.353244
860.462295	2794.833336
860.775195	2787.705145
861.088054	2788.967954
861.400869	2787.639610
861.713642	2786.628858
862.026373	2788.625155
862.339062	2792.975671
862.651708	2794.639252
862.964312	2797.011115
863.276873	2800.262659
863.589392	2805.623926
863.901869	2809.256077
864.214303	2814.312355
864.526696	2819.383756
864.839045	2827.328614
865.151353	2834.189624
865.463619	2832.795745
865.775842	2836.730366
866.088023	2840.717919
866.400162	2841.360666
866.712258	2842.812518
867.024313	2846.341326
867.336325	2843.427539
867.648296	2849.824763
867.960224	2846.905935
868.272110	2851.473220
868.583954	2848.597242
868.895755	2852.708303
869.207515	2852.458766
869.519233	2858.067050
869.830909	2860.201978
870.142542	2863.030066
870.454134	2865.255735
870.765684	2870.337218
871.077191	2874.672610
871.388657	2880.215359
871.700081	2886.252141
872.011463	2890.587533
872.322803	2892.571227
872.634101	2899.071795
872.945357	2904.435583
873.256571	2911.553692
873.567744	2918.215577
873.878874	2918.815474
874.189963	2929.621187
874.501010	2931.163780
874.812015	2931.632608
875.122979	2939.370779
875.433900	2939.418670
875.744780	2942.556788
876.055618	2947.847479
876.366415	2950.473920
876.677169	2953.821246
876.987882	2961.335086
877.298554	2970.136941
877.609183	2985.293170
877.919771	2999.453771
878.230317	3020.238448
878.540822	3056.945610
878.851285	3100.344903
879.161707	3154.118892
879.472087	3250.722523
879.782425	3392.021024
880.092722	3619.314048
880.402977	3941.186680
880.713191	4321.788754
881.023363	4709.743351
881.333494	4992.060569
881.643583	5205.407241
881.953631	5307.513292
882.263637	5310.893386
882.573602	5231.941355
882.883526	5130.505778
883.193408	4987.883973
883.503248	4825.299200
883.813048	4660.549251
884.122806	4494.423068
884.432522	4305.074808
884.742197	4136.884272
885.051831	3973.485352
885.361424	3819.367197
885.670975	3683.992052
885.980485	3572.476687
886.289954	3467.068681
886.599382	3382.508367
886.908768	3316.733912
887.218113	3245.774630
887.527417	3196.532639
887.836680	3143.585401
888.145901	3108.546861
888.455082	3074.246850
888.764221	3049.187274
889.073319	3020.049405
889.382376	3005.513238
889.691392	2992.930518
890.000366	2985.928355
890.309300	2973.426294
890.618193	2974.815132
890.927044	2971.475367
891.235855	2971.324133
891.544625	2972.939822
891.853353	2976.882005
892.162041	2990.979591
892.470687	3012.714526
892.779293	3040.834082
893.087858	3079.925710
893.396381	3146.705875
893.704864	3233.834657
894.013306	3361.383411
894.321707	3510.420084
894.630068	3641.900938
894.938387	3713.281156
895.246665	3722.551838
895.554903	3679.596166
895.863100	3608.876339
896.171256	3547.356618
896.479371	3485.173985
896.787446	3421.272319
897.095480	3358.774614
897.403473	3312.242244
897.711425	3265.649379
898.019336	3221.937534
898.327207	3174.717046
898.635038	3136.079122
898.942827	3095.061774
899.250576	3056.653223
899.558284	3022.569982
899.865952	3000.000736
900.173579	2975.236068
900.481165	2954.292594
900.788711	2941.296500
901.096216	2925.820157
901.403681	2914.311203
901.711105	2907.616551
902.018489	2901.254615
902.325832	2910.739546
902.633135	2921.063829
902.940397	2953.309569
903.247619	3025.519057
903.554800	3175.465657
903.861941	3398.284658
904.169041	3613.322637
904.476101	3753.907814
904.783121	3780.204993
905.090100	3730.058116
905.397039	3645.759941
905.703938	3556.347516
906.010796	3470.526913
906.317614	3399.035789
906.624391	3328.058864
906.931129	3265.369595
907.237826	3207.953373
907.544483	3152.309117
907.851099	3091.762339
908.157675	3033.327804
908.464211	2969.466467
908.770707	2920.602563
909.077163	2879.660832
909.383578	2849.418950
909.689954	2822.365598
909.996289	2806.286838
910.302584	2796.106228
910.608839	2784.851852
910.915054	2779.924124
911.221229	2776.118053
911.527363	2777.229627
911.833458	2778.409257
912.139513	2780.771038
912.445527	2782.258178
912.751502	2791.163376
913.057436	2807.070737
913.363331	2822.713438
913.669186	2848.330061
913.975000	2880.482540
914.280775	2932.353493
914.586510	3002.541478
914.892205	3098.071343
915.197859	3219.598439
915.503475	3374.031666
915.809050	3518.107843
916.114585	3628.861993
916.420081	3690.296015
916.725536	3722.050243
917.030952	3693.141746
917.336328	3659.134122
917.641665	3623.936786
917.946961	3570.150195
918.252218	3524.043802
918.557435	3459.524594
918.862612	3403.293044
919.167750	3353.856969
919.472848	3291.787762
919.777906	3233.385995
920.082925	3172.811490
920.387904	3109.973507
920.692843	3064.575396
920.997743	3020.674508
921.302603	2977.832262
921.607423	2947.902932
921.912204	2914.830442
922.216946	2892.329252
922.521647	2872.996427
922.826310	2852.912470
923.130932	2839.266066
923.435516	2818.390648
923.740059	2809.112405
924.044564	2795.145888
924.349028	2783.929321
924.653454	2769.652773
924.957840	2757.755650
925.262186	2752.827922
925.566493	2740.814852
925.870761	2730.740106
926.174989	2726.152656
926.479178	2722.369270
926.783328	2712.002137
927.087438	2706.706405
927.391509	2702.590303
927.695541	2695.757019
927.999533	2689.740402
928.303486	2687.812161
928.607400	2685.614218
928.911275	2682.977694
929.215110	2678.359997
929.518906	2675.675583
929.822663	2675.678103
930.126381	2672.925633
930.430060	2675.000068
930.733699	2675.204235
931.037299	2676.998886
931.340861	2672.978566
931.644383	2673.122238
931.947866	2676.265398
932.251309	2673.396981
932.554714	2673.369255
932.858080	2674.500994
933.161407	2673.061745
933.464694	2672.517300
933.767943	2670.296672
934.071153	2669.449758
934.374323	2668.063441
934.677455	2668.643173
934.980548	2666.273831
935.283602	2668.570077
935.586617	2666.944304
935.889593	2668.292813
936.192530	2664.932884
936.495428	2667.455982
936.798287	2669.351455
937.101108	2674.211128
937.403890	2681.304031
937.706632	2687.348375
938.009336	2698.469160
938.312002	2710.522559
938.614628	2720.199054
938.917216	2727.728017
939.219765	2734.135323
939.522275	2739.917527
939.824747	2743.837024
940.127179	2741.666807
940.429573	2740.517424
940.731929	2742.435583
941.034246	2741.008937
941.336524	2740.083885
941.638763	2740.593042
941.940964	2742.833834
942.243126	2735.758575
942.545250	2732.025601
942.847335	2729.091649
943.149381	2722.417161
943.451389	2716.576985
943.753359	2713.474154
944.055290	2708.717826
944.357182	2703.031404
944.659036	2701.191383
944.960851	2699.673996
945.262628	2692.815506
945.564367	2693.836340
945.866067	2693.669982
946.167729	2693.662420
946.469352	2693.042358
946.770937	2692.001360
947.072484	2686.516584
947.373992	2689.702593
947.675462	2687.260154
947.976893	2687.635720
948.278286	2684.109433
948.579641	2682.473579
948.880958	2684.303518
949.182236	2682.632375
949.483476	2679.055677
949.784678	2681.130111
950.085841	2682.163548
950.386967	2684.832839
950.688054	2683.101202
950.989103	2685.483148
951.290114	2685.198322
951.591087	2690.408355
951.892021	2695.502441
952.192917	2700.394881
952.493776	2704.095088
952.794596	2706.746735
953.095378	2705.005016
953.396122	2707.003833
953.696828	2705.010057
953.997496	2705.473843
954.298126	2700.982175
954.598718	2699.573173
954.899272	2697.861701
955.199788	2689.412727
955.500266	2688.563293
955.800706	2681.339319
956.101108	2675.970490
956.401472	2671.274656
956.701798	2667.037566
957.002087	2656.693118
957.302337	2657.338386
957.602550	2652.466111
957.902724	2643.326499
958.202861	2643.941519
958.502960	2640.528658
958.803022	2634.438944
959.103045	2632.188069
959.403031	2626.988119
959.702979	2624.694394
960.002889	2622.635083
960.302762	2618.690380
960.602596	2615.527056
960.902393	2617.253651
961.202153	2613.019082
961.501875	2611.952878
961.801559	2610.435490
962.101205	2608.197218
962.400814	2610.256529
962.700385	2606.682351
962.999918	2607.282249
963.299414	2608.988679
963.598873	2606.810901
963.898293	2606.001796
964.197677	2603.934922
964.497022	2604.892742
964.796331	2601.918461
965.095601	2598.205651
965.394835	2602.122628
965.694030	2596.776484
965.993189	2600.398553
966.292309	2598.331680
966.591393	2598.780343
966.890439	2599.526433
967.189447	2599.045003
967.488419	2598.666917
967.787353	2599.576845
968.086249	2599.022318
968.385108	2600.390991
968.683930	2599.024839
968.982714	2602.674634
969.281462	2601.177411
969.580172	2602.331836
969.878844	2604.076075
970.177480	2603.002309
970.476078	2605.132197
970.774639	2608.164451
971.073162	2610.478340
971.371649	2607.587238
971.670098	2608.517331
971.968510	2609.984307
972.266885	2607.471292
972.565223	2614.715430
972.863524	2614.997735
973.161788	2613.659308
973.460014	2614.659977
973.758204	2613.215687
974.056356	2616.699124
974.354471	2618.173662
974.652550	2620.122067
974.950591	2619.534773
975.248595	2616.789865
975.546563	2615.721140
975.844493	2616.041253
976.142386	2614.246603
976.440243	2617.583847
976.738062	2613.218207
977.035845	2613.538321
977.333590	2613.198043
977.631299	2612.083948
977.928971	2612.225100
978.226606	2609.427260
978.524204	2607.541868
978.821765	2610.596807
979.119290	2609.954060
979.416777	2607.120932
979.714228	2609.107146
980.011642	2610.425408
980.309020	2612.071345
980.606360	2609.644029
980.903664	2615.002776
981.200931	2620.099382
981.498162	2625.939559
981.795356	2635.432052
982.092513	2651.465442
982.389633	2666.261228
982.686717	2681.951819
982.983764	2694.322811
983.280775	2704.639532
983.577749	2710.121787
983.874686	2711.082127
984.171587	2708.803525
984.468451	2705.171374
984.765279	2696.417410
985.062070	2691.910619
985.358824	2683.370904
985.655543	2677.147600
985.952224	2665.235353
986.248869	2659.251504
986.545478	2643.124852
986.842050	2629.521299
987.138586	2621.634414
987.435086	2615.350615
987.731549	2609.147476
988.027975	2609.127311
988.324366	2604.277721
988.620719	2599.082812
988.917037	2597.840167
989.213318	2596.617688
989.509563	2595.838829
989.805772	2596.073243
990.101944	2593.759353
990.398080	2590.177614
990.694180	2590.704414
990.990244	2592.604929
991.286271	2592.554518
991.582262	2591.521081
991.878217	2594.800352
992.174136	2596.045517
992.470019	2592.446133
992.765865	2594.845722
993.061676	2595.105342
993.357450	2595.889241
993.653188	2596.244642
993.948890	2598.379571
994.244556	2601.752103
994.540186	2607.985490
994.835780	2610.740480
995.131337	2618.040071
995.426859	2623.592902
995.722345	2629.750671
996.017795	2637.952629
996.313208	2646.351191
996.608586	2652.559372
996.903928	2659.027172
997.199234	2656.884682
997.494504	2657.933242
997.789738	2655.909219
998.084936	2653.250010
998.380099	2648.654998
998.675225	2646.174751
998.970316	2641.148720
999.265371	2634.577576
999.560390	2627.875362
999.855373	2623.078704
1000.150320	2617.299021
1000.445232	2610.861468
1000.740108	2605.434666
1001.034948	2605.303596
1001.329752	2601.149685
1001.624521	2599.239088
1001.919254	2592.655341
1002.213951	2590.835484
1002.508613	2589.222315
1002.803239	2589.431523
1003.097829	2587.858683
1003.392384	2588.579568
1003.686903	2588.645103
1003.981386	2586.484968
1004.275834	2587.571337
1004.570246	2588.400607
1004.864623	2585.665781
1005.158964	2585.612849
1005.453270	2583.084710
1005.747540	2587.304156
1006.041775	2583.198136
1006.335974	2581.980697
1006.630138	2584.067735
1006.924266	2586.691656
1007.218359	2582.673856
1007.512416	2585.499423
1007.806438	2582.409196
1008.100425	2584.639906
1008.394376	2580.612024
1008.688292	2585.380956
1008.982172	2581.146387
1009.276017	2584.607139
1009.569827	2582.449525
1009.863602	2585.454052
1010.157341	2583.636717
1010.451045	2582.867941
1010.744714	2582.300811
1011.038347	2585.207036
1011.331945	2582.116809
1011.625508	2585.519588
1011.919036	2580.720409
1012.212528	2581.716037
1012.505986	2584.765935
1012.799408	2579.381983
1013.092795	2581.282498
1013.386147	2582.104206
1013.679464	2580.412899
1013.972745	2580.838876
1014.265992	2580.417940
1014.559204	2583.893815
1014.852380	2579.293762
1015.145521	2582.636047
1015.438628	2581.080852
1015.731699	2580.715368
1016.024736	2579.923907
1016.317737	2582.550348
1016.610703	2584.163517
1016.903635	2578.484657
1017.196531	2577.690676
1017.489393	2578.719071
1017.782219	2574.446693
1018.075011	2580.911973
1018.367768	2581.952971
1018.660490	2584.864238
1018.953177	2584.864238
1019.245829	2584.864238
