Dividing Wavelength (nm)	Counts (n)	Blue Motor Position (mm): 36.600000	Red Motor Position (mm): 0.000000	
326.493990	2129.156533
326.888308	2129.156533
327.282561	2129.156533
327.676750	2097.745103
328.070874	2096.631008
328.464933	2100.439600
328.858929	2106.065528
329.252859	2117.513988
329.646726	2126.777108
330.040528	2138.003758
330.434265	2156.492189
330.827938	2173.858964
331.221547	2189.335307
331.615091	2211.332382
332.008571	2229.228478
332.401986	2251.578433
332.795338	2270.810435
333.188625	2287.594957
333.581847	2307.489871
333.975006	2321.922694
334.368100	2342.140242
334.761129	2361.800742
335.154095	2376.168030
335.546996	2398.485218
335.939833	2423.325504
336.332606	2436.228337
336.725315	2450.746860
337.117960	2461.746658
337.510540	2470.803091
337.903056	2481.117291
338.295508	2485.412354
338.687896	2494.713283
339.080220	2504.722494
339.472480	2510.275325
339.864676	2516.682632
340.256807	2520.755884
340.648875	2521.073477
341.040879	2524.241842
341.432818	2525.141688
341.824694	2527.357275
342.216506	2528.723428
342.608253	2528.305012
342.999937	2527.589168
343.391557	2528.040351
343.783113	2528.695701
344.174605	2526.848118
344.566033	2525.212264
344.957397	2520.415606
345.348697	2524.156142
345.739934	2519.329238
346.131106	2519.329238
346.522215	2516.057529
346.913260	2515.523166
347.304241	2512.374966
347.695159	2508.586539
348.086012	2510.156858
348.476802	2507.122083
348.867528	2508.117711
349.258191	2503.986486
349.648789	2504.609068
350.039324	2504.102432
350.429796	2500.440034
350.820203	2497.937101
351.210548	2497.334683
351.600828	2497.160763
351.991045	2494.834271
352.381198	2494.864518
352.771288	2495.920640
353.161314	2495.794611
353.551276	2498.126144
353.941175	2493.783190
354.331010	2495.749240
354.720782	2493.513489
355.110490	2493.145484
355.500135	2495.668582
355.889717	2494.783859
356.279235	2497.881648
356.668689	2496.795280
357.058080	2495.683705
357.447408	2493.415186
357.836672	2493.944507
358.225873	2495.061123
358.615010	2494.103304
359.004084	2498.494149
359.393095	2498.116062
359.782043	2502.123779
360.170927	2498.544560
360.559748	2500.853409
360.948505	2502.136382
361.337199	2502.988337
361.725830	2503.162257
362.114398	2503.210148
362.502903	2501.254180
362.891344	2502.065806
363.279722	2503.285765
363.668037	2504.725015
364.056289	2503.164778
364.444478	2506.103770
364.832603	2505.647546
365.220665	2503.983965
365.608665	2505.274501
365.996601	2507.691734
366.384474	2506.489419
366.772284	2508.132835
367.160031	2506.464213
367.547715	2508.112670
367.935336	2507.787516
368.322893	2510.156858
368.710388	2509.693072
369.097820	2513.393279
369.485189	2511.233144
369.872495	2509.766169
370.259738	2512.405213
370.646918	2510.585356
371.034035	2510.146776
371.421090	2509.866992
371.808081	2511.119718
372.195010	2512.654750
372.581875	2513.191633
372.968678	2512.485871
373.355418	2513.216838
373.742096	2513.950326
374.128710	2513.597446
374.515262	2513.874709
374.901751	2511.265912
375.288177	2516.145749
375.674540	2515.054339
376.060841	2515.792868
376.447079	2513.471417
376.833254	2517.539628
377.219367	2513.572240
377.605417	2512.737929
377.991404	2512.619462
378.377329	2515.412261
378.763191	2513.549555
379.148991	2519.616583
379.534727	2517.080883
379.920402	2518.154649
380.306013	2518.263033
380.691563	2520.695390
381.077049	2520.206398
381.462474	2518.560462
381.847835	2519.298991
382.233134	2518.920904
382.618371	2518.764628
383.003545	2519.702283
383.388657	2520.569361
383.773706	2518.376459
384.158693	2520.365195
384.543618	2525.723941
384.928480	2521.295287
385.313280	2521.781759
385.698017	2523.977181
386.082692	2526.149919
386.467305	2525.234949
386.851856	2523.873838
387.236344	2522.568179
387.620770	2527.765608
388.005133	2524.448529
388.389435	2525.897861
388.773674	2527.455577
389.157851	2525.411390
389.541965	2527.080012
389.926018	2527.195958
390.310008	2527.422810
390.693936	2530.150074
391.077802	2527.379960
391.461606	2529.005732
391.845348	2527.241328
392.229027	2533.578059
392.612645	2531.347348
392.996200	2531.604447
393.379694	2528.990609
393.763125	2533.855322
394.146494	2534.039324
394.529801	2535.392874
394.913047	2531.112935
395.296230	2534.916485
395.679351	2534.971938
396.062410	2533.310878
396.445408	2537.464788
396.828343	2539.463606
397.211217	2535.894469
397.594028	2537.500077
397.976778	2539.670293
398.359466	2545.371838
398.742092	2545.676828
399.124656	2556.792572
399.507158	2556.704352
399.889598	2569.229099
400.271977	2575.742270
400.654294	2586.230390
401.036549	2590.323807
401.418742	2604.277721
401.800874	2618.042592
402.182944	2632.891310
402.564952	2650.109371
402.946898	2665.741989
403.328783	2679.711027
403.710606	2690.736030
404.092367	2725.567882
404.474067	2742.453227
404.855705	2762.907709
405.237282	2774.630912
405.618797	2814.009886
406.000250	2840.906962
406.381642	2877.389792
406.762972	2903.810480
407.144240	2930.140426
407.525447	2962.965899
407.906593	3001.255983
408.287677	3039.926675
408.668700	3056.426371
409.049661	3104.226592
409.430560	3147.971204
409.811399	3167.077177
410.192176	3249.857965
410.572891	3265.886313
410.953545	3341.717870
411.334138	3336.880883
411.714669	3400.180131
412.095139	3401.226171
412.475547	3498.689319
412.855894	3536.434958
413.236180	3580.290476
413.616405	3600.888631
413.996568	3682.439376
414.376670	3696.756253
414.756711	3713.994479
415.136691	3772.550001
415.516609	3854.904811
415.896466	3917.498298
416.276262	3980.439624
416.655997	4012.834079
417.035670	4164.524919
417.415283	4266.832615
417.794834	4272.496352
418.174324	4284.050676
418.553753	4259.706944
418.933121	4433.798151
419.312428	4528.670146
419.691674	4521.665463
420.070859	4656.299559
420.449983	4622.871668
420.829045	4749.550822
421.208047	4712.674782
421.586988	4806.193227
421.965867	4851.480433
422.344686	4994.792875
422.723444	4897.727978
423.102141	4773.103093
423.480777	5059.060025
423.859352	4883.227099
424.237866	5141.646728
424.616319	5155.625847
424.994712	5279.701246
425.373044	5190.377041
425.751314	5345.478222
426.129524	5180.282131
426.507673	5379.027100
426.885762	5475.527388
427.263789	5426.812198
427.641756	5328.416436
428.019662	5459.882167
428.397508	5478.811700
428.775292	5446.414724
429.153016	5547.915837
429.530679	5489.196477
429.908282	5575.722841
430.285824	5464.290656
430.663305	5734.720833
431.040726	5486.280169
431.418086	5488.805787
431.795385	5602.367860
432.172624	5618.101301
432.549802	5614.968224
432.926920	5637.706348
433.303977	5640.131143
433.680974	5685.128482
434.057910	5703.322007
434.434786	5713.520261
434.811601	5687.207958
435.188355	5916.537609
435.565050	5793.871212
435.941683	5776.413696
436.318257	5995.063662
436.694770	5977.704449
437.071222	6012.916908
437.447614	5945.471311
437.823946	5863.703796
438.200218	6012.047309
438.576429	5881.199120
438.952580	5980.562783
439.328670	6026.893508
439.704700	5934.456390
440.080670	5923.312919
440.456580	6195.462130
440.832429	6076.569038
441.208218	5922.624802
441.583947	6073.824129
441.959616	6081.756385
442.335224	6008.672257
442.710773	6151.891438
443.086261	6175.365571
443.461689	5965.504857
443.837057	6121.382375
444.212365	6271.092041
444.587612	6166.495660
444.962800	6317.001829
445.337927	6298.944416
445.712995	5910.236166
446.088002	6483.306974
446.462949	6314.829092
446.837837	6253.301809
447.212664	6416.904895
447.587431	6568.739408
447.962139	7103.149607
448.336786	8029.345679
448.711374	7763.354238
449.085901	6844.790472
449.460369	6768.376662
449.834776	6703.681014
450.209124	7093.140396
450.583412	7248.145794
450.957640	7391.057465
451.331808	7151.063253
451.705917	6710.622683
452.079965	6630.362473
452.453954	6844.631676
452.827883	6721.158695
453.201752	6812.577499
453.575562	6609.466890
453.949311	6815.425751
454.323001	6702.655139
454.696632	6774.534432
455.070202	6917.506596
455.443713	7070.596356
455.817164	7171.789957
456.190556	7246.683860
456.563888	7333.484967
456.937160	7373.788992
457.310373	7030.998092
457.683526	7053.466515
458.056619	6943.980215
458.429653	6935.823628
458.802628	6869.572784
459.175542	6976.044474
459.548398	7333.467323
459.921194	7491.205027
460.293930	7491.532702
460.666607	8017.577106
461.039224	8330.335332
461.411782	8452.989125
461.784280	8472.984862
462.156719	8363.922019
462.529099	8234.397133
462.901419	7829.602561
463.273680	7726.100111
463.645882	7734.987665
464.018024	7602.581759
464.390106	7766.089064
464.762130	8163.021956
465.134094	8626.341803
465.505999	9637.042738
465.877845	10863.542866
466.249631	11505.168324
466.621358	11124.956939
466.993026	10499.022072
467.364634	10247.574359
467.736184	9887.545234
468.107674	9559.169514
468.479105	9591.969781
468.850477	9346.551288
469.221790	9117.955126
469.593043	8795.676681
469.964238	8655.036051
470.335373	8664.541146
470.706449	8725.831495
471.077467	8708.210142
471.448425	10016.198001
471.819324	11079.576473
472.190164	11104.177303
472.560945	9855.680101
472.931667	9072.352848
473.302330	8933.708515
473.672934	8585.054753
474.043479	8941.197149
474.413965	8885.240341
474.784393	8766.090149
475.154761	8927.328935
475.525070	9001.406170
475.895321	8837.475408
476.265513	9013.109208
476.635645	9178.814456
477.005719	9181.234210
477.375734	9295.290316
477.745691	9535.249239
478.115588	9663.690277
478.485427	9905.809334
478.855207	10440.043093
479.224928	11257.148596
479.594591	11878.644728
479.964194	11693.137828
480.333739	11634.819239
480.703226	11547.728266
481.072653	11638.151442
481.442022	11876.731610
481.811333	12063.881926
482.180584	11872.406300
482.549777	11576.367061
482.918912	11400.173692
483.287988	11428.799885
483.657005	11443.396546
484.025964	11120.626588
484.394864	11255.827814
484.763706	11232.265461
485.132489	10984.817904
485.501213	10947.594024
485.869879	11023.228975
486.238487	10863.033709
486.607036	10977.838426
486.975527	10759.367421
487.343959	10946.053951
487.712333	10991.837710
488.080648	10933.229256
488.448905	10972.532612
488.817104	10908.018445
489.185244	11176.805207
489.553326	11328.110398
489.921350	11859.742921
490.289315	12928.172629
490.657222	13274.338581
491.025070	13176.220083
491.392861	13044.499775
491.760593	12668.152434
492.128267	12323.786174
492.495883	11987.707570
492.863440	11657.418732
493.230939	11313.473408
493.598380	11249.327246
493.965763	11120.971907
494.333088	11023.188646
494.700354	10944.125710
495.067563	11005.567293
495.434713	10837.752323
495.801805	10962.704882
496.168839	10880.546678
496.535815	10823.974849
496.902733	10820.685496
497.269593	10756.710733
497.636395	10858.408450
498.003139	10849.863695
498.369825	10714.362520
498.736453	10872.886644
499.103023	10797.360077
499.469535	10830.241003
499.835989	10815.107459
500.202385	10779.736203
500.568723	10630.946548
500.935003	10854.806546
501.301226	10660.810343
501.667390	10918.597307
502.033497	11019.596824
502.399546	10870.406397
502.765537	10781.298961
503.131470	10849.639363
503.497345	11032.492096
503.863163	10643.335183
504.228923	10953.585435
504.594625	11008.801193
504.960269	10760.947823
505.325856	10975.297685
505.691385	10774.616912
506.056856	10927.159707
506.422270	10954.676845
506.787625	10839.897333
507.152924	10958.702206
507.518164	10939.447519
507.883347	10854.932575
508.248472	10784.096802
508.613540	11013.451658
508.978550	10897.598380
509.343503	10868.697445
509.708398	10990.857206
510.073236	11100.691345
510.438016	11105.969433
510.802738	11052.933974
511.167403	11113.994950
511.532010	11006.540236
511.896561	11238.191337
512.261053	11313.244036
512.625488	11177.344610
512.989866	11153.837710
513.354186	11156.688482
513.718449	11052.379448
514.082655	11243.915567
514.446803	11139.772891
514.810894	11259.021385
515.174927	11126.053390
515.538904	11158.543627
515.902822	11305.969651
516.266684	11190.010509
516.630488	11129.345264
516.994235	11191.570746
517.357925	11247.635939
517.721558	11342.671771
518.085133	11349.018584
518.448651	11364.323527
518.812112	11247.151988
519.175516	11261.085737
519.538863	11379.121834
519.902152	11304.530401
520.265385	11457.340377
520.628560	11371.552542
520.991678	11347.017246
521.354739	11411.097873
521.717743	11338.906029
522.080690	11324.379944
522.443580	11461.413629
522.806413	11411.785990
523.169189	11444.427462
523.531908	11499.665905
523.894569	11323.601086
524.257174	11324.513535
524.619722	11446.968203
524.982213	11397.196891
525.344647	11446.423758
525.707025	11392.337219
526.069345	11487.486477
526.431608	11404.355330
526.793815	11514.418842
527.155964	11303.572582
527.518057	11356.240037
527.880093	11309.465691
528.242072	11374.509178
528.603995	11280.501741
528.965860	11202.043743
529.327669	11254.260015
529.689421	11204.715555
530.051117	11171.471666
530.412755	11281.431834
530.774337	11167.083342
531.135862	11150.419807
531.497331	11172.225318
531.858743	11028.567557
532.220098	11189.410612
532.581396	11058.312886
532.942638	11043.907788
533.303824	11010.444609
533.664953	11020.279900
534.026025	10933.171283
534.387040	11039.153980
534.747999	11033.235666
535.108902	11095.355284
535.469748	10847.648108
535.830537	10954.099633
536.191270	10937.289905
536.551947	10959.649943
536.912567	10962.543565
537.273131	10884.423325
537.633638	10860.054387
537.994089	10856.041629
538.354483	10801.347630
538.714821	10944.586975
539.075103	10952.451175
539.435328	10921.841289
539.795497	10744.337221
540.155609	10903.151211
540.515665	10994.532207
540.875665	10726.083203
541.235609	10791.623244
541.595496	10786.624940
541.955328	10946.585793
542.315102	10825.136835
542.674821	10775.254618
543.034483	10783.093612
543.394090	10781.901379
543.753640	10715.199352
544.113134	10935.815368
544.472571	10785.687286
544.831953	10933.244379
545.191278	10736.931766
545.550548	10764.206929
545.909761	10902.127857
546.268918	10877.315298
546.628019	10961.996600
546.987064	10821.282873
547.346053	10746.041131
547.704986	10845.810607
548.063863	10835.801396
548.422684	10824.216824
548.781449	10745.143806
549.140158	10841.936480
549.498811	10719.393592
549.857408	10582.201111
550.215949	10801.599688
550.574434	10657.773048
550.932864	10760.950344
551.291237	10820.839251
551.649555	10768.504513
552.007817	10782.710484
552.366022	10736.286498
552.724173	10730.902546
553.082267	10716.318488
553.440305	10856.659170
553.798288	10657.697431
554.156215	10813.060751
554.514086	10785.770465
554.871902	10627.962185
555.229661	10674.479432
555.587365	10649.394650
555.945014	10545.811542
556.302606	10667.774697
556.660143	10564.020189
557.017625	10715.592562
557.375050	10615.286203
557.732421	10747.918961
558.089735	10663.424181
558.446994	10659.275312
558.804197	10700.277537
559.161345	10705.895903
559.518437	10544.533609
559.875474	10630.838163
560.232455	10666.055664
560.589381	10615.455082
560.946251	10614.784608
561.303065	10721.974663
561.659825	10653.785495
562.016528	10590.019940
562.373177	10465.379932
562.729770	10583.592469
563.086307	10498.792700
563.442789	10588.926010
563.799216	10466.650303
564.155587	10511.445996
564.511904	10472.182969
564.868164	10464.215425
565.224370	10480.997427
565.580520	10400.906095
565.936615	10400.659078
566.292654	10276.019070
566.648638	10407.010932
567.004567	10360.644920
567.360441	10349.992962
567.716260	10265.394838
568.072023	10349.877015
568.427732	10303.863883
568.783385	10217.070337
569.138982	10281.642477
569.494525	10298.671495
569.850013	10181.913331
570.205445	10258.223797
570.560823	10156.770576
570.916145	10067.458974
571.271412	10139.461774
571.626625	10085.420605
571.981782	10064.618283
572.336884	10039.841012
572.691931	10045.033401
573.046923	9986.460234
573.401860	9946.700654
573.756743	9876.701712
574.111570	9923.637375
574.466342	9905.358151
574.821059	9936.273027
575.175722	9826.706069
575.530330	9840.765847
575.884882	9827.346295
576.239380	9753.117826
576.593823	9732.239887
576.948211	9755.598073
577.302544	9629.072673
577.656823	9645.854675
578.011047	9653.061004
578.365216	9618.040108
578.719330	9540.504642
579.073389	9559.345954
579.427394	9504.120114
579.781344	9479.680600
580.135239	9428.880892
580.489080	9439.311040
580.842866	9342.150361
581.196597	9351.254685
581.550273	9391.112568
581.903895	9354.042443
582.257463	9420.323534
582.610975	9303.025966
582.964434	9325.600253
583.317837	9243.328622
583.671186	9229.271365
584.024481	9223.695849
584.377721	9147.304724
584.730906	9125.161456
585.084037	9147.690372
585.437113	9087.723327
585.790135	9112.389692
586.143103	9002.908434
586.496016	8981.380186
586.848874	9035.940594
587.201679	9027.668061
587.554428	8907.363445
587.907124	8952.650650
588.259765	8925.216691
588.612352	8930.799769
588.964884	8812.030184
589.317362	8822.417482
589.669786	8820.884971
590.022155	8872.173670
590.374470	8884.920228
590.726731	8823.249272
591.078937	8679.228548
591.431090	8787.893140
591.783188	8658.280033
592.135232	8648.104464
592.487222	8652.959095
592.839157	8708.961273
593.191038	8638.349832
593.542866	8582.007376
593.894639	8485.658323
594.246358	8538.136734
594.598022	8556.415958
594.949633	8451.597767
595.301190	8421.688601
595.652692	8455.391235
596.004141	8568.126558
596.355535	8341.829162
596.706876	8329.611926
597.058162	8254.203826
597.409395	8336.432607
597.760573	8398.161536
598.111698	8303.942371
598.462768	8293.918036
598.813785	8256.759691
599.164748	8226.749702
599.515657	8216.261582
599.866511	8120.472097
600.217312	8253.319104
600.568060	8110.447762
600.918753	8214.025830
601.269392	8183.670522
601.619978	8091.606450
601.970510	8168.831886
602.320988	8155.687077
602.671412	8212.279070
603.021783	8145.645099
603.372100	8121.505533
603.722363	8125.334290
604.072572	8098.515351
604.422728	8109.409285
604.772830	8038.351701
605.122878	8048.370994
605.472872	8042.641723
605.822813	8068.344046
606.172701	8017.453597
606.522534	8091.634176
606.872314	8094.013601
607.222041	8059.743837
607.571714	8118.415306
607.921333	8076.152793
608.270899	8079.714368
608.620411	8168.433635
608.969870	8077.808812
609.319276	8069.160713
609.668627	8084.453053
610.017926	8118.380018
610.367171	8160.229157
610.716362	8142.680900
611.065500	8137.614541
611.414585	8157.494331
611.763616	8150.819843
612.112594	8131.686144
612.461518	8143.396744
612.810389	8202.728604
613.159207	8146.376066
613.507971	8091.810617
613.856682	8212.251344
614.205340	8168.955394
614.553945	8247.025223
614.902496	8146.277763
615.250994	8198.436062
615.599439	8178.989811
615.947830	8193.939353
616.296169	8163.846185
616.644454	8180.292949
616.992686	8182.420316
617.340864	8234.215651
617.688990	8139.285683
618.037063	8230.686843
618.385082	8177.641302
618.733048	8266.733614
619.080961	8199.570321
619.428821	8220.632262
619.776628	8222.056388
620.124382	8177.792537
620.472083	8157.040627
620.819731	8189.046913
621.167326	8080.465500
621.514868	8087.649144
621.862357	7974.021537
622.209793	7992.288157
622.557176	7925.641583
622.904506	7897.668220
623.251783	7833.201945
623.599007	7783.317207
623.946179	7791.146119
624.293297	7749.163390
624.640363	7664.978641
624.987376	7647.243862
625.334336	7595.665296
625.681243	7539.073303
626.028097	7535.912500
626.374899	7507.152717
626.721647	7503.442428
627.068343	7431.321160
627.414987	7404.056080
627.761577	7359.595623
628.108115	7401.520379
628.454600	7292.659183
628.801032	7343.214394
629.147412	7302.494474
629.493739	7293.117928
629.840014	7225.861374
630.186236	7282.662575
630.532405	7167.028588
630.878521	7218.985240
631.224585	7176.069897
631.570597	7102.015347
631.916556	7134.792929
632.262462	7130.512990
632.608316	7087.854746
632.954117	7065.131745
633.299866	7056.231588
633.645562	7051.618932
633.991206	6965.639533
634.336797	6912.036944
634.682336	6867.072372
635.027823	6839.434246
635.373257	6827.332956
635.718639	6760.129334
636.063968	6772.122239
636.409245	6668.123236
636.754470	6662.315826
637.099642	6625.719570
637.444762	6567.101033
637.789829	6579.935811
638.134845	6521.120669
638.479808	6499.862123
638.824719	6507.774214
639.169577	6437.792916
639.514383	6455.923426
639.859137	6383.764350
640.203839	6397.960239
640.548489	6379.935594
640.893086	6359.123190
641.237632	6330.968346
641.582125	6345.345717
641.926566	6320.429814
642.270955	6334.108985
642.615292	6324.031718
642.959576	6341.224573
643.303809	6329.869374
643.647990	6339.172824
643.992118	6330.403737
644.336195	6276.256703
644.680219	6299.897194
645.024192	6295.718077
645.368112	6389.493621
645.711981	6407.755201
646.055797	6486.805535
646.399562	6437.944151
646.743274	6567.365694
647.086935	6621.706812
647.430544	6616.834536
647.774101	6639.363453
648.117606	6638.158617
648.461059	6636.477392
648.804460	6601.552278
649.147810	6505.460324
649.491108	6477.108875
649.834354	6449.243897
650.177548	6364.759200
650.520690	6280.173680
650.863781	6264.157934
651.206820	6282.157374
651.549807	6202.340785
651.892742	6140.876517
652.235626	6153.746582
652.578458	6136.891484
652.921238	6042.576537
653.263967	6083.551036
653.606644	6028.451224
653.949269	6024.950143
654.291843	5967.196164
654.634365	6015.608885
654.976836	5967.828828
655.319255	5966.371935
655.661622	5945.982988
656.003938	5945.045334
656.346203	5907.171145
656.688416	5938.993428
657.030577	5888.952415
657.372687	5859.217169
657.714746	5841.686556
658.056753	5890.318568
658.398708	5830.139793
658.740612	5818.023380
659.082465	5868.177820
659.424266	5856.736921
659.766016	5856.467219
660.107715	5832.010062
660.449362	5848.083781
660.790958	5843.259396
661.132503	5824.886911
661.473996	5864.432243
661.815438	5853.651735
662.156829	5853.699626
662.498168	5841.139591
662.839456	5820.180994
663.180693	5852.948494
663.521879	5855.736252
663.863013	5840.769066
664.204097	5863.565164
664.545129	5905.878089
664.886110	5901.449435
665.227040	5931.545124
665.567918	5901.940948
665.908746	5926.970277
666.249522	5932.641575
666.590248	5916.978710
666.930922	5947.386950
667.271545	5960.004958
667.612118	5965.265402
667.952639	5936.011586
668.293109	5956.511438
668.633528	5911.151136
668.973896	5916.353607
669.314213	5909.626187
669.654480	5889.638012
669.994695	5880.936980
670.334859	5873.153439
670.674973	5863.703796
671.015035	5869.291915
671.355047	5865.306883
671.695008	5854.624678
672.034918	5829.144166
672.374777	5840.433830
672.714585	5822.038659
673.054342	5829.827242
673.394049	5817.932639
673.733705	5854.334811
674.073310	5837.620866
674.412864	5796.152334
674.752368	5789.785357
675.091820	5792.081603
675.431223	5729.914093
675.770574	5731.081120
676.109875	5681.176218
676.449125	5690.653587
676.788324	5655.476416
677.127473	5594.286890
677.466571	5590.359831
677.805619	5582.961938
678.144616	5565.259926
678.483562	5546.630342
678.822458	5513.673799
679.161303	5511.251525
679.500098	5497.509339
679.838842	5487.220344
680.177535	5488.490715
680.516179	5496.342312
680.854771	5515.014746
681.193314	5595.244709
681.531805	5698.066604
681.870247	5852.898083
682.208638	5954.447086
682.546978	5964.685669
682.885268	5940.553666
683.223508	5857.049473
683.561697	5802.433612
683.899836	5773.769611
684.237925	5729.162961
684.575963	5694.915883
684.913951	5656.915665
685.251889	5715.597216
685.589776	5685.740983
685.927614	5650.657072
686.265401	5724.020984
686.603137	5706.714703
686.940824	5788.252846
687.278460	5808.152801
687.616046	5821.650490
687.953582	5890.414349
688.291068	5868.248396
688.628504	5931.751811
688.965889	5891.513321
689.303224	5834.807902
689.640510	5793.021778
689.977745	5717.023863
690.314930	5614.529643
690.652065	5562.814967
690.989150	5468.812571
691.326185	5394.213576
691.663170	5338.604608
692.000105	5260.953195
692.336990	5187.075085
692.673825	5162.166744
693.010610	5092.210652
693.347345	5021.884036
693.684030	5007.378115
694.020665	4971.124658
694.357251	4878.659814
694.693786	4885.765320
695.030272	4857.446638
695.366707	4819.481709
695.703093	4785.219507
696.039429	4804.988391
696.375716	4787.654384
696.711952	4763.701341
697.048139	4752.141976
697.384276	4729.081217
697.720363	4741.421962
698.056400	4754.581894
698.392388	4699.610632
698.728326	4681.102036
699.064214	4660.390455
699.400053	4653.224455
699.735842	4620.724136
700.071581	4595.447791
700.407270	4568.354109
700.742910	4552.945822
701.078501	4499.260055
701.414042	4495.945496
701.749533	4468.297288
702.084974	4405.726486
702.420366	4459.087100
702.755709	4398.179879
703.091002	4344.073175
703.426246	4391.122263
703.761440	4349.343701
704.096584	4310.481446
704.431679	4335.316690
704.766725	4316.951767
705.101721	4304.376609
705.436668	4336.143440
705.771565	4280.625212
706.106413	4310.587310
706.441212	4343.586703
706.775961	4351.677755
707.110661	4329.988191
707.445311	4358.624465
707.779913	4379.303278
708.114465	4390.482037
708.448967	4422.929424
708.783421	4478.336746
709.117825	4519.512890
709.452180	4522.192263
709.786485	4570.524326
710.120742	4655.303931
710.454949	4640.150222
710.789107	4703.013411
711.123216	4776.435296
711.457275	4773.793731
711.791286	4847.659238
712.125247	4861.207339
712.459159	4763.033388
712.793023	4837.758412
713.126837	4800.978153
713.460602	4795.478255
713.794318	4712.992375
714.127985	4722.489909
714.461602	4634.375581
714.795171	4605.577989
715.128691	4539.720355
715.462162	4484.746573
715.795584	4431.854787
716.128957	4417.653856
716.462281	4366.594529
716.795556	4337.023121
717.128782	4300.058860
717.461960	4230.800968
717.795088	4245.256477
718.128167	4203.372050
718.461198	4140.589520
718.794180	4140.115652
719.127113	4117.826190
719.459997	4098.216102
719.792833	4050.509142
720.125619	4045.838513
720.458357	4008.536495
720.791046	4014.356507
721.123686	3985.790809
721.456278	3945.320426
721.788821	3962.793065
722.121315	3934.023200
722.453761	3909.563522
722.786158	3924.515584
723.118506	3947.369655
723.450805	3899.493817
723.783056	3917.866302
724.115259	3934.688632
724.447412	3939.697019
724.779518	3931.762243
725.111574	3939.573511
725.443582	3968.439157
725.775542	3954.452476
726.107453	4003.162625
726.439315	3999.759846
726.771129	4017.237527
727.102895	4055.966191
727.434612	4100.766925
727.766281	4113.553812
728.097901	4114.743524
728.429473	4118.443731
728.760996	4124.203250
729.092471	4121.725523
729.423897	4105.944190
729.755276	4111.766723
730.086606	4112.018781
730.417887	4149.557733
730.749120	4215.400243
731.080305	4278.064306
731.411442	4303.030621
731.742530	4270.966362
732.073570	4276.292341
732.404562	4335.029345
732.735506	4325.494002
733.066401	4287.017395
733.397249	4225.001121
733.728048	4147.160664
734.058798	4061.841656
734.389501	3989.657374
734.720156	3932.213426
735.050762	3884.355232
735.381320	3878.091598
735.711831	3828.219463
736.042293	3795.860297
736.372707	3818.689162
736.703073	3794.111016
737.033391	3782.952422
737.363661	3799.348775
737.693883	3826.908763
738.024056	3832.252386
738.354182	3829.210050
738.684260	3894.472828
739.014290	3912.184922
739.344272	3909.538316
739.674207	3949.363431
740.004093	3954.989359
740.333931	3947.659521
740.663722	3952.269657
740.993464	3951.153041
741.323159	3926.199329
741.652806	3897.888209
741.982405	3871.543139
742.311956	3836.265145
742.641460	3827.980008
742.970915	3803.691729
743.300323	3763.254114
743.629683	3728.812951
743.958996	3717.603945
744.288260	3693.792055
744.617477	3661.942045
744.946647	3649.765138
745.275768	3622.711786
745.604842	3620.433184
745.933869	3573.505083
746.262847	3560.360274
746.591778	3602.229577
746.920662	3574.472984
747.249498	3539.142058
747.578286	3587.456476
747.907027	3604.508179
748.235720	3604.757716
748.564365	3625.290336
748.892963	3628.549442
749.221514	3606.950618
749.550017	3584.658636
749.878473	3585.457659
750.206881	3553.234603
750.535242	3551.215621
750.863555	3555.694686
751.191821	3546.159344
751.520039	3532.276006
751.848210	3506.525792
752.176334	3540.679610
752.504411	3545.776216
752.832440	3505.840195
753.160421	3485.612566
753.488356	3497.852487
753.816243	3512.207173
754.144082	3467.174545
754.471875	3456.492340
754.799620	3471.270483
755.127318	3460.550469
755.454969	3462.340079
755.782572	3470.037921
756.110129	3448.492029
756.437638	3435.485852
756.765100	3448.945733
757.092515	3457.757670
757.419882	3468.139926
757.747203	3437.986265
758.074477	3442.840896
758.401703	3456.615849
758.728882	3476.626709
759.056014	3484.957216
759.383099	3489.058194
759.710138	3487.092144
760.037129	3503.415400
760.364073	3534.955379
760.690970	3519.736136
761.017820	3493.519615
761.344623	3515.632637
761.671379	3558.336251
761.998088	3608.909106
762.324751	3738.943149
762.651366	3982.975325
762.977935	4455.001244
763.304456	4899.028596
763.630931	4993.051156
763.957359	4638.385818
764.283740	4296.676246
764.610074	4103.365640
764.936362	3904.908016
765.262602	3744.926999
765.588796	3635.841471
765.914943	3545.866957
766.241044	3456.131898
766.567097	3426.207609
766.893104	3382.160527
767.219064	3347.989066
767.544978	3322.974860
767.870845	3263.433792
768.196665	3247.445773
768.522438	3253.555651
768.848165	3253.137235
769.173846	3214.136349
769.499479	3197.555994
769.825066	3182.266174
770.150607	3166.010973
770.476101	3179.697706
770.801548	3177.620751
771.126949	3132.399080
771.452303	3112.468878
771.777611	3121.323665
772.102872	3127.209212
772.428087	3102.931015
772.753256	3088.843511
773.078378	3081.919486
773.403453	3048.665515
773.728482	3038.759648
774.053465	3057.893347
774.378401	3047.342212
774.703291	3015.240144
775.028135	3016.185361
775.352932	3007.640605
775.677683	2997.815396
776.002388	2993.338851
776.327046	2996.907988
776.651658	2985.025989
776.976224	2972.181129
777.300743	2976.173723
777.625216	2965.486476
777.949643	2960.551187
778.274024	2962.290385
778.598359	2951.978705
778.922647	2954.753860
779.246889	2954.199333
779.571086	2942.813887
779.895236	2937.193000
780.219339	2945.198353
780.543397	2959.089252
780.867409	2960.084880
781.191374	2953.249075
781.515294	2949.959723
781.839167	2953.488530
782.162995	2943.960749
782.486776	2953.085238
782.810511	2951.824949
783.134201	2934.773247
783.457844	2941.452775
783.781441	2934.117897
784.104993	2912.294742
784.428498	2914.890936
784.751958	2927.206475
785.075372	2919.317069
785.398739	2905.595048
785.722061	2923.539035
786.045337	2934.924481
786.368568	2920.032913
786.691752	2908.579411
787.014891	2958.156639
787.337983	2987.516319
787.661030	3017.208715
787.984031	3080.996955
788.306987	3130.188534
788.629897	3122.445322
788.952760	3104.052672
789.275579	3092.760487
789.598351	3032.420397
789.921078	2985.840135
790.243759	2979.808394
790.566395	2963.414562
790.888984	2935.647887
791.211529	2920.874785
791.534027	2908.322312
791.856480	2901.723442
792.178888	2884.452449
792.501249	2876.789895
792.823566	2873.530789
793.145836	2872.459544
793.468062	2868.295551
793.790241	2866.236239
794.112375	2868.837475
794.434464	2886.027809
794.756507	2886.577295
795.078505	2893.776063
795.400457	2907.563619
795.722364	2942.695420
796.044226	2969.176601
796.366042	2971.041828
796.687812	2961.158646
797.009538	2977.837303
797.331218	2966.961014
797.652852	2951.421657
797.974442	2935.718463
798.295986	2932.824841
798.617484	2926.629263
798.938938	2911.021850
799.260346	2894.706156
799.581709	2892.719941
799.903026	2885.604353
800.224299	2880.056563
800.545526	2869.051724
800.866708	2852.587315
801.187845	2844.413084
801.508936	2845.885101
801.829983	2851.211080
802.150984	2836.581652
802.471940	2825.420537
802.792851	2824.099755
803.113717	2824.150167
803.434538	2832.084943
803.755314	2821.611946
804.076045	2818.100782
804.396731	2816.248158
804.717372	2817.296718
805.037967	2814.874443
805.358518	2820.089517
805.679024	2831.384222
805.999485	2827.235353
806.319901	2832.067299
806.640272	2820.417192
806.960598	2828.747699
807.280879	2838.895542
807.601115	2844.345029
807.921306	2832.833554
808.241453	2828.115034
808.561554	2834.144254
808.881611	2837.166426
809.201623	2828.866166
809.521590	2832.072340
809.841513	2823.126812
810.161390	2828.944304
810.481223	2822.511792
810.801011	2811.816984
811.120755	2809.303968
811.440453	2811.101140
811.760107	2811.552323
812.079716	2812.631130
812.399281	2800.572690
812.718801	2793.835188
813.038276	2789.910650
813.357707	2795.239149
813.677093	2801.144861
813.996434	2797.880714
814.315731	2791.773356
814.634983	2787.417799
814.954191	2790.266051
815.273354	2803.836837
815.592473	2812.149700
815.911547	2813.162972
816.230577	2822.864672
816.549562	2830.844819
816.868502	2827.507575
817.187399	2840.586849
817.506250	2856.169055
817.825058	2849.681090
818.143821	2864.948225
818.462539	2877.780482
818.781213	2904.508679
819.099843	2941.402364
819.418429	2999.146261
819.736970	3061.732186
820.055466	3133.505613
820.373919	3241.950915
820.692327	3382.236144
821.010691	3548.846279
821.329011	3995.162314
821.647286	4896.543307
821.965517	6280.821468
822.283704	7035.620830
822.601847	7012.860021
822.919945	6383.068671
823.237999	5869.407861
823.556010	5283.555208
823.873976	4729.628182
824.191897	4315.280624
824.509775	4022.596273
824.827609	3749.844644
825.145398	3627.173207
825.463144	3612.067389
825.780845	3705.253118
826.098502	3807.901093
826.416116	4092.000359
826.733685	4411.498607
827.051210	4472.773832
827.368692	4360.257799
827.686129	4096.918004
828.003522	3763.175976
828.320872	3506.533354
828.638177	3309.099084
828.955439	3173.066068
829.272656	3085.370156
829.589830	3019.746936
829.906960	2970.598206
830.224046	2925.711773
830.541088	2891.119375
830.858086	2876.636140
831.175041	2856.378263
831.491952	2860.627956
831.808819	2870.911910
832.125642	2893.571896
832.442421	2939.917744
832.759157	3023.666433
833.075849	3201.190666
833.392497	3482.328254
833.709101	3688.395500
834.025662	3640.504538
834.342179	3479.119559
834.658653	3300.324956
834.975083	3151.956237
835.291469	3051.828839
835.607811	2968.546457
835.924110	2910.295924
836.240366	2858.697194
836.556578	2816.381748
836.872746	2793.152112
837.188871	2770.088833
837.504952	2752.467479
837.820990	2743.627816
838.136984	2731.748337
838.452935	2725.088973
838.768842	2721.298025
839.084706	2739.942733
839.400526	2818.930052
839.716303	2949.773200
840.032037	3037.292672
840.347727	3020.747605
840.663373	2957.047585
840.978977	2881.087479
841.294537	2811.237251
841.610054	2761.753285
841.925527	2736.781929
842.240957	2718.096892
842.556344	2694.753830
842.871687	2678.715399
843.186987	2669.664007
843.502244	2666.873728
843.817458	2659.226298
844.132629	2649.101140
844.447756	2642.126704
844.762840	2633.100518
845.077881	2635.502628
845.392879	2635.081692
845.707833	2630.400980
846.022745	2622.879579
846.337613	2626.617594
846.652438	2623.683643
846.967221	2624.628859
847.281960	2622.171297
847.596656	2620.457304
847.911309	2619.413785
848.225919	2618.365225
848.540485	2613.954216
848.855009	2614.445728
849.169490	2615.038064
849.483928	2612.625872
849.798323	2611.738629
850.112675	2613.114864
850.426984	2613.175357
850.741251	2608.363576
851.055474	2610.702672
851.369654	2615.027982
851.683792	2613.457662
851.997887	2610.271653
852.311938	2613.770214
852.625947	2613.387086
852.939914	2613.808022
853.253837	2615.723661
853.567718	2612.010851
853.881555	2610.077568
854.195350	2614.786006
854.509103	2614.811212
854.822812	2610.720316
855.136479	2610.395161
855.450103	2611.226952
855.763685	2613.079576
856.077224	2611.494133
856.390720	2607.413319
856.704173	2613.566047
857.017584	2614.662498
857.330953	2616.348764
857.644278	2617.788013
857.957561	2617.798096
858.270802	2615.267436
858.584000	2613.845831
858.897155	2617.172992
859.210268	2618.246758
859.523339	2612.456993
859.836367	2609.379369
860.149352	2609.500356
860.462295	2613.868516
860.775195	2609.734770
861.088054	2608.545058
861.400869	2607.151179
861.713642	2604.272680
862.026373	2607.173864
862.339062	2609.402054
862.651708	2615.249792
862.964312	2616.540328
863.276873	2612.409102
863.589392	2618.387911
863.901869	2620.807664
864.214303	2624.971657
864.526696	2627.255300
864.839045	2630.423665
865.151353	2632.311577
865.463619	2630.766464
865.775842	2631.114303
866.088023	2630.348048
866.400162	2633.985241
866.712258	2633.070271
867.024313	2628.442492
867.336325	2629.233953
867.648296	2627.451905
867.960224	2635.633698
868.272110	2632.130096
868.583954	2626.947790
868.895755	2626.330248
869.207515	2632.417442
869.519233	2639.338946
869.830909	2634.849798
870.142542	2630.905096
870.454134	2632.190590
870.765684	2637.483801
871.077191	2639.326343
871.388657	2646.041160
871.700081	2642.650984
872.011463	2643.167702
872.322803	2644.022178
872.634101	2649.055770
872.945357	2651.079793
873.256571	2660.975578
873.567744	2657.393838
873.878874	2655.533653
874.189963	2656.977943
874.501010	2663.481032
874.812015	2666.581341
875.122979	2666.379695
875.433900	2655.573982
875.744780	2657.567758
876.055618	2665.071516
876.366415	2666.851043
876.677169	2665.046310
876.987882	2662.077070
877.298554	2658.578510
877.609183	2670.029491
877.919771	2678.019719
878.230317	2683.393589
878.540822	2696.160312
878.851285	2706.257743
879.161707	2733.321177
879.472087	2771.870881
879.782425	2821.586740
880.092722	2937.525717
880.402977	3121.991618
880.713191	3388.565313
881.023363	3685.466589
881.333494	3882.185015
881.643583	4055.550296
881.953631	4049.856313
882.263637	3869.778736
882.573602	3647.027791
882.883526	3519.191691
883.193408	3404.371851
883.503248	3300.985347
883.813048	3183.680218
884.122806	3065.374419
884.432522	2982.732264
884.742197	2915.992428
885.051831	2878.173692
885.361424	2840.586849
885.670975	2807.693320
885.980485	2774.550254
886.289954	2755.779517
886.599382	2742.188567
886.908768	2732.398646
887.218113	2712.707899
887.527417	2698.222143
887.836680	2690.277285
888.145901	2686.342664
888.455082	2678.531397
888.764221	2664.738800
889.073319	2659.400218
889.382376	2656.771256
889.691392	2657.416524
890.000366	2660.632780
890.309300	2656.045330
890.618193	2657.436688
890.927044	2658.397028
891.235855	2663.418017
891.544625	2659.276709
891.853353	2661.066319
892.162041	2667.642504
892.470687	2687.529856
892.779293	2697.730631
893.087858	2710.371324
893.396381	2732.406208
893.704864	2777.380862
894.013306	2845.191943
894.321707	2937.719801
894.630068	2990.752739
894.938387	3011.857530
895.246665	3001.961745
895.554903	2960.029427
895.863100	2915.397572
896.171256	2857.701566
896.479371	2796.582617
896.787446	2755.764394
897.095480	2738.647156
897.403473	2729.714232
897.711425	2717.456666
898.019336	2694.907585
898.327207	2682.665143
898.635038	2680.046263
898.942827	2679.453928
899.250576	2669.384223
899.558284	2658.916267
899.865952	2651.883857
900.173579	2650.764721
900.481165	2647.039308
900.788711	2640.420273
901.096216	2634.983389
901.403681	2631.472225
901.711105	2632.712349
902.018489	2626.761267
902.325832	2631.046248
902.633135	2632.442647
902.940397	2651.009217
903.247619	2686.720751
903.554800	2756.714652
903.861941	2884.500340
904.169041	3015.459434
904.476101	3079.227510
904.783121	3070.120666
905.090100	3013.984897
905.397039	2935.297527
905.703938	2861.174921
906.010796	2798.306691
906.317614	2747.017992
906.624391	2707.291179
906.931129	2682.324865
907.237826	2659.984992
907.544483	2641.247023
907.851099	2627.643469
908.157675	2616.782303
908.464211	2612.144442
908.770707	2602.485591
909.077163	2596.000146
909.383578	2592.017635
909.689954	2590.754826
909.996289	2587.715010
910.302584	2591.367326
910.608839	2584.443301
910.915054	2583.878692
911.221229	2586.106882
911.527363	2592.065526
911.833458	2589.159301
912.139513	2591.894127
912.445527	2595.266658
912.751502	2601.263111
913.057436	2603.269490
913.363331	2609.560850
913.669186	2619.171810
913.975000	2636.536064
914.280775	2651.404948
914.586510	2668.292813
914.892205	2706.968545
915.197859	2772.322064
915.503475	2857.711648
915.809050	2926.941814
916.114585	2942.599638
916.420081	2955.920887
916.725536	2965.567135
917.030952	2938.538988
917.336328	2894.933008
917.641665	2840.443176
917.946961	2791.959879
918.252218	2755.555186
918.557435	2731.965107
918.862612	2705.824203
919.167750	2690.791483
919.472848	2673.580983
919.777906	2655.475679
920.082925	2643.472692
920.387904	2633.329891
920.692843	2626.073150
920.997743	2626.433592
921.302603	2614.685183
921.607423	2609.802826
921.912204	2603.801332
922.216946	2602.916609
922.521647	2599.266814
922.826310	2599.392843
923.130932	2592.042841
923.435516	2584.539083
923.740059	2584.309711
924.044564	2582.411716
924.349028	2581.017837
924.653454	2571.595921
924.957840	2567.812535
925.262186	2567.321022
925.566493	2569.181208
925.870761	2562.393294
926.174989	2566.590055
926.479178	2560.979251
926.783328	2562.224416
927.087438	2563.272976
927.391509	2561.770712
927.695541	2558.763663
927.999533	2557.077398
928.303486	2556.422047
928.607400	2557.808365
928.911275	2555.701162
929.215110	2556.323745
929.518906	2554.713096
929.822663	2554.423230
930.126381	2555.247459
930.430060	2553.651933
930.733699	2555.433981
931.037299	2556.941286
931.340861	2555.335679
931.644383	2557.831050
931.947866	2554.559341
932.251309	2557.815927
932.554714	2555.199568
932.858080	2556.439692
933.161407	2554.115720
933.464694	2553.997253
933.767943	2552.280740
934.071153	2553.082283
934.374323	2553.115051
934.677455	2551.998435
934.980548	2550.445760
935.283602	2552.126984
935.586617	2553.178065
935.889593	2553.694783
936.192530	2551.564896
936.495428	2553.246121
936.798287	2553.604042
937.101108	2553.956923
937.403890	2559.068653
937.706632	2562.710887
938.009336	2562.978068
938.312002	2566.796742
938.614628	2569.760941
938.917216	2574.063565
939.219765	2575.389389
939.522275	2573.967783
939.824747	2574.844944
940.127179	2572.427711
940.429573	2567.293296
940.731929	2565.685168
941.034246	2562.781463
941.336524	2567.867987
941.638763	2567.716753
941.940964	2564.550908
942.243126	2561.909343
942.545250	2562.647872
942.847335	2558.705690
943.149381	2559.366081
943.451389	2559.580330
943.753359	2559.456822
944.055290	2558.173848
944.357182	2555.807027
944.659036	2559.492110
944.960851	2554.942469
945.262628	2554.617314
945.564367	2559.968499
945.866067	2553.770401
946.167729	2556.270813
946.469352	2554.337530
946.770937	2556.558159
947.072484	2555.915412
947.373992	2555.255020
947.675462	2552.989022
947.976893	2553.546069
948.278286	2555.522202
948.579641	2552.467262
948.880958	2552.467262
949.182236	2554.642520
949.483476	2549.929041
949.784678	2549.455173
950.085841	2552.615976
950.386967	2553.374670
950.688054	2552.343754
950.989103	2553.982129
951.290114	2550.228990
951.591087	2559.197203
951.892021	2557.150494
952.192917	2558.246945
952.493776	2556.548076
952.794596	2560.714590
953.095378	2563.381360
953.396122	2563.139385
953.696828	2559.850032
953.997496	2558.753581
954.298126	2555.547407
954.598718	2553.530946
954.899272	2553.087324
955.199788	2555.015566
955.500266	2552.386604
955.800706	2547.473999
956.101108	2545.447456
956.401472	2544.192208
956.701798	2541.054090
957.002087	2542.190870
957.302337	2544.582898
957.602550	2543.735984
957.902724	2542.127856
958.202861	2543.793957
958.502960	2542.367311
958.803022	2542.417722
959.103045	2539.745911
959.403031	2540.015612
959.702979	2538.566281
960.002889	2541.812784
960.302762	2538.339429
960.602596	2538.130221
960.902393	2538.397402
961.202153	2537.300951
961.501875	2536.396064
961.801559	2538.283976
962.101205	2538.256250
962.400814	2541.041487
962.700385	2539.244316
962.999918	2539.488812
963.299414	2537.905889
963.598873	2537.172402
963.898293	2537.079140
964.197677	2537.737011
964.497022	2539.120807
964.796331	2536.983358
965.095601	2539.529141
965.394835	2538.369676
965.694030	2535.680220
965.993189	2538.258770
966.292309	2537.379089
966.591393	2536.164171
966.890439	2537.205169
967.189447	2537.744572
967.488419	2537.502597
967.787353	2536.582587
968.086249	2533.139478
968.385108	2537.986548
968.683930	2537.366486
968.982714	2536.575025
969.281462	2535.193749
969.580172	2536.489325
969.878844	2534.792977
970.177480	2536.138965
970.476078	2535.836496
970.774639	2541.278421
971.073162	2538.576363
971.371649	2534.712318
971.670098	2536.156609
971.968510	2536.496887
972.266885	2533.893131
972.565223	2536.416228
972.863524	2538.001671
973.161788	2537.227854
973.460014	2536.375899
973.758204	2536.746424
974.056356	2538.389840
974.354471	2533.822555
974.652550	2538.324305
974.950591	2536.572504
975.248595	2539.791281
975.546563	2536.111239
975.844493	2535.019829
976.142386	2536.829603
976.440243	2537.028729
976.738062	2537.220293
977.035845	2533.847761
977.333590	2535.949922
977.631299	2536.645601
977.928971	2533.144520
978.226606	2534.041845
978.524204	2532.753830
978.821765	2537.593338
979.119290	2537.537885
979.416777	2535.460930
979.714228	2536.922864
980.011642	2536.249870
980.309020	2537.555529
980.606360	2535.138296
980.903664	2536.862371
981.200931	2539.203987
981.498162	2540.209697
981.795356	2536.890097
982.092513	2542.117773
982.389633	2542.868905
982.686717	2545.462579
982.983764	2551.852242
983.280775	2554.647561
983.577749	2553.236038
983.874686	2552.961295
984.171587	2547.289997
984.468451	2545.008875
984.765279	2541.560726
985.062070	2541.734646
985.358824	2538.601569
985.655543	2539.105684
985.952224	2536.532175
986.248869	2536.426311
986.545478	2532.204344
986.842050	2531.750641
987.138586	2529.252749
987.435086	2530.802904
987.731549	2529.409025
988.027975	2535.433203
988.324366	2534.064530
988.620719	2532.337935
988.917037	2533.399098
989.213318	2532.043027
989.509563	2533.527647
989.805772	2530.576052
990.101944	2531.717873
990.398080	2532.514375
990.694180	2531.150743
990.990244	2534.515713
991.286271	2530.334076
991.582262	2534.233409
991.878217	2530.104704
992.174136	2533.336083
992.470019	2531.022194
992.765865	2533.459592
993.061676	2532.504293
993.357450	2535.707946
993.653188	2533.845240
993.948890	2531.647297
994.244556	2535.128214
994.540186	2534.182997
994.835780	2535.070240
995.131337	2531.990095
995.426859	2531.856505
995.722345	2532.801721
996.017795	2536.189377
996.313208	2539.607279
996.608586	2536.433873
996.903928	2540.040818
997.199234	2536.159130
997.494504	2537.177443
997.789738	2534.820703
998.084936	2537.673996
998.380099	2533.724252
998.675225	2532.693336
998.970316	2534.924047
999.265371	2532.975641
999.560390	2534.465302
999.855373	2534.266176
1000.150320	2532.169056
1000.445232	2533.920857
1000.740108	2533.174767
1001.034948	2532.670651
1001.329752	2530.568490
1001.624521	2534.578728
1001.919254	2527.415248
1002.213951	2530.407173
1002.508613	2526.485155
1002.803239	2528.816689
1003.097829	2524.859383
1003.392384	2534.354397
1003.686903	2530.533202
1003.981386	2533.348686
1004.275834	2532.229550
1004.570246	2531.947246
1004.864623	2532.348017
1005.158964	2531.420445
1005.453270	2528.972965
1005.747540	2533.126876
1006.041775	2530.263500
1006.335974	2529.719056
1006.630138	2530.598737
1006.924266	2531.818696
1007.218359	2530.833151
1007.512416	2531.125537
1007.806438	2528.052954
1008.100425	2533.247863
1008.394376	2529.159488
1008.688292	2530.220650
1008.982172	2530.465146
1009.276017	2531.692667
1009.569827	2534.684592
1009.863602	2532.413552
1010.157341	2530.107224
1010.451045	2532.101001
1010.744714	2528.055475
1011.038347	2529.628315
1011.331945	2529.184693
1011.625508	2530.082019
1011.919036	2531.062523
1012.212528	2528.947759
1012.505986	2528.514220
1012.799408	2531.919519
1013.092795	2529.860208
1013.386147	2528.927594
1013.679464	2529.459436
1013.972745	2530.016484
1014.265992	2530.674354
1014.559204	2532.791639
1014.852380	2531.138140
1015.145521	2528.809127
1015.438628	2529.998840
1015.731699	2529.275434
1016.024736	2529.623274
1016.317737	2531.387678
1016.610703	2533.464633
1016.903635	2528.776360
1017.196531	2525.605474
1017.489393	2528.975485
1017.782219	2528.362985
1018.075011	2527.599250
1018.367768	2529.845084
1018.660490	2531.158305
1018.953177	2531.158305
1019.245829	2531.158305
