Dividing Wavelength (nm)	Counts (n)	Blue Motor Position (mm): 49.000000	Red Motor Position (mm): 0.000000	
326.493990	2154.831129
326.888308	2154.831129
327.282561	2154.831129
327.676750	2128.433127
328.070874	2129.877418
328.464933	2133.408746
328.858929	2143.415436
329.252859	2154.367343
329.646726	2169.881494
330.040528	2184.571416
330.434265	2202.850640
330.827938	2220.668598
331.221547	2239.504870
331.615091	2260.576893
332.008571	2279.445932
332.401986	2299.973510
332.795338	2322.207519
333.188625	2338.916424
333.581847	2361.783098
333.975006	2380.047198
334.368100	2398.288613
334.761129	2416.817374
335.154095	2432.583583
335.546996	2458.326235
335.939833	2488.368991
336.332606	2504.699809
336.725315	2514.608197
337.117960	2521.625483
337.510540	2527.609333
337.903056	2540.131559
338.295508	2547.496685
338.687896	2553.334341
339.080220	2561.377502
339.472480	2569.075344
339.864676	2572.001733
340.256807	2574.507187
340.648875	2575.820407
341.040879	2578.792168
341.432818	2576.848803
341.824694	2580.531366
342.216506	2581.211922
342.608253	2579.863413
342.999937	2576.269070
343.391557	2576.049780
343.783113	2576.445511
344.174605	2572.957032
344.566033	2571.479974
344.957397	2572.825962
345.348697	2569.105591
345.739934	2569.239181
346.131106	2568.722463
346.522215	2564.989488
346.913260	2562.191648
347.304241	2562.423541
347.695159	2557.682336
348.086012	2557.959599
348.476802	2559.424055
348.867528	2556.215360
349.258191	2555.401214
349.648789	2556.459856
350.039324	2552.389124
350.429796	2553.709907
350.820203	2549.644216
351.210548	2548.257899
351.600828	2548.467107
351.991045	2549.130018
352.381198	2546.463248
352.771288	2547.416026
353.161314	2547.206818
353.551276	2546.185985
353.941175	2546.619524
354.331010	2551.209494
354.720782	2546.715306
355.110490	2547.201777
355.500135	2548.141952
355.889717	2547.519370
356.279235	2549.253527
356.668689	2550.896943
357.058080	2548.565409
357.447408	2546.241437
357.836672	2545.598690
358.225873	2546.105326
358.615010	2545.938968
359.004084	2553.533466
359.393095	2551.690925
359.782043	2554.803837
360.170927	2553.682180
360.559748	2553.994732
360.948505	2552.351316
361.337199	2554.360216
361.725830	2554.440874
362.114398	2555.078580
362.502903	2557.321893
362.891344	2557.684857
363.279722	2558.435988
363.668037	2556.774928
364.056289	2557.238714
364.444478	2560.762481
364.832603	2559.403890
365.220665	2559.194682
365.608665	2560.107131
365.996601	2558.710731
366.384474	2562.877245
366.772284	2558.803993
367.160031	2561.450598
367.547715	2564.404715
367.935336	2563.456978
368.322893	2562.960424
368.710388	2563.756926
369.097820	2565.528892
369.485189	2565.032338
369.872495	2563.111659
370.259738	2563.918243
370.646918	2562.675599
371.034035	2561.332131
371.421090	2565.002091
371.808081	2566.784139
372.195010	2566.050651
372.581875	2565.622153
372.968678	2568.268759
373.355418	2564.820610
373.742096	2567.938563
374.128710	2568.402350
374.515262	2570.189439
374.901751	2569.549212
375.288177	2572.089954
375.674540	2573.446024
376.060841	2574.028277
376.447079	2574.431570
376.833254	2577.640264
377.219367	2575.744790
377.605417	2576.770665
377.991404	2578.938361
378.377329	2583.586305
378.763191	2582.328537
379.148991	2590.883375
379.534727	2593.325814
379.920402	2594.066864
380.306013	2597.353696
380.691563	2603.367793
381.077049	2605.762341
381.462474	2611.315172
381.847835	2613.787858
382.233134	2619.935545
382.618371	2623.116513
383.003545	2631.089098
383.388657	2637.942546
383.773706	2640.296765
384.158693	2648.385297
384.543618	2650.752118
384.928480	2658.828047
385.313280	2664.012873
385.698017	2673.427228
386.082692	2683.602797
386.467305	2687.386183
386.851856	2695.512523
387.236344	2706.986189
387.620770	2711.003989
388.005133	2723.770711
388.389435	2735.569532
388.773674	2739.390726
389.157851	2744.424318
389.541965	2758.937800
389.926018	2764.702360
390.310008	2774.928340
390.693936	2786.001235
391.077802	2793.767132
391.461606	2806.672486
391.845348	2812.414360
392.229027	2824.608912
392.612645	2839.329081
392.996200	2846.331243
393.379694	2861.182483
393.763125	2879.244937
394.146494	2887.905639
394.529801	2900.798390
394.913047	2915.437901
395.296230	2921.031061
395.679351	2922.092224
396.062410	2948.429732
396.445408	2939.706016
396.828343	2955.860393
397.211217	2960.336938
397.594028	2955.205043
397.976778	2970.351190
398.359466	2986.808037
398.742092	2984.080772
399.124656	2996.933194
399.507158	3011.093795
399.889598	3017.241482
400.271977	3031.233205
400.654294	3041.726367
401.036549	3050.986966
401.418742	3058.951989
401.800874	3079.696337
402.182944	3088.835949
402.564952	3118.634210
402.946898	3108.504011
403.328783	3117.295783
403.710606	3134.302116
404.092367	3154.749036
404.474067	3183.803726
404.855705	3171.518434
405.237282	3177.194773
405.618797	3204.873228
406.000250	3225.872155
406.381642	3257.379366
406.762972	3261.394645
407.144240	3254.291660
407.525447	3275.046090
407.906593	3272.538116
408.287677	3296.188689
408.668700	3312.905155
409.049661	3315.266936
409.430560	3328.865448
409.811399	3334.730831
410.192176	3355.780169
410.572891	3362.303422
410.953545	3399.693660
411.334138	3370.996892
411.714669	3420.501023
412.095139	3368.136037
412.475547	3415.837955
412.855894	3409.604568
413.236180	3441.310906
413.616405	3421.599994
413.996568	3443.372738
414.376670	3448.713840
414.756711	3440.900052
415.136691	3466.816623
415.516609	3489.257320
415.896466	3495.568844
416.276262	3524.076569
416.655997	3554.295766
417.035670	3561.464287
417.415283	3626.661530
417.794834	3649.412257
418.174324	3633.222591
418.553753	3634.916419
418.933121	3676.236237
419.312428	3670.310360
419.691674	3661.896674
420.070859	3698.727344
420.449983	3681.312678
420.829045	3729.415368
421.208047	3714.087740
421.586988	3757.678598
421.965867	3791.285450
422.344686	3801.849187
422.723444	3839.572142
423.102141	3741.793922
423.480777	3841.805373
423.859352	3815.339315
424.237866	3912.633584
424.616319	3894.959299
424.994712	3958.538331
425.373044	3942.048717
425.751314	4012.609747
426.129524	3943.306485
426.507673	4046.173750
426.885762	4021.608207
427.263789	4044.668965
427.641756	4044.053945
428.019662	4078.984100
428.397508	4077.751537
428.775292	4118.005151
429.153016	4124.170482
429.530679	4136.181031
429.908282	4144.723266
430.285824	4125.246768
430.663305	4199.291236
431.040726	4155.135770
431.418086	4142.575735
431.795385	4222.193198
432.172624	4254.058332
432.549802	4222.470462
432.926920	4240.285899
433.303977	4232.966144
433.680974	4277.792084
434.057910	4299.131288
434.434786	4301.886279
434.811601	4298.077687
435.188355	4402.253131
435.565050	4372.343965
435.941683	4373.228688
436.318257	4462.910815
436.694770	4467.745281
437.071222	4523.258467
437.447614	4458.928303
437.823946	4461.423674
438.200218	4480.476715
438.576429	4460.561637
438.952580	4485.961491
439.328670	4492.194878
439.704700	4534.384294
440.080670	4493.407275
440.456580	4559.209456
440.832429	4593.073407
441.208218	4492.696472
441.583947	4548.577663
441.959616	4564.900919
442.335224	4585.216769
442.710773	4611.675265
443.086261	4662.109488
443.461689	4620.499805
443.837057	4625.397286
444.212365	4700.994429
444.587612	4706.085994
444.962800	4676.222199
445.337927	4716.518662
445.712995	4600.869552
446.088002	4797.882885
446.462949	4818.337367
446.837837	4836.130119
447.212664	4827.895394
447.587431	5050.976534
447.962139	5347.872770
448.336786	5687.586045
448.711374	5670.292367
449.085901	5312.403211
449.460369	5250.220578
449.834776	5192.307803
450.209124	5428.679945
450.583412	5439.586482
450.957640	5557.259615
451.331808	5420.183080
451.705917	5272.502478
452.079965	5262.909163
452.453954	5298.698834
452.827883	5267.524339
453.201752	5269.155152
453.575562	5303.124968
453.949311	5440.299805
454.323001	5445.638387
454.696632	5437.421306
455.070202	5594.702785
455.443713	5621.967866
455.817164	5716.053441
456.190556	5786.150685
456.563888	5757.998361
456.937160	5835.075083
457.310373	5677.811248
457.683526	5735.275360
458.056619	5729.914093
458.429653	5708.342996
458.802628	5755.641622
459.175542	5791.511952
459.548398	5931.237613
459.921194	6121.669720
460.293930	6177.467732
460.666607	6429.248161
461.039224	6644.061808
461.411782	6774.216839
461.784280	6687.871956
462.156719	6691.672986
462.529099	6649.355020
462.901419	6512.676736
463.273680	6377.465428
463.645882	6365.616196
464.018024	6375.655654
464.390106	6440.316014
464.762130	6694.843872
465.134094	7088.779798
465.505999	7730.790905
465.877845	8436.786857
466.249631	8783.613200
466.621358	8706.483546
466.993026	8515.537242
467.364634	8297.199827
467.736184	8014.638113
468.107674	7861.079526
468.479105	7777.487113
468.850477	7708.967750
469.221790	7540.636061
469.593043	7310.058725
469.964238	7212.386369
470.335373	7190.769902
470.706449	7342.574167
471.077467	7536.388889
471.448425	8196.086884
471.819324	8778.803939
472.190164	8812.211666
472.560945	8332.056886
472.931667	7858.669854
473.302330	7658.498238
473.672934	7541.399796
474.043479	7624.263762
474.413965	7521.746858
474.784393	7470.377500
475.154761	7628.145451
475.525070	7634.875391
475.895321	7589.338648
476.265513	7689.070315
476.635645	7851.254317
477.005719	7838.233017
477.375734	7934.808921
477.745691	8044.852269
478.115588	8247.572188
478.485427	8484.675298
478.855207	8960.086352
479.224928	9402.026666
479.594591	9773.889900
479.964194	9783.921796
480.333739	9868.020845
480.703226	9869.757523
481.072653	9969.685795
481.442022	10091.180123
481.811333	10242.336601
482.180584	10077.798380
482.549777	10019.867961
482.918912	9951.905645
483.287988	9943.257546
483.657005	9848.836734
484.025964	9762.587633
484.394864	9828.059619
484.763706	9785.844996
485.132489	9691.898053
485.501213	9689.054843
485.869879	9747.471733
486.238487	9682.587042
486.607036	9759.212581
486.975527	9702.050937
487.343959	9760.102344
487.712333	9805.568511
488.080648	9850.152475
488.448905	9951.676273
488.817104	9958.864958
489.185244	10120.869999
489.553326	10339.525006
489.921350	10815.460340
490.289315	11448.873759
490.657222	11743.519119
491.025070	11913.985737
491.392861	11819.517034
491.760593	11667.438025
492.128267	11407.105279
492.495883	11177.334528
492.863440	10944.655031
493.230939	10714.294465
493.598380	10533.526250
493.965763	10510.679740
494.333088	10375.375171
494.700354	10305.958483
495.067563	10278.983268
495.434713	10281.939905
495.801805	10323.358025
496.168839	10284.767992
496.535815	10255.672973
496.902733	10299.863728
497.269593	10259.884857
497.636395	10265.646896
498.003139	10376.900120
498.369825	10303.551332
498.736453	10395.375949
499.103023	10338.259676
499.469535	10343.920892
499.835989	10393.624148
500.202385	10359.714827
500.568723	10382.503363
500.935003	10445.232961
501.301226	10412.281458
501.667390	10583.133724
502.033497	10680.538899
502.399546	10609.388053
502.765537	10522.314723
503.131470	10627.321958
503.497345	10717.646832
503.863163	10485.577315
504.228923	10613.657911
504.594625	10731.399100
504.960269	10637.885696
505.325856	10794.501743
505.691385	10668.672023
506.056856	10744.586758
506.422270	10847.297747
506.787625	10784.424477
507.152924	10833.439615
507.518164	10896.912783
507.883347	10760.698286
508.248472	10828.711013
508.613540	10937.839391
508.978550	11009.932932
509.343503	10989.440642
509.708398	11043.295288
510.073236	11181.062461
510.438016	11189.367762
510.802738	11101.208064
511.167403	11230.624565
511.532010	11290.763010
511.896561	11385.377906
512.261053	11582.623133
512.625488	11502.551965
512.989866	11494.037457
513.354186	11465.784310
513.718449	11476.348048
514.082655	11622.027312
514.446803	11573.576782
514.810894	11682.110304
515.174927	11681.404542
515.538904	11656.574339
515.902822	11822.692961
516.266684	11697.281656
516.630488	11795.107767
516.994235	11783.273658
517.357925	11908.362329
517.721558	11966.302831
518.085133	12019.791994
518.448651	12060.043087
518.812112	12019.028259
519.175516	12031.245496
519.538863	12116.395625
519.902152	12117.885286
520.265385	12223.174825
520.628560	12248.582241
520.991678	12207.665716
521.354739	12249.076274
521.717743	12325.520331
522.080690	12295.429683
522.443580	12427.686875
522.806413	12454.263838
523.169189	12447.760750
523.531908	12499.641785
523.894569	12453.953807
524.257174	12474.554483
524.619722	12580.953076
524.982213	12555.964076
525.344647	12551.593396
525.707025	12565.940519
526.069345	12661.868636
526.431608	12644.592602
526.793815	12730.486302
527.155964	12615.013632
527.518057	12654.468222
527.880093	12609.236469
528.242072	12728.401784
528.603995	12648.151656
528.965860	12664.419460
529.327669	12687.197913
529.689421	12637.829894
530.051117	12658.753203
530.412755	12689.806711
530.774337	12697.675952
531.135862	12658.107935
531.497331	12717.654044
531.858743	12679.487469
532.220098	12755.838264
532.581396	12680.591481
532.942638	12605.377466
533.303824	12667.265191
533.664953	12652.973520
534.026025	12607.083897
534.387040	12711.239176
534.747999	12682.461749
535.108902	12739.683887
535.469748	12608.651695
535.830537	12626.275569
536.191270	12671.376252
536.551947	12598.781116
536.912567	12668.648988
537.273131	12700.010006
537.633638	12577.343609
537.994089	12629.743883
538.354483	12553.987944
538.714821	12687.835619
539.075103	12765.481992
539.435328	12689.264787
539.795497	12671.242662
540.155609	12662.796208
540.515665	12770.694545
540.875665	12627.384623
541.235609	12727.063358
541.595496	12693.688399
541.955328	12855.816948
542.315102	12715.377963
542.674821	12647.602171
543.034483	12664.111949
543.394090	12666.680417
543.753640	12641.598156
544.113134	12879.880896
544.472571	12632.950057
544.831953	12913.301225
545.191278	12732.260788
545.550548	12677.082838
545.909761	12785.250876
546.268918	12829.272752
546.628019	12891.541085
546.987064	12784.406483
547.346053	12630.527783
547.704986	12832.970439
548.063863	12704.985625
548.422684	12756.987647
548.781449	12723.373233
549.140158	12814.625680
549.498811	12765.565171
549.857408	12631.208338
550.215949	12839.047550
550.574434	12808.044453
550.932864	12758.323553
551.291237	12947.886061
551.649555	12840.312879
552.007817	12896.967887
552.366022	12825.043224
552.724173	12859.489428
553.082267	12947.618880
553.440305	13040.660936
553.798288	12866.910007
554.156215	12931.204883
554.514086	12976.824805
554.871902	12926.675406
555.229661	12945.877161
555.587365	12899.937126
555.945014	12917.066967
556.302606	12891.291547
556.660143	12951.336731
557.017625	12995.318278
557.375050	12951.135085
557.732421	13046.609498
558.089735	13048.096638
558.446994	13028.047969
558.804197	13136.004279
559.161345	13127.260397
559.518437	12946.625773
559.875474	13043.357953
560.232455	13064.855954
560.589381	13104.887757
560.946251	13044.492213
561.303065	13224.466446
561.659825	13163.667610
562.016528	13087.485693
562.373177	13030.787836
562.729770	13148.007266
563.086307	13043.554558
563.442789	13143.376966
563.799216	13180.752081
564.155587	13126.000109
564.511904	13146.023572
564.868164	13157.993792
565.224370	13218.147360
565.580520	13175.347964
565.936615	13230.425090
566.292654	13166.178105
566.648638	13247.396135
567.004567	13238.944640
567.360441	13235.390627
567.716260	13213.297770
568.072023	13291.566725
568.427732	13276.518880
568.783385	13180.913398
569.138982	13296.857416
569.494525	13286.646558
569.850013	13241.349271
570.205445	13226.155233
570.560823	13236.605545
570.916145	13195.510059
571.271412	13197.730687
571.626625	13166.856140
571.981782	13165.066531
572.336884	13114.813788
572.691931	13194.970655
573.046923	13088.907299
573.401860	13068.939288
573.756743	13057.500910
574.111570	13085.817072
574.466342	13058.952763
574.821059	13115.121299
575.175722	12982.808654
575.530330	12997.929595
575.884882	12936.616562
576.239380	12937.861727
576.593823	12920.608378
576.948211	12910.180751
577.302544	12790.677678
577.656823	12811.575782
578.011047	12875.096841
578.365216	12808.178044
578.719330	12751.870876
579.073389	12721.439951
579.427394	12731.822207
579.781344	12719.047923
580.135239	12655.947801
580.489080	12664.311075
580.842866	12539.761807
581.196597	12643.939772
581.550273	12641.830049
581.903895	12589.399529
582.257463	12707.831356
582.610975	12553.496431
582.964434	12618.797018
583.317837	12539.325748
583.671186	12494.119201
584.024481	12553.304867
584.377721	12444.889813
584.730906	12518.778005
585.084037	12530.778471
585.437113	12443.364864
585.790135	12471.474338
586.143103	12377.965975
586.496016	12399.622772
586.848874	12409.442939
587.201679	12400.116805
587.554428	12275.139039
587.907124	12331.466372
588.259765	12259.022470
588.612352	12326.636946
588.964884	12189.041173
589.317362	12239.263668
589.669786	12242.071591
590.022155	12190.750124
590.374470	12295.855661
590.726731	12181.638238
591.078937	12068.310579
591.431090	12094.900145
591.783188	12015.804441
592.135232	11942.674943
592.487222	12003.856907
592.839157	12009.205571
593.191038	11946.720469
593.542866	11896.984445
593.894639	11749.064388
594.246358	11807.657720
594.598022	11818.279431
594.949633	11724.115718
595.301190	11706.655682
595.652692	11659.130204
596.004141	11754.435738
596.355535	11536.531863
596.706876	11522.169616
597.058162	11481.447175
597.409395	11575.860425
597.760573	11604.736154
598.111698	11498.095585
598.462768	11496.895791
598.813785	11513.219047
599.164748	11381.776002
599.515657	11461.022940
599.866511	11332.902015
600.217312	11468.292284
600.568060	11233.641696
600.918753	11395.041798
601.269392	11392.397713
601.619978	11292.010696
601.970510	11337.174393
602.320988	11380.951773
602.671412	11445.470980
603.021783	11370.945082
603.372100	11293.732250
603.722363	11315.603296
604.072572	11312.208078
604.422728	11321.319964
604.772830	11268.496233
605.122878	11286.208327
605.472872	11251.268090
605.822813	11307.234980
606.172701	11271.092428
606.522534	11314.204375
606.872314	11360.638443
607.222041	11300.719289
607.571714	11376.271062
607.921333	11243.628222
608.270899	11293.989348
608.620411	11352.615447
608.969870	11300.164762
609.319276	11285.593307
609.668627	11298.828856
610.017926	11374.478931
610.367171	11405.355999
610.716362	11397.166644
611.065500	11376.722245
611.414585	11384.944367
611.763616	11449.632453
612.112594	11409.847667
612.461518	11433.525966
612.810389	11481.885755
613.159207	11421.742269
613.507971	11416.723801
613.856682	11519.694409
614.205340	11478.462812
614.553945	11623.769030
614.902496	11491.002682
615.250994	11558.574308
615.599439	11552.822352
615.947830	11585.912485
616.296169	11553.757486
616.644454	11571.978736
616.992686	11581.771178
617.340864	11679.569562
617.688990	11559.796788
618.037063	11705.579395
618.385082	11669.641010
618.733048	11710.469315
619.080961	11691.968280
619.428821	11674.054540
619.776628	11678.538646
620.124382	11628.913528
620.472083	11646.497072
620.819731	11671.085300
621.167326	11592.365162
621.514868	11574.262379
621.862357	11476.032976
622.209793	11466.699279
622.557176	11388.034594
622.904506	11336.786224
623.251783	11258.673545
623.599007	11186.451455
623.946179	11137.610236
624.293297	11118.506783
624.640363	10980.512758
624.987376	10967.761160
625.334336	10901.129709
625.681243	10816.912192
626.028097	10787.365990
626.374899	10751.014229
626.721647	10723.436597
627.068343	10678.940853
627.414987	10615.954156
627.761577	10549.274814
628.108115	10607.467374
628.454600	10475.263114
628.801032	10489.769034
629.147412	10476.954421
629.493739	10442.402353
629.840014	10366.719510
630.186236	10421.030381
630.532405	10314.145317
630.878521	10347.716881
631.224585	10305.557711
631.570597	10223.212983
631.916556	10234.900899
632.262462	10222.529907
632.608316	10199.159118
632.954117	10174.966621
633.299866	10153.171192
633.645562	10128.638417
633.991206	10027.994301
634.336797	9930.727758
634.682336	9926.152911
635.027823	9863.171255
635.373257	9832.785700
635.718639	9758.736192
636.063968	9724.408454
636.409245	9611.549623
636.754470	9604.040824
637.099642	9543.461278
637.444762	9444.571484
637.789829	9450.285632
638.134845	9376.036997
638.479808	9356.878092
638.824719	9329.794493
639.169577	9243.671421
639.514383	9245.985310
639.859137	9179.255557
640.203839	9215.942554
640.548489	9130.845357
640.893086	9139.553950
641.237632	9071.011902
641.582125	9076.801667
641.926566	9060.150736
642.270955	9042.390751
642.615292	9035.650728
642.959576	9016.711113
643.303809	9008.199125
643.647990	9020.368470
643.992118	9002.568156
644.336195	8985.400506
644.680219	8983.804981
645.024192	9022.198409
645.368112	9090.657278
645.711981	9066.159791
646.055797	9204.670534
646.399562	9156.850149
646.743274	9315.986773
647.086935	9389.716168
647.430544	9365.183393
647.774101	9385.088389
648.117606	9415.196680
648.461059	9475.632553
648.804460	9407.844157
649.147810	9297.977251
649.491108	9261.809492
649.834354	9201.958393
650.177548	9049.319817
650.520690	8961.770098
650.863781	8954.271381
651.206820	8926.323224
651.549807	8832.703956
651.892742	8742.437056
652.235626	8704.293165
652.578458	8662.567535
652.921238	8556.574754
653.263967	8593.844005
653.606644	8527.270527
653.949269	8515.882561
654.291843	8432.713604
654.634365	8502.667176
654.976836	8431.755785
655.319255	8425.494672
655.661622	8411.097137
656.003938	8370.399902
656.346203	8336.551074
656.688416	8362.818006
657.030577	8321.656985
657.372687	8286.472252
657.714746	8315.728588
658.056753	8333.264242
658.398708	8229.769353
658.740612	8225.991009
659.082465	8272.530941
659.424266	8227.193324
659.766016	8242.430211
660.107715	8210.121456
660.449362	8233.600630
660.790958	8232.080723
661.132503	8222.593271
661.473996	8218.462045
661.815438	8238.576249
662.156829	8267.172194
662.498168	8206.907721
662.839456	8200.918830
663.180693	8224.498827
663.521879	8248.537569
663.863013	8226.903457
664.204097	8228.151143
664.545129	8298.903737
664.886110	8293.635732
665.227040	8295.359806
665.567918	8305.353894
665.908746	8317.621542
666.249522	8337.312288
666.590248	8339.492588
666.930922	8355.727623
667.271545	8348.856531
667.612118	8367.932257
667.952639	8322.476173
668.293109	8328.792738
668.633528	8304.862381
668.973896	8289.330586
669.314213	8303.236609
669.654480	8256.880679
669.994695	8248.845080
670.334859	8226.880772
670.674973	8208.248668
671.015035	8227.984785
671.355047	8215.646561
671.695008	8199.585445
672.034918	8183.224380
672.374777	8186.785955
672.714585	8161.118920
673.054342	8193.571348
673.394049	8158.431985
673.733705	8198.221813
674.073310	8150.512333
674.412864	8158.532808
674.752368	8093.910257
675.091820	8157.169176
675.431223	8084.740398
675.770574	8034.520424
676.109875	8009.360025
676.449125	7963.833365
676.788324	7944.624048
677.127473	7858.332097
677.466571	7846.581167
677.805619	7781.426774
678.144616	7782.397197
678.483562	7764.299454
678.822458	7717.207516
679.161303	7702.809980
679.500098	7677.853748
679.838842	7661.621233
680.177535	7672.895773
680.516179	7707.089920
680.854771	7724.300419
681.193314	7841.177050
681.531805	7990.095256
681.870247	8120.220039
682.208638	8265.047348
682.546978	8344.957198
682.885268	8373.376703
683.223508	8311.239441
683.561697	8257.110051
683.899836	8224.713076
684.237925	8138.375755
684.575963	8113.908515
684.913951	8032.025053
685.251889	8050.803351
685.589776	8039.420425
685.927614	8021.252107
686.265401	8045.116929
686.603137	8049.212867
686.940824	8124.661296
687.278460	8174.999738
687.616046	8187.277468
687.953582	8297.933315
688.291068	8280.445553
688.628504	8339.941250
688.965889	8347.601283
689.303224	8302.621588
689.640510	8262.249508
689.977745	8155.911408
690.314930	8033.239971
690.652065	7962.416800
690.989150	7845.759459
691.326185	7691.752209
691.663170	7577.386072
692.000105	7460.955583
692.336990	7343.206832
692.673825	7264.642970
693.010610	7170.421284
693.347345	7076.544917
693.684030	6968.568443
694.020665	6917.095742
694.357251	6806.293701
694.693786	6795.568646
695.030272	6754.720176
695.366707	6659.548233
695.703093	6606.084276
696.039429	6604.861796
696.375716	6557.898407
696.711952	6548.473970
697.048139	6514.957858
697.384276	6485.197407
697.720363	6506.503843
698.056400	6479.006870
698.392388	6442.045130
698.728326	6445.150480
699.064214	6412.758546
699.400053	6412.698052
699.735842	6353.225040
700.071581	6308.943545
700.407270	6264.941833
700.742910	6229.898252
701.078501	6188.311254
701.414042	6149.701056
701.749533	6093.484629
702.084974	6036.456576
702.420366	6076.808492
702.755709	6002.373335
703.091002	5952.652435
703.426246	5956.360203
703.761440	5947.886024
704.096584	5900.786523
704.431679	5885.068206
704.766725	5870.728644
705.101721	5856.825141
705.436668	5872.175455
705.771565	5816.498431
706.106413	5870.900043
706.441212	5871.605804
706.775961	5887.550974
707.110661	5891.354525
707.445311	5953.731242
707.779913	5928.689310
708.114465	5964.078210
708.448967	6010.741651
708.783421	6121.195852
709.117825	6165.961298
709.452180	6195.285690
709.786485	6258.564774
710.120742	6391.399177
710.454949	6393.912193
710.789107	6473.622917
711.123216	6596.589263
711.457275	6623.519106
711.791286	6729.038018
712.125247	6747.077787
712.459159	6712.001439
712.793023	6851.792635
713.126837	6672.589698
713.460602	6734.774851
713.794318	6694.359921
714.127985	6642.050388
714.461602	6491.516493
714.795171	6496.857595
715.128691	6327.512635
715.462162	6244.351240
715.795584	6171.239386
716.128957	6128.687007
716.462281	6066.146452
716.795556	6022.658938
717.128782	5931.741729
717.461960	5836.796637
717.795088	5825.264998
718.128167	5758.008444
718.461198	5673.072563
718.794180	5649.729500
719.127113	5593.966777
719.459997	5554.948246
719.792833	5490.678576
720.125619	5486.128934
720.458357	5428.284215
720.791046	5403.040637
721.123686	5368.740626
721.456278	5329.069266
721.788821	5319.271783
722.121315	5279.524806
722.453761	5288.356907
722.786158	5272.288229
723.118506	5272.613384
723.450805	5252.471454
723.783056	5279.776863
724.115259	5260.214666
724.447412	5248.156226
724.779518	5293.531652
725.111574	5292.977125
725.443582	5329.679245
725.775542	5324.751517
726.107453	5410.148664
726.439315	5380.874683
726.771129	5446.326504
727.102895	5512.675651
727.434612	5552.631836
727.766281	5584.701136
728.097901	5644.355630
728.429473	5654.006919
728.760996	5669.851266
729.092471	5691.739956
729.423897	5677.123130
729.755276	5647.120703
730.086606	5660.444473
730.417887	5747.716928
730.749120	5839.352502
731.080305	5878.108893
731.411442	5951.578669
731.742530	5974.886444
732.073570	5998.859651
732.404562	6065.546555
732.735506	6057.357200
733.066401	6033.560433
733.397249	5971.836546
733.728048	5875.169900
734.058798	5726.087857
734.389501	5597.974494
734.720156	5519.100601
735.050762	5413.548922
735.381320	5337.916491
735.711831	5283.333397
736.042293	5203.388259
736.372707	5206.687694
736.703073	5154.017719
737.033391	5182.331360
737.363661	5170.323331
737.693883	5181.310526
738.024056	5205.906316
738.354182	5235.911263
738.684260	5286.670641
739.014290	5321.081558
739.344272	5358.993555
739.674207	5414.423562
740.004093	5443.687460
740.333931	5448.940342
740.663722	5471.925483
740.993464	5474.874558
741.323159	5459.294872
741.652806	5416.593779
741.982405	5388.280138
742.311956	5335.831974
742.641460	5322.157844
742.970915	5271.385863
743.300323	5209.573755
743.629683	5175.477911
743.958996	5126.067042
744.288260	5079.693467
744.617477	5015.219630
744.946647	5002.130274
745.275768	4948.338642
745.604842	4914.174742
745.933869	4880.890524
746.262847	4873.303588
746.591778	4860.753635
746.920662	4839.835367
747.249498	4832.500488
747.578286	4849.184187
747.907027	4874.309298
748.235720	4917.149023
748.564365	4923.155558
748.892963	4911.883538
749.221514	4930.069501
749.550017	4903.323659
749.878473	4900.712341
750.206881	4860.957802
750.535242	4848.669989
750.863555	4833.107947
751.191821	4810.750430
751.520039	4817.603879
751.848210	4799.047392
752.176334	4805.127023
752.504411	4786.815032
752.832440	4756.273201
753.160421	4771.810037
753.488356	4747.786419
753.816243	4729.272781
754.144082	4697.684911
754.471875	4686.901883
754.799620	4673.996529
755.127318	4664.284746
755.454969	4662.001104
755.782572	4653.743694
756.110129	4656.672604
756.437638	4637.604440
756.765100	4633.193430
757.092515	4636.500427
757.419882	4639.971261
757.747203	4636.447495
758.074477	4652.710257
758.401703	4645.571983
758.728882	4672.209440
759.056014	4685.719732
759.383099	4706.741344
759.710138	4729.350919
760.037129	4758.778655
760.364073	4770.282568
760.690970	4767.686373
761.017820	4764.132360
761.344623	4800.660561
761.671379	4862.013924
761.998088	4949.994661
762.324751	5183.876473
762.651366	5640.095855
762.977935	6333.345250
763.304456	6891.111114
763.630931	7205.656429
763.957359	7140.701162
764.283740	6850.113931
764.610074	6530.625764
764.936362	6121.112673
765.262602	5804.114837
765.588796	5453.162309
765.914943	5203.826840
766.241044	4979.162777
766.567097	4807.687929
766.893104	4656.629754
767.219064	4553.228127
767.544978	4458.656081
767.870845	4374.302454
768.196665	4328.647244
768.522438	4281.119245
768.848165	4239.950663
769.173846	4198.837532
769.499479	4168.507430
769.825066	4135.918891
770.150607	4093.676542
770.476101	4081.159357
770.801548	4053.531314
771.126949	4028.854866
771.452303	4009.020446
771.777611	3968.240032
772.102872	3967.398159
772.428087	3939.697019
772.753256	3915.381013
773.078378	3897.757139
773.403453	3866.396121
773.728482	3838.289168
774.053465	3824.557065
774.378401	3805.090649
774.703291	3783.585087
775.028135	3759.609359
775.352932	3752.511415
775.677683	3730.143815
776.002388	3715.935323
776.327046	3712.411557
776.651658	3692.320038
776.976224	3672.225999
777.300743	3667.648631
777.625216	3655.628000
777.949643	3648.182215
778.274024	3651.910149
778.598359	3630.840646
778.922647	3631.289309
779.246889	3623.026858
779.571086	3624.274543
779.895236	3621.491826
780.219339	3621.572485
780.543397	3621.295221
780.867409	3635.728045
781.191374	3636.186790
781.515294	3630.558342
781.839167	3646.732884
782.162995	3643.793891
782.486776	3636.935401
782.810511	3627.110192
783.134201	3613.768779
783.457844	3612.130404
783.781441	3602.574897
784.104993	3594.682970
784.428498	3588.179882
784.751958	3585.775251
785.075372	3579.917431
785.398739	3572.706060
785.722061	3579.052873
786.045337	3576.597831
786.368568	3604.659414
786.691752	3599.446861
787.014891	3645.850682
787.337983	3688.382897
787.661030	3778.859005
787.984031	3874.555229
788.306987	3951.568936
788.629897	3995.248014
788.952760	4006.819982
789.275579	3992.316583
789.598351	3942.459571
789.921078	3891.707755
790.243759	3825.368691
790.566395	3780.782206
790.888984	3730.625245
791.211529	3699.017211
791.534027	3651.549706
791.856480	3613.269704
792.178888	3597.145574
792.501249	3571.256728
792.823566	3542.229764
793.145836	3536.724824
793.468062	3525.704862
793.790241	3514.211031
794.112375	3519.035416
794.434464	3544.213458
794.756507	3538.443858
795.078505	3556.778534
795.400457	3598.378136
795.722364	3646.259015
796.044226	3696.617622
796.366042	3740.057244
796.687812	3736.334352
797.009538	3758.686828
797.331218	3749.655601
797.652852	3743.785178
797.974442	3723.323134
798.295986	3714.337277
798.617484	3686.346271
798.938938	3660.974143
799.260346	3644.174498
799.581709	3607.724435
799.903026	3597.271603
800.224299	3579.383068
800.545526	3543.714384
800.866708	3527.189482
801.187845	3514.435363
801.508936	3494.832836
801.829983	3485.690703
802.150984	3449.107050
802.471940	3441.462140
802.792851	3440.194290
803.113717	3435.664813
803.434538	3424.362546
803.755314	3411.595824
804.076045	3407.217582
804.396731	3396.865573
804.717372	3394.551683
805.037967	3392.565468
805.358518	3397.964544
805.679024	3412.351997
805.999485	3408.213210
806.319901	3413.516504
806.640272	3414.121442
806.960598	3429.565017
807.280879	3425.668205
807.601115	3440.327881
807.921306	3427.672064
808.241453	3431.364709
808.561554	3438.593724
808.881611	3436.620112
809.201623	3435.153136
809.521590	3429.829678
809.841513	3425.806837
810.161390	3431.541149
810.481223	3413.647574
810.801011	3412.528438
811.120755	3410.048190
811.440453	3398.960172
811.760107	3391.219480
812.079716	3382.475599
812.399281	3369.829865
812.718801	3370.676778
813.038276	3365.887682
813.357707	3360.024820
813.677093	3365.751571
813.996434	3348.699868
814.315731	3354.119109
814.634983	3351.971577
814.954191	3358.767053
815.273354	3371.246429
815.592473	3385.457442
815.911547	3401.795821
816.230577	3416.775610
816.549562	3444.915331
816.868502	3458.004687
817.187399	3482.179540
817.506250	3508.577542
817.825058	3519.330323
818.143821	3561.839853
818.462539	3609.604786
818.781213	3665.750637
819.099843	3745.882297
819.418429	3903.065474
819.736970	4055.537693
820.055466	4241.049634
820.373919	4478.682065
820.692327	4818.728056
821.010691	5333.412220
821.329011	6412.899699
821.647286	8155.682036
821.965517	10333.599129
822.283704	11970.423974
822.601847	13071.074217
822.919945	12652.693736
823.237999	11977.743730
823.556010	11073.849722
823.873976	10115.735583
824.191897	9139.642170
824.509775	8374.483236
824.827609	7566.963487
825.145398	7011.806420
825.463144	6626.790815
825.780845	6490.162943
826.098502	6550.898765
826.416116	6933.587877
826.733685	7441.131246
827.051210	7733.271152
827.368692	7639.014178
827.686129	7199.095367
828.003522	6646.952910
828.320872	6075.656589
828.638177	5613.201299
828.955439	5236.611984
829.272656	4904.654523
829.589830	4622.435608
829.906960	4353.366542
830.224046	4144.907268
830.541088	3971.965445
830.858086	3857.826160
831.175041	3765.164711
831.491952	3713.016495
831.808819	3698.971840
832.125642	3731.693970
832.442421	3832.421265
832.759157	4047.320612
833.075849	4427.000155
833.392497	4893.727823
833.709101	5284.248367
834.025662	5395.708278
834.342179	5270.503661
834.658653	5003.536756
834.975083	4731.778235
835.291469	4481.374041
835.607811	4255.240482
835.924110	4097.759877
836.240366	3936.911781
836.556578	3774.450516
836.872746	3637.555463
837.188871	3523.156559
837.504952	3427.384718
837.820990	3353.693131
838.136984	3299.170532
838.452935	3265.770367
838.768842	3252.590270
839.084706	3286.224849
839.400526	3419.480189
839.716303	3649.623985
840.032037	3861.191130
840.347727	3924.218156
840.663373	3833.162315
840.978977	3686.237886
841.294537	3557.305335
841.610054	3445.205197
841.925527	3371.967314
842.240957	3304.761171
842.556344	3242.008888
842.871687	3184.136442
843.186987	3123.002369
843.502244	3070.128227
843.817458	3027.633821
844.132629	2997.533091
844.447756	2975.135245
844.762840	2952.966771
845.077881	2936.535130
845.392879	2924.196906
845.707833	2910.784916
846.022745	2896.788152
846.337613	2894.020559
846.652438	2884.560834
846.967221	2882.861965
847.281960	2875.184288
847.596656	2873.119935
847.911309	2864.882690
848.225919	2859.375229
848.540485	2854.936493
848.855009	2853.802233
849.169490	2848.940041
849.483928	2848.264526
849.798323	2842.739421
850.112675	2839.308916
850.426984	2840.506190
850.741251	2837.645335
851.055474	2834.595437
851.369654	2836.558967
851.683792	2835.691888
851.997887	2834.681137
852.311938	2832.838595
852.625947	2833.730879
852.939914	2831.961434
853.253837	2837.116014
853.567718	2833.693071
853.881555	2831.709377
854.195350	2833.171311
854.509103	2835.031497
854.822812	2837.274811
855.136479	2830.083605
855.450103	2829.367761
855.763685	2830.562514
856.077224	2829.443378
856.390720	2830.524706
856.704173	2834.608040
857.017584	2838.656087
857.330953	2838.290603
857.644278	2841.191787
857.957561	2841.743793
858.270802	2845.408712
858.584000	2845.259998
858.897155	2843.311592
859.210268	2841.521983
859.523339	2837.509224
859.836367	2836.740448
860.149352	2838.439317
860.462295	2834.860098
860.775195	2831.439675
861.088054	2831.336331
861.400869	2829.042606
861.713642	2827.820127
862.026373	2830.262566
862.339062	2834.204748
862.651708	2835.782629
862.964312	2840.654904
863.276873	2840.722960
863.589392	2850.734691
863.901869	2857.605784
864.214303	2863.337576
864.526696	2869.449975
864.839045	2877.568753
865.151353	2887.104096
865.463619	2886.408417
865.775842	2888.883623
866.088023	2895.013666
866.400162	2895.091804
866.712258	2894.406207
867.024313	2896.115158
867.336325	2899.281003
867.648296	2900.632032
867.960224	2901.768812
868.272110	2903.059348
868.583954	2901.068092
868.895755	2904.838875
869.207515	2903.392064
869.519233	2911.742735
869.830909	2912.629978
870.142542	2917.104002
870.454134	2917.850093
870.765684	2922.656833
871.077191	2928.925508
871.388657	2935.244594
871.700081	2939.118721
872.011463	2947.686162
872.322803	2957.629838
872.634101	2957.455918
872.945357	2964.677371
873.256571	2975.215903
873.567744	2981.114053
873.878874	2984.844507
874.189963	2992.741475
874.501010	2994.531084
874.812015	2995.239366
875.122979	3006.279493
875.433900	3005.155316
875.744780	3004.920902
876.055618	3013.873992
876.366415	3017.274250
876.677169	3021.039992
876.987882	3026.532329
877.298554	3034.197403
877.609183	3051.153324
877.919771	3069.624112
878.230317	3093.683019
878.540822	3128.930766
878.851285	3178.807942
879.161707	3249.817636
879.472087	3353.781351
879.782425	3516.056094
880.092722	3794.116058
880.402977	4219.541551
880.713191	4762.032719
881.023363	5365.075707
881.333494	5807.225229
881.643583	6100.486792
881.953631	6174.589233
882.263637	6122.993023
882.573602	5978.226208
882.883526	5810.441485
883.193408	5613.264314
883.503248	5391.314913
883.813048	5179.594013
884.122806	4956.371721
884.432522	4709.372826
884.742197	4483.350173
885.051831	4269.343110
885.361424	4073.219540
885.670975	3904.492121
885.980485	3757.953340
886.289954	3631.022128
886.599382	3528.117054
886.908768	3442.785443
887.218113	3364.786190
887.527417	3299.924184
887.836680	3239.742890
888.145901	3194.410314
888.455082	3157.998059
888.764221	3121.653861
889.073319	3092.233687
889.382376	3072.933629
889.691392	3057.580795
890.000366	3050.913869
890.309300	3039.745193
890.618193	3040.105636
890.927044	3032.052392
891.235855	3032.511137
891.544625	3035.762682
891.853353	3043.268960
892.162041	3059.814027
892.470687	3082.405957
892.779293	3113.547685
893.087858	3159.938904
893.396381	3240.738517
893.704864	3348.727595
894.013306	3501.945904
894.321707	3694.177703
894.630068	3844.882997
894.938387	3924.487858
895.246665	3930.081018
895.554903	3876.601937
895.863100	3787.532311
896.171256	3715.184191
896.479371	3637.943632
896.787446	3560.655182
897.095480	3490.633555
897.403473	3436.950307
897.711425	3379.123232
898.019336	3328.497444
898.327207	3273.506017
898.635038	3226.141857
898.942827	3174.500277
899.250576	3132.998977
899.558284	3089.632452
899.865952	3066.017166
900.173579	3035.389636
900.481165	3014.509177
900.788711	2995.413286
901.096216	2977.781851
901.403681	2964.919347
901.711105	2958.086063
902.018489	2950.902418
902.325832	2957.760908
902.633135	2970.215079
902.940397	3008.205214
903.247619	3098.378853
903.554800	3275.595576
903.861941	3555.130077
904.169041	3821.071107
904.476101	3989.009586
904.783121	4013.249974
905.090100	3946.704223
905.397039	3839.153726
905.703938	3729.969895
906.010796	3627.412662
906.317614	3538.617778
906.624391	3452.466979
906.931129	3386.296794
907.237826	3318.142914
907.544483	3248.078437
907.851099	3179.211235
908.157675	3107.095008
908.464211	3029.993081
908.770707	2973.060810
909.077163	2924.978285
909.383578	2887.683828
909.689954	2861.298429
909.996289	2841.108608
910.302584	2829.541681
910.608839	2819.537511
910.915054	2810.102991
911.221229	2805.855819
911.527363	2803.824234
911.833458	2805.177784
912.139513	2807.037970
912.445527	2812.416881
912.751502	2824.114878
913.057436	2837.975531
913.363331	2859.758357
913.669186	2889.722975
913.975000	2927.584561
914.280775	2986.132522
914.586510	3067.385840
914.892205	3180.106040
915.197859	3327.126250
915.503475	3509.487470
915.809050	3685.058256
916.114585	3818.061538
916.420081	3894.437540
916.725536	3927.351233
917.030952	3892.625245
917.336328	3853.095037
917.641665	3802.746513
917.946961	3741.572111
918.252218	3687.750232
918.557435	3608.190742
918.862612	3546.101371
919.167750	3483.066783
919.472848	3407.076430
919.777906	3337.833661
920.082925	3266.032507
920.387904	3195.105993
920.692843	3139.255049
920.997743	3086.912749
921.302603	3036.430634
921.607423	3003.852178
921.912204	2965.680561
922.216946	2943.849844
922.521647	2915.057294
922.826310	2895.444685
923.130932	2874.876777
923.435516	2855.128057
923.740059	2842.429390
924.044564	2825.284426
924.349028	2815.930565
924.653454	2797.028759
924.957840	2786.528035
925.262186	2776.049997
925.566493	2767.225457
925.870761	2750.294742
926.174989	2750.168713
926.479178	2740.393916
926.783328	2733.870663
927.087438	2726.140053
927.391509	2721.177037
927.695541	2713.232179
927.999533	2709.489122
928.303486	2702.847402
928.607400	2700.281455
928.911275	2696.926567
929.215110	2689.334589
929.518906	2689.090093
929.822663	2688.699404
930.126381	2689.601770
930.430060	2688.550690
930.733699	2687.577747
931.037299	2688.399455
931.340861	2686.738395
931.644383	2687.348375
931.947866	2687.570185
932.251309	2690.075639
932.554714	2690.204188
932.858080	2688.190247
933.161407	2687.098837
933.464694	2686.415761
933.767943	2684.633713
934.071153	2685.034485
934.374323	2682.050122
934.677455	2683.239834
934.980548	2681.838393
935.283602	2680.764628
935.586617	2676.943433
935.889593	2679.461489
936.192530	2680.033660
936.495428	2681.036850
936.798287	2684.217818
937.101108	2687.807120
937.403890	2696.677030
937.706632	2702.882690
938.009336	2717.018086
938.312002	2729.268089
938.614628	2739.758731
938.917216	2747.791809
939.219765	2755.572830
939.522275	2763.873090
939.824747	2765.438368
940.127179	2766.345776
940.429573	2762.015425
940.731929	2767.369130
941.034246	2763.495003
941.336524	2766.103801
941.638763	2764.467946
941.940964	2767.185128
942.243126	2757.415372
942.545250	2754.025196
942.847335	2747.398599
943.149381	2741.989441
943.451389	2738.029615
943.753359	2729.820096
944.055290	2727.438151
944.357182	2720.365412
944.659036	2716.140925
944.960851	2715.735112
945.262628	2711.097250
945.564367	2708.049873
945.866067	2708.974925
946.167729	2707.046683
946.469352	2710.257898
946.770937	2705.945191
947.072484	2701.138451
947.373992	2702.360931
947.675462	2702.620550
947.976893	2700.767926
948.278286	2697.609643
948.579641	2698.131403
948.880958	2694.610157
949.182236	2696.243491
949.483476	2694.905064
949.784678	2695.520085
950.085841	2694.622760
950.386967	2695.257945
950.688054	2695.663758
950.989103	2698.232226
951.290114	2699.842874
951.591087	2706.482074
951.892021	2708.735470
952.192917	2714.787375
952.493776	2719.707541
952.794596	2720.960268
953.095378	2725.373798
953.396122	2725.560321
953.696828	2724.627707
953.997496	2722.512943
954.298126	2719.478169
954.598718	2716.892057
954.899272	2713.181767
955.199788	2710.051211
955.500266	2706.224975
955.800706	2695.948583
956.101108	2688.154959
956.401472	2683.640606
956.701798	2677.807991
957.002087	2670.899090
957.302337	2667.513955
957.602550	2661.991371
957.902724	2655.032058
958.202861	2652.145997
958.502960	2646.930924
958.803022	2642.943371
959.103045	2638.129069
959.403031	2636.100005
959.702979	2632.278810
960.002889	2627.993829
960.302762	2625.717748
960.602596	2623.963427
960.902393	2621.301697
961.202153	2618.645009
961.501875	2617.790534
961.801559	2617.538476
962.101205	2613.298866
962.400814	2612.681324
962.700385	2611.123608
962.999918	2611.998248
963.299414	2609.137393
963.598873	2610.858947
963.898293	2608.620675
964.197677	2607.942640
964.497022	2608.356014
964.796331	2606.677310
965.095601	2605.885849
965.394835	2607.017588
965.694030	2602.846033
965.993189	2604.504573
966.292309	2605.840479
966.591393	2605.502721
966.890439	2602.296547
967.189447	2607.811570
967.488419	2603.017432
967.787353	2603.604727
968.086249	2605.336363
968.385108	2606.480705
968.683930	2606.289141
968.982714	2607.458689
969.281462	2605.230499
969.580172	2609.175202
969.878844	2608.706375
970.177480	2608.754266
970.476078	2611.085799
970.774639	2613.676952
971.073162	2614.602004
971.371649	2610.397682
971.670098	2612.401540
971.968510	2613.245934
972.266885	2612.129318
972.565223	2619.247427
972.863524	2617.717437
973.161788	2620.694238
973.460014	2620.694238
973.758204	2619.791872
974.056356	2619.393621
974.354471	2621.891512
974.652550	2621.329424
974.950591	2623.723972
975.248595	2623.741616
975.546563	2622.332613
975.844493	2619.675925
976.142386	2620.847994
976.440243	2619.451594
976.738062	2620.129629
977.035845	2614.796088
977.333590	2618.269443
977.631299	2616.555451
977.928971	2612.061262
978.226606	2614.821294
978.524204	2613.339195
978.821765	2613.936572
979.119290	2612.764503
979.416777	2610.279215
979.714228	2611.428598
980.011642	2608.676128
980.309020	2614.980091
980.606360	2615.587550
980.903664	2617.430091
981.200931	2627.126751
981.498162	2633.100518
981.795356	2644.231386
982.092513	2660.040444
982.389633	2675.622651
982.686717	2695.187369
982.983764	2713.529607
983.280775	2721.219887
983.577749	2730.170456
983.874686	2730.200703
984.171587	2726.447564
984.468451	2724.403376
984.765279	2715.523383
985.062070	2709.438711
985.358824	2702.476877
985.655543	2690.433561
985.952224	2680.467200
986.248869	2667.438337
986.545478	2653.673467
986.842050	2641.501601
987.138586	2631.830147
987.435086	2620.999228
987.731549	2613.124946
988.027975	2613.676952
988.324366	2608.033381
988.620719	2603.907196
988.917037	2599.657503
989.213318	2599.143306
989.509563	2598.056937
989.805772	2594.308839
990.101944	2594.694487
990.398080	2594.752461
990.694180	2593.865218
990.990244	2594.213057
991.286271	2594.260948
991.582262	2593.915629
991.878217	2593.953438
992.174136	2595.105342
992.470019	2593.119127
992.765865	2595.284302
993.061676	2594.611308
993.357450	2599.105497
993.653188	2598.646752
993.948890	2603.506424
994.244556	2607.320057
994.540186	2609.886005
994.835780	2616.656274
995.131337	2622.486369
995.426859	2629.012142
995.722345	2637.035139
996.017795	2647.611479
996.313208	2657.585402
996.608586	2663.773419
996.903928	2666.233502
997.199234	2667.909685
997.494504	2667.997906
997.789738	2666.576300
998.084936	2664.617812
998.380099	2657.497182
998.675225	2651.694814
998.970316	2646.575522
999.265371	2640.163175
999.560390	2633.408028
999.855373	2628.238325
1000.150320	2620.396810
1000.445232	2613.099740
1000.740108	2612.232662
1001.034948	2604.761672
1001.329752	2605.119594
1001.624521	2597.482246
1001.919254	2594.011411
1002.213951	2592.299939
1002.508613	2591.405135
1002.803239	2588.728282
1003.097829	2586.328693
1003.392384	2590.840525
1003.686903	2589.181986
1003.981386	2584.604618
1004.275834	2587.190730
1004.570246	2585.859865
1004.864623	2586.495051
1005.158964	2585.970771
1005.453270	2583.858527
1005.747540	2583.649319
1006.041775	2581.058166
1006.335974	2584.521439
1006.630138	2582.804926
1006.924266	2585.917839
1007.218359	2584.251737
1007.512416	2581.985739
1007.806438	2583.092272
1008.100425	2581.327868
1008.394376	2582.278126
1008.688292	2580.541448
1008.982172	2579.762590
1009.276017	2581.353074
1009.569827	2582.328537
1009.863602	2583.147725
1010.157341	2581.010275
1010.451045	2578.918197
1010.744714	2578.398958
1011.038347	2578.787127
1011.331945	2581.292580
1011.625508	2579.739905
1011.919036	2580.879205
1012.212528	2579.898701
1012.505986	2577.993145
1012.799408	2579.051787
1013.092795	2577.347877
1013.386147	2577.703278
1013.679464	2578.517425
1013.972745	2578.260326
1014.265992	2581.133784
1014.559204	2580.854000
1014.852380	2577.899883
1015.145521	2579.235789
1015.438628	2577.882239
1015.731699	2581.133784
1016.024736	2578.537589
1016.317737	2579.883577
1016.610703	2581.786613
1016.903635	2575.306210
1017.196531	2577.239492
1017.489393	2577.778896
1017.782219	2576.548854
1018.075011	2576.710171
1018.367768	2579.366859
1018.660490	2580.014648
1018.953177	2580.014648
1019.245829	2580.014648
