Dividing Wavelength (nm)	Counts (n)	Blue Motor Position (mm): 49.000000	Red Motor Position (mm): 0.000000	
326.493990	2092.416603
326.888308	2092.416603
327.282561	2092.416603
327.676750	2070.217883
328.070874	2073.454303
328.464933	2079.211301
328.858929	2087.861921
329.252859	2101.294075
329.646726	2116.178082
330.040528	2130.048817
330.434265	2146.462814
330.827938	2171.119097
331.221547	2189.075687
331.615091	2211.589480
332.008571	2231.680999
332.401986	2251.701942
332.795338	2271.702719
333.188625	2294.183745
333.581847	2311.177475
333.975006	2331.523572
334.368100	2346.392455
334.761129	2363.817203
335.154095	2378.512167
335.546996	2427.060999
335.939833	2510.222393
336.332606	2524.390556
336.725315	2537.616023
337.117960	2545.452497
337.510540	2552.547921
337.903056	2563.767009
338.295508	2568.447720
338.687896	2575.699420
339.080220	2582.063877
339.472480	2586.089238
339.864676	2590.941348
340.256807	2594.863366
340.648875	2597.673809
341.040879	2601.830241
341.432818	2602.261259
341.824694	2602.432659
342.216506	2597.998964
342.608253	2600.985847
342.999937	2596.715990
343.391557	2595.599375
343.783113	2599.264293
344.174605	2594.137440
344.566033	2594.112234
344.957397	2592.456215
345.348697	2590.449836
345.739934	2588.347675
346.131106	2585.690987
346.522215	2587.465473
346.913260	2585.086048
347.304241	2583.669484
347.695159	2580.296952
348.086012	2580.821232
348.476802	2578.804771
348.867528	2578.625810
349.258191	2576.931982
349.648789	2577.244533
350.039324	2574.363514
350.429796	2574.829821
350.820203	2572.682289
351.210548	2573.831672
351.600828	2569.284552
351.991045	2572.399985
352.381198	2572.659604
352.771288	2572.659604
353.161314	2572.374779
353.551276	2570.154151
353.941175	2569.186249
354.331010	2570.295303
354.720782	2575.107084
355.110490	2575.026426
355.500135	2572.334450
355.889717	2572.778071
356.279235	2573.488874
356.668689	2574.895356
357.058080	2572.465520
357.447408	2573.945098
357.836672	2575.165057
358.225873	2574.333267
358.615010	2573.491394
359.004084	2578.832497
359.393095	2580.319637
359.782043	2579.409709
360.170927	2582.265523
360.559748	2580.823753
360.948505	2584.188723
361.337199	2585.882551
361.725830	2585.315421
362.114398	2584.629824
362.502903	2587.140318
362.891344	2587.289033
363.279722	2587.500761
363.668037	2589.003025
364.056289	2589.290371
364.444478	2591.299270
364.832603	2591.006883
365.220665	2591.319435
365.608665	2592.630135
365.996601	2593.726586
366.384474	2596.615167
366.772284	2593.111565
367.160031	2593.890423
367.547715	2598.782863
367.935336	2596.398397
368.322893	2599.869232
368.710388	2599.924685
369.097820	2602.793101
369.485189	2600.726228
369.872495	2601.580704
370.259738	2600.695981
370.646918	2607.146137
371.034035	2607.544389
371.421090	2607.988010
371.808081	2607.519183
372.195010	2610.609410
372.581875	2614.402878
372.968678	2615.907663
373.355418	2618.145935
373.742096	2624.880917
374.128710	2631.779736
374.515262	2636.273924
374.901751	2641.713329
375.288177	2652.738333
375.674540	2659.906854
376.060841	2672.265242
376.447079	2686.587160
376.833254	2701.100642
377.219367	2716.846686
377.605417	2737.434759
377.991404	2756.265989
378.377329	2782.835390
378.763191	2807.121149
379.148991	2847.957016
379.534727	2881.074876
379.920402	2917.575350
380.306013	2953.692697
380.691563	3006.271932
381.077049	3050.046791
381.462474	3095.187803
381.847835	3154.285250
382.233134	3214.842110
382.618371	3266.589554
383.003545	3337.420287
383.388657	3404.704567
383.773706	3487.603821
384.158693	3552.808626
384.543618	3632.930204
384.928480	3705.053992
385.313280	3794.544556
385.698017	3887.579050
386.082692	4002.890403
386.467305	4060.936769
386.851856	4176.853060
387.236344	4317.292045
387.620770	4378.153895
388.005133	4495.905167
388.389435	4626.783603
388.773674	4710.411304
389.157851	4834.743802
389.541965	4968.500737
389.926018	5005.089432
390.310008	5170.403990
390.693936	5289.839007
391.077802	5407.360906
391.461606	5545.022214
391.845348	5657.497918
392.229027	5778.936794
392.612645	5991.865050
392.996200	6115.859791
393.379694	6287.387571
393.763125	6502.158369
394.146494	6604.536642
394.529801	6742.069401
394.913047	6975.058929
395.296230	6985.347924
395.679351	7055.956845
396.062410	7305.642674
396.445408	7232.561067
396.828343	7386.470015
397.211217	7526.477980
397.594028	7432.664628
397.976778	7643.052143
398.359466	7817.778535
398.742092	7803.796895
399.124656	7951.674102
399.507158	8150.308166
399.889598	8180.703803
400.271977	8390.277171
400.654294	8436.433976
401.036549	8635.431003
401.418742	8673.768978
401.800874	8967.607754
402.182944	9052.805774
402.564952	9420.820087
402.946898	9255.739943
403.328783	9316.642123
403.710606	9515.407257
404.092367	9763.343806
404.474067	10123.322520
404.855705	9931.728427
405.237282	9897.856914
405.618797	10317.908538
406.000250	10556.765969
406.381642	10908.520040
406.762972	10871.472601
407.144240	10680.332211
407.525447	10928.336816
407.906593	10879.359486
408.287677	11136.826336
408.668700	11290.528596
409.049661	11278.376895
409.430560	11431.864906
409.811399	11420.817218
410.192176	11578.136506
410.572891	11656.329843
410.953545	12124.360648
411.334138	11619.612599
411.714669	12193.747090
412.095139	11551.516693
412.475547	12026.882377
412.855894	11889.858774
413.236180	12212.046478
413.616405	11911.727300
413.996568	12177.333093
414.376670	12172.324707
414.756711	12052.942622
415.136691	12333.203049
415.516609	12500.118174
415.896466	12589.112183
416.276262	12880.463149
416.655997	13335.200432
417.035670	13381.359757
417.415283	13989.277540
417.794834	14076.872630
418.174324	13829.911544
418.553753	13734.469899
418.933121	14219.953179
419.312428	14046.640830
419.691674	13966.337770
420.070859	14419.076235
420.449983	14083.514350
420.829045	14631.031548
421.208047	14390.334096
421.586988	14839.299258
421.965867	15097.182003
422.344686	15092.859214
422.723444	15668.669889
423.102141	14370.804666
423.480777	15546.149686
423.859352	15055.126178
424.237866	16160.580640
424.616319	15873.733945
424.994712	16528.310128
425.373044	16313.763661
425.751314	17010.740989
426.129524	16144.751417
426.507673	17220.107670
426.885762	16937.800534
427.263789	17125.472609
427.641756	17309.809962
428.019662	17371.201133
428.397508	17423.848423
428.775292	17714.370119
429.153016	17695.057459
429.530679	17765.714271
429.908282	17796.301472
430.285824	17534.106020
430.663305	18237.982167
431.040726	17853.059823
431.418086	17699.806226
431.795385	18323.752358
432.172624	18766.375748
432.549802	18323.374272
432.926920	18540.668167
433.303977	18414.530936
433.680974	18667.899328
434.057910	18979.571185
434.434786	19021.274131
434.811601	18945.583726
435.188355	19999.532720
435.565050	19672.830662
435.941683	19629.476739
436.318257	20528.175838
436.694770	20318.017696
437.071222	20911.207749
437.447614	19982.506222
437.823946	20018.880668
438.200218	20186.068015
438.576429	19968.955601
438.952580	20279.959505
439.328670	20239.511807
439.704700	20677.041111
440.080670	20236.905531
440.456580	20852.964778
440.832429	21026.317456
441.208218	20030.006495
441.583947	20475.011830
441.959616	20602.880697
442.335224	20851.104592
442.710773	20984.034778
443.086261	21545.546219
443.461689	20873.739373
443.837057	21029.700070
444.212365	21683.358763
444.587612	21701.801824
444.962800	21293.112961
445.337927	21715.211293
445.712995	20435.219482
446.088002	22338.789421
446.462949	22542.658724
446.837837	22739.999732
447.212664	22752.267380
447.587431	25762.909992
447.962139	28727.514267
448.336786	31005.493222
448.711374	29296.771441
449.085901	25579.853093
449.460369	25590.066471
449.834776	25615.234431
450.209124	28177.524382
450.583412	27661.305187
450.957640	28118.343756
451.331808	26753.005210
451.705917	25383.394287
452.079965	25436.364211
452.453954	25838.250036
452.827883	25752.535298
453.201752	25540.776589
453.575562	25702.532092
453.949311	26848.865271
454.323001	26928.654134
454.696632	26701.371192
455.070202	28314.351380
455.443713	28498.315686
455.817164	29096.781306
456.190556	29633.384407
456.563888	29048.988647
456.937160	29459.436873
457.310373	27755.852027
457.683526	28206.669813
458.056619	28207.642756
458.429653	28184.687862
458.802628	28800.656368
459.175542	28956.725450
459.548398	30348.255310
459.921194	31976.225369
460.293930	32746.785899
460.666607	34843.454716
461.039224	36634.858982
461.411782	36945.517567
461.784280	35644.562117
462.156719	35087.489412
462.529099	34500.595760
462.901419	33160.523477
463.273680	32130.366209
463.645882	32256.495879
464.018024	32289.507875
464.390106	33238.999119
464.762130	36198.834462
465.134094	40590.080234
465.505999	46112.094622
465.877845	50616.075717
466.249631	51557.392731
466.621358	49651.675260
466.993026	47406.937673
467.364634	45259.592657
467.736184	43283.236018
468.107674	42013.550845
468.479105	41216.771274
468.850477	40499.306697
469.221790	39036.298316
469.593043	37282.241438
469.964238	36372.981122
470.335373	36331.139545
470.706449	38213.163593
471.077467	41064.568757
471.448425	45727.245376
471.819324	48448.135067
472.190164	46393.123825
472.560945	42755.661624
472.931667	39616.633426
473.302330	38508.083695
473.672934	37678.249278
474.043479	38209.712923
474.413965	37425.178314
474.784393	37058.787253
475.154761	37990.427772
475.525070	38029.277424
475.895321	37558.940290
476.265513	38181.747122
476.635645	39192.145587
477.005719	39039.156650
477.375734	39549.054238
477.745691	40290.282815
478.115588	41674.442508
478.485427	43823.834233
478.855207	47337.647013
479.224928	49981.001238
479.594591	51500.160511
479.964194	50379.348174
480.333739	50493.663899
480.703226	50566.377502
481.072653	51239.028742
481.442022	51719.062535
481.811333	51910.916247
482.180584	50610.608586
482.549777	50100.826944
482.918912	49582.545917
483.287988	49258.127503
483.657005	48422.468032
484.025964	47737.312210
484.394864	47716.923264
484.763706	47279.666182
485.132489	46416.910510
485.501213	46234.614825
485.869879	46388.291879
486.238487	45971.151522
486.607036	46182.799325
486.975527	45624.259644
487.343959	45833.008783
487.712333	45896.449184
488.080648	45802.013249
488.448905	46258.320851
488.817104	46061.940182
489.185244	47097.204139
489.553326	48902.579963
489.921350	51676.210206
490.289315	54464.414425
490.657222	54951.959537
491.025070	55180.170051
491.392861	54239.977215
491.760593	52953.835196
492.128267	51257.746546
492.495883	49696.549091
492.863440	48301.238365
493.230939	46909.925274
493.598380	45817.068655
493.965763	45488.667729
494.333088	44660.484290
494.700354	44159.239842
495.067563	43861.824368
495.434713	43707.363414
495.801805	43791.139829
496.168839	43385.261410
496.535815	43042.974625
496.902733	43079.049122
497.269593	42639.669715
497.636395	42573.116402
498.003139	42973.903256
498.369825	42420.228288
498.736453	42727.468971
499.103023	42238.794640
499.469535	42097.743156
499.835989	42191.364944
500.202385	41857.867412
500.568723	41865.398896
500.935003	42062.162692
501.301226	41863.947043
501.667390	42475.179385
502.033497	42721.958990
502.399546	42121.202165
502.765537	41428.620723
503.131470	41793.668318
503.497345	42177.710979
503.863163	40808.205920
504.228923	41446.847015
504.594625	41847.555732
504.960269	41113.369647
505.325856	41812.978457
505.691385	41192.656915
506.056856	41316.860863
506.422270	41750.740372
506.787625	41319.336070
507.152924	41525.373069
507.518164	41620.252625
507.883347	40804.699797
508.248472	41044.235263
508.613540	41540.577189
508.978550	41849.710825
509.343503	41601.945675
509.708398	41807.168527
510.073236	42332.388703
510.438016	42322.220695
510.802738	41776.924125
511.167403	42413.765529
511.532010	42639.352122
511.896561	42934.388172
512.261053	43781.543993
512.625488	43331.560518
512.989866	43198.774006
513.354186	43041.207701
513.718449	43022.303374
514.082655	43723.847987
514.446803	43369.984193
514.810894	43914.983335
515.174927	43817.426926
515.538904	43711.192171
515.902822	44385.040685
516.266684	43822.936907
516.630488	44267.939722
516.994235	44084.436681
517.357925	44687.083938
517.721558	44861.444847
518.085133	45159.666905
518.448651	45284.679959
518.812112	45051.755966
519.175516	45153.425957
519.538863	45498.734913
519.902152	45444.081243
520.265385	45907.214568
520.628560	45935.727334
520.991678	45724.019037
521.354739	45967.345451
521.717743	46281.081661
522.080690	46159.065573
522.443580	46699.583129
522.806413	46740.562669
523.169189	46704.929273
523.531908	46872.691311
523.894569	46706.245014
524.257174	46887.464413
524.619722	47176.430913
524.982213	47166.618307
525.344647	47079.418948
525.707025	47123.203890
526.069345	47533.319399
526.431608	47440.955379
526.793815	47768.227086
527.155964	47281.738096
527.518057	47463.413719
527.880093	47243.760564
528.242072	47762.190305
528.603995	47463.496898
528.965860	47442.230791
529.327669	47556.370075
529.689421	47453.676730
530.051117	47406.002538
530.412755	47554.111638
530.774337	47629.360942
531.135862	47422.565249
531.497331	47612.951986
531.858743	47504.786469
532.220098	47847.214405
532.581396	47555.487873
532.942638	47213.501038
533.303824	47521.865898
533.664953	47505.119185
534.026025	47215.726707
534.387040	47691.452834
534.747999	47640.973240
535.108902	47799.951068
535.469748	47311.763208
535.830537	47416.755320
536.191270	47605.163403
536.551947	47257.240609
536.912567	47575.334896
537.273131	47680.095114
537.633638	47177.008125
537.994089	47519.138634
538.354483	47097.201618
538.714821	47682.686267
539.075103	48029.928506
539.435328	47781.049261
539.795497	47654.251639
540.155609	47654.533944
540.515665	48118.625087
540.875665	47547.434630
541.235609	47881.622801
541.595496	47876.662306
541.955328	48541.066218
542.315102	47865.697796
542.674821	47656.764654
543.034483	47704.091007
543.394090	47674.988425
543.753640	47626.016136
544.113134	48633.092481
544.472571	47631.647105
544.831953	48869.212566
545.191278	48043.280002
545.550548	47782.649828
545.909761	48249.828678
546.268918	48441.198440
546.628019	48765.626937
546.987064	48294.999937
547.346053	47565.620593
547.704986	48437.873799
548.063863	47976.202409
548.422684	48155.980037
548.781449	48004.190895
549.140158	48400.193694
549.498811	48225.958814
549.857408	47647.856935
550.215949	48492.638373
550.574434	48423.748486
550.932864	48159.148403
551.291237	48891.784332
551.649555	48487.957662
552.007817	48727.357017
552.366022	48369.314106
552.724173	48528.397798
553.082267	48918.704094
553.440305	49182.545483
553.798288	48482.261158
554.156215	48804.060693
554.514086	48990.575824
554.871902	48730.437162
555.229661	48735.934540
555.587365	48553.936284
555.945014	48663.039456
556.302606	48576.548379
556.660143	48800.065579
557.017625	48865.613182
557.375050	48656.468312
557.732421	48993.880300
558.089735	48957.568869
558.446994	48847.696921
558.804197	49317.555145
559.161345	49240.148228
559.518437	48472.498964
559.875474	48778.184451
560.232455	48963.996340
560.589381	49130.898862
560.946251	48797.713881
561.303065	49476.089351
561.659825	49239.954143
562.016528	48928.065516
562.373177	48631.348242
562.729770	49112.528897
563.086307	48604.274725
563.442789	49068.156661
563.799216	49101.793760
564.155587	48879.622548
564.511904	48903.532741
564.868164	48975.439760
565.224370	49201.154902
565.580520	48938.359553
565.936615	49135.667793
566.292654	48842.098720
566.648638	49101.597155
567.004567	49046.693949
567.360441	49090.816648
567.716260	48938.783009
568.072023	49214.871882
568.427732	49177.337971
568.783385	48719.792766
569.138982	49102.917937
569.494525	49046.696469
569.850013	48794.253129
570.205445	48767.693810
570.560823	48715.054081
570.916145	48568.011185
571.271412	48600.173747
571.626625	48340.483747
571.981782	48378.410868
572.336884	48044.636072
572.691931	48360.280359
573.046923	47958.525603
573.401860	47791.612999
573.756743	47742.499558
574.111570	47842.511009
574.466342	47695.243782
574.821059	47782.644786
575.175722	47302.953792
575.530330	47311.163311
575.884882	47003.970519
576.239380	46963.958881
576.593823	46929.545444
576.948211	46842.341045
577.302544	46362.866820
577.656823	46370.763787
578.011047	46584.175994
578.365216	46307.484704
578.719330	46074.326297
579.073389	45912.099446
579.427394	45991.104409
579.781344	45954.157792
580.135239	45582.105515
580.489080	45647.249826
580.842866	45144.311551
581.196597	45572.280306
581.550273	45512.945926
581.903895	45375.947529
582.257463	45772.197344
582.610975	45135.313091
582.964434	45425.204643
583.317837	45048.960646
583.671186	44885.372683
584.024481	45087.356594
584.377721	44592.068270
584.730906	44868.094128
585.084037	44908.685499
585.437113	44613.838493
585.790135	44621.876613
586.143103	44202.596286
586.496016	44327.594216
586.848874	44334.800545
587.201679	44345.374366
587.554428	43817.116895
587.907124	44013.442111
588.259765	43754.162966
588.612352	43986.562679
588.964884	43358.379457
589.317362	43647.492151
589.669786	43572.094133
590.022155	43332.412473
590.374470	43739.737704
590.726731	43251.275102
591.078937	42747.671395
591.431090	42862.007285
591.783188	42501.761390
592.135232	42172.899198
592.487222	42411.915425
592.839157	42492.538599
593.191038	42153.949501
593.542866	41904.150245
593.894639	41299.980560
594.246358	41562.475961
594.598022	41528.538913
594.949633	41138.691363
595.301190	41091.286873
595.652692	40916.726838
596.004141	41230.342060
596.355535	40248.025342
596.706876	40202.753260
597.058162	40026.932938
597.409395	40476.205610
597.760573	40551.520448
598.111698	40151.068831
598.462768	40140.041307
598.813785	40177.136637
599.164748	39609.081778
599.515657	40013.357110
599.866511	39486.783385
600.217312	40107.467891
600.568060	39072.070344
600.918753	39809.039145
601.269392	39762.983163
601.619978	39417.308724
601.970510	39621.982090
602.320988	39799.234101
602.671412	40102.134350
603.021783	39847.087254
603.372100	39488.449487
603.722363	39582.401471
604.072572	39674.422693
604.422728	39675.630050
604.772830	39483.864557
605.122878	39598.931414
605.472872	39519.097182
605.822813	39798.989605
606.172701	39614.712747
606.522534	39853.302996
606.872314	40112.110794
607.222041	39878.501204
607.571714	40253.283266
607.921333	39698.272392
608.270899	39987.896763
608.620411	40346.153923
608.969870	40128.605449
609.319276	40115.077513
609.668627	40184.801712
610.017926	40664.684270
610.367171	40814.628350
610.716362	40893.363611
611.065500	40844.429131
611.414585	41029.396627
611.763616	41328.765548
612.112594	41264.720209
612.461518	41467.203194
612.810389	41780.760443
613.159207	41642.879844
613.507971	41715.575803
613.856682	42180.168542
614.205340	42085.399891
614.553945	42793.024135
614.902496	42219.275293
615.250994	42694.071327
615.599439	42750.683484
615.947830	42970.026609
616.296169	43034.749983
616.644454	43149.569823
616.992686	43324.404601
617.340864	43840.550699
617.688990	43545.897777
618.037063	44172.616544
618.385082	44124.057629
618.733048	44421.561324
619.080961	44421.704997
619.428821	44454.374194
619.776628	44545.969439
620.124382	44379.966763
620.472083	44498.703580
620.819731	44634.358510
621.167326	44281.944047
621.514868	44255.122588
621.862357	43819.818954
622.209793	43837.760420
622.557176	43494.583872
622.904506	43240.817229
623.251783	42900.330136
623.599007	42666.705423
623.946179	42457.442086
624.293297	42403.821853
624.640363	41804.489154
624.987376	41783.560804
625.334336	41561.210631
625.681243	41207.185520
626.028097	41168.035919
626.374899	41052.540564
626.721647	41024.678107
627.068343	40904.416341
627.414987	40667.081338
627.761577	40459.940327
628.108115	40794.859465
628.454600	40234.056305
628.801032	40435.405031
629.147412	40400.782386
629.493739	40399.333055
629.840014	40042.729393
630.186236	40388.015664
630.532405	39971.470163
630.878521	40197.911232
631.224585	40076.280793
631.570597	39779.629053
631.916556	39929.563051
632.262462	39881.614116
632.608316	39910.073950
632.954117	39794.185385
633.299866	39783.246081
633.645562	39697.034789
633.991206	39208.362979
634.336797	38773.094633
634.682336	38777.198132
635.027823	38505.278293
635.373257	38327.572579
635.718639	38091.525591
636.063968	37963.276117
636.409245	37385.096100
636.754470	37435.840355
637.099642	37199.085085
637.444762	36707.040743
637.789829	36861.352983
638.134845	36535.041615
638.479808	36457.725438
638.824719	36375.544548
639.169577	35979.773642
639.514383	36055.953039
639.859137	35745.609526
640.203839	35989.896279
640.548489	35615.089011
640.893086	35683.147109
641.237632	35435.258451
641.582125	35563.036577
641.926566	35494.718860
642.270955	35463.466227
642.615292	35481.460626
642.959576	35442.805058
643.303809	35443.510820
643.647990	35609.372343
643.992118	35578.903609
644.336195	35564.899284
644.680219	35658.997461
645.024192	35959.740097
645.368112	36473.456359
645.711981	36496.116346
646.055797	37367.593214
646.399562	37290.269476
646.743274	38261.299050
647.086935	38689.139256
647.430544	38572.668438
647.774101	38690.865852
648.117606	38924.215822
648.461059	39200.302174
648.804460	38793.402921
649.147810	38164.329935
649.491108	37914.684435
649.834354	37547.040647
650.177548	36707.070990
650.520690	36280.619622
650.863781	36297.570501
651.206820	36147.989384
651.549807	35721.527934
651.892742	35241.242083
652.235626	35050.104215
652.578458	34922.620996
652.921238	34312.028880
653.263967	34629.611490
653.606644	34316.374355
653.949269	34263.059112
654.291843	33852.545351
654.634365	34265.768732
654.976836	33855.774210
655.319255	33848.610730
655.661622	33868.258627
656.003938	33643.965090
656.346203	33512.562374
656.688416	33747.638939
657.030577	33527.118706
657.372687	33373.459295
657.714746	33605.927064
658.056753	33739.999071
658.398708	33200.827502
658.740612	33253.031171
659.082465	33534.125909
659.424266	33363.878582
659.766016	33496.055116
660.107715	33354.965822
660.449362	33483.260667
660.790958	33454.221100
661.132503	33475.779595
661.473996	33503.579038
661.815438	33630.109479
662.156829	33816.440607
662.498168	33598.448512
662.839456	33608.356900
663.180693	33757.386010
663.521879	33925.639561
663.863013	33900.731220
664.204097	33870.902713
664.545129	34325.924821
664.886110	34283.987462
665.227040	34372.094228
665.567918	34497.863455
665.908746	34539.634456
666.249522	34706.287440
666.590248	34719.684306
666.930922	34807.861649
667.271545	34785.549502
667.612118	34857.680852
667.952639	34618.594048
668.293109	34688.686251
668.633528	34574.897327
668.973896	34506.367881
669.314213	34548.723656
669.654480	34276.418169
669.994695	34309.185669
670.334859	34195.477403
670.674973	34081.207048
671.015035	34227.594594
671.355047	34193.897001
671.695008	34133.350223
672.034918	34030.982032
672.374777	34127.252947
672.714585	33954.807677
673.054342	34189.054973
673.394049	33929.254068
673.733705	34211.588931
674.073310	33880.496028
674.412864	33952.980259
674.752368	33557.408478
675.091820	33880.128024
675.431223	33431.740075
675.770574	33141.808194
676.109875	33005.528161
676.449125	32713.731053
676.788324	32647.313851
677.127473	32111.663529
677.466571	32027.067926
677.805619	31670.814625
678.144616	31678.199915
678.483562	31604.480602
678.822458	31275.472217
679.161303	31207.824973
679.500098	31146.519501
679.838842	31019.041323
680.177535	31177.998987
680.516179	31466.471454
680.854771	31718.347664
681.193314	32600.874742
681.531805	33743.366562
681.870247	34514.584962
682.208638	35210.493565
682.546978	35406.150828
682.885268	35473.162887
683.223508	34958.791274
683.561697	34624.943382
683.899836	34431.733599
684.237925	33928.712144
684.575963	33767.551497
684.913951	33304.113183
685.251889	33471.580314
685.589776	33462.039930
685.927614	33475.784636
686.265401	33614.449134
686.603137	33718.811101
686.940824	34228.449070
687.278460	34607.886638
687.616046	34731.415071
687.953582	35352.593610
688.291068	35185.154206
688.628504	35463.821628
688.965889	35377.101179
689.303224	34987.477960
689.640510	34624.756859
689.977745	33853.525855
690.314930	33045.396126
690.652065	32543.629919
690.989150	31812.317293
691.326185	30885.291950
691.663170	30187.830672
692.000105	29432.723799
692.336990	28755.588452
692.673825	28292.845817
693.010610	27788.072562
693.347345	27208.972535
693.684030	26560.183596
694.020665	26273.455368
694.357251	25602.785302
694.693786	25563.451699
695.030272	25326.285575
695.366707	24779.007831
695.703093	24501.031047
696.039429	24497.615665
696.375716	24232.899635
696.711952	24215.537901
697.048139	24051.501276
697.384276	23874.836560
697.720363	24001.883719
698.056400	23794.344456
698.392388	23572.153080
698.728326	23538.508419
699.064214	23327.160565
699.400053	23263.773096
699.735842	22898.334813
700.071581	22627.970170
700.407270	22315.216986
700.742910	22133.654789
701.078501	21881.171119
701.414042	21597.328952
701.749533	21292.618928
702.084974	20933.245153
702.420366	21147.668111
702.755709	20715.595856
703.091002	20416.171482
703.426246	20427.864438
703.761440	20331.437248
704.096584	20058.355423
704.431679	20013.015286
704.766725	19916.444422
705.101721	19873.040087
705.436668	19958.878334
705.771565	19640.826897
706.106413	19993.697584
706.441212	19977.487754
706.775961	20117.407499
707.110661	20181.919145
707.445311	20537.668331
707.779913	20381.503467
708.114465	20632.104266
708.448967	20908.672048
708.783421	21608.812700
709.117825	21889.158827
709.452180	22107.750820
709.786485	22520.936392
710.120742	23314.608092
710.454949	23340.751516
710.789107	23805.026661
711.123216	24505.822663
711.457275	24618.333655
711.791286	25135.654342
712.125247	25195.455030
712.459159	24876.755804
712.793023	25533.787029
713.126837	24421.554736
713.460602	24668.601521
713.794318	24275.961171
714.127985	23894.126535
714.461602	22981.234067
714.795171	22934.263116
715.128691	21911.077764
715.462162	21381.222248
715.795584	20955.789193
716.128957	20699.910306
716.462281	20295.521547
716.795556	20060.344158
717.128782	19564.544157
717.461960	19017.916722
717.795088	18940.139280
718.128167	18536.088279
718.461198	18081.978620
718.794180	17935.293646
719.127113	17579.032783
719.459997	17381.406949
719.792833	17032.417951
720.125619	17005.215884
720.458357	16684.240578
720.791046	16513.988210
721.123686	16350.581728
721.456278	16118.567664
721.788821	16082.326809
722.121315	15823.985318
722.453761	15908.364151
722.786158	15827.196533
723.118506	15838.849160
723.450805	15703.254725
723.783056	15859.301121
724.115259	15766.531288
724.447412	15688.441294
724.779518	15926.310659
725.111574	15959.032788
725.443582	16164.323697
725.775542	16152.635781
726.107453	16612.666276
726.439315	16510.668610
726.771129	16904.423054
727.102895	17281.992875
727.434612	17480.687433
727.766281	17594.670442
728.097901	17847.698556
728.429473	17882.348927
728.760996	17871.722175
729.092471	17949.434082
729.423897	17823.057396
729.755276	17693.046039
730.086606	17809.718503
730.417887	18351.677830
730.749120	18856.677937
731.080305	19032.888949
731.411442	19355.699236
731.742530	19416.117464
732.073570	19506.308748
732.404562	19794.967738
732.735506	19599.691082
733.066401	19288.263721
733.397249	18740.854907
733.728048	18112.520450
734.058798	17278.332997
734.389501	16599.876868
734.720156	16143.125645
735.050762	15628.224711
735.381320	15278.933244
735.711831	15048.794488
736.042293	14706.260687
736.372707	14728.502258
736.703073	14508.619730
737.033391	14708.229258
737.363661	14677.485781
737.693883	14785.447132
738.024056	14957.458863
738.354182	15140.394774
738.684260	15424.640234
739.014290	15657.518856
739.344272	15829.364229
739.674207	16100.832884
740.004093	16209.053855
740.333931	16189.216914
740.663722	16229.906587
740.993464	16218.294290
741.323159	16034.113213
741.652806	15760.386121
741.982405	15532.881369
742.311956	15195.648341
742.641460	15081.216669
742.970915	14774.107056
743.300323	14439.601293
743.629683	14226.168921
743.958996	13955.506851
744.288260	13689.739741
744.617477	13384.344120
744.946647	13319.219974
745.275768	13042.049774
745.604842	12863.875232
745.933869	12690.419211
746.262847	12644.297694
746.591778	12575.148187
746.920662	12475.512302
747.249498	12474.367960
747.578286	12597.984614
747.907027	12744.717479
748.235720	12964.718474
748.564365	12987.673368
748.892963	12879.540618
749.221514	12938.345677
749.550017	12792.210189
749.878473	12756.972524
750.206881	12540.041592
750.535242	12441.925614
750.863555	12354.554856
751.191821	12258.636822
751.520039	12277.583999
751.848210	12191.725587
752.176334	12214.289792
752.504411	12127.022377
752.832440	11968.682256
753.160421	12020.296109
753.488356	11909.489027
753.816243	11823.456696
754.144082	11677.129644
754.471875	11617.578493
754.799620	11559.789226
755.127318	11534.338961
755.454969	11496.716830
755.782572	11441.959817
756.110129	11452.006836
756.437638	11379.066381
756.765100	11374.645289
757.092515	11379.893131
757.419882	11386.623071
757.747203	11396.057590
758.074477	11469.534928
758.401703	11431.564957
758.728882	11587.576066
759.056014	11629.170627
759.383099	11740.948131
759.710138	11835.815084
760.037129	11930.387131
760.364073	11947.711056
760.690970	11936.718820
761.017820	11928.484095
761.344623	12122.603806
761.671379	12460.807256
761.998088	13125.995068
762.324751	14748.540845
762.651366	17675.540632
762.977935	21265.847881
763.304456	23356.709288
763.630931	23715.024421
763.957359	22469.289771
764.283740	20562.614481
764.610074	18690.556794
764.936362	16578.678816
765.262602	15085.305045
765.588796	13650.002845
765.914943	12643.985143
766.241044	11808.854994
766.567097	11183.681341
766.893104	10649.434979
767.219064	10295.339292
767.544978	9924.605277
767.870845	9624.807857
768.196665	9431.477087
768.522438	9240.465247
768.848165	9079.143283
769.173846	8917.120598
769.499479	8793.909757
769.825066	8640.721694
770.150607	8458.141184
770.476101	8395.744303
770.801548	8283.195502
771.126949	8138.406002
771.452303	8059.973210
771.777611	7899.291472
772.102872	7879.038636
772.428087	7759.520440
772.753256	7638.230279
773.078378	7547.870117
773.403453	7403.108343
773.728482	7304.972201
774.053465	7238.373517
774.378401	7152.802452
774.703291	7059.276445
775.028135	6963.212217
775.352932	6926.474808
775.677683	6842.101017
776.002388	6752.751606
776.327046	6759.847030
776.651658	6671.931827
776.976224	6599.014058
777.300743	6580.084525
777.625216	6521.125710
777.949643	6480.546942
778.274024	6480.297405
778.598359	6413.557569
778.922647	6419.294402
779.246889	6378.481221
779.571086	6385.831223
779.895236	6391.976390
780.219339	6391.608385
780.543397	6391.494959
780.867409	6440.621004
781.191374	6438.954902
781.515294	6404.511219
781.839167	6453.216327
782.162995	6425.565598
782.486776	6373.924018
782.810511	6333.410785
783.134201	6260.248519
783.457844	6249.006746
783.781441	6198.033119
784.104993	6150.825234
784.428498	6128.873529
784.751958	6113.281240
785.075372	6086.038845
785.398739	6045.505448
785.722061	6077.539460
786.045337	6073.806485
786.368568	6181.210788
786.691752	6213.680860
787.014891	6470.613348
787.337983	6751.698005
787.661030	7193.285437
787.984031	7608.026206
788.306987	7857.676747
788.629897	7930.052593
788.952760	7834.575659
789.275579	7652.965572
789.598351	7348.159766
789.921078	7089.639314
790.243759	6815.128323
790.566395	6613.673733
790.888984	6422.417397
791.211529	6290.876049
791.534027	6123.638291
791.856480	5997.319578
792.178888	5933.551503
792.501249	5872.367019
792.823566	5768.103354
793.145836	5763.508343
793.468062	5742.668213
793.790241	5709.746957
794.112375	5751.076857
794.434464	5848.771898
794.756507	5883.911261
795.078505	6012.173338
795.400457	6225.951029
795.722364	6460.049611
796.044226	6644.749926
796.366042	6798.616023
796.687812	6741.794658
797.009538	6766.408092
797.331218	6676.284864
797.652852	6605.494461
797.974442	6486.155226
798.295986	6410.963896
798.617484	6282.653927
798.938938	6177.820612
799.260346	6111.847032
799.581709	5976.539942
799.903026	5926.138486
800.224299	5843.806362
800.545526	5735.577830
800.866708	5672.734806
801.187845	5622.691272
801.508936	5546.002719
801.829983	5519.087998
802.150984	5415.202420
802.471940	5389.366507
802.792851	5372.367736
803.113717	5349.947204
803.434538	5329.225542
803.755314	5291.270694
804.076045	5284.313902
804.396731	5253.242750
804.717372	5273.215802
805.037967	5274.962562
805.358518	5299.946520
805.679024	5354.713615
805.999485	5365.478999
806.319901	5385.373913
806.640272	5398.657353
806.960598	5448.017811
807.280879	5441.050937
807.601115	5472.227953
807.921306	5441.486997
808.241453	5431.223207
808.561554	5439.432726
808.881611	5408.354013
809.201623	5407.605402
809.521590	5356.969532
809.841513	5339.068394
810.161390	5356.152865
810.481223	5261.911014
810.801011	5248.627574
811.120755	5226.398606
811.440453	5176.481101
811.760107	5147.514631
812.079716	5121.318275
812.399281	5068.746602
812.718801	5066.276436
813.038276	5028.104819
813.357707	4990.732225
813.677093	5014.324825
813.996434	4957.410198
814.315731	4973.665399
814.634983	4973.335203
814.954191	4983.132686
815.273354	5041.226943
815.592473	5081.772943
815.911547	5157.370086
816.230577	5210.592068
816.549562	5293.786230
816.868502	5341.399928
817.187399	5402.768414
817.506250	5480.366896
817.825058	5507.256410
818.143821	5663.060832
818.462539	5828.171223
818.781213	6065.090330
819.099843	6436.537669
819.418429	7062.938843
819.736970	7683.827515
820.055466	8392.873366
820.373919	9314.633223
820.692327	10796.687083
821.010691	13600.350001
821.329011	19998.990796
821.647286	29499.703089
821.965517	39508.699802
822.283704	44455.339575
822.601847	45561.335961
822.919945	40899.788562
823.237999	35850.268921
823.556010	30804.739353
823.873976	26241.653249
824.191897	22169.812465
824.509775	19202.266677
824.827609	16539.130964
825.145398	15063.907867
825.463144	14388.849477
825.780845	14749.060083
826.098502	16064.954992
826.416116	18510.806892
826.733685	20681.421874
827.051210	21057.721323
827.368692	19541.954747
827.686129	17005.256214
828.003522	14601.031642
828.320872	12442.112137
828.638177	10850.027532
828.955439	9637.592223
829.272656	8611.493084
829.589830	7795.113507
829.906960	7074.198260
830.224046	6562.405198
830.541088	6163.657491
830.858086	5914.213637
831.175041	5718.659717
831.491952	5673.304456
831.808819	5715.035128
832.125642	5974.336958
832.442421	6543.712600
832.759157	7682.731064
833.075849	9459.810892
833.392497	11254.237330
833.709101	12282.088270
834.025662	11943.847011
834.342179	10868.389935
834.658653	9591.445501
834.975083	8518.829115
835.291469	7642.689179
835.607811	6932.942609
835.924110	6422.893786
836.240366	5942.302946
836.556578	5500.302138
836.872746	5152.843130
837.188871	4883.280031
837.504952	4673.016025
837.820990	4513.632384
838.136984	4403.803286
838.452935	4362.982543
838.768842	4403.959562
839.084706	4709.551787
839.400526	5462.571622
839.716303	6348.685481
840.032037	6868.304934
840.347727	6670.268247
840.663373	6068.208284
840.978977	5510.276061
841.294537	5087.348459
841.610054	4764.220580
841.925527	4532.035116
842.240957	4330.933407
842.556344	4149.882887
842.871687	3991.862879
843.186987	3848.512628
843.502244	3734.063312
843.817458	3648.688851
844.132629	3577.094384
844.447756	3533.453116
844.762840	3489.574913
845.077881	3447.773665
845.392879	3414.900301
845.707833	3393.309039
846.022745	3361.489276
846.337613	3353.045343
846.652438	3329.213288
846.967221	3323.078204
847.281960	3302.225471
847.596656	3291.568472
847.911309	3282.343160
848.225919	3267.320522
848.540485	3256.668564
848.855009	3251.851741
849.169490	3239.808425
849.483928	3233.675861
849.798323	3228.407855
850.112675	3215.840259
850.426984	3219.285887
850.741251	3211.126780
851.055474	3211.041080
851.369654	3210.698282
851.683792	3205.977241
851.997887	3208.770040
852.311938	3208.825493
852.625947	3209.768189
852.939914	3203.975903
853.253837	3213.115515
853.567718	3208.273487
853.881555	3202.571942
854.195350	3207.333312
854.509103	3202.390460
854.822812	3200.197558
855.136479	3196.656148
855.450103	3201.893907
855.763685	3197.722352
856.077224	3197.682022
856.390720	3202.937425
856.704173	3216.450238
857.017584	3219.686659
857.330953	3222.560117
857.644278	3233.774163
857.957561	3234.787435
858.270802	3234.880697
858.584000	3232.329873
858.897155	3226.406517
859.210268	3216.863613
859.523339	3208.281048
859.836367	3202.750903
860.149352	3198.324770
860.462295	3192.010724
860.775195	3182.961853
861.088054	3182.243489
861.400869	3177.101512
861.713642	3178.568488
862.026373	3184.864889
862.339062	3191.839325
862.651708	3200.210161
862.964312	3218.068449
863.276873	3230.699060
863.589392	3258.385077
863.901869	3281.211421
864.214303	3303.490801
864.526696	3319.415806
864.839045	3338.562108
865.151353	3348.878829
865.463619	3349.113243
865.775842	3348.417564
866.088023	3355.044160
866.400162	3350.842359
866.712258	3351.245651
867.024313	3349.566947
867.336325	3348.099971
867.648296	3348.125177
867.960224	3344.140145
868.272110	3348.286494
868.583954	3350.388655
868.895755	3355.356712
869.207515	3353.010055
869.519233	3371.705174
869.830909	3376.290103
870.142542	3391.958009
870.454134	3397.934297
870.765684	3409.435690
871.077191	3430.235491
871.388657	3437.792180
871.700081	3457.966878
872.011463	3480.299189
872.322803	3498.656551
872.634101	3513.240609
872.945357	3538.607695
873.256571	3566.666758
873.567744	3579.330136
873.878874	3584.257864
874.189963	3597.392590
874.501010	3599.086418
874.812015	3595.857559
875.122979	3612.909262
875.433900	3609.385495
875.744780	3612.813480
876.055618	3622.235397
876.366415	3617.857154
876.677169	3625.005511
876.987882	3642.389930
877.298554	3662.549504
877.609183	3698.724824
877.919771	3748.581835
878.230317	3818.878205
878.540822	3924.104730
878.851285	4076.261877
879.161707	4305.752844
879.472087	4686.637223
879.782425	5331.173947
880.092722	6539.621703
880.402977	8480.213877
880.713191	10814.804990
881.023363	13098.087240
881.333494	14301.082988
881.643583	14701.063258
881.953631	14251.210853
882.263637	13429.175101
882.573602	12422.786874
882.883526	11485.311219
883.193408	10566.311394
883.503248	9680.026136
883.813048	8878.026450
884.122806	8129.830999
884.432522	7376.037347
884.742197	6737.562609
885.051831	6192.591193
885.361424	5710.084715
885.670975	5330.390048
885.980485	5018.110732
886.289954	4757.541051
886.599382	4541.078946
886.908768	4368.868090
887.218113	4206.008574
887.527417	4079.029470
887.836680	3954.850727
888.145901	3858.302549
888.455082	3785.520890
888.764221	3717.039336
889.073319	3658.723268
889.382376	3628.015079
889.691392	3606.320474
890.000366	3593.573916
890.309300	3594.418310
890.618193	3594.624997
890.927044	3590.052670
891.235855	3602.040534
891.544625	3613.877163
891.853353	3646.866474
892.162041	3707.287224
892.470687	3802.991009
892.779293	3922.196653
893.087858	4094.054629
893.396381	4384.687231
893.704864	4800.133760
894.013306	5368.118043
894.321707	5922.581952
894.630068	6253.957159
894.938387	6269.408296
895.246665	6079.931487
895.554903	5773.124343
895.863100	5438.638745
896.171256	5173.887427
896.479371	4939.262045
896.787446	4719.707192
897.095480	4529.580074
897.403473	4387.391810
897.711425	4243.867639
898.019336	4122.227117
898.327207	4001.839322
898.635038	3902.397522
898.942827	3793.768218
899.250576	3711.806618
899.558284	3627.309318
899.865952	3575.710588
900.173579	3511.261956
900.481165	3468.122282
900.788711	3425.199378
901.096216	3392.131929
901.403681	3369.401367
901.711105	3356.453163
902.018489	3354.706403
902.325832	3390.833832
902.633135	3450.848769
902.940397	3631.790904
903.247619	4058.784196
903.554800	4825.944468
903.861941	5761.950626
904.169041	6417.943373
904.476101	6584.901347
904.783121	6294.755217
905.090100	5900.907511
905.397039	5499.578733
905.703938	5152.964118
906.010796	4839.432075
906.317614	4596.158593
906.624391	4360.751832
906.931129	4167.070701
907.237826	3991.401613
907.544483	3822.522959
907.851099	3652.499964
908.157675	3497.648320
908.464211	3363.104965
908.770707	3261.404728
909.077163	3184.383459
909.383578	3126.629480
909.689954	3083.066349
909.996289	3055.264385
910.302584	3034.643545
910.608839	3022.711134
910.915054	3013.742922
911.221229	3008.386696
911.527363	3011.398785
911.833458	3022.575023
912.139513	3032.548946
912.445527	3041.711243
912.751502	3079.403950
913.057436	3122.309211
913.363331	3180.751307
913.669186	3268.646345
913.975000	3390.669995
914.280775	3581.371803
914.586510	3855.161910
914.892205	4231.335331
915.197859	4729.693717
915.503475	5300.816119
915.809050	5775.965034
916.114585	6043.945210
916.420081	6090.754844
916.725536	6023.710019
917.030952	5786.281755
917.336328	5583.655097
917.641665	5376.231781
917.946961	5150.645187
918.252218	4959.779541
918.557435	4736.209409
918.862612	4545.442065
919.167750	4374.960324
919.472848	4185.140717
919.777906	4018.402033
920.082925	3866.035679
920.387904	3714.596897
920.692843	3603.774691
920.997743	3510.412522
921.302603	3415.958943
921.607423	3353.151207
921.912204	3287.908594
922.216946	3240.279772
922.521647	3192.028368
922.826310	3153.889519
923.130932	3114.923920
923.435516	3075.585276
923.740059	3048.521842
924.044564	3016.359280
924.349028	2991.342554
924.653454	2962.471866
924.957840	2938.843978
925.262186	2919.753129
925.566493	2898.197155
925.870761	2868.295551
926.174989	2861.747092
926.479178	2847.896522
926.783328	2829.927329
927.087438	2818.930052
927.391509	2807.088381
927.695541	2793.394087
927.999533	2784.320010
928.303486	2777.804319
928.607400	2770.292999
928.911275	2766.065992
929.215110	2761.491145
929.518906	2755.686256
929.822663	2756.833119
930.126381	2756.697007
930.430060	2759.862852
930.733699	2761.851587
931.037299	2765.788728
931.340861	2764.687236
931.644383	2767.520365
931.947866	2767.159922
932.251309	2760.767739
932.554714	2762.786721
932.858080	2761.637338
933.161407	2756.250865
933.464694	2754.415885
933.767943	2749.145359
934.071153	2747.514546
934.374323	2742.695203
934.677455	2739.229409
934.980548	2736.494583
935.283602	2733.815210
935.586617	2735.395612
935.889593	2736.045921
936.192530	2734.914182
936.495428	2743.302662
936.798287	2755.403952
937.101108	2769.607402
937.403890	2788.158849
937.706632	2818.199084
938.009336	2849.033302
938.312002	2879.282746
938.614628	2899.006260
938.917216	2919.581729
939.219765	2927.534150
939.522275	2938.551591
939.824747	2936.275510
940.127179	2930.752926
940.429573	2924.640527
940.731929	2923.919642
941.034246	2916.529311
941.336524	2911.226017
941.638763	2905.837023
941.940964	2901.927609
942.243126	2885.967316
942.545250	2875.000285
942.847335	2857.144518
943.149381	2845.713702
943.451389	2832.810869
943.753359	2818.272181
944.055290	2810.110553
944.357182	2801.185190
944.659036	2797.111938
944.960851	2793.535239
945.262628	2790.225722
945.564367	2790.966771
945.866067	2789.550207
946.167729	2787.659774
946.469352	2788.370577
946.770937	2785.033333
947.072484	2779.452776
947.373992	2775.366921
947.675462	2775.792898
947.976893	2770.078750
948.278286	2765.148502
948.579641	2763.346289
948.880958	2756.918818
949.182236	2758.690784
949.483476	2757.206164
949.784678	2753.755494
950.085841	2754.431009
950.386967	2760.838315
950.688054	2765.650097
950.989103	2773.000099
951.290114	2781.020575
951.591087	2796.282668
951.892021	2807.353042
952.192917	2817.107675
952.493776	2829.476146
952.794596	2829.171156
953.095378	2831.258193
953.396122	2831.122082
953.696828	2828.914057
953.997496	2822.272337
954.298126	2814.178764
954.598718	2803.826755
954.899272	2792.683284
955.199788	2781.764145
955.500266	2767.893410
955.800706	2756.669281
956.101108	2741.918865
956.401472	2729.782287
956.701798	2718.316183
957.002087	2702.111394
957.302337	2693.828778
957.602550	2685.011800
957.902724	2674.490912
958.202861	2663.244097
958.502960	2655.526091
958.803022	2648.886891
959.103045	2641.914976
959.403031	2633.599592
959.702979	2632.208234
960.002889	2625.143057
960.302762	2623.416462
960.602596	2620.424537
960.902393	2613.450100
961.202153	2610.997579
961.501875	2608.774430
961.801559	2608.640840
962.101205	2605.535489
962.400814	2602.566249
962.700385	2600.993409
962.999918	2599.521392
963.299414	2598.981989
963.598873	2595.884200
963.898293	2592.952769
964.197677	2594.109714
964.497022	2593.144333
964.796331	2591.092583
965.095601	2589.232397
965.394835	2589.691142
965.694030	2587.800710
965.993189	2591.034610
966.292309	2584.647468
966.591393	2589.555031
966.890439	2586.590833
967.189447	2590.480083
967.488419	2586.391707
967.787353	2590.263313
968.086249	2587.190730
968.385108	2590.260793
968.683930	2588.433374
968.982714	2589.401276
969.281462	2593.038468
969.580172	2592.846905
969.878844	2594.374374
970.177480	2597.709098
970.476078	2603.645056
970.774639	2606.052207
971.073162	2605.149841
971.371649	2605.157402
971.670098	2606.218565
971.968510	2611.085799
972.266885	2609.578494
972.565223	2614.304576
972.863524	2616.442025
973.161788	2613.878598
973.460014	2618.362705
973.758204	2615.436315
974.056356	2618.246758
974.354471	2619.567541
974.652550	2615.272477
974.950591	2618.539145
975.248595	2618.027468
975.546563	2616.421861
975.844493	2614.962447
976.142386	2611.224431
976.440243	2613.523197
976.738062	2610.150665
977.035845	2607.975407
977.333590	2604.111363
977.631299	2603.881990
977.928971	2602.178080
978.226606	2599.581886
978.524204	2597.129365
978.821765	2597.131885
979.119290	2595.790938
979.416777	2595.128027
979.714228	2595.674992
980.011642	2599.733121
980.309020	2601.409304
980.606360	2606.389964
980.903664	2613.122425
981.200931	2627.653551
981.498162	2647.845893
981.795356	2677.238341
982.092513	2714.439535
982.389633	2755.169538
982.686717	2795.428192
982.983764	2824.613953
983.280775	2842.704133
983.577749	2844.201356
983.874686	2833.894717
984.171587	2817.649599
984.468451	2800.577731
984.765279	2781.907818
985.062070	2763.739499
985.358824	2749.601583
985.655543	2723.750547
985.952224	2703.369162
986.248869	2679.267405
986.545478	2653.955772
986.842050	2633.972638
987.138586	2613.422374
987.435086	2603.781167
987.731549	2590.447315
988.027975	2589.794486
988.324366	2578.542631
988.620719	2576.808474
988.917037	2574.635736
989.213318	2571.230437
989.509563	2570.373441
989.805772	2567.822617
990.101944	2566.632905
990.398080	2563.744323
990.694180	2561.253993
990.990244	2566.585014
991.286271	2561.947152
991.582262	2564.470250
991.878217	2565.206258
992.174136	2566.746331
992.470019	2566.232133
992.765865	2569.874367
993.061676	2570.101218
993.357450	2572.606672
993.653188	2577.398289
993.948890	2581.978177
994.244556	2589.484455
994.540186	2599.148347
994.835780	2606.591611
995.131337	2623.449229
995.426859	2639.578401
995.722345	2658.661689
996.017795	2676.159534
996.313208	2687.653364
996.608586	2699.477391
996.903928	2701.347659
997.199234	2700.687268
997.494504	2696.238449
997.789738	2689.135464
998.084936	2682.135822
998.380099	2667.695436
998.675225	2657.378715
998.970316	2648.125677
999.265371	2632.556073
999.560390	2617.505709
999.855373	2610.548916
1000.150320	2598.949221
1000.445232	2588.430854
1000.740108	2583.339288
1001.034948	2578.527507
1001.329752	2570.239850
1001.624521	2567.527709
1001.919254	2562.857080
1002.213951	2561.465722
1002.508613	2555.945658
1002.803239	2556.195196
1003.097829	2550.014741
1003.392384	2554.203940
1003.686903	2551.713610
1003.981386	2551.874927
1004.275834	2548.532642
1004.570246	2553.072201
1004.864623	2548.797302
1005.158964	2547.947868
1005.453270	2547.761345
1005.747540	2546.274205
1006.041775	2545.633978
1006.335974	2545.112219
1006.630138	2545.018958
1006.924266	2545.749925
1007.218359	2544.025850
1007.512416	2543.100798
1007.806438	2544.146838
1008.100425	2542.947043
1008.394376	2542.417722
1008.688292	2544.061138
1008.982172	2545.880995
1009.276017	2541.288504
1009.569827	2544.585418
1009.863602	2542.064841
1010.157341	2541.472506
1010.451045	2541.805222
1010.744714	2541.996786
1011.038347	2542.316899
1011.331945	2540.421425
1011.625508	2541.154913
1011.919036	2539.156096
1012.212528	2542.997455
1012.505986	2538.377237
1012.799408	2539.569470
1013.092795	2541.356559
1013.386147	2541.417053
1013.679464	2539.776158
1013.972745	2540.013092
1014.265992	2540.181970
1014.559204	2539.561908
1014.852380	2539.589635
1015.145521	2537.873122
1015.438628	2538.770447
1015.731699	2536.753986
1016.024736	2539.652649
1016.317737	2540.040818
1016.610703	2540.058462
1016.903635	2535.753317
1017.196531	2537.109387
1017.489393	2538.052083
1017.782219	2535.410518
1018.075011	2538.190715
1018.367768	2540.670962
1018.660490	2540.539892
1018.953177	2540.539892
1019.245829	2540.539892
