Dividing Wavelength (nm)	Counts (n)	Blue Motor Position (mm): 32.700000	Red Motor Position (mm): 0.000000	
326.493990	2131.598972
326.888308	2131.598972
327.282561	2131.598972
327.676750	2096.119331
328.070874	2095.837026
328.464933	2099.847264
328.858929	2105.783223
329.252859	2113.982660
329.646726	2127.931532
330.040528	2141.419139
330.434265	2159.267345
330.827938	2172.878460
331.221547	2191.747499
331.615091	2207.657380
332.008571	2230.473643
332.401986	2249.821591
332.795338	2268.357914
333.188625	2285.122271
333.581847	2307.058852
333.975006	2324.818837
334.368100	2345.424553
334.761129	2360.293437
335.154095	2377.584594
335.546996	2400.315157
335.939833	2424.437078
336.332606	2438.340580
336.725315	2452.765842
337.117960	2458.331276
337.510540	2468.658080
337.903056	2482.014617
338.295508	2487.164155
338.687896	2495.295537
339.080220	2504.934223
339.472480	2509.884636
339.864676	2515.503002
340.256807	2519.437622
340.648875	2522.386697
341.040879	2523.072294
341.432818	2523.646986
341.824694	2525.978519
342.216506	2528.799045
342.608253	2531.289375
342.999937	2528.950280
343.391557	2529.383819
343.783113	2527.684950
344.174605	2525.282840
344.566033	2524.604805
344.957397	2521.912829
345.348697	2522.797551
345.739934	2520.266892
346.131106	2517.527025
346.522215	2515.021572
346.913260	2511.278515
347.304241	2511.074348
347.695159	2510.058556
348.086012	2510.570233
348.476802	2505.289624
348.867528	2505.413132
349.258191	2505.050169
349.648789	2503.167298
350.039324	2502.106135
350.429796	2501.816269
350.820203	2496.989364
351.210548	2498.526916
351.600828	2495.499703
351.991045	2497.301916
352.381198	2497.165805
352.771288	2496.533140
353.161314	2493.919302
353.551276	2496.601195
353.941175	2493.566421
354.331010	2494.098262
354.720782	2496.177738
355.110490	2493.579024
355.500135	2495.683705
355.889717	2495.850063
356.279235	2495.005670
356.668689	2495.449292
357.058080	2494.693119
357.447408	2494.506596
357.836672	2494.403252
358.225873	2491.474342
358.615010	2495.814775
359.004084	2494.935094
359.393095	2499.673779
359.782043	2498.562204
360.170927	2497.811072
360.559748	2501.092863
360.948505	2501.586897
361.337199	2500.145127
361.725830	2502.176712
362.114398	2502.151506
362.502903	2501.221413
362.891344	2502.421208
363.279722	2505.337515
363.668037	2504.049500
364.056289	2506.186949
364.444478	2503.184942
364.832603	2506.043277
365.220665	2506.252484
365.608665	2503.192504
365.996601	2506.663338
366.384474	2507.790036
366.772284	2507.598472
367.160031	2506.635612
367.547715	2505.047649
367.935336	2507.169974
368.322893	2506.134017
368.710388	2505.249295
369.097820	2510.960922
369.485189	2508.825993
369.872495	2509.199039
370.259738	2505.287103
370.646918	2510.943278
371.034035	2507.537979
371.421090	2511.989318
371.808081	2512.117867
372.195010	2511.306241
372.581875	2510.620644
372.968678	2512.032167
373.355418	2510.361025
373.742096	2513.257168
374.128710	2511.192815
374.515262	2510.756755
374.901751	2515.908815
375.288177	2511.679287
375.674540	2513.163906
376.060841	2512.566530
376.447079	2512.939575
376.833254	2513.305059
377.219367	2507.132166
377.605417	2514.653567
377.991404	2512.616941
378.377329	2512.160717
378.763191	2512.760614
379.148991	2517.209432
379.534727	2516.480986
379.920402	2517.010307
380.306013	2513.090810
380.691563	2514.600635
381.077049	2516.274298
381.462474	2518.152128
381.847835	2517.453928
382.233134	2517.017868
382.618371	2517.040554
383.003545	2518.678929
383.388657	2518.399145
383.773706	2516.828825
384.158693	2518.452077
384.543618	2517.164062
384.928480	2520.082890
385.313280	2521.091121
385.698017	2519.205729
386.082692	2520.965092
386.467305	2520.125740
386.851856	2521.214629
387.236344	2522.807634
387.620770	2521.363343
388.005133	2521.943076
388.389435	2522.880730
388.773674	2520.733199
389.157851	2518.983918
389.541965	2520.531553
389.926018	2525.804600
390.310008	2520.899557
390.693936	2524.309897
391.077802	2524.314939
391.461606	2523.137829
391.845348	2524.866945
392.229027	2525.083715
392.612645	2524.529188
392.996200	2525.043385
393.379694	2527.440454
393.763125	2523.881399
394.146494	2526.782583
394.529801	2525.915505
394.913047	2527.223684
395.296230	2527.818541
395.679351	2527.450536
396.062410	2528.272244
396.445408	2526.880886
396.828343	2525.892820
397.211217	2524.030113
397.594028	2522.669002
397.976778	2525.391225
398.359466	2528.783922
398.742092	2526.207892
399.124656	2530.238294
399.507158	2531.669982
399.889598	2531.803573
400.271977	2528.685619
400.654294	2532.960518
401.036549	2529.116638
401.418742	2530.497914
401.800874	2532.552184
402.182944	2532.274921
402.564952	2532.680733
402.946898	2533.313398
403.328783	2533.840199
403.710606	2533.671320
404.092367	2533.041176
404.474067	2536.144006
404.855705	2536.915303
405.237282	2534.001516
405.618797	2535.617206
406.000250	2537.038811
406.381642	2538.173071
406.762972	2538.856147
407.144240	2534.571166
407.525447	2539.508976
407.906593	2540.492001
408.287677	2540.968390
408.668700	2539.889583
409.049661	2541.134748
409.430560	2541.064172
409.811399	2545.880995
410.192176	2540.983514
410.572891	2544.474513
410.953545	2547.410985
411.334138	2549.064483
411.714669	2549.989535
412.095139	2554.551779
412.475547	2556.732078
412.855894	2561.717780
413.236180	2564.024108
413.616405	2568.213306
413.996568	2575.659091
414.376670	2579.762590
414.756711	2584.067735
415.136691	2595.813624
415.516609	2605.114552
415.896466	2616.696603
416.276262	2625.213633
416.655997	2633.261835
417.035670	2648.987714
417.415283	2671.521672
417.794834	2680.804957
418.174324	2693.566638
418.553753	2705.798998
418.933121	2731.733214
419.312428	2751.308014
419.691674	2766.978441
420.070859	2796.121351
420.449983	2809.608958
420.829045	2838.275480
421.208047	2851.677387
421.586988	2884.286091
421.965867	2914.409506
422.344686	2958.222174
422.723444	2962.227370
423.102141	2961.204016
423.480777	3037.068340
423.859352	3030.892927
424.237866	3113.056173
424.616319	3136.187507
424.994712	3197.107331
425.373044	3205.218547
425.751314	3278.327881
426.129524	3269.662138
426.507673	3356.420395
426.885762	3416.629416
427.263789	3449.749797
427.641756	3446.515897
428.019662	3530.088145
428.397508	3574.135227
428.775292	3613.736011
429.153016	3688.445911
429.530679	3707.060372
429.908282	3782.380251
430.285824	3777.777678
430.663305	3941.098460
431.040726	3885.333216
431.418086	3926.264864
431.795385	4024.098537
432.172624	4077.557453
432.549802	4122.345584
432.926920	4180.492773
433.303977	4232.167121
433.680974	4301.510713
434.057910	4367.907750
434.434786	4415.826438
434.811601	4447.222744
435.188355	4639.078977
435.565050	4610.586376
435.941683	4645.135923
436.318257	4833.274306
436.694770	4871.120768
437.071222	4945.684475
437.447614	4947.196821
437.823946	4926.906177
438.200218	5086.884673
438.576429	5033.488772
438.952580	5147.847347
439.328670	5226.111260
439.704700	5192.882495
440.080670	5216.800249
440.456580	5475.807172
440.832429	5422.935550
441.208218	5330.327034
441.583947	5498.222662
441.959616	5532.714237
442.335224	5504.440926
442.710773	5652.005581
443.086261	5706.492893
443.461689	5556.211055
443.837057	5719.269697
444.212365	5874.383480
444.587612	5811.800076
444.962800	5972.635569
445.337927	5985.608978
445.712995	5652.350900
446.088002	6209.027875
446.462949	6067.933541
446.837837	6023.193301
447.212664	6198.902718
447.587431	6355.765782
447.962139	6885.825464
448.336786	7792.802138
448.711374	7544.931124
449.085901	6686.994795
449.460369	6621.348890
449.834776	6573.556231
450.209124	6964.643905
450.583412	7123.944366
450.957640	7273.505319
451.331808	7054.802421
451.705917	6625.354086
452.079965	6556.726338
452.453954	6771.161900
452.827883	6656.337018
453.201752	6755.652790
453.575562	6560.116514
453.949311	6768.437156
454.323001	6659.341546
454.696632	6741.219966
455.070202	6878.851028
455.443713	7035.280552
455.817164	7135.786037
456.190556	7219.814510
456.563888	7299.936088
456.937160	7339.882191
457.310373	7001.817373
457.683526	7033.019595
458.056619	6923.349293
458.429653	6916.707573
458.802628	6847.069074
459.175542	6958.365148
459.548398	7310.966133
459.921194	7478.607183
460.293930	7483.086249
460.666607	8005.105291
461.039224	8315.176582
461.411782	8439.473792
461.784280	8460.939025
462.156719	8351.104885
462.529099	8229.078715
462.901419	7816.112433
463.273680	7715.226342
463.645882	7728.915595
464.018024	7598.238805
464.390106	7759.142354
464.762130	8146.418916
465.134094	8615.846121
465.505999	9634.549887
465.877845	10855.794612
466.249631	11493.253557
466.621358	11117.745569
466.993026	10488.697789
467.364634	10235.316794
467.736184	9875.423780
468.107674	9535.324856
468.479105	9575.079395
468.850477	9337.515020
469.221790	9106.466337
469.593043	8778.166233
469.964238	8643.529617
470.335373	8656.230804
470.706449	8712.638795
471.077467	8701.276034
471.448425	10005.614098
471.819324	11069.017776
472.190164	11092.101219
472.560945	9844.791208
472.931667	9062.386487
473.302330	8932.032331
473.672934	8576.199966
474.043479	8933.769009
474.413965	8876.693065
474.784393	8757.263089
475.154761	8910.315040
475.525070	9003.195779
475.895321	8822.135177
476.265513	9004.292230
476.635645	9172.790277
477.005719	9170.824227
477.375734	9284.174571
477.745691	9522.086786
478.115588	9649.610334
478.485427	9896.505885
478.855207	10435.654768
479.224928	11247.509910
479.594591	11875.604912
479.964194	11687.484174
480.333739	11623.703495
480.703226	11533.499609
481.072653	11628.127108
481.442022	11863.377593
481.811333	12051.100080
482.180584	11858.278466
482.549777	11563.491954
482.918912	11390.870243
483.287988	11413.200034
483.657005	11422.357290
484.025964	11110.423293
484.394864	11240.260731
484.763706	11212.156298
485.132489	10964.406272
485.501213	10932.526015
485.869879	11009.441420
486.238487	10855.426608
486.607036	10957.958636
486.975527	10743.903682
487.343959	10932.105078
487.712333	10986.058028
488.080648	10910.317212
488.448905	10951.823552
488.817104	10889.645960
489.185244	11161.081848
489.553326	11317.332411
489.921350	11854.076664
490.289315	12908.522211
490.657222	13252.641455
491.025070	13153.650838
491.392861	13027.702650
491.760593	12657.739931
492.128267	12306.305973
492.495883	11979.654327
492.863440	11638.592543
493.230939	11303.118878
493.598380	11247.235167
493.965763	11104.885585
494.333088	11006.976295
494.700354	10930.290263
495.067563	10993.229069
495.434713	10825.890487
495.801805	10953.998810
496.168839	10874.101562
496.535815	10806.124123
496.902733	10808.551439
497.269593	10748.317212
497.636395	10841.964207
498.003139	10832.847280
498.369825	10702.233504
498.736453	10860.959274
499.103023	10785.614189
499.469535	10814.663838
499.835989	10802.058433
500.202385	10767.297156
500.568723	10614.928281
500.935003	10839.844401
501.301226	10643.758640
501.667390	10909.949207
502.033497	11003.694504
502.399546	10863.318534
502.765537	10770.760429
503.131470	10847.398570
503.497345	11014.858139
503.863163	10625.209715
504.228923	10935.896026
504.594625	11000.977322
504.960269	10749.201935
505.325856	10970.632097
505.691385	10762.664336
506.056856	10916.570763
506.422270	10943.218302
506.787625	10829.764614
507.152924	10945.456574
507.518164	10926.854717
507.883347	10853.140445
508.248472	10766.863617
508.613540	11009.033086
508.978550	10880.113138
509.343503	10864.251148
509.708398	10980.532923
510.073236	11091.161044
510.438016	11099.131108
510.802738	11040.663806
511.167403	11098.937024
511.532010	10998.081179
511.896561	11227.741025
512.261053	11308.361678
512.625488	11164.222487
512.989866	11148.733542
513.354186	11137.453960
513.718449	11041.228415
514.082655	11232.086500
514.446803	11127.091868
514.810894	11248.702143
515.174927	11113.642070
515.538904	11146.742286
515.902822	11291.065479
516.266684	11175.577686
516.630488	11119.724222
516.994235	11177.475680
517.357925	11239.154197
517.721558	11325.524286
518.085133	11340.665392
518.448651	11355.287259
518.812112	11227.310007
519.175516	11251.373954
519.538863	11370.740916
519.902152	11286.185642
520.265385	11439.139291
520.628560	11352.078564
520.991678	11332.193733
521.354739	11394.673794
521.717743	11326.918165
522.080690	11306.307408
522.443580	11455.732249
522.806413	11396.072714
523.169189	11432.376583
523.531908	11494.521407
523.894569	11315.073974
524.257174	11313.659931
524.619722	11436.585947
524.982213	11381.420600
525.344647	11429.961871
525.707025	11385.128369
526.069345	11474.818058
526.431608	11397.267467
526.793815	11501.410144
527.155964	11289.505242
527.518057	11348.249808
527.880093	11289.487598
528.242072	11360.484688
528.603995	11261.040367
528.965860	11186.574963
529.327669	11240.288457
529.689421	11194.008144
530.051117	11156.653194
530.412755	11270.215267
530.774337	11149.615743
531.135862	11137.360698
531.497331	11163.350367
531.858743	11010.744558
532.220098	11180.097080
532.581396	11045.054651
532.942638	11029.868175
533.303824	10991.699079
533.664953	11011.914106
534.026025	10922.773903
534.387040	11022.571105
534.747999	11026.009172
535.108902	11082.129817
535.469748	10837.333907
535.830537	10947.034456
536.191270	10918.685527
536.551947	10945.960690
536.912567	10948.924888
537.273131	10871.384380
537.633638	10850.745897
537.994089	10837.480100
538.354483	10780.484815
538.714821	10938.547673
539.075103	10941.713518
539.435328	10904.517364
539.795497	10731.494882
540.155609	10895.478575
540.515665	10976.255504
540.875665	10713.991996
541.235609	10784.096802
541.595496	10777.855853
541.955328	10934.171952
542.315102	10816.823972
542.674821	10765.237845
543.034483	10761.945972
543.394090	10772.325707
543.753640	10694.772597
544.113134	10914.027501
544.472571	10775.269741
544.831953	10912.651266
545.191278	10724.228058
545.550548	10760.184088
545.909761	10885.252595
546.268918	10864.974553
546.628019	10948.463623
546.987064	10815.364558
547.346053	10736.553680
547.704986	10829.752011
548.063863	10819.286576
548.422684	10807.218054
548.781449	10725.649664
549.140158	10825.507360
549.498811	10708.837416
549.857408	10562.691845
550.215949	10794.824377
550.574434	10646.881635
550.932864	10744.659855
551.291237	10802.108844
551.649555	10754.031360
552.007817	10767.254307
552.366022	10724.354087
552.724173	10716.852850
553.082267	10703.403052
553.440305	10831.274440
553.798288	10640.600357
554.156215	10791.817329
554.514086	10769.565676
554.871902	10625.076124
555.229661	10660.480148
555.587365	10627.127874
555.945014	10526.992914
556.302606	10652.747017
556.660143	10546.550071
557.017625	10697.651095
557.375050	10605.027455
557.732421	10733.939841
558.089735	10647.257201
558.446994	10643.352827
558.804197	10688.438387
559.161345	10682.719198
559.518437	10531.857628
559.875474	10625.466813
560.232455	10651.499332
560.589381	10604.924112
560.946251	10592.946330
561.303065	10707.378002
561.659825	10639.536674
562.016528	10569.774666
562.373177	10448.572725
562.729770	10572.597713
563.086307	10480.115225
563.442789	10566.681918
563.799216	10452.638416
564.155587	10498.187761
564.511904	10455.101019
564.868164	10448.275297
565.224370	10464.885899
565.580520	10385.018898
565.936615	10391.090968
566.292654	10264.275702
566.648638	10395.479293
567.004567	10352.455565
567.360441	10338.186579
567.716260	10247.876829
568.072023	10337.465694
568.427732	10289.287387
568.783385	10195.693325
569.138982	10271.161918
569.494525	10285.420822
569.850013	10162.484724
570.205445	10242.392053
570.560823	10138.105704
570.916145	10056.968333
571.271412	10127.778900
571.626625	10077.316950
571.981782	10052.297703
572.336884	10021.823928
572.691931	10029.988077
573.046923	9977.794491
573.401860	9932.817316
573.756743	9861.482469
574.111570	9909.307895
574.466342	9891.590760
574.821059	9918.399616
575.175722	9811.398605
575.530330	9822.579884
575.884882	9816.787599
576.239380	9750.503987
576.593823	9721.020799
576.948211	9737.167615
577.302544	9619.751580
577.656823	9629.402869
578.011047	9639.381833
578.365216	9613.397206
578.719330	9534.626656
579.073389	9540.925578
579.427394	9494.506633
579.781344	9468.912695
580.135239	9418.942258
580.489080	9425.886447
580.842866	9331.543773
581.196597	9335.990071
581.550273	9369.216316
581.903895	9343.725722
582.257463	9408.018077
582.610975	9286.503584
582.964434	9314.580291
583.317837	9230.057785
583.671186	9215.569509
584.024481	9212.207059
584.377721	9134.913568
584.730906	9106.254608
585.084037	9140.529413
585.437113	9075.075072
585.790135	9097.808155
586.143103	8997.196806
586.496016	8969.858629
586.848874	9022.145477
587.201679	9015.060135
587.554428	8901.863546
587.907124	8948.463972
588.259765	8921.118233
588.612352	8915.590608
588.964884	8802.913258
589.317362	8812.700658
589.669786	8810.971542
590.022155	8857.589612
590.374470	8877.136686
590.726731	8810.411974
591.078937	8669.163884
591.431090	8782.244527
591.783188	8652.351636
592.135232	8643.701016
592.487222	8650.834249
592.839157	8694.470477
593.191038	8628.423800
593.542866	8574.581756
593.894639	8474.645922
594.246358	8530.179273
594.598022	8542.961118
594.949633	8443.093340
595.301190	8412.541427
595.652692	8443.645347
596.004141	8554.117192
596.355535	8328.989343
596.706876	8311.640213
597.058162	8249.018999
597.409395	8321.437695
597.760573	8385.470431
598.111698	8298.727297
598.462768	8282.661140
598.813785	8250.017148
599.164748	8210.474337
599.515657	8199.184673
599.866511	8114.266437
600.217312	8242.122701
600.568060	8099.087522
600.918753	8199.605609
601.269392	8173.247937
601.619978	8088.480935
601.970510	8152.173393
602.320988	8147.843042
602.671412	8199.754323
603.021783	8136.994479
603.372100	8107.677648
603.722363	8115.362887
604.072572	8088.813651
604.422728	8100.894776
604.772830	8034.215434
605.122878	8043.181126
605.472872	8032.047738
605.822813	8067.895383
606.172701	8004.424735
606.522534	8082.736540
606.872314	8077.231600
607.222041	8052.345944
607.571714	8106.626568
607.921333	8065.785660
608.270899	8071.845127
608.620411	8156.710431
608.969870	8065.964621
609.319276	8056.489772
609.668627	8079.235458
610.017926	8106.752597
610.367171	8159.223447
610.716362	8131.487018
611.065500	8121.795400
611.414585	8150.424113
611.763616	8143.442114
612.112594	8124.719269
612.461518	8140.157803
612.810389	8197.924385
613.159207	8135.126731
613.507971	8091.646779
613.856682	8207.245478
614.205340	8158.169845
614.553945	8238.006599
614.902496	8134.330229
615.250994	8186.833846
615.599439	8171.410436
615.947830	8180.935696
616.296169	8160.100607
616.644454	8170.992020
616.992686	8170.772730
617.340864	8223.243580
617.688990	8131.103890
618.037063	8224.340031
618.385082	8173.288266
618.733048	8254.334896
619.080961	8192.381636
619.428821	8216.367446
619.776628	8215.497847
620.124382	8169.328439
620.472083	8150.298084
620.819731	8179.763628
621.167326	8071.860250
621.514868	8083.243176
621.862357	7968.259498
622.209793	7987.365471
622.557176	7919.521622
622.904506	7891.543218
623.251783	7825.758681
623.599007	7779.044829
623.946179	7784.837115
624.293297	7739.658294
624.640363	7655.415572
624.987376	7643.420147
625.334336	7588.466529
625.681243	7540.245372
626.028097	7525.053854
626.374899	7503.661718
626.721647	7495.679051
627.068343	7424.815551
627.414987	7397.989051
627.761577	7351.176897
628.108115	7392.766416
628.454600	7282.352544
628.801032	7339.423446
629.147412	7295.399050
629.493739	7287.277751
629.840014	7226.917495
630.186236	7281.044364
630.532405	7160.727145
630.878521	7213.445012
631.224585	7171.742067
631.570597	7095.212310
631.916556	7128.224306
632.262462	7124.077957
632.608316	7083.806699
632.954117	7068.506797
633.299866	7049.897378
633.645562	7039.754577
633.991206	6965.561395
634.336797	6900.767444
634.682336	6865.426435
635.027823	6830.158523
635.373257	6823.360527
635.718639	6755.143633
636.063968	6766.345077
636.409245	6656.962121
636.754470	6660.284241
637.099642	6620.507017
637.444762	6560.751700
637.789829	6572.210243
638.134845	6511.393762
638.479808	6492.499518
638.824719	6502.488564
639.169577	6426.916627
639.514383	6449.097704
639.859137	6379.227312
640.203839	6389.428086
640.548489	6371.398400
640.893086	6350.583475
641.237632	6321.130534
641.582125	6344.503844
641.926566	6313.145346
642.270955	6327.242933
642.615292	6320.051727
642.959576	6331.694272
643.303809	6324.548436
643.647990	6332.387431
643.992118	6324.641698
644.336195	6270.550117
644.680219	6292.390916
645.024192	6289.993847
645.368112	6378.617332
645.711981	6404.727988
646.055797	6476.304811
646.399562	6436.431805
646.743274	6565.944088
647.086935	6613.472087
647.430544	6614.271110
647.774101	6630.400281
648.117606	6637.626775
648.461059	6626.773171
648.804460	6587.749599
649.147810	6501.878585
649.491108	6469.824408
649.834354	6440.994049
650.177548	6360.980855
650.520690	6270.194716
650.863781	6250.564462
651.206820	6277.637979
651.549807	6190.481470
651.892742	6138.988604
652.235626	6141.693183
652.578458	6126.912520
652.921238	6037.870620
653.263967	6075.633903
653.606644	6019.788001
653.949269	6018.978896
654.291843	5962.243230
654.634365	6010.020766
654.976836	5962.946471
655.319255	5965.010823
655.661622	5940.861176
656.003938	5939.174910
656.346203	5898.540689
656.688416	5929.314413
657.030577	5881.244491
657.372687	5853.351786
657.714746	5840.491803
658.056753	5882.537547
658.398708	5822.925902
658.740612	5817.937681
659.082465	5863.403847
659.424266	5852.441858
659.766016	5848.721487
660.107715	5828.511501
660.449362	5843.975240
660.790958	5838.235887
661.132503	5823.298948
661.473996	5858.428228
661.815438	5846.271486
662.156829	5844.151681
662.498168	5835.770762
662.839456	5813.216640
663.180693	5854.362538
663.521879	5848.245098
663.863013	5837.245300
664.204097	5856.880594
664.545129	5897.597994
664.886110	5893.728908
665.227040	5927.572694
665.567918	5892.793774
665.908746	5921.689668
666.249522	5927.005565
666.590248	5913.245735
666.930922	5938.423778
667.271545	5953.247291
667.612118	5956.483712
667.952639	5925.067241
668.293109	5949.847033
668.633528	5904.340537
668.973896	5911.181383
669.314213	5900.826853
669.654480	5884.511158
669.994695	5875.033789
670.334859	5869.324682
670.674973	5857.883784
671.015035	5864.240679
671.355047	5860.641295
671.695008	5847.781311
672.034918	5821.509338
672.374777	5834.981822
672.714585	5820.617054
673.054342	5824.387837
673.394049	5816.460623
673.733705	5848.250139
674.073310	5835.090207
674.412864	5790.559174
674.752368	5782.311846
675.091820	5785.485253
675.431223	5726.037446
675.770574	5724.217589
676.109875	5677.702863
676.449125	5682.118914
676.788324	5651.864429
677.127473	5594.826294
677.466571	5585.006126
677.805619	5573.015742
678.144616	5556.258946
678.483562	5534.829001
678.822458	5506.812789
679.161303	5497.826932
679.500098	5487.409387
679.838842	5473.921780
680.177535	5483.658769
680.516179	5494.373742
680.854771	5499.273743
681.193314	5586.367237
681.531805	5695.515780
681.870247	5850.793401
682.208638	5952.281910
682.546978	5961.124094
682.885268	5936.750115
683.223508	5857.543506
683.561697	5797.581501
683.899836	5766.278457
684.237925	5724.736828
684.575963	5687.248288
684.913951	5647.362678
685.251889	5706.041709
685.589776	5677.768398
685.927614	5655.229399
686.265401	5722.604420
686.603137	5707.533891
686.940824	5786.425428
687.278460	5804.266071
687.616046	5813.990457
687.953582	5879.444799
688.291068	5861.793198
688.628504	5926.687972
688.965889	5897.045987
689.303224	5835.498540
689.640510	5785.639008
689.977745	5712.827102
690.314930	5614.685919
690.652065	5556.369852
690.989150	5463.872240
691.326185	5388.328029
691.663170	5337.485472
692.000105	5258.798102
692.336990	5181.509652
692.673825	5158.494264
693.010610	5088.326443
693.347345	5017.069734
693.684030	5005.580944
694.020665	4960.568481
694.357251	4872.426427
694.693786	4881.011512
695.030272	4849.824414
695.366707	4814.569104
695.703093	4781.809166
696.039429	4800.728616
696.375716	4787.959374
696.711952	4759.005507
697.048139	4747.539402
697.384276	4724.856730
697.720363	4738.296447
698.056400	4747.060492
698.392388	4697.959654
698.728326	4682.274104
699.064214	4660.186288
699.400053	4654.915762
699.735842	4618.972335
700.071581	4592.823870
700.407270	4566.816557
700.742910	4549.180081
701.078501	4494.889374
701.414042	4491.078262
701.749533	4465.295281
702.084974	4399.714910
702.420366	4450.799443
702.755709	4397.393459
703.091002	4338.787525
703.426246	4385.082961
703.761440	4344.867156
704.096584	4311.691323
704.431679	4331.182944
704.766725	4314.917661
705.101721	4303.552380
705.436668	4334.696628
705.771565	4280.083288
706.106413	4302.841577
706.441212	4337.484387
706.775961	4348.209441
707.110661	4328.919466
707.445311	4354.657077
707.779913	4379.477198
708.114465	4391.694434
708.448967	4412.088422
708.783421	4474.785253
709.117825	4517.544320
709.452180	4523.646636
709.786485	4565.057195
710.120742	4654.383920
710.454949	4637.528822
710.789107	4702.978123
711.123216	4781.713384
711.457275	4767.015900
711.791286	4844.770657
712.125247	4861.230024
712.459159	4762.194036
712.793023	4838.040717
713.126837	4793.749139
713.460602	4786.923417
713.794318	4708.286458
714.127985	4717.123600
714.461602	4632.785097
714.795171	4605.686374
715.128691	4538.815468
715.462162	4482.001664
715.795584	4429.472841
716.128957	4413.555398
716.462281	4360.409034
716.795556	4330.701514
717.128782	4297.855876
717.461960	4230.982450
717.795088	4240.873194
718.128167	4201.695867
718.461198	4133.983088
718.794180	4133.675578
719.127113	4113.344604
719.459997	4089.941048
719.792833	4047.136610
720.125619	4041.956825
720.458357	4005.282430
720.791046	4009.297709
721.123686	3983.156806
721.456278	3944.208852
721.788821	3960.380873
722.121315	3931.527829
722.453761	3910.869181
722.786158	3921.132970
723.118506	3945.045683
723.450805	3895.700349
723.783056	3916.074172
724.115259	3931.868107
724.447412	3933.738375
724.779518	3930.431378
725.111574	3934.580248
725.443582	3964.444043
725.775542	3946.500056
726.107453	3998.933097
726.439315	3999.177593
726.771129	4013.204604
727.102895	4048.391857
727.434612	4096.355916
727.766281	4114.536837
728.097901	4111.721353
728.429473	4118.350470
728.760996	4120.220738
729.092471	4113.659676
729.423897	4102.070064
729.755276	4106.299592
730.086606	4103.441257
730.417887	4144.531703
730.749120	4209.136610
731.080305	4272.839150
731.411442	4299.000218
731.742530	4269.738841
732.073570	4274.762350
732.404562	4329.620187
732.735506	4318.232220
733.066401	4282.387096
733.397249	4218.495512
733.728048	4142.623626
734.058798	4060.205802
734.389501	3990.405985
734.720156	3925.359977
735.050762	3880.307185
735.381320	3873.710836
735.711831	3821.991118
736.042293	3796.066984
736.372707	3816.317299
736.703073	3788.112043
737.033391	3780.046197
737.363661	3798.030513
737.693883	3821.855007
738.024056	3831.334896
738.354182	3826.155111
738.684260	3890.986870
739.014290	3911.242226
739.344272	3906.427924
739.674207	3947.500725
740.004093	3953.809729
740.333931	3949.912917
740.663722	3943.697174
740.993464	3946.618523
741.323159	3920.563319
741.652806	3892.171541
741.982405	3865.990308
742.311956	3831.851615
742.641460	3826.918846
742.970915	3798.776604
743.300323	3759.856376
743.629683	3723.784400
743.958996	3715.282494
744.288260	3690.931200
744.617477	3658.685459
744.946647	3644.822286
745.275768	3619.054428
745.604842	3618.625930
745.933869	3567.208682
746.262847	3559.790624
746.591778	3596.966613
746.920662	3567.133064
747.249498	3537.327242
747.578286	3583.862133
747.907027	3603.661265
748.235720	3596.346551
748.564365	3624.231693
748.892963	3624.186323
749.221514	3608.352059
749.550017	3582.422884
749.878473	3581.079417
750.206881	3552.042370
750.535242	3546.550033
750.863555	3549.615055
751.191821	3544.493242
751.520039	3524.873072
751.848210	3505.419259
752.176334	3540.150288
752.504411	3544.657080
752.832440	3505.091584
753.160421	3486.830004
753.488356	3495.213443
753.816243	3508.917820
754.144082	3463.766725
754.471875	3452.192236
754.799620	3470.635298
755.127318	3463.781849
755.454969	3461.979636
755.782572	3467.794607
756.110129	3444.295269
756.437638	3433.209771
756.765100	3446.397430
757.092515	3457.147690
757.419882	3463.000470
757.747203	3439.191100
758.074477	3437.343518
758.401703	3451.751135
758.728882	3476.450268
759.056014	3482.565188
759.383099	3484.992504
759.710138	3481.730877
760.037129	3500.869618
760.364073	3528.611087
760.690970	3512.575177
761.017820	3489.506857
761.344623	3512.943181
761.671379	3554.386507
761.998088	3606.597737
762.324751	3732.566090
762.651366	3979.872494
762.977935	4451.265749
763.304456	4897.196136
763.630931	4992.113502
763.957359	4628.164879
764.283740	4286.924134
764.610074	4094.639403
764.936362	3901.175042
765.262602	3742.484560
765.588796	3626.795120
765.914943	3541.329918
766.241044	3455.274902
766.567097	3426.119388
766.893104	3379.319837
767.219064	3347.255578
767.544978	3321.548214
767.870845	3263.756426
768.196665	3244.098447
768.522438	3254.397524
768.848165	3248.756473
769.173846	3215.308417
769.499479	3198.591951
769.825066	3179.659898
770.150607	3165.282527
770.476101	3178.606296
770.801548	3174.412056
771.126949	3130.606950
771.452303	3110.084413
771.777611	3117.441977
772.102872	3124.118985
772.428087	3097.884820
772.753256	3088.720003
773.078378	3081.337233
773.403453	3048.647871
773.728482	3033.784029
774.053465	3058.203378
774.378401	3044.173847
774.703291	3013.513549
775.028135	3012.684279
775.352932	3007.038187
775.677683	2997.906137
776.002388	2996.045951
776.327046	2993.674088
776.651658	2984.947851
776.976224	2971.016622
777.300743	2973.038125
777.625216	2964.543781
777.949643	2958.466670
778.274024	2962.260138
778.598359	2948.326389
778.922647	2953.183540
779.246889	2957.145887
779.571086	2939.980758
779.895236	2934.090170
780.219339	2944.162396
780.543397	2956.354426
780.867409	2962.018163
781.191374	2951.303190
781.515294	2945.735236
781.839167	2948.283539
782.162995	2939.857250
782.486776	2951.865279
782.810511	2944.820266
783.134201	2934.317022
783.457844	2940.242898
783.781441	2929.986671
784.104993	2911.462951
784.428498	2913.502098
784.751958	2925.021134
785.075372	2921.038623
785.398739	2904.551529
785.722061	2922.190527
786.045337	2930.599171
786.368568	2918.109713
786.691752	2909.721233
787.014891	2956.220836
787.337983	2990.304077
787.661030	3013.924403
787.984031	3080.981832
788.306987	3130.180972
788.629897	3119.806278
788.952760	3104.274483
789.275579	3087.507605
789.598351	3030.550128
789.921078	2985.280567
790.243759	2975.389823
790.566395	2957.375260
790.888984	2935.491611
791.211529	2921.270516
791.534027	2907.941705
791.856480	2898.552556
792.178888	2887.162069
792.501249	2876.857951
792.823566	2870.501056
793.145836	2869.860829
793.468062	2866.700026
793.790241	2863.650128
794.112375	2871.388299
794.434464	2882.410782
794.756507	2886.632748
795.078505	2894.844788
795.400457	2906.063875
795.722364	2944.701799
796.044226	2968.082671
796.366042	2970.051241
796.687812	2962.280303
797.009538	2978.094402
797.331218	2966.288020
797.652852	2948.800257
797.974442	2932.013215
798.295986	2928.333173
798.617484	2926.384767
798.938938	2909.660739
799.260346	2893.849160
799.581709	2890.053171
799.903026	2884.248282
800.224299	2877.954402
800.545526	2869.485263
800.866708	2851.594208
801.187845	2843.447703
801.508936	2843.858557
801.829983	2852.279805
802.150984	2837.705829
802.471940	2825.576813
802.792851	2824.261072
803.113717	2824.755105
803.434538	2832.836075
803.755314	2821.306956
804.076045	2816.417037
804.396731	2816.969043
804.717372	2814.551810
805.037967	2814.214052
805.358518	2817.929383
805.679024	2831.976558
805.999485	2827.689057
806.319901	2831.956393
806.640272	2822.471462
806.960598	2829.075374
807.280879	2835.749862
807.601115	2843.866119
807.921306	2830.786846
808.241453	2825.904488
808.561554	2833.458657
808.881611	2831.686692
809.201623	2827.905826
809.521590	2828.750219
809.841513	2822.602532
810.161390	2829.997905
810.481223	2819.940803
810.801011	2811.315389
811.120755	2810.039977
811.440453	2812.376552
811.760107	2811.335553
812.079716	2807.554688
812.399281	2801.230561
812.718801	2793.729324
813.038276	2788.499127
813.357707	2794.545991
813.677093	2802.944553
813.996434	2795.894499
814.315731	2793.411731
814.634983	2786.069290
814.954191	2788.420989
815.273354	2801.898513
815.592473	2809.200625
815.911547	2814.841676
816.230577	2818.282263
816.549562	2829.206444
816.868502	2826.388439
817.187399	2838.018381
817.506250	2853.189733
817.825058	2845.433918
818.143821	2859.871783
818.462539	2877.488095
818.781213	2901.214285
819.099843	2937.167795
819.418429	2996.698780
819.736970	3059.498954
820.055466	3132.890593
820.373919	3237.106366
820.692327	3375.380175
821.010691	3543.013664
821.329011	3988.697034
821.647286	4888.626175
821.965517	6267.906032
822.283704	7010.664598
822.601847	6992.042576
822.919945	6354.334094
823.237999	5847.995560
823.556010	5267.413434
823.873976	4714.524886
824.191897	4303.653203
824.509775	4009.877442
824.827609	3738.030700
825.145398	3615.742390
825.463144	3605.639918
825.780845	3697.903116
826.098502	3800.909012
826.416116	4082.903597
826.733685	4399.029313
827.051210	4464.556752
827.368692	4350.818238
827.686129	4081.739090
828.003522	3758.553238
828.320872	3497.744102
828.638177	3304.282262
828.955439	3166.880572
829.272656	3086.615321
829.589830	3015.966070
829.906960	2966.817341
830.224046	2922.303953
830.541088	2886.544528
830.858086	2875.073382
831.175041	2856.106041
831.491952	2855.370032
831.808819	2868.419059
832.125642	2894.348234
832.442421	2939.121242
832.759157	3018.834487
833.075849	3193.626414
833.392497	3478.439004
833.709101	3681.471475
834.025662	3634.324083
834.342179	3471.739310
834.658653	3296.203813
834.975083	3146.466420
835.291469	3047.382541
835.607811	2964.601754
835.924110	2907.266191
836.240366	2857.257944
836.556578	2814.640030
836.872746	2791.634724
837.188871	2766.600354
837.504952	2750.549320
837.820990	2745.624113
838.136984	2729.807493
838.452935	2723.851370
838.768842	2720.438508
839.084706	2738.717732
839.400526	2816.480051
839.716303	2949.500978
840.032037	3029.430992
840.347727	3013.233765
840.663373	2954.990794
840.978977	2878.781151
841.294537	2809.061993
841.610054	2760.896289
841.925527	2737.165057
842.240957	2719.210987
842.556344	2694.395908
842.871687	2677.409740
843.186987	2669.495128
843.502244	2667.337514
843.817458	2662.805517
844.132629	2649.557365
844.447756	2639.923720
844.762840	2629.808645
845.077881	2635.235447
845.392879	2634.507000
845.707833	2628.452574
846.022745	2624.971657
846.337613	2624.326390
846.652438	2625.052316
846.967221	2625.755557
847.281960	2623.469394
847.596656	2621.510905
847.911309	2620.159876
848.225919	2616.041253
848.540485	2611.715943
848.855009	2615.637961
849.169490	2612.525049
849.483928	2616.295832
849.798323	2612.368773
850.112675	2611.836931
850.426984	2613.563526
850.741251	2610.218721
851.055474	2609.089502
851.369654	2612.562857
851.683792	2614.133177
851.997887	2612.487240
852.311938	2607.816611
852.625947	2612.719133
852.939914	2615.360698
853.253837	2613.291304
853.567718	2611.834411
853.881555	2611.244596
854.195350	2612.517487
854.509103	2612.847682
854.822812	2609.134873
855.136479	2610.175871
855.450103	2613.606376
855.763685	2611.771396
856.077224	2612.489761
856.390720	2609.308792
856.704173	2611.531941
857.017584	2616.200050
857.330953	2618.108127
857.644278	2619.738940
857.957561	2619.761625
858.270802	2615.312807
858.584000	2614.556634
858.897155	2617.856069
859.210268	2620.621142
859.523339	2614.687704
859.836367	2609.074379
860.149352	2609.089502
860.462295	2611.794081
860.775195	2607.695623
861.088054	2607.967846
861.400869	2606.301744
861.713642	2603.934923
862.026373	2605.613627
862.339062	2608.441714
862.651708	2613.218207
862.964312	2616.545369
863.276873	2614.753239
863.589392	2615.045626
863.901869	2619.600308
864.214303	2623.887809
864.526696	2629.848974
864.839045	2628.344189
865.151353	2630.688326
865.463619	2631.492390
865.775842	2628.276134
866.088023	2632.606485
866.400162	2633.418111
866.712258	2634.093625
867.024313	2628.248407
867.336325	2628.230763
867.648296	2629.851494
867.960224	2632.387195
868.272110	2630.653038
868.583954	2624.565845
868.895755	2627.061216
869.207515	2631.283182
869.519233	2637.161167
869.830909	2634.060858
870.142542	2629.637245
870.454134	2632.714870
870.765684	2638.902886
871.077191	2639.341467
871.388657	2646.028557
871.700081	2640.548823
872.011463	2640.526138
872.322803	2642.250212
872.634101	2646.391520
872.945357	2652.899650
873.256571	2658.543222
873.567744	2655.407624
873.878874	2655.470638
874.189963	2656.320073
874.501010	2659.664878
874.812015	2664.239725
875.122979	2664.131341
875.433900	2655.132881
875.744780	2656.463746
876.055618	2660.085815
876.366415	2668.068482
876.677169	2665.169818
876.987882	2658.938952
877.298554	2659.818633
877.609183	2668.905313
877.919771	2675.547033
878.230317	2684.454752
878.540822	2693.702749
878.851285	2706.852599
879.161707	2731.581979
879.472087	2769.352824
879.782425	2817.856286
880.092722	2929.137237
880.402977	3120.295270
880.713191	3380.169271
881.023363	3674.658355
881.333494	3866.461656
881.643583	4040.673851
881.953631	4038.430537
882.263637	3858.105944
882.573602	3635.072695
882.883526	3507.476050
883.193408	3394.239132
883.503248	3290.235087
883.813048	3177.356090
884.122806	3062.165725
884.432522	2976.897128
884.742197	2911.989752
885.051831	2873.024153
885.361424	2836.390088
885.670975	2800.945735
885.980485	2772.017074
886.289954	2754.962851
886.599382	2740.726632
886.908768	2729.207596
887.218113	2710.867878
887.527417	2695.774663
887.836680	2688.739733
888.145901	2683.199505
888.455082	2674.899245
888.764221	2665.593275
889.073319	2658.797800
889.382376	2654.127171
889.691392	2657.247645
890.000366	2657.978612
890.309300	2654.679177
890.618193	2660.584889
890.927044	2660.784014
891.235855	2660.226967
891.544625	2660.428613
891.853353	2658.379384
892.162041	2667.571928
892.470687	2687.426512
892.779293	2696.787935
893.087858	2710.363763
893.396381	2732.146588
893.704864	2774.293155
894.013306	2842.106757
894.321707	2936.633432
894.630068	2984.007676
894.938387	3006.314781
895.246665	2999.617608
895.554903	2954.516926
895.863100	2911.692324
896.171256	2854.495392
896.479371	2793.986422
896.787446	2755.759353
897.095480	2735.428379
897.403473	2730.546022
897.711425	2714.608414
898.019336	2697.478573
898.327207	2681.540965
898.635038	2680.094154
898.942827	2676.600635
899.250576	2669.434634
899.558284	2654.802685
899.865952	2651.805719
900.173579	2649.080976
900.481165	2648.902015
900.788711	2640.316930
901.096216	2634.509521
901.403681	2631.812503
901.711105	2629.917029
902.018489	2627.419138
902.325832	2630.806793
902.633135	2634.733852
902.940397	2647.293887
903.247619	2684.968950
903.554800	2756.402100
903.861941	2882.849362
904.169041	3008.401819
904.476101	3070.642425
904.783121	3066.483473
905.090100	3008.994155
905.397039	2933.606219
905.703938	2858.750126
906.010796	2795.962555
906.317614	2745.603948
906.624391	2708.387630
906.931129	2681.780420
907.237826	2656.826709
907.544483	2637.708133
907.851099	2627.512399
908.157675	2616.515122
908.464211	2609.341560
908.770707	2599.826382
909.077163	2595.097780
909.383578	2588.282140
909.689954	2588.478745
909.996289	2587.372212
910.302584	2592.620053
910.608839	2583.795513
910.915054	2586.774835
911.221229	2590.593509
911.527363	2588.879517
911.833458	2590.585947
912.139513	2588.730802
912.445527	2592.652820
912.751502	2597.996443
913.057436	2604.328132
913.363331	2606.866353
913.669186	2617.724999
913.975000	2634.811990
914.280775	2648.423105
914.586510	2671.191477
914.892205	2703.492670
915.197859	2769.988010
915.503475	2857.210053
915.809050	2923.866710
916.114585	2937.276179
916.420081	2949.246399
916.725536	2960.677216
917.030952	2936.056220
917.336328	2888.147615
917.641665	2839.452589
917.946961	2788.705814
918.252218	2753.490834
918.557435	2727.722976
918.862612	2704.546271
919.167750	2687.885257
919.472848	2671.519152
919.777906	2656.607418
920.082925	2645.055614
920.387904	2630.980713
920.692843	2628.906278
920.997743	2624.850670
921.302603	2617.961933
921.607423	2610.677466
921.912204	2604.741507
922.216946	2601.699171
922.521647	2596.405959
922.826310	2595.037286
923.130932	2589.141657
923.435516	2583.072107
923.740059	2582.537745
924.044564	2581.423650
924.349028	2577.915007
924.653454	2570.471743
924.957840	2568.964438
925.262186	2566.267421
925.566493	2567.114335
925.870761	2562.136195
926.174989	2563.749365
926.479178	2561.518654
926.783328	2560.003787
927.087438	2560.026473
927.391509	2560.709549
927.695541	2556.792572
927.999533	2555.776780
928.303486	2555.290308
928.607400	2554.438353
928.911275	2555.885165
929.215110	2555.209650
929.518906	2555.305432
929.822663	2556.495144
930.126381	2554.730740
930.430060	2553.901471
930.733699	2552.835267
931.037299	2557.775597
931.340861	2556.527912
931.644383	2556.946327
931.947866	2554.168652
932.251309	2555.502037
932.554714	2553.069680
932.858080	2558.186451
933.161407	2554.105637
933.464694	2552.285781
933.767943	2553.407438
934.071153	2552.197561
934.374323	2552.492468
934.677455	2551.776624
934.980548	2550.329813
935.283602	2553.566234
935.586617	2552.363919
935.889593	2548.988866
936.192530	2549.573640
936.495428	2551.368291
936.798287	2552.104299
937.101108	2554.556821
937.403890	2556.449774
937.706632	2559.993705
938.009336	2565.574262
938.312002	2568.389747
938.614628	2570.481826
938.917216	2571.202711
939.219765	2574.572722
939.522275	2576.730336
939.824747	2574.739080
940.127179	2568.495611
940.429573	2564.828172
940.731929	2569.539130
941.034246	2564.671896
941.336524	2566.191804
941.638763	2565.702812
941.940964	2566.461505
942.243126	2561.881617
942.545250	2562.040413
942.847335	2560.371792
943.149381	2557.647048
943.451389	2559.358520
943.753359	2555.862479
944.055290	2558.975392
944.357182	2554.851728
944.659036	2556.981616
944.960851	2554.995401
945.262628	2556.749722
945.564367	2557.642007
945.866067	2556.785011
946.167729	2556.573282
946.469352	2556.361554
946.770937	2555.827191
947.072484	2553.848538
947.373992	2556.447253
947.675462	2553.326779
947.976893	2557.263920
948.278286	2553.656975
948.579641	2552.225287
948.880958	2554.982798
949.182236	2553.125133
949.483476	2552.517674
949.784678	2550.697817
950.085841	2552.926007
950.386967	2552.923487
950.688054	2553.377191
950.989103	2555.002963
951.290114	2554.952551
951.591087	2556.583364
951.892021	2554.738302
952.192917	2557.422717
952.493776	2560.618808
952.794596	2562.947821
953.095378	2561.470763
953.396122	2560.023952
953.696828	2554.501368
953.997496	2557.805844
954.298126	2552.492468
954.598718	2553.503219
954.899272	2552.177396
955.199788	2556.139743
955.500266	2552.368960
955.800706	2547.968032
956.101108	2542.742877
956.401472	2545.732281
956.701798	2542.558874
957.002087	2540.602907
957.302337	2545.044163
957.602550	2544.114070
957.902724	2543.602393
958.202861	2541.351518
958.502960	2542.246323
958.803022	2544.250182
959.103045	2541.898483
959.403031	2540.088709
959.702979	2542.571477
960.002889	2540.786909
960.302762	2540.355890
960.602596	2539.844213
960.902393	2539.556867
961.202153	2539.939995
961.501875	2539.685417
961.801559	2537.391692
962.101205	2537.157278
962.400814	2537.177443
962.700385	2534.608975
962.999918	2537.996630
963.299414	2536.844727
963.598873	2536.670807
963.898293	2536.403626
964.197677	2537.769778
964.497022	2536.007895
964.796331	2537.512679
965.095601	2536.534696
965.394835	2537.931095
965.694030	2535.350024
965.993189	2537.096784
966.292309	2535.160981
966.591393	2537.537885
966.890439	2536.663245
967.189447	2538.795653
967.488419	2535.438245
967.787353	2537.341280
968.086249	2533.792308
968.385108	2538.450334
968.683930	2535.801208
968.982714	2538.087371
969.281462	2535.130734
969.580172	2540.315561
969.878844	2537.469830
970.177480	2538.563760
970.476078	2538.231044
970.774639	2536.005374
971.073162	2536.993441
971.371649	2538.246167
971.670098	2531.788449
971.968510	2535.208872
972.266885	2532.852133
972.565223	2539.811446
972.863524	2537.936136
973.161788	2536.794315
973.460014	2537.535365
973.758204	2536.743903
974.056356	2535.884387
974.354471	2536.902700
974.652550	2539.196425
974.950591	2537.154758
975.248595	2536.620395
975.546563	2534.954294
975.844493	2537.215251
976.142386	2537.331198
976.440243	2536.958153
976.738062	2537.016126
977.035845	2538.924202
977.333590	2535.017308
977.631299	2534.145189
977.928971	2534.344314
978.226606	2536.136444
978.524204	2533.603265
978.821765	2535.191228
979.119290	2531.821217
979.416777	2534.863553
979.714228	2538.775488
980.011642	2537.714326
980.309020	2538.888914
980.606360	2535.239119
980.903664	2538.682227
981.200931	2535.259284
981.498162	2538.478060
981.795356	2540.938143
982.092513	2543.511652
982.389633	2543.403268
982.686717	2550.007179
982.983764	2550.750749
983.280775	2549.354350
983.577749	2551.438867
983.874686	2550.864175
984.171587	2547.020296
984.468451	2544.323278
984.765279	2541.558205
985.062070	2541.021322
985.358824	2537.338760
985.655543	2538.074768
985.952224	2537.389171
986.248869	2537.671476
986.545478	2531.299457
986.842050	2534.190559
987.138586	2530.399611
987.435086	2532.695857
987.731549	2530.548325
988.027975	2533.610826
988.324366	2530.853315
988.620719	2534.556043
988.917037	2533.144520
989.213318	2534.762730
989.509563	2534.712318
989.805772	2533.308357
990.101944	2529.227543
990.398080	2535.304654
990.694180	2534.843388
990.990244	2533.424304
991.286271	2534.586290
991.582262	2532.821886
991.878217	2530.601258
992.174136	2535.574356
992.470019	2531.543953
992.765865	2533.280631
993.061676	2532.751310
993.357450	2530.439941
993.653188	2532.889941
993.948890	2534.349355
994.244556	2533.671320
994.540186	2533.462112
994.835780	2534.427493
995.131337	2536.426311
995.426859	2533.081505
995.722345	2534.130065
996.017795	2533.951104
996.313208	2534.714839
996.608586	2537.520241
996.903928	2538.520910
997.199234	2537.749614
997.494504	2536.186856
997.789738	2536.756506
998.084936	2535.181146
998.380099	2530.876000
998.675225	2533.709129
998.970316	2536.212062
999.265371	2533.560415
999.560390	2532.524458
999.855373	2533.855322
1000.150320	2533.746938
1000.445232	2532.857174
1000.740108	2534.046886
1001.034948	2533.585621
1001.329752	2533.394057
1001.624521	2534.200641
1001.919254	2527.768129
1002.213951	2532.267359
1002.508613	2527.407687
1002.803239	2530.795342
1003.097829	2528.070598
1003.392384	2533.878007
1003.686903	2531.833820
1003.981386	2533.610826
1004.275834	2531.007070
1004.570246	2531.967410
1004.864623	2531.170908
1005.158964	2534.729963
1005.453270	2531.463295
1005.747540	2531.916999
1006.041775	2530.034128
1006.335974	2533.504962
1006.630138	2534.803059
1006.924266	2531.894313
1007.218359	2534.127545
1007.512416	2531.390198
1007.806438	2531.664941
1008.100425	2533.484797
1008.394376	2530.497914
1008.688292	2528.544467
1008.982172	2532.456402
1009.276017	2532.844571
1009.569827	2532.037986
1009.863602	2530.878521
1010.157341	2530.548325
1010.451045	2533.104190
1010.744714	2528.504138
1011.038347	2528.373068
1011.331945	2530.160157
1011.625508	2530.349200
1011.919036	2528.562111
1012.212528	2527.735362
1012.505986	2531.317101
1012.799408	2529.837523
1013.092795	2530.863398
1013.386147	2530.502955
1013.679464	2527.006915
1013.972745	2528.199148
1014.265992	2524.985412
1014.559204	2532.819365
1014.852380	2532.166536
1015.145521	2531.405322
1015.438628	2531.299457
1015.731699	2532.244674
1016.024736	2529.640918
1016.317737	2530.306350
1016.610703	2529.129241
1016.903635	2526.069260
1017.196531	2527.881555
1017.489393	2527.067409
1017.782219	2527.770650
1018.075011	2528.637728
1018.367768	2527.027079
1018.660490	2530.916330
1018.953177	2530.916330
1019.245829	2530.916330
