Dividing Wavelength (nm)	Counts (n)	Blue Motor Position (mm): 6.000000	Red Motor Position (mm): 0.000000	
326.493990	2158.548980
326.888308	2158.548980
327.282561	2158.548980
327.676750	2119.658999
328.070874	2113.450818
328.464933	2112.624069
328.858929	2117.249327
329.252859	2124.866511
329.646726	2130.744496
330.040528	2144.511887
330.434265	2160.736841
330.827938	2177.319717
331.221547	2192.244053
331.615091	2209.570498
332.008571	2229.702346
332.401986	2248.173134
332.795338	2265.305495
333.188625	2283.191509
333.581847	2300.946453
333.975006	2320.611994
334.368100	2339.468430
334.761129	2356.174814
335.154095	2372.344315
335.546996	2389.322921
335.939833	2404.572411
336.332606	2421.414906
336.725315	2434.108532
337.117960	2446.035902
337.510540	2457.607870
337.903056	2472.254943
338.295508	2477.548154
338.687896	2487.673312
339.080220	2497.208654
339.472480	2501.037411
339.864676	2504.805673
340.256807	2511.880933
340.648875	2517.053157
341.040879	2520.841584
341.432818	2523.284023
341.824694	2524.274609
342.216506	2527.006915
342.608253	2527.024559
342.999937	2526.623787
343.391557	2528.408356
343.783113	2529.051103
344.174605	2523.836029
344.566033	2523.911646
344.957397	2523.147912
345.348697	2523.228570
345.739934	2522.517767
346.131106	2519.939217
346.522215	2517.123733
346.913260	2516.523835
347.304241	2515.077024
347.695159	2511.270953
348.086012	2508.132835
348.476802	2506.711229
348.867528	2502.587566
349.258191	2501.234016
349.648789	2502.116218
350.039324	2498.743686
350.429796	2501.418018
350.820203	2495.754282
351.210548	2498.678151
351.600828	2497.564056
351.991045	2494.504075
352.381198	2493.687408
352.771288	2493.732779
353.161314	2492.885865
353.551276	2493.158087
353.941175	2491.532315
354.331010	2493.100114
354.720782	2493.573982
355.110490	2492.129692
355.500135	2489.548621
355.889717	2491.028200
356.279235	2492.059116
356.668689	2492.374188
357.058080	2490.700525
357.447408	2492.359064
357.836672	2492.711945
358.225873	2491.925525
358.615010	2493.820999
359.004084	2493.800834
359.393095	2493.460557
359.782043	2496.127327
360.170927	2495.706391
360.559748	2494.478870
360.948505	2496.943994
361.337199	2498.390805
361.725830	2495.381236
362.114398	2496.636483
362.502903	2498.473984
362.891344	2500.288799
363.279722	2499.033552
363.668037	2498.983141
364.056289	2497.344766
364.444478	2501.380209
364.832603	2500.719818
365.220665	2500.389622
365.608665	2500.734942
365.996601	2500.782833
366.384474	2502.040600
366.772284	2500.992040
367.160031	2504.984634
367.547715	2500.765188
367.935336	2503.016064
368.322893	2504.009171
368.710388	2499.918275
369.097820	2503.250477
369.485189	2501.143275
369.872495	2508.848679
370.259738	2504.218379
370.646918	2507.212824
371.034035	2505.985303
371.421090	2506.554954
371.808081	2508.994872
372.195010	2507.343894
372.581875	2506.864985
372.968678	2505.965139
373.355418	2509.685510
373.742096	2507.883298
374.128710	2507.222907
374.515262	2508.712568
374.901751	2509.453617
375.288177	2506.759120
375.674540	2511.661643
376.060841	2510.136693
376.447079	2512.392610
376.833254	2509.806498
377.219367	2510.797085
377.605417	2509.216683
377.991404	2510.940758
378.377329	2512.185923
378.763191	2510.106447
379.148991	2510.464368
379.534727	2513.201715
379.920402	2509.181395
380.306013	2513.355470
380.691563	2508.631909
381.077049	2511.807836
381.462474	2512.541324
381.847835	2513.128618
382.233134	2513.519308
382.618371	2509.564523
383.003545	2515.182888
383.388657	2511.026457
383.773706	2514.507374
384.158693	2513.655419
384.543618	2517.791686
384.928480	2512.982425
385.313280	2512.264060
385.698017	2512.682476
386.082692	2513.892353
386.467305	2512.924452
386.851856	2516.198681
387.236344	2516.123064
387.620770	2511.449914
388.005133	2513.173989
388.389435	2513.950326
388.773674	2513.385717
389.157851	2515.331603
389.541965	2514.774555
389.926018	2517.640451
390.310008	2513.579802
390.693936	2519.848476
391.077802	2517.272447
391.461606	2518.820081
391.845348	2519.319155
392.229027	2519.414937
392.612645	2519.795544
392.996200	2518.288239
393.379694	2518.104237
393.763125	2520.420647
394.146494	2517.731192
394.529801	2518.351254
394.913047	2518.464680
395.296230	2519.742612
395.679351	2519.445184
396.062410	2518.941069
396.445408	2518.469721
396.828343	2523.702438
397.211217	2523.652027
397.594028	2519.946779
397.976778	2522.358971
398.359466	2520.239166
398.742092	2520.735719
399.124656	2520.745802
399.507158	2521.045750
399.889598	2521.204547
400.271977	2523.944414
400.654294	2523.606657
401.036549	2520.695390
401.418742	2521.708662
401.800874	2523.505833
402.182944	2525.043385
402.564952	2522.197654
402.946898	2523.878879
403.328783	2522.235463
403.710606	2522.663961
404.092367	2525.502130
404.474067	2522.797551
404.855705	2523.125226
405.237282	2523.906605
405.618797	2526.427182
406.000250	2525.819723
406.381642	2527.032121
406.762972	2521.408713
407.144240	2523.039527
407.525447	2523.803262
407.906593	2520.466018
408.287677	2524.917357
408.668700	2524.874507
409.049661	2527.059847
409.430560	2526.217974
409.811399	2524.803931
410.192176	2524.251924
410.572891	2528.171421
410.953545	2522.830319
411.334138	2529.051103
411.714669	2525.718900
412.095139	2527.455577
412.475547	2527.039682
412.855894	2527.309384
413.236180	2525.454239
413.616405	2529.441792
413.996568	2528.773839
414.376670	2527.657224
414.756711	2527.831143
415.136691	2527.112779
415.516609	2529.013294
415.896466	2529.819879
416.276262	2528.940197
416.655997	2525.847449
417.035670	2529.088911
417.415283	2530.008922
417.794834	2527.901720
418.174324	2528.965403
418.553753	2530.689478
418.933121	2527.974816
419.312428	2527.485824
419.691674	2530.215609
420.070859	2530.676875
420.449983	2530.172759
420.829045	2528.763757
421.208047	2531.110414
421.586988	2528.229395
421.965867	2527.707635
422.344686	2529.482121
422.723444	2529.232584
423.102141	2532.194262
423.480777	2530.056813
423.859352	2531.823737
424.237866	2532.239632
424.616319	2530.686957
424.994712	2530.331556
425.373044	2533.280631
425.751314	2529.983716
426.129524	2528.736031
426.507673	2528.000022
426.885762	2528.844415
427.263789	2534.634181
427.641756	2534.361958
428.019662	2535.402957
428.397508	2530.563449
428.775292	2531.153264
429.153016	2530.664272
429.530679	2531.138140
429.908282	2533.883049
430.285824	2534.029242
430.663305	2531.768285
431.040726	2532.695857
431.418086	2530.699560
431.795385	2532.842050
432.172624	2532.993285
432.549802	2536.834644
432.926920	2533.144520
433.303977	2534.122503
433.680974	2534.094777
434.057910	2534.326670
434.434786	2534.578728
434.811601	2534.412370
435.188355	2532.968079
435.565050	2532.947915
435.941683	2534.646783
436.318257	2535.760878
436.694770	2532.305168
437.071222	2535.128214
437.447614	2532.640404
437.823946	2534.798018
438.200218	2533.157123
438.576429	2534.261135
438.952580	2535.831455
439.328670	2536.554860
439.704700	2535.511341
440.080670	2537.510159
440.456580	2534.808100
440.832429	2537.752134
441.208218	2537.253060
441.583947	2536.950591
441.959616	2534.714839
442.335224	2537.573173
442.710773	2538.495704
443.086261	2538.866229
443.461689	2533.706608
443.837057	2539.428318
444.212365	2536.030580
444.587612	2533.809952
444.962800	2532.214427
445.337927	2535.435724
445.712995	2532.065713
446.088002	2537.406815
446.462949	2537.737011
446.837837	2537.013605
447.212664	2538.326826
447.587431	2538.825900
447.962139	2537.177443
448.336786	2538.906558
448.711374	2538.767927
449.085901	2539.297248
449.460369	2537.389171
449.834776	2536.703574
450.209124	2539.912269
450.583412	2538.858668
450.957640	2538.813297
451.331808	2537.416897
451.705917	2539.476209
452.079965	2539.783719
452.453954	2536.660724
452.827883	2538.788091
453.201752	2540.020653
453.575562	2539.778678
453.949311	2538.266332
454.323001	2538.447813
454.696632	2541.253216
455.070202	2537.195087
455.443713	2537.028729
455.817164	2538.639377
456.190556	2539.115766
456.563888	2540.781868
456.937160	2539.423277
457.310373	2540.507125
457.683526	2538.946888
458.056619	2537.547968
458.429653	2542.243802
458.802628	2538.994779
459.175542	2539.261960
459.548398	2539.869419
459.921194	2538.324305
460.293930	2539.579553
460.666607	2540.141641
461.039224	2539.075437
461.411782	2540.262629
461.784280	2540.280273
462.156719	2541.081816
462.529099	2540.721374
462.901419	2540.854964
463.273680	2538.117618
463.645882	2538.677186
464.018024	2538.853626
464.390106	2536.698533
464.762130	2541.832948
465.134094	2541.132228
465.505999	2542.072403
465.877845	2541.154913
466.249631	2542.037115
466.621358	2539.907227
466.993026	2541.485109
467.364634	2545.404606
467.736184	2543.831766
468.107674	2540.630633
468.479105	2539.476209
468.850477	2543.226827
469.221790	2541.608617
469.593043	2542.392516
469.964238	2541.928730
470.335373	2541.437218
470.706449	2540.277752
471.077467	2542.586601
471.448425	2543.171375
471.819324	2541.706919
472.190164	2540.887732
472.560945	2540.955788
472.931667	2541.462423
473.302330	2541.633823
473.672934	2541.356559
474.043479	2541.434697
474.413965	2543.425953
474.784393	2542.352187
475.154761	2544.640871
475.525070	2542.188350
475.895321	2543.012578
476.265513	2539.801363
476.635645	2546.241437
477.005719	2544.648433
477.375734	2544.129194
477.745691	2543.441076
478.115588	2543.062990
478.485427	2542.601724
478.855207	2542.468134
479.224928	2541.873278
479.594591	2543.912424
479.964194	2543.577188
480.333739	2544.945861
480.703226	2545.018957
481.072653	2544.106509
481.442022	2542.591642
481.811333	2541.545603
482.180584	2541.197763
482.549777	2542.397557
482.918912	2539.846734
483.287988	2545.843186
483.657005	2545.528114
484.025964	2545.671787
484.394864	2544.058618
484.763706	2544.134235
485.132489	2543.546941
485.501213	2543.380583
485.869879	2543.809081
486.238487	2546.097764
486.607036	2541.976621
486.975527	2546.896787
487.343959	2543.398227
487.712333	2543.010058
488.080648	2542.455531
488.448905	2545.845707
488.817104	2544.519883
489.185244	2543.746066
489.553326	2544.774462
489.921350	2546.846376
490.289315	2543.892260
490.657222	2545.144986
491.025070	2544.038453
491.392861	2544.766900
491.760593	2545.696993
492.128267	2545.639019
492.495883	2546.019627
492.863440	2545.008875
493.230939	2543.909904
493.598380	2544.681200
493.965763	2545.941489
494.333088	2542.621889
494.700354	2547.121119
495.067563	2546.163299
495.434713	2545.855789
495.801805	2545.404606
496.168839	2547.965512
496.535815	2546.430481
496.902733	2546.440563
497.269593	2545.838145
497.636395	2546.506098
498.003139	2547.050542
498.369825	2544.764379
498.736453	2546.727909
499.103023	2548.837632
499.469535	2548.199926
499.835989	2545.427291
500.202385	2546.546427
500.568723	2542.064841
500.935003	2546.057435
501.301226	2542.142979
501.667390	2546.506098
502.033497	2546.453166
502.399546	2546.324616
502.765537	2547.552137
503.131470	2547.295038
503.497345	2546.591798
503.863163	2548.704041
504.228923	2546.274205
504.594625	2547.037940
504.960269	2545.170192
505.325856	2550.360060
505.691385	2545.208001
506.056856	2549.321582
506.422270	2546.070038
506.787625	2547.184133
507.152924	2544.580377
507.518164	2546.924514
507.883347	2546.911911
508.248472	2548.109185
508.613540	2547.884853
508.978550	2547.264792
509.343503	2546.611962
509.708398	2547.410985
510.073236	2546.460728
510.438016	2547.680687
510.802738	2545.190357
511.167403	2546.896787
511.532010	2548.635985
511.896561	2547.564740
512.261053	2546.904349
512.625488	2546.889226
512.989866	2546.644730
513.354186	2548.633465
513.718449	2546.085162
514.082655	2549.813095
514.446803	2547.113557
514.810894	2547.526932
515.174927	2547.922662
515.538904	2546.450645
515.902822	2547.995759
516.266684	2548.242775
516.630488	2551.128836
516.994235	2546.770758
517.357925	2546.543907
517.721558	2548.358722
518.085133	2546.627086
518.448651	2543.383103
518.812112	2546.233876
519.175516	2546.107847
519.538863	2544.272867
519.902152	2547.753783
520.265385	2548.825029
520.628560	2548.507436
520.991678	2547.509287
521.354739	2546.417878
521.717743	2549.324103
522.080690	2546.369987
522.443580	2547.479041
522.806413	2548.328475
523.169189	2547.920142
523.531908	2548.517518
523.894569	2547.219421
524.257174	2547.615152
524.619722	2546.876623
524.982213	2550.531459
525.344647	2546.740512
525.707025	2549.435008
526.069345	2547.957950
526.431608	2549.155224
526.793815	2548.255378
527.155964	2545.787733
527.518057	2547.594987
527.880093	2549.238403
528.242072	2547.945347
528.603995	2547.148845
528.965860	2551.527087
529.327669	2549.016593
529.689421	2546.932075
530.051117	2548.681356
530.412755	2549.208156
530.774337	2549.268650
531.135862	2548.593136
531.497331	2546.851417
531.858743	2548.404092
532.220098	2549.349309
532.581396	2550.297046
532.942638	2550.430636
533.303824	2549.142621
533.664953	2547.786551
534.026025	2551.532128
534.387040	2546.110367
534.747999	2548.857796
535.108902	2548.048691
535.469748	2550.070194
535.830537	2548.842673
536.191270	2547.572302
536.551947	2547.247147
536.912567	2545.424770
537.273131	2546.954761
537.633638	2542.722712
537.994089	2550.261757
538.354483	2548.338557
538.714821	2550.922149
539.075103	2546.692621
539.435328	2547.317724
539.795497	2548.305790
540.155609	2548.368804
540.515665	2550.654968
540.875665	2548.988866
541.235609	2547.869730
541.595496	2550.168496
541.955328	2547.156407
542.315102	2549.586243
542.674821	2548.638506
543.034483	2552.749567
543.394090	2547.156407
543.753640	2552.038764
544.113134	2550.145811
544.472571	2550.249155
544.831953	2547.678166
545.191278	2551.269988
545.550548	2549.248486
545.909761	2551.985832
546.268918	2549.697148
546.628019	2550.629762
546.987064	2547.370656
547.346053	2551.834598
547.704986	2550.047508
548.063863	2550.594474
548.422684	2548.968702
548.781449	2551.617828
549.140158	2552.568085
549.498811	2551.718651
549.857408	2549.152704
550.215949	2550.861655
550.574434	2549.924000
550.932864	2552.389124
551.291237	2551.272509
551.649555	2550.488609
552.007817	2551.774104
552.366022	2551.673281
552.724173	2550.037426
553.082267	2549.331665
553.440305	2553.104968
553.798288	2551.617828
554.156215	2551.141439
554.514086	2548.343598
554.871902	2550.090358
555.229661	2548.933413
555.587365	2545.689431
555.945014	2552.948692
556.302606	2552.923487
556.660143	2553.820812
557.017625	2549.561037
557.375050	2553.110009
557.732421	2553.399876
558.089735	2552.767211
558.446994	2551.252344
558.804197	2551.650595
559.161345	2553.719989
559.518437	2551.307797
559.875474	2554.700493
560.232455	2553.523384
560.589381	2554.738302
560.946251	2552.535318
561.303065	2552.885678
561.659825	2554.531615
562.016528	2552.976419
562.373177	2552.288301
562.729770	2553.193188
563.086307	2555.280226
563.442789	2553.251162
563.799216	2554.705535
564.155587	2552.999104
564.511904	2553.641851
564.868164	2556.333827
565.224370	2555.461708
565.580520	2552.328631
565.936615	2558.083108
566.292654	2553.805689
566.648638	2551.650595
567.004567	2554.650082
567.360441	2552.815102
567.716260	2551.806871
568.072023	2555.481872
568.427732	2553.931717
568.783385	2555.237376
569.138982	2553.452808
569.494525	2550.536500
569.850013	2551.668239
570.205445	2554.798796
570.560823	2555.111347
570.916145	2552.774773
571.271412	2555.028168
571.626625	2555.612942
571.981782	2552.817622
572.336884	2553.563713
572.691931	2549.079607
573.046923	2553.180586
573.401860	2548.078938
573.756743	2552.038764
574.111570	2553.714948
574.466342	2554.708055
574.821059	2555.713765
575.175722	2556.200237
575.530330	2552.885678
575.884882	2554.584547
576.239380	2554.955072
576.593823	2554.466080
576.948211	2554.309804
577.302544	2553.296532
577.656823	2553.929197
578.011047	2555.547407
578.365216	2553.291491
578.719330	2554.173693
579.073389	2555.166800
579.427394	2555.015566
579.781344	2556.023796
580.135239	2554.098076
580.489080	2552.794937
580.842866	2555.865000
581.196597	2556.767367
581.550273	2553.394835
581.903895	2555.340720
582.257463	2552.285781
582.610975	2554.902140
582.964434	2552.406768
583.317837	2552.106820
583.671186	2556.172510
584.024481	2554.423230
584.377721	2552.505071
584.730906	2554.768549
585.084037	2553.173024
585.437113	2553.805689
585.790135	2552.913404
586.143103	2554.271995
586.496016	2555.096224
586.848874	2552.807540
587.201679	2550.642365
587.554428	2554.181255
587.907124	2553.888868
588.259765	2556.139743
588.612352	2554.299722
588.964884	2555.197047
589.317362	2554.680329
589.669786	2552.558003
590.022155	2551.080945
590.374470	2548.540203
590.726731	2552.139587
591.078937	2547.408464
591.431090	2554.922304
591.783188	2550.995245
592.135232	2556.394321
592.487222	2552.641182
592.839157	2553.420040
593.191038	2551.524567
593.542866	2554.140925
593.894639	2551.902653
594.246358	2550.501212
594.598022	2551.771583
594.949633	2552.361398
595.301190	2551.784186
595.652692	2554.254351
596.004141	2551.078424
596.355535	2553.291491
596.706876	2551.380894
597.058162	2552.983981
597.409395	2552.414330
597.760573	2553.230997
598.111698	2550.607077
598.462768	2554.398024
598.813785	2554.874413
599.164748	2550.571788
599.515657	2552.074052
599.866511	2549.727395
600.217312	2550.705379
600.568060	2551.045657
600.918753	2555.623025
601.269392	2553.341903
601.619978	2551.005328
601.970510	2552.941131
602.320988	2549.906356
602.671412	2548.308310
603.021783	2549.868547
603.372100	2553.236038
603.722363	2551.658157
604.072572	2551.166645
604.422728	2550.833928
604.772830	2555.053374
605.122878	2553.147818
605.472872	2554.403065
605.822813	2550.599515
606.172701	2553.135215
606.522534	2552.250493
606.872314	2554.347613
607.222041	2550.581871
607.571714	2549.175389
607.921333	2551.547252
608.270899	2549.659340
608.620411	2548.295707
608.969870	2553.924156
609.319276	2555.602860
609.668627	2561.611915
610.017926	2563.772050
610.367171	2566.390929
610.716362	2564.129972
611.065500	2563.459498
611.414585	2558.040258
611.763616	2561.170814
612.112594	2557.158056
612.461518	2558.070505
612.810389	2557.962120
613.159207	2555.779300
613.507971	2556.038920
613.856682	2552.903322
614.205340	2551.937941
614.553945	2553.992211
614.902496	2552.978939
615.250994	2552.477345
615.599439	2554.899619
615.947830	2552.250493
616.296169	2553.145298
616.644454	2552.298384
616.992686	2554.403065
617.340864	2553.911553
617.688990	2555.091183
618.037063	2552.774773
618.385082	2552.772252
618.733048	2554.604712
619.080961	2552.691594
619.428821	2554.811399
619.776628	2553.541028
620.124382	2554.876934
620.472083	2554.450956
620.819731	2553.215874
621.167326	2550.481048
621.514868	2552.777293
621.862357	2552.346275
622.209793	2555.673436
622.557176	2551.695966
622.904506	2554.821481
623.251783	2551.953065
623.599007	2554.758467
623.946179	2553.135215
624.293297	2551.998435
624.640363	2552.558003
624.987376	2549.245965
625.334336	2548.348640
625.681243	2549.014072
626.028097	2546.806047
626.374899	2553.770401
626.721647	2550.680173
627.068343	2550.881819
627.414987	2549.987015
627.761577	2551.103630
628.108115	2553.039433
628.454600	2554.269475
628.801032	2554.579506
629.147412	2556.217881
629.493739	2548.537683
629.840014	2552.149670
630.186236	2552.797458
630.532405	2553.248641
630.878521	2553.722510
631.224585	2551.879968
631.570597	2552.056408
631.916556	2556.611091
632.262462	2550.932231
632.608316	2552.268137
632.954117	2550.571788
633.299866	2553.268806
633.645562	2550.571788
633.991206	2550.851572
634.336797	2550.861655
634.682336	2552.742005
635.027823	2551.249824
635.373257	2551.358208
635.718639	2551.600184
636.063968	2553.518343
636.409245	2553.049516
636.754470	2552.782334
637.099642	2553.243600
637.444762	2553.682180
637.789829	2550.473486
638.134845	2552.782334
638.479808	2549.538352
638.824719	2550.788558
639.169577	2552.212684
639.514383	2553.147818
639.859137	2550.828887
640.203839	2549.165307
640.548489	2553.979608
640.893086	2550.508774
641.237632	2549.787889
641.582125	2553.241079
641.926566	2553.034392
642.270955	2548.522559
642.615292	2547.486602
642.959576	2553.483055
643.303809	2544.363607
643.647990	2552.331151
643.992118	2551.683363
644.336195	2551.103630
644.680219	2551.300235
645.024192	2554.108158
645.368112	2550.314690
645.711981	2550.896943
646.055797	2555.088662
646.399562	2551.249824
646.743274	2553.541028
647.086935	2556.127140
647.430544	2551.731254
647.774101	2553.266285
648.117606	2552.184958
648.461059	2553.185627
648.804460	2556.996739
649.147810	2555.615463
649.491108	2553.727551
649.834354	2555.108827
650.177548	2549.934083
650.520690	2553.742674
650.863781	2550.586912
651.206820	2553.551110
651.549807	2553.440205
651.892742	2552.205122
652.235626	2552.268137
652.578458	2552.991542
652.921238	2552.943651
653.263967	2555.088662
653.606644	2552.484906
653.949269	2553.992211
654.291843	2550.745708
654.634365	2548.852755
654.976836	2555.277706
655.319255	2551.552293
655.661622	2552.915925
656.003938	2552.545400
656.346203	2551.459032
656.688416	2554.430792
657.030577	2551.385935
657.372687	2552.000956
657.714746	2550.400389
658.056753	2554.367777
658.398708	2551.776624
658.740612	2553.125133
659.082465	2551.922818
659.424266	2549.316541
659.766016	2550.009700
660.107715	2546.382590
660.449362	2548.250337
660.790958	2552.827705
661.132503	2552.268137
661.473996	2554.655123
661.815438	2554.274516
662.156829	2553.241079
662.498168	2551.504402
662.839456	2553.107489
663.180693	2553.651933
663.521879	2553.581357
663.863013	2553.140256
664.204097	2551.789227
664.545129	2552.714279
664.886110	2553.498178
665.227040	2553.296532
665.567918	2554.829043
665.908746	2551.350647
666.249522	2553.306614
666.590248	2554.624876
666.930922	2553.692263
667.271545	2553.561193
667.612118	2553.984650
667.952639	2553.377191
668.293109	2554.040102
668.633528	2553.755277
668.973896	2552.716799
669.314213	2553.898950
669.654480	2554.675288
669.994695	2551.257385
670.334859	2552.994063
670.674973	2553.780483
671.015035	2552.149670
671.355047	2552.605894
671.695008	2552.247972
672.034918	2554.302242
672.374777	2554.720658
672.714585	2553.702345
673.054342	2554.894578
673.394049	2554.231666
673.733705	2554.186296
674.073310	2556.754764
674.412864	2553.785524
674.752368	2556.694270
675.091820	2554.468600
675.431223	2556.220401
675.770574	2554.357695
676.109875	2556.830381
676.449125	2552.628579
676.788324	2550.133208
677.127473	2552.368960
677.466571	2551.562375
677.805619	2555.827191
678.144616	2554.188816
678.483562	2556.974054
678.822458	2557.982285
679.161303	2554.851728
679.500098	2555.880123
679.838842	2554.304763
680.177535	2554.269475
680.516179	2554.869372
680.854771	2554.685370
681.193314	2556.661502
681.531805	2557.715103
681.870247	2557.440361
682.208638	2557.662171
682.546978	2556.452294
682.885268	2557.392470
683.223508	2556.406924
683.561697	2555.822150
683.899836	2559.255176
684.237925	2559.852553
684.575963	2560.749878
684.913951	2562.652914
685.251889	2558.781307
685.589776	2560.094528
685.927614	2558.846842
686.265401	2559.275341
686.603137	2560.328942
686.940824	2562.554611
687.278460	2564.926474
687.616046	2561.266596
687.953582	2563.237688
688.291068	2563.303223
688.628504	2564.865980
688.965889	2563.378840
689.303224	2564.805486
689.640510	2564.961762
689.977745	2562.879766
690.314930	2565.622153
690.652065	2565.705332
690.989150	2563.134344
691.326185	2562.370609
691.663170	2564.356824
692.000105	2562.617626
692.336990	2565.004612
692.673825	2562.486556
693.010610	2563.396484
693.347345	2560.971689
693.684030	2555.421378
694.020665	2558.998077
694.357251	2557.137891
694.693786	2559.701318
695.030272	2562.821792
695.366707	2562.199210
695.703093	2560.175187
696.039429	2562.005125
696.375716	2562.005125
696.711952	2565.165929
697.048139	2563.925805
697.384276	2563.346072
697.720363	2561.828685
698.056400	2564.750034
698.392388	2564.709704
698.728326	2564.974365
699.064214	2562.602502
699.400053	2564.558470
699.735842	2566.721125
700.071581	2563.759447
700.407270	2565.133161
700.742910	2563.139385
701.078501	2561.422872
701.414042	2563.701474
701.749533	2561.165773
702.084974	2562.887327
702.420366	2563.353634
702.755709	2565.337328
703.091002	2562.055537
703.426246	2562.978068
703.761440	2562.355486
704.096584	2566.451423
704.431679	2563.860270
704.766725	2566.521999
705.101721	2565.856567
705.436668	2565.022256
705.771565	2563.958572
706.106413	2563.638459
706.441212	2565.569221
706.775961	2565.140723
707.110661	2567.179870
707.445311	2567.880590
707.779913	2568.346897
708.114465	2567.865467
708.448967	2570.562484
708.783421	2568.362020
709.117825	2570.406208
709.452180	2571.283369
709.786485	2568.548543
710.120742	2572.951991
710.454949	2569.960066
710.789107	2576.874009
711.123216	2575.638926
711.457275	2583.198136
711.791286	2582.502457
712.125247	2583.896336
712.459159	2586.434557
712.793023	2588.892119
713.126837	2583.281315
713.460602	2587.956985
713.794318	2584.334916
714.127985	2584.420616
714.461602	2581.249730
714.795171	2582.358784
715.128691	2580.763259
715.462162	2580.198650
715.795584	2581.348033
716.128957	2579.870975
716.462281	2574.159347
716.795556	2576.478278
717.128782	2579.583629
717.461960	2576.246385
717.795088	2577.912486
718.128167	2575.210428
718.461198	2573.347722
718.794180	2574.789492
719.127113	2575.845613
719.459997	2574.628175
719.792833	2572.515931
720.125619	2577.196643
720.458357	2572.924265
720.791046	2574.083730
721.123686	2577.451221
721.456278	2573.438462
721.788821	2573.940057
722.121315	2573.811508
722.453761	2576.253947
722.786158	2576.621951
723.118506	2574.681107
723.450805	2577.123546
723.783056	2579.134966
724.115259	2578.247723
724.447412	2578.222517
724.779518	2577.632702
725.111574	2579.591191
725.443582	2580.044894
725.775542	2581.499267
726.107453	2584.264340
726.439315	2583.944227
726.771129	2585.174268
727.102895	2581.705955
727.434612	2587.891450
727.766281	2581.428691
728.097901	2589.383632
728.429473	2588.277099
728.760996	2590.144846
729.092471	2588.897161
729.423897	2588.682912
729.755276	2588.307346
730.086606	2586.323652
730.417887	2587.510843
730.749120	2592.562079
731.080305	2595.405290
731.411442	2596.963007
731.742530	2595.160794
732.073570	2599.052565
732.404562	2600.547267
732.735506	2595.485949
733.066401	2604.260077
733.397249	2599.934767
733.728048	2600.617843
734.058798	2595.669951
734.389501	2597.099118
734.720156	2594.031576
735.050762	2594.011411
735.381320	2591.732810
735.711831	2589.834815
736.042293	2590.326328
736.372707	2592.955289
736.703073	2589.224836
737.033391	2587.485637
737.363661	2593.918150
737.693883	2589.638210
738.024056	2592.615012
738.354182	2591.695001
738.684260	2594.051740
739.014290	2593.681216
739.344272	2600.229674
739.674207	2596.516865
740.004093	2596.322780
740.333931	2599.208841
740.663722	2598.954262
740.993464	2601.305961
741.323159	2605.943822
741.652806	2597.799838
741.982405	2599.775971
742.311956	2602.173039
742.641460	2598.757657
742.970915	2594.860846
743.300323	2595.443099
743.629683	2592.985536
743.958996	2592.640217
744.288260	2589.134095
744.617477	2592.509147
744.946647	2596.219437
745.275768	2592.199116
745.604842	2592.252048
745.933869	2591.332038
746.262847	2590.238107
746.591778	2591.561410
746.920662	2591.788262
747.249498	2595.342276
747.578286	2595.586772
747.907027	2595.178438
748.235720	2598.697164
748.564365	2599.324787
748.892963	2596.542070
749.221514	2607.499018
749.550017	2599.934767
749.878473	2598.210692
750.206881	2601.316043
750.535242	2597.832606
750.863555	2597.373861
751.191821	2595.778336
751.520039	2595.581731
751.848210	2597.986361
752.176334	2597.474684
752.504411	2598.175404
752.832440	2597.424272
753.160421	2595.934611
753.488356	2601.366455
753.816243	2603.650097
754.144082	2597.290682
754.471875	2595.727924
754.799620	2599.871753
755.127318	2600.582555
755.454969	2602.059613
755.782572	2598.263624
756.110129	2599.660024
756.437638	2604.910386
756.765100	2601.774788
757.092515	2601.215220
757.419882	2600.053234
757.747203	2600.665734
758.074477	2605.288472
758.401703	2606.364759
758.728882	2602.775457
759.056014	2604.449120
759.383099	2607.438524
759.710138	2607.398195
760.037129	2604.000457
760.364073	2606.132866
760.690970	2603.786208
761.017820	2612.663680
761.344623	2613.203084
761.671379	2614.143259
761.998088	2616.351284
762.324751	2619.857407
762.651366	2634.365848
762.977935	2657.560197
763.304456	2687.756708
763.630931	2711.820656
763.957359	2704.576518
764.283740	2688.712007
764.610074	2677.011489
764.936362	2657.918118
765.262602	2642.648463
765.588796	2628.961731
765.914943	2624.704476
766.241044	2619.673405
766.567097	2617.866151
766.893104	2609.759976
767.219064	2606.331991
767.544978	2605.989193
767.870845	2608.043463
768.196665	2606.878956
768.522438	2603.193873
768.848165	2602.639346
769.173846	2599.912082
769.499479	2597.404108
769.825066	2598.586258
770.150607	2600.582555
770.476101	2597.388984
770.801548	2595.828747
771.126949	2592.834302
771.452303	2594.628952
771.777611	2593.013263
772.102872	2594.180290
772.428087	2594.805393
772.753256	2595.228850
773.078378	2592.304981
773.403453	2591.458067
773.728482	2590.704414
774.053465	2589.623087
774.378401	2588.181317
774.703291	2590.507809
775.028135	2588.110741
775.352932	2588.831626
775.677683	2586.114444
776.002388	2583.959350
776.327046	2586.046388
776.651658	2587.243662
776.976224	2581.121181
777.300743	2585.648137
777.625216	2585.779207
777.949643	2587.997315
778.274024	2585.012952
778.598359	2584.355081
778.922647	2582.222673
779.246889	2584.987746
779.571086	2582.472210
779.895236	2586.482448
780.219339	2583.883733
780.543397	2586.938672
780.867409	2586.356419
781.191374	2583.702252
781.515294	2582.668815
781.839167	2588.572006
782.162995	2587.609146
782.486776	2587.125195
782.810511	2586.618559
783.134201	2589.108889
783.457844	2586.300966
783.781441	2584.100503
784.104993	2585.058322
784.428498	2583.727457
784.751958	2583.770307
785.075372	2581.978177
785.398739	2583.762745
785.722061	2585.015472
786.045337	2582.978846
786.368568	2588.118302
786.691752	2583.261151
787.014891	2583.929103
787.337983	2590.764908
787.661030	2592.357913
787.984031	2597.504931
788.306987	2602.384768
788.629897	2607.335181
788.952760	2606.773092
789.275579	2602.586414
789.598351	2602.359562
789.921078	2601.313522
790.243759	2591.947059
790.566395	2591.453026
790.888984	2591.170721
791.211529	2589.860021
791.534027	2588.781214
791.856480	2588.992943
792.178888	2581.862230
792.501249	2582.149576
792.823566	2582.436922
793.145836	2581.355594
793.468062	2584.110585
793.790241	2579.931468
794.112375	2585.368353
794.434464	2584.281984
794.756507	2587.732654
795.078505	2586.217787
795.400457	2586.222828
795.722364	2590.452357
796.044226	2595.087697
796.366042	2594.263469
796.687812	2596.390836
797.009538	2597.131885
797.331218	2597.522575
797.652852	2597.729262
797.974442	2593.003180
798.295986	2597.509972
798.617484	2595.448140
798.938938	2589.958323
799.260346	2594.845722
799.581709	2598.339242
799.903026	2592.481421
800.224299	2587.783066
800.545526	2592.181472
800.866708	2588.415730
801.187845	2587.266347
801.508936	2588.899681
801.829983	2585.827098
802.150984	2585.443970
802.471940	2585.673343
802.792851	2584.919690
803.113717	2586.099320
803.434538	2586.081676
803.755314	2587.190730
804.076045	2583.397262
804.396731	2583.755184
804.717372	2586.104361
805.037967	2584.816347
805.358518	2583.780389
805.679024	2582.197467
805.999485	2586.313569
806.319901	2585.312900
806.640272	2584.546645
806.960598	2586.386666
807.280879	2588.929928
807.601115	2583.901377
807.921306	2586.124526
808.241453	2588.302304
808.561554	2588.577047
808.881611	2583.976994
809.201623	2584.062694
809.521590	2590.285998
809.841513	2584.382807
810.161390	2589.101327
810.481223	2591.344641
810.801011	2589.118971
811.120755	2584.750812
811.440453	2589.809609
811.760107	2588.584609
812.079716	2587.969588
812.399281	2588.309866
812.718801	2587.906574
813.038276	2586.802561
813.357707	2585.300297
813.677093	2587.372212
813.996434	2586.895823
814.315731	2587.510843
814.634983	2585.824577
814.954191	2589.267685
815.273354	2588.756008
815.592473	2586.729464
815.911547	2590.643920
816.230577	2591.652151
816.549562	2590.870772
816.868502	2594.321442
817.187399	2598.984509
817.506250	2600.897627
817.825058	2596.080805
818.143821	2599.163470
818.462539	2606.788216
818.781213	2609.139914
819.099843	2612.580501
819.418429	2622.496451
819.736970	2634.655714
820.055466	2640.074954
820.373919	2659.148160
820.692327	2682.715554
821.010691	2700.901517
821.329011	2747.905235
821.647286	2839.445027
821.965517	2949.037191
822.283704	3035.646735
822.601847	3123.627473
822.919945	3115.927110
823.237999	3064.555232
823.556010	2996.610560
823.873976	2947.913014
824.191897	2874.483567
824.509775	2810.493681
824.827609	2761.155908
825.145398	2733.028790
825.463144	2732.202041
825.780845	2735.826631
826.098502	2741.865933
826.416116	2774.303237
826.733685	2809.482929
827.051210	2844.289576
827.368692	2860.559900
827.686129	2839.447548
828.003522	2778.089144
828.320872	2735.574573
828.638177	2706.328319
828.955439	2680.517611
829.272656	2656.453663
829.589830	2644.148207
829.906960	2634.196969
830.224046	2623.928139
830.541088	2616.555451
830.858086	2618.876903
831.175041	2615.280039
831.491952	2610.649739
831.808819	2613.629061
832.125642	2621.445370
832.442421	2622.809002
832.759157	2636.969604
833.075849	2662.314005
833.392497	2700.820858
833.709101	2725.116699
834.025662	2734.566342
834.342179	2734.692371
834.658653	2714.797457
834.975083	2689.032120
835.291469	2667.324912
835.607811	2634.721249
835.924110	2631.426855
836.240366	2618.178703
836.556578	2606.793257
836.872746	2596.993254
837.188871	2593.502255
837.504952	2596.252204
837.820990	2591.067377
838.136984	2585.595205
838.452935	2592.073087
838.768842	2588.511512
839.084706	2589.368508
839.400526	2599.914602
839.716303	2609.432301
840.032037	2632.394757
840.347727	2644.352373
840.663373	2640.594193
840.978977	2621.609208
841.294537	2608.056066
841.610054	2596.244642
841.925527	2593.151894
842.240957	2586.391707
842.556344	2584.037488
842.871687	2580.032292
843.186987	2576.291755
843.502244	2575.465006
843.817458	2572.674728
844.132629	2568.982082
844.447756	2569.365210
844.762840	2569.715570
845.077881	2569.135837
845.392879	2567.232802
845.707833	2567.389078
846.022745	2565.491083
846.337613	2564.739951
846.652438	2566.078378
846.967221	2564.702143
847.281960	2564.308933
847.596656	2567.119376
847.911309	2565.178532
848.225919	2566.527040
848.540485	2562.370609
848.855009	2566.083419
849.169490	2562.738613
849.483928	2562.849519
849.798323	2561.231308
850.112675	2563.499827
850.426984	2561.075033
850.741251	2563.983778
851.055474	2563.411607
851.369654	2562.736093
851.683792	2564.071998
851.997887	2562.234498
852.311938	2564.974365
852.625947	2561.432954
852.939914	2564.646690
853.253837	2565.198696
853.567718	2563.673747
853.881555	2559.199723
854.195350	2562.466391
854.509103	2563.530074
854.822812	2564.129972
855.136479	2562.317677
855.450103	2562.952862
855.763685	2559.204764
856.077224	2560.157542
856.390720	2560.563355
856.704173	2557.934394
857.017584	2564.419838
857.330953	2560.724672
857.644278	2562.620146
857.957561	2565.002091
858.270802	2564.775239
858.584000	2562.819272
858.897155	2562.083263
859.210268	2562.030331
859.523339	2563.923284
859.836367	2564.326577
860.149352	2564.109807
860.462295	2563.494786
860.775195	2563.661144
861.088054	2562.045455
861.400869	2562.042934
861.713642	2562.075702
862.026373	2565.354972
862.339062	2564.271124
862.651708	2563.830023
862.964312	2564.140054
863.276873	2564.651731
863.589392	2564.515620
863.901869	2565.470919
864.214303	2564.576114
864.526696	2567.462174
864.839045	2566.988306
865.151353	2566.292627
865.463619	2568.611557
865.775842	2564.833213
866.088023	2569.529047
866.400162	2569.027453
866.712258	2568.170457
867.024313	2566.196845
867.336325	2567.560477
867.648296	2568.886300
867.960224	2566.801783
868.272110	2568.311609
868.583954	2568.334294
868.895755	2571.429562
869.207515	2567.691547
869.519233	2568.145251
869.830909	2569.400498
870.142542	2569.917216
870.454134	2567.585683
870.765684	2571.517783
871.077191	2572.813359
871.388657	2569.418142
871.700081	2570.398647
872.011463	2570.466702
872.322803	2568.271280
872.634101	2573.970304
872.945357	2574.194635
873.256571	2575.578432
873.567744	2577.567167
873.878874	2574.960891
874.189963	2576.765624
874.501010	2577.098340
874.812015	2576.654718
875.122979	2578.645974
875.433900	2578.366190
875.744780	2578.182188
876.055618	2579.795357
876.366415	2580.513722
876.677169	2581.789134
876.987882	2580.922055
877.298554	2580.571695
877.609183	2580.874164
877.919771	2586.936152
878.230317	2586.452201
878.540822	2593.935794
878.851285	2598.404777
879.161707	2602.911568
879.472087	2608.471961
879.782425	2622.879579
880.092722	2656.564569
880.402977	2684.754701
880.713191	2706.519883
881.023363	2736.068606
881.333494	2779.974535
881.643583	2786.427212
881.953631	2778.139555
882.263637	2777.960594
882.573602	2774.091509
882.883526	2762.078439
883.193408	2734.911661
883.503248	2714.361397
883.813048	2699.313553
884.122806	2685.183199
884.432522	2663.954900
884.742197	2648.062663
885.051831	2632.251084
885.361424	2622.221708
885.670975	2615.063270
885.980485	2608.857609
886.289954	2606.647063
886.599382	2599.844026
886.908768	2597.575507
887.218113	2590.215422
887.527417	2585.086048
887.836680	2580.692683
888.145901	2587.732654
888.455082	2582.794844
888.764221	2578.572877
889.073319	2574.686148
889.382376	2576.211097
889.691392	2577.143710
890.000366	2578.910635
890.309300	2572.987279
890.618193	2576.652198
890.927044	2578.693865
891.235855	2576.412743
891.544625	2575.033987
891.853353	2577.330233
892.162041	2579.177816
892.470687	2579.195460
892.779293	2583.891295
893.087858	2587.097469
893.396381	2595.604416
893.704864	2604.280242
894.013306	2614.037395
894.321707	2630.849643
894.630068	2643.253402
894.938387	2641.738535
895.246665	2647.888743
895.554903	2645.282466
895.863100	2632.041876
896.171256	2624.399487
896.479371	2610.629575
896.787446	2604.381065
897.095480	2597.411669
897.403473	2590.711976
897.711425	2586.686615
898.019336	2584.092941
898.327207	2580.949782
898.635038	2579.253433
898.942827	2578.164544
899.250576	2577.468865
899.558284	2573.783781
899.865952	2571.860581
900.173579	2568.256156
900.481165	2569.992834
900.788711	2568.815724
901.096216	2567.436969
901.403681	2563.774570
901.711105	2568.563667
902.018489	2564.848336
902.325832	2565.228943
902.633135	2563.071329
902.940397	2569.029973
903.247619	2571.507700
903.554800	2588.652665
903.861941	2608.965994
904.169041	2631.956176
904.476101	2647.281284
904.783121	2652.327479
905.090100	2640.216107
905.397039	2629.044910
905.703938	2614.675101
906.010796	2597.935949
906.317614	2591.379929
906.624391	2587.883889
906.931129	2578.436766
907.237826	2572.490725
907.544483	2568.397308
907.851099	2567.673903
908.157675	2563.318346
908.464211	2558.481359
908.770707	2562.274827
909.077163	2559.799621
909.383578	2557.203426
909.689954	2553.719989
909.996289	2556.548076
910.302584	2556.805175
910.608839	2555.749053
910.915054	2555.370967
911.221229	2554.887016
911.527363	2553.553631
911.833458	2557.818447
912.139513	2555.958261
912.445527	2557.049671
912.751502	2555.033210
913.057436	2558.514126
913.363331	2562.708366
913.669186	2560.961607
913.975000	2563.779612
914.280775	2567.724314
914.586510	2577.133628
914.892205	2579.197981
915.197859	2587.941862
915.503475	2598.140116
915.809050	2611.388268
916.114585	2616.411778
916.420081	2620.250617
916.725536	2617.931686
917.030952	2613.308948
917.336328	2606.919286
917.641665	2597.381422
917.946961	2588.740885
918.252218	2585.943044
918.557435	2576.571539
918.862612	2577.499112
919.167750	2575.084399
919.472848	2571.515262
919.777906	2566.159036
920.082925	2563.671227
920.387904	2564.329097
920.692843	2557.601678
920.997743	2559.691236
921.302603	2558.466235
921.607423	2559.799621
921.912204	2556.180072
922.216946	2555.048333
922.521647	2555.721327
922.826310	2554.370298
923.130932	2554.826522
923.435516	2552.568085
923.740059	2553.467931
924.044564	2550.725544
924.349028	2551.022972
924.653454	2551.925338
924.957840	2549.155224
925.262186	2549.205636
925.566493	2549.558517
925.870761	2547.945347
926.174989	2546.493495
926.479178	2549.611449
926.783328	2547.950388
927.087438	2549.545914
927.391509	2544.711447
927.695541	2546.944678
927.999533	2545.293700
928.303486	2547.279915
928.607400	2547.665563
928.911275	2545.606252
929.215110	2546.130532
929.518906	2542.707588
929.822663	2545.137425
930.126381	2546.375028
930.430060	2547.925183
930.733699	2547.882333
931.037299	2545.230686
931.340861	2546.478372
931.644383	2545.739843
931.947866	2546.475851
932.251309	2544.187167
932.554714	2544.981149
932.858080	2543.151210
933.161407	2541.888401
933.464694	2544.794626
933.767943	2540.875129
934.071153	2546.927034
934.374323	2543.758669
934.677455	2546.213711
934.980548	2545.276056
935.283602	2545.898639
935.586617	2543.443597
935.889593	2544.114070
936.192530	2541.822866
936.495428	2545.092054
936.798287	2546.596839
937.101108	2545.424770
937.403890	2546.359904
937.706632	2549.820657
938.009336	2548.368804
938.312002	2545.092054
938.614628	2549.886192
938.917216	2547.670604
939.219765	2548.330996
939.522275	2548.169679
939.824747	2547.773948
940.127179	2549.094730
940.429573	2547.499205
940.731929	2548.346119
941.034246	2547.121119
941.336524	2546.669935
941.638763	2546.228834
941.940964	2548.467107
942.243126	2547.862168
942.545250	2547.635316
942.847335	2546.632127
943.149381	2546.856458
943.451389	2545.397044
943.753359	2545.689431
944.055290	2546.798485
944.357182	2544.131714
944.659036	2547.259750
944.960851	2543.819163
945.262628	2545.530635
945.564367	2544.756817
945.866067	2545.931406
946.167729	2546.899308
946.469352	2542.876467
946.770937	2546.042312
947.072484	2545.737322
947.373992	2546.556509
947.675462	2546.647250
947.976893	2539.876981
948.278286	2542.153062
948.579641	2542.490819
948.880958	2539.826569
949.182236	2541.376724
949.483476	2544.900490
949.784678	2545.049204
950.085841	2543.398227
950.386967	2546.271684
950.688054	2543.264636
950.989103	2544.971067
951.290114	2546.178423
951.591087	2542.389996
951.892021	2545.084492
952.192917	2544.293031
952.493776	2545.591128
952.794596	2546.990049
953.095378	2542.556354
953.396122	2545.933927
953.696828	2543.516694
953.997496	2545.298742
954.298126	2545.092054
954.598718	2543.642723
954.899272	2545.013916
955.199788	2544.509801
955.500266	2544.648433
955.800706	2543.468803
956.101108	2544.930737
956.401472	2544.890408
956.701798	2542.253885
957.002087	2542.969728
957.302337	2540.746580
957.602550	2544.971067
957.902724	2541.626261
958.202861	2544.247661
958.502960	2542.014430
958.803022	2542.763041
959.103045	2540.862526
959.403031	2542.425284
959.702979	2539.715664
960.002889	2542.637012
960.302762	2540.318082
960.602596	2541.699358
960.902393	2538.215920
961.202153	2542.919317
961.501875	2540.441590
961.801559	2543.819163
962.101205	2539.277083
962.400814	2544.131714
962.700385	2540.885211
962.999918	2540.791950
963.299414	2536.033101
963.598873	2539.461085
963.898293	2535.281969
964.197677	2540.650798
964.497022	2540.486960
964.796331	2540.607948
965.095601	2541.394368
965.394835	2541.827907
965.694030	2538.929244
965.993189	2541.036446
966.292309	2539.403112
966.591393	2538.372196
966.890439	2542.006868
967.189447	2540.733977
967.488419	2541.119625
967.787353	2541.396888
968.086249	2541.807743
968.385108	2541.530479
968.683930	2541.137269
968.982714	2539.869419
969.281462	2544.184647
969.580172	2538.536034
969.878844	2541.258257
970.177480	2539.095602
970.476078	2541.296065
970.774639	2541.114584
971.073162	2539.559388
971.371649	2541.490150
971.670098	2537.905889
971.968510	2542.747918
972.266885	2542.415202
972.565223	2541.517876
972.863524	2538.956970
973.161788	2538.767927
973.460014	2539.912269
973.758204	2540.343287
974.056356	2539.178781
974.354471	2542.878988
974.652550	2538.936805
974.950591	2540.270191
975.248595	2542.584080
975.546563	2540.018133
975.844493	2540.406302
976.142386	2540.827238
976.440243	2540.875129
976.738062	2540.461754
977.035845	2539.745911
977.333590	2542.478216
977.631299	2542.652136
977.928971	2539.887063
978.226606	2534.916485
978.524204	2536.000333
978.821765	2535.455889
979.119290	2539.609799
979.416777	2540.176929
979.714228	2541.036446
980.011642	2539.992927
980.309020	2541.175078
980.606360	2542.357228
980.903664	2541.081816
981.200931	2540.363452
981.498162	2539.806404
981.795356	2541.530479
982.092513	2539.887063
982.389633	2543.665408
982.686717	2544.469472
982.983764	2541.739687
983.280775	2543.282280
983.577749	2541.858154
983.874686	2541.089378
984.171587	2543.506611
984.468451	2542.415202
984.765279	2540.751621
985.062070	2541.273380
985.358824	2540.514687
985.655543	2541.366642
985.952224	2539.004861
986.248869	2538.936805
986.545478	2540.368493
986.842050	2537.454706
987.138586	2539.864378
987.435086	2540.423946
987.731549	2539.914789
988.027975	2539.022505
988.324366	2539.929913
988.620719	2537.986548
988.917037	2539.488812
989.213318	2541.129707
989.509563	2540.466796
989.805772	2541.386806
990.101944	2539.340098
990.398080	2540.635674
990.694180	2538.127700
990.990244	2540.723894
991.286271	2541.467465
991.582262	2541.608617
991.878217	2541.386806
992.174136	2540.197094
992.470019	2539.138452
992.765865	2537.147196
993.061676	2534.389685
993.357450	2540.290355
993.653188	2535.387833
993.948890	2537.111908
994.244556	2538.619213
994.540186	2538.906558
994.835780	2539.259439
995.131337	2538.762886
995.426859	2538.031918
995.722345	2540.585263
996.017795	2540.817156
996.313208	2542.372352
996.608586	2539.788760
996.903928	2539.665252
997.199234	2541.797660
997.494504	2540.169367
997.789738	2540.741538
998.084936	2539.060314
998.380099	2541.091899
998.675225	2541.285983
998.970316	2539.627443
999.265371	2540.706250
999.560390	2540.691127
999.855373	2539.307330
1000.150320	2537.520241
1000.445232	2536.522093
1000.740108	2540.466796
1001.034948	2538.125180
1001.329752	2538.301620
1001.624521	2541.550644
1001.919254	2539.488812
1002.213951	2540.307999
1002.508613	2538.253729
1002.803239	2538.659542
1003.097829	2536.128883
1003.392384	2539.735828
1003.686903	2537.273225
1003.981386	2539.624923
1004.275834	2538.964532
1004.570246	2537.913451
1004.864623	2538.604089
1005.158964	2541.134748
1005.453270	2539.151054
1005.747540	2537.391692
1006.041775	2537.671476
1006.335974	2538.364634
1006.630138	2539.647608
1006.924266	2540.267670
1007.218359	2539.390509
1007.512416	2538.014274
1007.806438	2537.459747
1008.100425	2538.271373
1008.394376	2533.822555
1008.688292	2538.669624
1008.982172	2539.461085
1009.276017	2539.922351
1009.569827	2537.737011
1009.863602	2540.549975
1010.157341	2540.257588
1010.451045	2540.497043
1010.744714	2535.287010
1011.038347	2539.309851
1011.331945	2539.745911
1011.625508	2541.737166
1011.919036	2539.438400
1012.212528	2540.633154
1012.505986	2536.935467
1012.799408	2541.144831
1013.092795	2537.316074
1013.386147	2536.199459
1013.679464	2538.440252
1013.972745	2539.571991
1014.265992	2537.883204
1014.559204	2539.687937
1014.852380	2536.136444
1015.145521	2540.277752
1015.438628	2539.052752
1015.731699	2537.691640
1016.024736	2537.424459
1016.317737	2538.452855
1016.610703	2538.394881
1016.903635	2540.103833
1017.196531	2538.568801
1017.489393	2536.789274
1017.782219	2538.568801
1018.075011	2539.700540
1018.367768	2542.271529
1018.660490	2541.044008
1018.953177	2541.044008
1019.245829	2541.044008
