Dividing Wavelength (nm)	Counts (n)	Blue Motor Position (mm): 28.600000	Red Motor Position (mm): 0.000000	
326.493990	2211.027392
326.888308	2211.027392
327.282561	2211.027392
327.676750	2168.598520
328.070874	2166.859322
328.464933	2168.167502
328.858929	2170.367965
329.252859	2175.383913
329.646726	2185.534277
330.040528	2195.808148
330.434265	2208.537062
330.827938	2228.971379
331.221547	2244.626682
331.615091	2261.930443
332.008571	2280.171858
332.401986	2299.287913
332.795338	2317.184009
333.188625	2335.748058
333.581847	2356.058867
333.975006	2372.926568
334.368100	2395.372306
334.761129	2410.649522
335.154095	2429.994950
335.546996	2457.718776
335.939833	2493.682367
336.332606	2506.398678
336.725315	2520.828981
337.117960	2531.140661
337.510540	2545.202960
337.903056	2557.079918
338.295508	2562.569735
338.687896	2572.160530
339.080220	2578.366190
339.472480	2586.638724
339.864676	2590.094435
340.256807	2598.782863
340.648875	2602.478029
341.040879	2602.707402
341.432818	2605.306116
341.824694	2608.154368
342.216506	2611.426077
342.608253	2611.143772
342.999937	2610.538834
343.391557	2611.398351
343.783113	2610.503546
344.174605	2609.626385
344.566033	2607.587238
344.957397	2606.815942
345.348697	2605.948863
345.739934	2607.383072
346.131106	2604.433997
346.522215	2602.818307
346.913260	2599.292020
347.304241	2597.487287
347.695159	2595.914447
348.086012	2597.023501
348.476802	2592.425968
348.867528	2588.526636
349.258191	2586.767273
349.648789	2584.327355
350.039324	2580.914493
350.429796	2585.300297
350.820203	2582.454566
351.210548	2580.697724
351.600828	2581.791654
351.991045	2579.671849
352.381198	2577.768813
352.771288	2577.047928
353.161314	2579.210583
353.551276	2579.833166
353.941175	2578.628330
354.331010	2576.294276
354.720782	2571.439645
355.110490	2576.720253
355.500135	2577.390727
355.889717	2578.625810
356.279235	2577.665470
356.668689	2576.705130
357.058080	2579.543300
357.447408	2577.887281
357.836672	2578.043556
358.225873	2576.062383
358.615010	2577.441138
359.004084	2576.800912
359.393095	2578.275449
359.782043	2580.314596
360.170927	2580.269226
360.559748	2578.953485
360.948505	2584.140832
361.337199	2582.104206
361.725830	2581.703434
362.114398	2583.503126
362.502903	2586.532859
362.891344	2585.726275
363.279722	2582.709144
363.668037	2586.653847
364.056289	2583.770307
364.444478	2586.401789
364.832603	2584.183682
365.220665	2586.101841
365.608665	2588.400607
365.996601	2587.094948
366.384474	2583.946747
366.772284	2586.331213
367.160031	2588.821543
367.547715	2589.844897
367.935336	2589.570155
368.322893	2586.817685
368.710388	2583.369535
369.097820	2588.428333
369.485189	2583.404823
369.872495	2591.566452
370.259738	2590.883375
370.646918	2589.542428
371.034035	2590.696852
371.421090	2591.117789
371.808081	2592.768767
372.195010	2592.650300
372.581875	2595.241453
372.968678	2594.492841
373.355418	2594.051740
373.742096	2595.833788
374.128710	2594.230701
374.515262	2595.148191
374.901751	2591.473190
375.288177	2594.008891
375.674540	2595.808582
376.060841	2599.763368
376.447079	2595.395208
376.833254	2596.474015
377.219367	2596.181628
377.605417	2596.796649
377.991404	2594.833119
378.377329	2600.242277
378.763191	2597.101638
379.148991	2596.232039
379.534727	2597.946032
379.920402	2597.835126
380.306013	2599.138265
380.691563	2601.641197
381.077049	2598.457709
381.462474	2602.011722
381.847835	2599.445775
382.233134	2604.242433
382.618371	2599.597010
383.003545	2600.083481
383.388657	2599.828903
383.773706	2603.145982
384.158693	2600.580035
384.543618	2601.868049
384.928480	2602.117587
385.313280	2601.260590
385.698017	2599.831423
386.082692	2602.299068
386.467305	2603.168667
386.851856	2603.002309
387.236344	2606.521034
387.620770	2602.483070
388.005133	2603.763523
388.389435	2603.395519
388.773674	2599.675148
389.157851	2604.764192
389.541965	2605.391816
389.926018	2608.691251
390.310008	2604.887701
390.693936	2605.396857
391.077802	2609.926334
391.461606	2606.788216
391.845348	2609.086982
392.229027	2608.534975
392.612645	2609.621344
392.996200	2606.692434
393.379694	2609.482712
393.763125	2609.064297
394.146494	2609.573453
394.529801	2611.862137
394.913047	2610.795933
395.296230	2609.563371
395.679351	2609.888525
396.062410	2611.181581
396.445408	2609.875922
396.828343	2611.670573
397.211217	2613.112343
397.594028	2613.981942
397.976778	2613.581170
398.359466	2613.593773
398.742092	2612.978752
399.124656	2611.610079
399.507158	2612.830038
399.889598	2614.594442
400.271977	2615.859772
400.654294	2614.977570
401.036549	2614.538990
401.418742	2615.199381
401.800874	2615.169134
402.182944	2617.772890
402.564952	2616.492437
402.946898	2620.467387
403.328783	2613.392127
403.710606	2618.077880
404.092367	2616.961264
404.474067	2617.107457
404.855705	2619.499485
405.237282	2621.533591
405.618797	2619.927983
406.000250	2621.160545
406.381642	2620.931173
406.762972	2618.382869
407.144240	2617.689711
407.525447	2617.140225
407.906593	2618.050153
408.287677	2621.750360
408.668700	2622.801441
409.049661	2620.961420
409.430560	2622.902264
409.811399	2623.088787
410.192176	2625.977368
410.572891	2625.289250
410.953545	2623.499641
411.334138	2624.505351
411.714669	2624.545680
412.095139	2625.627007
412.475547	2623.303036
412.855894	2627.288068
413.236180	2627.167080
413.616405	2629.571710
413.996568	2627.386370
414.376670	2628.243366
414.756711	2628.364354
415.136691	2629.196144
415.516609	2629.675054
415.896466	2629.879221
416.276262	2630.398460
416.655997	2630.133799
417.035670	2630.675723
417.415283	2633.345014
417.794834	2632.114972
418.174324	2631.618419
418.553753	2635.273255
418.933121	2636.485653
419.312428	2635.174953
419.691674	2635.757206
420.070859	2639.414563
420.449983	2637.869450
420.829045	2638.592855
421.208047	2637.123359
421.586988	2639.822897
421.965867	2641.925058
422.344686	2641.214255
422.723444	2641.607465
423.102141	2639.313740
423.480777	2643.051756
423.859352	2643.656694
424.237866	2643.901190
424.616319	2645.484112
424.994712	2646.686428
425.373044	2647.956798
425.751314	2646.482261
426.129524	2645.794143
426.507673	2647.886222
426.885762	2645.816829
427.263789	2652.821512
427.641756	2650.484937
428.019662	2654.762356
428.397508	2655.211019
428.775292	2658.076915
429.153016	2659.443067
429.530679	2663.042451
429.908282	2665.956238
430.285824	2668.494459
430.663305	2674.047290
431.040726	2675.778927
431.418086	2685.795699
431.795385	2691.953469
432.172624	2699.973944
432.549802	2708.985007
432.926920	2718.384238
433.303977	2730.031824
433.680974	2746.866757
434.057910	2763.187493
434.434786	2782.842952
434.811601	2797.356434
435.188355	2830.053358
435.565050	2850.535566
435.941683	2876.555481
436.318257	2921.386463
436.694770	2962.897844
437.071222	3002.617095
437.447614	3043.059752
437.823946	3080.061821
438.200218	3141.586583
438.576429	3174.220492
438.952580	3250.001638
439.328670	3320.056032
439.704700	3365.590254
440.080670	3425.534615
440.456580	3555.271229
440.832429	3603.739403
441.208218	3627.896612
441.583947	3745.776433
441.959616	3850.934902
442.335224	3901.154877
442.710773	4015.379862
443.086261	4141.481804
443.461689	4098.901698
443.837057	4311.114111
444.212365	4469.398780
444.587612	4496.873068
444.962800	4651.175226
445.337927	4705.551632
445.712995	4697.427812
446.088002	5090.847020
446.462949	5110.651193
446.837837	5218.940219
447.212664	5336.013455
447.587431	5616.215909
447.962139	5976.103883
448.336786	6872.927672
448.711374	7287.890251
449.085901	6649.836450
449.460369	6617.457119
449.834776	6551.927160
450.209124	7040.392282
450.583412	7351.164294
450.957640	7944.926517
451.331808	7740.616113
451.705917	7404.051039
452.079965	7205.018723
452.453954	7821.506468
452.827883	7754.965758
453.201752	8053.389463
453.575562	7919.017507
453.949311	8283.530739
454.323001	8393.700115
454.696632	8662.383532
455.070202	8968.570614
455.443713	9252.251465
455.817164	9691.187251
456.190556	9826.643054
456.563888	10212.971879
456.937160	10475.565583
457.310373	10168.609726
457.683526	10357.035453
458.056619	10176.935191
458.429653	10394.150949
458.802628	10149.685234
459.175542	10510.546150
459.548398	11323.280973
459.921194	11693.853672
460.293930	11838.023110
460.666607	12651.103252
461.039224	13557.699318
461.411782	14245.413526
461.784280	14338.508514
462.156719	14533.676785
462.529099	14425.970013
462.901419	13675.165765
463.273680	13620.958237
463.645882	13591.371706
464.018024	13458.494452
464.390106	13742.702103
464.762130	14485.248941
465.134094	15182.992524
465.505999	16909.784322
465.877845	19876.178206
466.249631	22572.257859
466.621358	22554.066855
466.993026	21413.614182
467.364634	21032.397087
467.736184	19803.991403
468.107674	19117.308111
468.479105	19306.217790
468.850477	18866.117497
469.221790	18541.404175
469.593043	17940.299511
469.964238	17475.134602
470.335373	17206.425978
470.706449	17624.319988
471.077467	17215.915951
471.448425	19010.748201
471.819324	22892.817270
472.190164	25030.561408
472.560945	21701.295188
472.931667	19366.681389
473.302330	18752.457122
473.672934	18226.682420
474.043479	18654.068923
474.413965	18498.521600
474.784393	18143.369791
475.154761	18815.874838
475.525070	18866.790492
475.895321	18507.351181
476.265513	19095.628629
476.635645	19663.612913
477.005719	19492.178394
477.375734	19690.487304
477.745691	20175.219452
478.115588	20686.891526
478.485427	21199.760874
478.855207	22249.717274
479.224928	23974.782476
479.594591	26179.334506
479.964194	26303.362014
480.333739	26521.459973
480.703226	26091.527688
481.072653	25760.149960
481.442022	26292.765508
481.811333	27194.859824
482.180584	27150.046487
482.549777	26210.241820
482.918912	25847.813105
483.287988	25968.233668
483.657005	25662.076833
484.025964	25379.336158
484.394864	25337.761762
484.763706	25039.912749
485.132489	24464.031498
485.501213	24628.761282
485.869879	24542.736512
486.238487	24338.680687
486.607036	24504.643033
486.975527	24179.458363
487.343959	24520.792370
487.712333	24474.290246
488.080648	24158.855167
488.448905	24610.824857
488.817104	24358.694068
489.185244	25014.550704
489.553326	25002.310782
489.921350	25951.834794
490.289315	28202.866262
490.657222	30022.112821
491.025070	30517.290240
491.392861	30303.121860
491.760593	29483.465533
492.128267	28594.541231
492.495883	27563.184168
492.863440	26686.124222
493.230939	25798.813090
493.598380	25664.178994
493.965763	25252.115079
494.333088	24813.569982
494.700354	24731.235337
495.067563	24619.878769
495.434713	24380.769280
495.801805	24509.384238
496.168839	24341.523898
496.535815	24154.156812
496.902733	24371.798547
497.269593	24038.424523
497.636395	24236.148659
498.003139	24229.680858
498.369825	23966.298214
498.736453	24158.759386
499.103023	24039.896540
499.469535	24055.700557
499.835989	24260.532720
500.202385	24292.889366
500.568723	23790.329177
500.935003	24052.151585
501.301226	23640.697649
501.667390	24476.967099
502.033497	24729.165943
502.399546	24456.805004
502.765537	24030.809860
503.131470	24417.902420
503.497345	24549.756319
503.863163	23767.381845
504.228923	24389.382092
504.594625	24579.050464
504.960269	24088.450413
505.325856	24595.829945
505.691385	24009.274051
506.056856	24595.479584
506.422270	24565.177209
506.787625	24172.995604
507.152924	24572.156686
507.518164	24589.707463
507.883347	24406.562344
508.248472	24086.726338
508.613540	24877.585074
508.978550	24644.124198
509.343503	24632.043073
509.708398	24911.348202
510.073236	25066.751852
510.438016	25272.685507
510.802738	24958.903927
511.167403	25198.527613
511.532010	24902.692541
511.896561	25680.986201
512.261053	25656.057695
512.625488	25488.088970
512.989866	25390.126747
513.354186	25237.939354
513.718449	25329.464023
514.082655	25716.644803
514.446803	25463.924199
514.810894	25904.422742
515.174927	25396.161009
515.538904	25426.521358
515.902822	25920.504023
516.266684	25667.733007
516.630488	25572.772792
516.994235	25549.371756
517.357925	25830.282493
517.721558	26044.145883
518.085133	26116.098272
518.448651	26049.943210
518.812112	25765.959890
519.175516	25963.394160
519.538863	26110.971418
519.902152	25897.584417
520.265385	26207.436418
520.628560	25998.145354
520.991678	26004.222465
521.354739	26076.174854
521.717743	26131.188966
522.080690	25926.949138
522.443580	26253.714210
522.806413	26267.703412
523.169189	26350.668201
523.531908	26401.518320
523.894569	26009.949216
524.257174	26075.277528
524.619722	26267.867249
524.982213	25964.596475
525.344647	26028.049479
525.707025	26149.422819
526.069345	26147.466852
526.431608	26094.572545
526.793815	26289.516485
527.155964	25748.890543
527.518057	25916.491265
527.880093	25838.595355
528.242072	26068.845016
528.603995	25774.930623
528.965860	25573.559212
529.327669	25624.376564
529.689421	25612.562620
530.051117	25436.157523
530.412755	25616.209895
530.774337	25423.244608
531.135862	25299.186853
531.497331	25500.916186
531.858743	25041.316710
532.220098	25522.835122
532.581396	25199.583735
532.942638	25147.254038
533.303824	25237.586473
533.664953	25260.644711
534.026025	24913.576392
534.387040	25153.885675
534.747999	25224.673558
535.108902	25372.170157
535.469748	24863.810121
535.830537	25060.649535
536.191270	25165.860936
536.551947	25052.523195
536.912567	24716.684046
537.273131	25045.505909
537.633638	24750.560600
537.994089	24956.721107
538.354483	24508.174362
538.714821	25016.824264
539.075103	25049.460694
539.435328	24845.440157
539.795497	24388.608275
540.155609	24798.970801
540.515665	25097.770071
540.875665	24329.861188
541.235609	24613.267296
541.595496	24576.756739
541.955328	24935.190339
542.315102	24867.812798
542.674821	24409.677777
543.034483	24284.170690
543.394090	24448.832419
543.753640	24231.198246
544.113134	24869.907397
544.472571	24470.751356
544.831953	24758.933957
545.191278	24380.741554
545.550548	24301.267764
545.909761	24522.418142
546.268918	24746.268058
546.628019	24701.033784
546.987064	24408.972016
547.346053	24175.168341
547.704986	24300.587208
548.063863	24445.598519
548.422684	24444.751605
548.781449	23990.495753
549.140158	24392.558019
549.498811	23972.052691
549.857408	23708.377660
550.215949	24149.266893
550.574434	23819.023425
550.932864	24036.609707
551.291237	24189.432286
551.649555	24060.260281
552.007817	24117.610967
552.366022	23970.721827
552.724173	24024.881463
553.082267	23966.262926
553.440305	24432.713330
553.798288	23699.724519
554.156215	24227.132555
554.514086	24312.806965
554.871902	23683.189535
555.229661	23968.778462
555.587365	23824.702285
555.945014	23673.301311
556.302606	23939.570016
556.660143	23877.042065
557.017625	24127.156392
557.375050	23664.562471
557.732421	24066.367638
558.089735	23866.057390
558.446994	23926.929323
558.804197	23957.929899
559.161345	23918.926491
559.518437	23657.391430
559.875474	23848.937632
560.232455	24035.762793
560.589381	23863.562019
560.946251	23836.372556
561.303065	24163.107381
561.659825	24247.508899
562.016528	23846.437220
562.373177	23592.647891
562.729770	23938.115643
563.086307	23818.428569
563.442789	23978.293640
563.799216	23806.196209
564.155587	23827.018695
564.511904	23793.159785
564.868164	23729.477409
565.224370	23717.260173
565.580520	23622.156285
565.936615	23754.756275
566.292654	23430.879785
566.648638	23739.501744
567.004567	23559.719074
567.360441	23512.740561
567.716260	23240.729982
568.072023	23569.025044
568.427732	23337.499971
568.783385	23101.815947
569.138982	23339.866793
569.494525	23376.810889
569.850013	23127.243527
570.205445	23219.259708
570.560823	23035.650803
570.916145	22793.032671
571.271412	22959.065593
571.626625	22712.346483
571.981782	22837.374660
572.336884	22645.233602
572.691931	22775.431482
573.046923	22507.272344
573.401860	22380.502449
573.756743	22388.230538
574.111570	22296.108492
574.466342	22224.720712
574.821059	22324.472544
575.175722	22026.220239
575.530330	22012.934278
575.884882	22038.805479
576.239380	21939.595572
576.593823	21839.750478
576.948211	21814.290131
577.302544	21661.500320
577.656823	21527.965195
578.011047	21625.650154
578.365216	21501.332780
578.719330	21379.072196
579.073389	21287.955861
579.427394	21426.885020
579.781344	21196.771470
580.135239	21081.898697
580.489080	21044.911752
580.842866	20829.223464
581.196597	21006.336842
581.550273	20993.214719
581.903895	20885.218080
582.257463	21193.913136
582.610975	20717.622400
582.964434	21022.720592
583.317837	20733.683516
583.671186	20820.025878
584.024481	20795.674585
584.377721	20566.012218
584.730906	20625.041609
585.084037	20646.887450
585.437113	20557.311187
585.790135	20760.540263
586.143103	20220.320135
586.496016	20223.745599
586.848874	20477.865123
587.201679	20401.801673
587.554428	20087.357181
587.907124	20420.761453
588.259765	20192.936587
588.612352	20267.356621
588.964884	19842.551189
589.317362	20012.191057
589.669786	20061.213758
590.022155	20104.323185
590.374470	20286.946544
590.726731	20102.639439
591.078937	19855.448981
591.431090	19947.318969
591.783188	19689.106027
592.135232	19666.990486
592.487222	19775.481158
592.839157	19790.327356
593.191038	19672.477782
593.542866	19555.152487
593.894639	19280.593605
594.246358	19502.301031
594.598022	19400.505011
594.949633	19166.688734
595.301190	19118.787690
595.652692	19277.591598
596.004141	19522.947076
596.355535	18850.815075
596.706876	18869.099340
597.058162	18753.692205
597.409395	18991.291868
597.760573	19061.217713
598.111698	18840.402572
598.462768	18773.798847
598.813785	18731.412826
599.164748	18554.102842
599.515657	18593.859902
599.866511	18384.397439
600.217312	18748.656092
600.568060	18270.406868
600.918753	18578.791893
601.269392	18482.412593
601.619978	18255.664014
601.970510	18474.510584
602.320988	18422.574097
602.671412	18632.523031
603.021783	18534.177681
603.372100	18256.457995
603.722363	18406.649092
604.072572	18348.721193
604.422728	18478.614084
604.772830	18235.315396
605.122878	18185.917130
605.472872	18174.524122
605.822813	18173.367177
606.172701	18143.190830
606.522534	18337.189554
606.872314	18359.693264
607.222041	18189.511472
607.571714	18400.571981
607.921333	18233.510663
608.270899	18303.494481
608.620411	18495.295262
608.969870	18257.183922
609.319276	18263.356814
609.668627	18289.250701
610.017926	18424.610723
610.367171	18541.346202
610.716362	18589.637935
611.065500	18405.650943
611.414585	18534.432260
611.763616	18519.538171
612.112594	18460.299572
612.461518	18424.449406
612.810389	18627.179408
613.159207	18480.983426
613.507971	18388.901710
613.856682	18664.904883
614.205340	18600.534389
614.553945	18741.810205
614.902496	18488.101535
615.250994	18726.545592
615.599439	18662.948915
615.947830	18651.182862
616.296169	18685.853398
616.644454	18658.590838
616.992686	18632.134862
617.340864	18849.355661
617.688990	18613.391852
618.037063	18771.270708
618.385082	18619.385784
618.733048	18907.003776
619.080961	18780.014590
619.428821	18807.937541
619.776628	18704.714875
620.124382	18624.522720
620.472083	18654.147061
620.819731	18686.181073
621.167326	18381.491214
621.514868	18417.268282
621.862357	18187.454682
622.209793	18202.444552
622.557176	18033.996917
622.904506	17857.463271
623.251783	17762.427439
623.599007	17537.609622
623.946179	17470.884909
624.293297	17412.989778
624.640363	17172.249476
624.987376	17193.669339
625.334336	16981.035990
625.681243	16825.672670
626.028097	16828.951940
626.374899	16760.924090
626.721647	16635.154863
627.068343	16466.568596
627.414987	16396.027730
627.761577	16371.542846
628.108115	16416.875422
628.454600	16128.307173
628.801032	16229.548666
629.147412	16156.519990
629.493739	16178.252405
629.840014	15992.193498
630.186236	16097.546052
630.532405	15853.564288
630.878521	16047.333639
631.224585	15942.321363
631.570597	15771.806855
631.916556	15801.617718
632.262462	15776.963956
632.608316	15689.353743
632.954117	15642.158461
633.299866	15643.877494
633.645562	15557.630913
633.991206	15308.083716
634.336797	15175.433314
634.682336	15150.477082
635.027823	15038.293765
635.373257	14921.477627
635.718639	14813.155834
636.063968	14762.202372
636.409245	14523.236556
636.754470	14546.461152
637.099642	14395.314756
637.444762	14163.719108
637.789829	14207.012537
638.134845	14053.348085
638.479808	14075.330037
638.824719	14024.442109
639.169577	13868.839334
639.514383	13914.618052
639.859137	13738.044077
640.203839	13828.207634
640.548489	13660.243949
640.893086	13652.145336
641.237632	13523.674051
641.582125	13676.738605
641.926566	13500.719157
642.270955	13514.405889
642.615292	13476.756032
642.959576	13489.696674
643.303809	13521.158515
643.647990	13447.779479
643.992118	13516.180375
644.336195	13284.128502
644.680219	13486.525788
645.024192	13407.808171
645.368112	13650.141477
645.711981	13702.093088
646.055797	13885.301222
646.399562	13849.995501
646.743274	14117.668167
647.086935	14391.919539
647.430544	14365.080436
647.774101	14394.233429
648.117606	14546.171285
648.461059	14510.837838
648.804460	14500.548843
649.147810	14236.268873
649.491108	14137.694151
649.834354	14149.981963
650.177548	13846.033154
650.520690	13650.988391
650.863781	13572.427049
651.206820	13616.660654
651.549807	13446.141104
651.892742	13254.453750
652.235626	13195.099205
652.578458	13192.863453
652.921238	12885.158984
653.263967	13080.012183
653.606644	12907.466090
653.949269	12883.175290
654.291843	12689.932739
654.634365	12842.009227
654.976836	12698.868185
655.319255	12703.206098
655.661622	12658.405363
656.003938	12572.892271
656.346203	12507.463135
656.688416	12581.063981
657.030577	12540.321376
657.372687	12455.592182
657.714746	12426.166967
658.056753	12626.268008
658.398708	12442.888475
658.740612	12439.399996
659.082465	12539.532435
659.424266	12505.502126
659.766016	12526.153213
660.107715	12441.492075
660.449362	12516.489321
660.790958	12473.803351
661.132503	12422.197059
661.473996	12481.843991
661.815438	12504.561951
662.156829	12514.147705
662.498168	12497.058193
662.839456	12491.480157
663.180693	12515.365143
663.521879	12608.084566
663.863013	12576.307652
664.204097	12553.935012
664.545129	12682.358406
664.886110	12647.012356
665.227040	12732.233061
665.567918	12750.902975
665.908746	12774.152776
666.249522	12756.599478
666.590248	12807.124443
666.930922	12918.992688
667.271545	12895.836148
667.612118	12982.982574
667.952639	12884.707801
668.293109	12897.391344
668.633528	12855.847195
668.973896	12824.430724
669.314213	12913.714600
669.654480	12652.847491
669.994695	12724.260477
670.334859	12737.145666
670.674973	12688.198582
671.015035	12724.658728
671.355047	12663.953153
671.695008	12634.366621
672.034918	12647.158549
672.374777	12685.708253
672.714585	12605.483330
673.054342	12629.456537
673.394049	12583.226636
673.733705	12682.219774
674.073310	12590.506062
674.412864	12604.888474
674.752368	12473.538690
675.091820	12494.194818
675.431223	12472.999287
675.770574	12355.517717
676.109875	12274.834049
676.449125	12224.853530
676.788324	12171.412258
677.127473	12012.966272
677.466571	11996.602686
677.805619	11899.862944
678.144616	11814.768267
678.483562	11787.236005
678.822458	11659.467961
679.161303	11635.398972
679.500098	11627.101233
679.838842	11582.537433
680.177535	11599.284146
680.516179	11665.812253
680.854771	11608.733789
681.193314	11822.040132
681.531805	11973.423461
681.870247	12394.004406
682.208638	12807.613435
682.546978	13119.638173
682.885268	13169.568281
683.223508	12861.533616
683.561697	12701.166951
683.899836	12601.558792
684.237925	12410.844380
684.575963	12323.241729
684.913951	12246.502765
685.251889	12191.171060
685.589776	12288.291410
685.927614	12214.113351
686.265401	12179.319307
686.603137	12228.094992
686.940824	12380.844474
687.278460	12497.516938
687.616046	12553.526678
687.953582	12724.996485
688.291068	12643.685194
688.628504	12883.805434
688.965889	12888.692833
689.303224	12861.581507
689.640510	12743.101789
689.977745	12438.600973
690.314930	12217.939587
690.652065	12126.515742
690.989150	11838.081083
691.326185	11616.282917
691.663170	11403.573951
692.000105	11163.317600
692.336990	11055.348687
692.673825	10793.110385
693.010610	10684.100474
693.347345	10475.437034
693.684030	10268.890878
694.020665	10222.577798
694.357251	10013.364872
694.693786	9964.652203
695.030272	9803.577255
695.366707	9677.167802
695.703093	9615.784192
696.039429	9614.097926
696.375716	9528.138691
696.711952	9408.020598
697.048139	9439.676523
697.384276	9394.752281
697.720363	9413.308768
698.056400	9347.138583
698.392388	9304.424886
698.728326	9268.826778
699.064214	9204.279845
699.400053	9243.535310
699.735842	9058.671157
700.071581	9015.246658
700.407270	8943.243857
700.742910	8862.789563
701.078501	8777.228579
701.414042	8649.203436
701.749533	8582.040143
702.084974	8444.456972
702.420366	8559.561638
702.755709	8448.739433
703.091002	8306.969583
703.426246	8336.341866
703.761440	8291.430227
704.096584	8243.014985
704.431679	8174.611569
704.766725	8158.968868
705.101721	8114.452959
705.436668	8160.319898
705.771565	8054.009525
706.106413	8126.670196
706.441212	8170.961773
706.775961	8128.338817
707.110661	8164.864498
707.445311	8308.391189
707.779913	8206.232206
708.114465	8341.751024
708.448967	8373.114563
708.783421	8521.107717
709.117825	8700.126651
709.452180	8735.523113
709.786485	8822.916556
710.120742	9106.141182
710.454949	9102.776212
710.789107	9206.344197
711.123216	9418.150797
711.457275	9585.136497
711.791286	9747.106250
712.125247	9743.305220
712.459159	9732.560000
712.793023	9981.963525
713.126837	9554.909739
713.460602	9704.556391
713.794318	9533.729331
714.127985	9562.068177
714.461602	9251.044108
714.795171	9190.388945
715.128691	8948.963046
715.462162	8691.153397
715.795584	8641.843351
716.128957	8494.455136
716.462281	8329.785846
716.795556	8371.274542
717.128782	8172.748862
717.461960	7903.460506
717.795088	7976.688307
718.128167	7882.184316
718.461198	7712.115950
718.794180	7650.266034
719.127113	7642.215311
719.459997	7495.116962
719.792833	7259.004440
720.125619	7327.322157
720.458357	7184.720517
720.791046	7175.507808
721.123686	7169.292066
721.456278	7009.850452
721.788821	7029.883997
722.121315	6921.839468
722.453761	6989.474108
722.786158	6938.412261
723.118506	6947.589681
723.450805	6914.716317
723.783056	6979.374156
724.115259	6893.374592
724.447412	6883.554425
724.779518	6930.936230
725.111574	6931.541168
725.443582	7013.558221
725.775542	6992.098029
726.107453	7185.698501
726.439315	7095.882783
726.771129	7158.279665
727.102895	7325.772002
727.434612	7438.078827
727.766281	7473.094682
728.097901	7548.200312
728.429473	7541.888788
728.760996	7514.573296
729.092471	7495.207703
729.423897	7441.012779
729.755276	7454.555838
730.086606	7380.718058
730.417887	7481.495765
730.749120	7671.333016
731.080305	7867.272583
731.411442	7991.990729
731.742530	7984.600398
732.073570	8090.636028
732.404562	8175.098040
732.735506	8027.223354
733.066401	8165.335846
733.397249	8101.892924
733.728048	7861.707149
734.058798	7530.727673
734.389501	7300.820811
734.720156	7123.465457
735.050762	6890.753192
735.381320	6795.588811
735.711831	6741.865234
736.042293	6633.699717
736.372707	6657.655280
736.703073	6518.763929
737.033391	6557.016205
737.363661	6565.820580
737.693883	6595.833089
738.024056	6680.716038
738.354182	6723.182718
738.684260	6758.274190
739.014290	6866.021292
739.344272	6978.529763
739.674207	7011.667788
740.004093	7078.868889
740.333931	7092.570745
740.663722	7102.524504
740.993464	7177.302459
741.323159	7170.580081
741.652806	6920.281751
741.982405	6934.318844
742.311956	6987.220712
742.641460	6824.686351
742.970915	6627.972966
743.300323	6621.782429
743.629683	6573.979687
743.958996	6444.313649
744.288260	6349.497107
744.617477	6301.255785
744.946647	6303.574716
745.275768	6135.825280
745.604842	6087.004226
745.933869	6073.597277
746.262847	6028.758734
746.591778	6020.460995
746.920662	5977.492720
747.249498	5971.947451
747.578286	6019.823289
747.907027	6094.739877
748.235720	6154.406973
748.564365	6124.701974
748.892963	6155.339587
749.221514	6308.202495
749.550017	6143.001363
749.878473	6017.211972
750.206881	6071.495116
750.535242	6015.664337
750.863555	5942.098779
751.191821	5959.178208
751.520039	5960.103260
751.848210	5869.392738
752.176334	5886.192383
752.504411	5941.894613
752.832440	5867.840063
753.160421	5795.013033
753.488356	5843.183779
753.816243	5874.713676
754.144082	5727.728753
754.471875	5697.640626
754.799620	5742.264920
755.127318	5756.070120
755.454969	5706.082038
755.782572	5672.480227
756.110129	5714.223502
756.437638	5698.464855
756.765100	5642.417307
757.092515	5636.529239
757.419882	5689.491601
757.747203	5669.102654
758.074477	5733.102623
758.401703	5718.725252
758.728882	5668.996790
759.056014	5728.220266
759.383099	5854.014698
759.710138	5863.678590
760.037129	5851.847002
760.364073	5856.252970
760.690970	5939.099293
761.017820	5921.261170
761.344623	5875.731989
761.671379	5978.692515
761.998088	6097.777172
762.324751	6337.980591
762.651366	6934.956550
762.977935	8244.923062
763.304456	9884.079441
763.630931	10788.038984
763.957359	10405.180993
764.283740	9454.830232
764.610074	8621.048592
764.936362	7622.937939
765.262602	7029.868874
765.588796	6486.245967
765.914943	6145.963041
766.241044	5985.556046
766.567097	5784.124141
766.893104	5524.038411
767.219064	5343.454198
767.544978	5279.257625
767.870845	5203.231983
768.196665	5098.040747
768.522438	5028.530797
768.848165	4989.623172
769.173846	4922.832924
769.499479	4881.445051
769.825066	4827.860106
770.150607	4768.918936
770.476101	4749.371862
770.801548	4744.444134
771.126949	4667.833719
771.452303	4610.780460
771.777611	4564.895878
772.102872	4587.737346
772.428087	4549.419535
772.753256	4510.960573
773.078378	4465.063388
773.403453	4395.858428
773.728482	4384.079772
774.053465	4336.145960
774.378401	4324.074917
774.703291	4325.108354
775.028135	4250.632868
775.352932	4204.579407
775.677683	4192.657078
776.002388	4210.734655
776.327046	4222.503229
776.651658	4149.802229
776.976224	4085.136828
777.300743	4089.512549
777.625216	4109.548615
777.949643	4101.613839
778.274024	4057.791089
778.598359	4013.968338
778.922647	4037.830640
779.246889	4030.410062
779.571086	4027.065256
779.895236	4010.137062
780.219339	3998.202130
780.543397	3985.795850
780.867409	4039.471536
781.191374	4056.893763
781.515294	3992.399762
781.839167	3989.150738
782.162995	4009.456506
782.486776	3992.004031
782.810511	4003.180269
783.134201	4002.119106
783.457844	3957.111685
783.781441	3901.006163
784.104993	3906.795928
784.428498	3926.766459
784.751958	3921.800923
785.075372	3900.126482
785.398739	3860.608877
785.722061	3872.316957
786.045337	3918.642640
786.368568	3948.340077
786.691752	3861.760780
787.014891	3912.769696
787.337983	4036.905588
787.661030	4196.521122
787.984031	4362.538921
788.306987	4533.436557
788.629897	4614.016881
788.952760	4569.508533
789.275579	4500.177545
789.598351	4436.338893
789.921078	4297.225732
790.243759	4096.872634
790.566395	4076.445879
790.888984	4075.046958
791.211529	3962.936738
791.534027	3905.384405
791.856480	3895.385277
792.178888	3833.656348
792.501249	3784.094244
792.823566	3794.678146
793.145836	3824.859534
793.468062	3773.454888
793.790241	3723.068556
794.112375	3757.197167
794.434464	3820.456086
794.756507	3845.409798
795.078505	3821.539934
795.400457	3859.111654
795.722364	3996.583919
796.044226	4099.118468
796.366042	4173.009181
796.687812	4155.854134
797.009538	4158.982170
797.331218	4122.380873
797.652852	4089.676387
797.974442	4070.378850
798.295986	4073.527051
798.617484	3989.407837
798.938938	3905.618819
799.260346	3946.850416
799.581709	3943.200621
799.903026	3867.401832
800.224299	3829.688960
800.545526	3823.183351
800.866708	3787.423926
801.187845	3723.275243
801.508936	3759.281684
801.829983	3759.165738
802.150984	3681.935261
802.471940	3667.479752
802.792851	3680.405271
803.113717	3680.327133
803.434538	3681.226979
803.755314	3621.847228
804.076045	3598.758743
804.396731	3617.965539
804.717372	3645.250784
805.037967	3632.040441
805.358518	3619.084675
805.679024	3646.468223
805.999485	3660.326355
806.319901	3662.214267
806.640272	3675.575845
806.960598	3690.033875
807.280879	3663.915657
807.601115	3674.605423
807.921306	3694.197868
808.241453	3735.429465
808.561554	3709.724622
808.881611	3643.335146
809.201623	3679.646577
809.521590	3695.495965
809.841513	3665.571676
810.161390	3693.073690
810.481223	3672.354548
810.801011	3617.547123
811.120755	3612.513531
811.440453	3646.967297
811.760107	3647.166423
812.079716	3607.152264
812.399281	3573.502562
812.718801	3598.489041
813.038276	3570.004002
813.357707	3566.901171
813.677093	3586.478492
813.996434	3534.136192
814.315731	3540.646842
814.634983	3545.698078
814.954191	3559.568813
815.273354	3589.699790
815.592473	3586.269284
815.911547	3588.961261
816.230577	3632.224443
816.549562	3683.548430
816.868502	3724.802713
817.187399	3750.379007
817.506250	3746.870364
817.825058	3717.505643
818.143821	3810.822441
818.462539	3913.422525
818.781213	3959.324751
819.099843	4019.127959
819.418429	4261.231893
819.736970	4505.576620
820.055466	4750.027212
820.373919	5114.757213
820.692327	5526.982445
821.010691	5968.595084
821.329011	7350.355188
821.647286	10096.828736
821.965517	14649.003262
822.283704	18687.101083
822.601847	20847.827842
822.919945	19063.372806
823.237999	16481.782798
823.556010	13988.118075
823.873976	11894.665514
824.191897	9795.939907
824.509775	8438.725180
824.827609	7307.381872
825.145398	6759.577328
825.463144	6642.453680
825.780845	6756.048520
826.098502	6938.503002
826.416116	7820.800707
826.733685	9145.013519
827.051210	10261.059446
827.368692	10308.930243
827.686129	9055.790138
828.003522	7542.781072
828.320872	6512.659092
828.638177	5809.234128
828.955439	5248.027677
829.272656	4748.361110
829.589830	4467.190754
829.906960	4289.096871
830.224046	4104.562914
830.541088	3974.450733
830.858086	3932.568827
831.175041	3850.526569
831.491952	3834.452850
831.808819	3846.481043
832.125642	3916.845468
832.442421	4068.869024
832.759157	4343.642156
833.075849	4893.074993
833.392497	5760.518938
833.709101	6536.972577
834.025662	6877.835236
834.342179	6520.528333
834.658653	5849.099573
834.975083	5199.236869
835.291469	4623.277480
835.607811	4212.778843
835.924110	4070.272986
836.240366	3871.943911
836.556578	3667.124351
836.872746	3556.798699
837.188871	3515.345291
837.504952	3449.810291
837.820990	3368.067981
838.136984	3322.506033
838.452935	3345.395392
838.768842	3341.428004
839.084706	3362.063967
839.400526	3521.636651
839.716303	3858.456304
840.032037	4391.288622
840.347727	4654.048683
840.663373	4372.767422
840.978977	3990.796675
841.294537	3686.893236
841.610054	3456.469655
841.925527	3347.673993
842.240957	3278.133797
842.556344	3222.998697
842.871687	3165.443844
843.186987	3114.303858
843.502244	3077.604258
843.817458	3043.170657
844.132629	3014.375586
844.447756	3021.597039
844.762840	3005.702281
845.077881	2973.348156
845.392879	2955.232769
845.707833	2950.826801
846.022745	2950.209260
846.337613	2950.141204
846.652438	2939.206941
846.967221	2934.700150
847.281960	2921.104158
847.596656	2918.603746
847.911309	2916.839342
848.225919	2910.293403
848.540485	2904.216293
848.855009	2906.192425
849.169490	2895.853018
849.483928	2885.939589
849.798323	2885.962274
850.112675	2883.658467
850.426984	2898.358472
850.741251	2895.860580
851.055474	2879.837272
851.369654	2875.035573
851.683792	2877.639329
851.997887	2889.596946
852.311938	2891.200033
852.625947	2879.141593
852.939914	2884.704507
853.253837	2888.545866
853.567718	2873.750079
853.881555	2872.845192
854.195350	2886.242058
854.509103	2879.864999
854.822812	2876.502549
855.136479	2872.441900
855.450103	2874.617158
855.763685	2868.295551
856.077224	2865.212885
856.390720	2876.908362
856.704173	2885.400186
857.017584	2877.299052
857.330953	2874.775954
857.644278	2882.831718
857.957561	2894.383522
858.270802	2897.178842
858.584000	2898.963410
858.897155	2885.566544
859.210268	2885.503529
859.523339	2881.321892
859.836367	2881.097561
860.149352	2874.433156
860.462295	2868.630788
860.775195	2880.008672
861.088054	2881.584032
861.400869	2859.125692
861.713642	2861.174921
862.026373	2875.486757
862.339062	2878.014895
862.651708	2884.225597
862.964312	2885.758108
863.276873	2880.059083
863.589392	2889.463356
863.901869	2902.537588
864.214303	2925.235383
864.526696	2940.537806
864.839045	2935.151333
865.151353	2933.381888
865.463619	2932.645880
865.775842	2934.037238
866.088023	2951.151955
866.400162	2957.909622
866.712258	2927.788728
867.024313	2921.348654
867.336325	2928.237391
867.648296	2948.560802
867.960224	2940.225254
868.272110	2927.450971
868.583954	2934.223761
868.895755	2945.916717
869.207515	2936.905655
869.519233	2938.178546
869.830909	2950.756225
870.142542	2956.361988
870.454134	2957.720579
870.765684	2960.611681
871.077191	2960.410034
871.388657	2967.981848
871.700081	2980.972901
872.011463	2992.217195
872.322803	2994.594099
872.634101	2992.323059
872.945357	3011.655884
873.256571	3033.355531
873.567744	3027.870755
873.878874	3021.153418
874.189963	3044.488919
874.501010	3047.803478
874.812015	3035.311498
875.122979	3035.737476
875.433900	3033.766385
875.744780	3037.779143
876.055618	3043.730225
876.366415	3042.953888
876.677169	3056.038202
876.987882	3052.033006
877.298554	3046.270967
877.609183	3067.038000
877.919771	3089.919797
878.230317	3116.690845
878.540822	3172.292251
878.851285	3209.402705
879.161707	3250.183119
879.472087	3350.842359
879.782425	3580.877770
880.092722	4018.636447
880.402977	4546.175553
880.713191	5177.466646
881.023363	6330.517162
881.333494	7617.995087
881.643583	8169.257863
881.953631	7869.518417
882.263637	7245.768890
882.573602	6661.811711
882.883526	6083.233443
883.193408	5505.975957
883.503248	5046.512593
883.813048	4738.835850
884.122806	4434.723203
884.432522	4119.948516
884.742197	3883.258781
885.051831	3688.632434
885.361424	3551.417267
885.670975	3477.909683
885.980485	3393.203174
886.289954	3313.941113
886.599382	3270.854371
886.908768	3232.418093
887.218113	3185.459745
887.527417	3131.610140
887.836680	3078.257088
888.145901	3073.987231
888.455082	3062.725293
888.764221	3012.868281
889.073319	2983.110350
889.382376	2982.230669
889.691392	2987.188644
890.000366	2985.230155
890.309300	2973.391006
890.618193	2985.434322
890.927044	3003.305212
891.235855	3002.334790
891.544625	2986.679487
891.853353	3003.237157
892.162041	3015.285515
892.470687	3061.154973
892.779293	3110.943929
893.087858	3156.026968
893.396381	3226.061198
893.704864	3351.507791
894.013306	3586.929676
894.321707	3891.490985
894.630068	4096.802058
894.938387	4098.682408
895.246665	4050.504101
895.554903	3930.234773
895.863100	3727.701376
896.171256	3559.808268
896.479371	3423.997063
896.787446	3297.713638
897.095480	3194.470807
897.403473	3131.968062
897.711425	3090.396186
898.019336	3082.153900
898.327207	3055.009807
898.635038	3018.292563
898.942827	3005.898886
899.250576	2992.290291
899.558284	2960.621763
899.865952	2938.233999
900.173579	2923.773449
900.481165	2913.887746
900.788711	2900.175808
901.096216	2878.350132
901.403681	2863.909747
901.711105	2872.938453
902.018489	2870.352342
902.325832	2870.001981
902.633135	2879.287787
902.940397	2912.027560
903.247619	2996.411435
903.554800	3187.125846
903.861941	3533.415307
904.169041	3963.556800
904.476101	4261.756173
904.783121	4220.942992
905.090100	3975.897545
905.397039	3698.835729
905.703938	3447.188891
906.010796	3264.023607
906.317614	3152.465393
906.624391	3055.702966
906.931129	2984.743684
907.237826	2923.297060
907.544483	2876.580687
907.851099	2843.369566
908.157675	2821.790907
908.464211	2802.311888
908.770707	2788.768828
909.077163	2774.099071
909.383578	2759.575506
909.689954	2751.975967
909.996289	2749.437746
910.302584	2749.788106
910.608839	2750.151069
910.915054	2742.186046
911.221229	2735.655231
911.527363	2739.060531
911.833458	2744.620923
912.139513	2750.826584
912.445527	2757.085176
912.751502	2763.043820
913.057436	2772.377517
913.363331	2787.067439
913.669186	2807.670635
913.975000	2842.376458
914.280775	2902.887948
914.586510	2972.748258
914.892205	3051.367573
915.197859	3181.510001
915.503475	3372.748693
915.809050	3592.510233
916.114585	3734.156574
916.420081	3758.908639
916.725536	3699.969989
917.030952	3577.981628
917.336328	3448.577729
917.641665	3316.764159
917.946961	3215.628530
918.252218	3146.521873
918.557435	3067.365675
918.862612	3008.951305
919.167750	2959.855508
919.472848	2919.914446
919.777906	2894.383522
920.082925	2865.217926
920.387904	2835.656600
920.692843	2817.674804
920.997743	2806.894297
921.302603	2792.728655
921.607423	2785.852521
921.912204	2768.720159
922.216946	2760.429982
922.521647	2749.878847
922.826310	2741.928947
923.130932	2735.332597
923.435516	2728.769015
923.740059	2720.337685
924.044564	2713.665718
924.349028	2707.696992
924.653454	2699.366485
924.957840	2694.763912
925.262186	2688.192768
925.566493	2683.688497
925.870761	2681.795544
926.174989	2676.890501
926.479178	2673.039059
926.783328	2667.637463
927.087438	2665.827689
927.391509	2663.279386
927.695541	2663.435661
927.999533	2655.027017
928.303486	2654.346461
928.607400	2654.643889
928.911275	2654.525422
929.215110	2651.601553
929.518906	2651.730102
929.822663	2651.936789
930.126381	2652.758497
930.430060	2652.050215
930.733699	2653.920483
931.037299	2653.890237
931.340861	2654.601039
931.644383	2656.458704
931.947866	2655.049702
932.251309	2654.081800
932.554714	2653.005514
932.858080	2650.472334
933.161407	2649.572488
933.464694	2645.993269
933.767943	2643.790285
934.071153	2646.429329
934.374323	2645.877322
934.677455	2645.640388
934.980548	2643.409678
935.283602	2644.034781
935.586617	2641.970428
935.889593	2644.763227
936.192530	2642.935809
936.495428	2643.457569
936.798287	2647.369504
937.101108	2648.730616
937.403890	2654.200267
937.706632	2656.932573
938.009336	2664.834582
938.312002	2673.190294
938.614628	2681.908970
938.917216	2689.753005
939.219765	2687.454239
939.522275	2684.772345
939.824747	2683.953157
940.127179	2684.928621
940.429573	2680.121881
940.731929	2677.243382
941.034246	2672.250119
941.336524	2671.090653
941.638763	2667.511434
941.940964	2666.601506
942.243126	2666.689726
942.545250	2665.411794
942.847335	2663.327277
943.149381	2656.128509
943.451389	2655.367295
943.753359	2649.391007
944.055290	2651.294042
944.357182	2651.329330
944.659036	2649.759011
944.960851	2648.813795
945.262628	2646.477220
945.564367	2644.276756
945.866067	2644.304482
946.167729	2646.827580
946.469352	2645.595018
946.770937	2646.237765
947.072484	2646.119298
947.373992	2646.787251
947.675462	2642.466982
947.976893	2639.228041
948.278286	2636.117649
948.579641	2637.972793
948.880958	2636.609161
949.182236	2637.191414
949.483476	2634.938019
949.784678	2636.543626
950.085841	2638.476909
950.386967	2637.211579
950.688054	2640.511014
950.989103	2639.215438
951.290114	2640.742907
951.591087	2641.463792
951.892021	2643.008906
952.192917	2644.833804
952.493776	2648.861686
952.794596	2650.958806
953.095378	2650.570637
953.396122	2652.798827
953.696828	2647.132570
953.997496	2645.015285
954.298126	2644.085192
954.598718	2640.495891
954.899272	2636.147896
955.199788	2635.608492
955.500266	2635.099336
955.800706	2633.478605
956.101108	2627.575413
956.401472	2628.981895
956.701798	2626.214302
957.002087	2623.330762
957.302337	2621.692387
957.602550	2620.243055
957.902724	2619.375977
958.202861	2620.825308
958.502960	2616.986470
958.803022	2618.821450
959.103045	2615.373301
959.403031	2616.515122
959.702979	2614.745677
960.002889	2614.115533
960.302762	2612.038577
960.602596	2611.231993
960.902393	2612.449431
961.202153	2612.393979
961.501875	2610.596807
961.801559	2613.770214
962.101205	2612.378855
962.400814	2612.635954
962.700385	2613.003958
962.999918	2608.048504
963.299414	2605.006168
963.598873	2606.533637
963.898293	2606.488267
964.197677	2609.510439
964.497022	2610.543875
964.796331	2609.437342
965.095601	2607.320057
965.394835	2608.671087
965.694030	2608.406426
965.993189	2609.777620
966.292309	2609.192846
966.591393	2609.213011
966.890439	2608.323247
967.189447	2607.320057
967.488419	2610.629575
967.787353	2606.979779
968.086249	2607.733432
968.385108	2608.202259
968.683930	2609.805346
968.982714	2608.880294
969.281462	2608.061107
969.580172	2607.960284
969.878844	2607.746035
970.177480	2610.483381
970.476078	2610.085130
970.774639	2608.356014
971.073162	2608.461879
971.371649	2609.830552
971.670098	2607.236878
971.968510	2609.480192
972.266885	2608.703854
972.565223	2612.343567
972.863524	2608.532455
973.161788	2612.446911
973.460014	2610.130501
973.758204	2610.150665
974.056356	2610.858947
974.354471	2609.495315
974.652550	2610.001951
974.950591	2609.369286
975.248595	2606.687392
975.546563	2608.169492
975.844493	2609.618823
976.142386	2610.274173
976.440243	2610.858947
976.738062	2608.290479
977.035845	2606.495829
977.333590	2607.350304
977.631299	2605.399378
977.928971	2604.741507
978.226606	2603.050200
978.524204	2605.454830
978.821765	2602.170519
979.119290	2605.903493
979.416777	2603.266970
979.714228	2607.952722
980.011642	2607.526745
980.309020	2606.226127
980.606360	2607.047835
980.903664	2606.735283
981.200931	2608.245109
981.498162	2603.970211
981.795356	2608.131683
982.092513	2608.557661
982.389633	2610.528752
982.686717	2615.464041
982.983764	2620.071656
983.280775	2623.797069
983.577749	2624.109620
983.874686	2621.631893
984.171587	2619.386059
984.468451	2621.238683
984.765279	2618.340020
985.062070	2615.108640
985.358824	2613.359360
985.655543	2610.400202
985.952224	2610.430449
986.248869	2608.434152
986.545478	2608.640840
986.842050	2608.096395
987.138586	2607.962804
987.435086	2605.454830
987.731549	2605.366610
988.027975	2604.494491
988.324366	2604.643205
988.620719	2602.374685
988.917037	2602.656990
989.213318	2603.985334
989.509563	2603.599686
989.805772	2602.173039
990.101944	2605.525407
990.398080	2603.788729
990.694180	2604.471805
990.990244	2600.733790
991.286271	2603.024994
991.582262	2601.817638
991.878217	2606.084975
992.174136	2603.478698
992.470019	2602.515838
992.765865	2601.679006
993.061676	2602.041969
993.357450	2601.648759
993.653188	2599.231526
993.948890	2602.767895
994.244556	2601.868049
994.540186	2602.435179
994.835780	2602.752772
995.131337	2607.171343
995.426859	2602.639346
995.722345	2606.304265
996.017795	2608.116560
996.313208	2609.069338
996.608586	2612.232662
996.903928	2605.790067
997.199234	2610.969853
997.494504	2611.239554
997.789738	2607.458689
998.084936	2608.245109
998.380099	2608.330809
998.675225	2605.863164
998.970316	2607.428442
999.265371	2607.027670
999.560390	2603.871908
999.855373	2604.093719
1000.150320	2604.988524
1000.445232	2604.522217
1000.740108	2603.355190
1001.034948	2602.896445
1001.329752	2601.981475
1001.624521	2600.736310
1001.919254	2600.915271
1002.213951	2604.580190
1002.508613	2599.377719
1002.803239	2601.752103
1003.097829	2602.480550
1003.392384	2601.076588
1003.686903	2599.405446
1003.981386	2600.827051
1004.275834	2602.263780
1004.570246	2603.153544
1004.864623	2601.749582
1005.158964	2602.311671
1005.453270	2602.651949
1005.747540	2602.200766
1006.041775	2600.716146
1006.335974	2601.046341
1006.630138	2600.789242
1006.924266	2602.334356
1007.218359	2600.461567
1007.512416	2601.537854
1007.806438	2596.622729
1008.100425	2598.782863
1008.394376	2597.303285
1008.688292	2598.510641
1008.982172	2600.017946
1009.276017	2602.102463
1009.569827	2599.639859
1009.863602	2601.265632
1010.157341	2600.396033
1010.451045	2599.803697
1010.744714	2601.641197
1011.038347	2599.539036
1011.331945	2599.329828
1011.625508	2599.045003
1011.919036	2600.315374
1012.212528	2600.088522
1012.505986	2602.503235
1012.799408	2599.609612
1013.092795	2600.363265
1013.386147	2597.968717
1013.679464	2599.102977
1013.972745	2599.564242
1014.265992	2599.844026
1014.559204	2599.042483
1014.852380	2600.640528
1015.145521	2597.210023
1015.438628	2601.442072
1015.731699	2601.018615
1016.024736	2598.407297
1016.317737	2598.006526
1016.610703	2599.387802
1016.903635	2599.559201
1017.196531	2601.212699
1017.489393	2601.013574
1017.782219	2600.443923
1018.075011	2602.919130
1018.367768	2599.758327
1018.660490	2598.208172
1018.953177	2598.208172
1019.245829	2598.208172
