Dividing Wavelength (nm)	Counts (n)	Blue Motor Position (mm): 20.900000	Red Motor Position (mm): 0.000000	
326.493990	2186.713907
326.888308	2186.713907
327.282561	2186.713907
327.676750	2144.544655
328.070874	2141.923255
328.464933	2144.665643
328.858929	2147.851652
329.252859	2153.306180
329.646726	2160.109217
330.040528	2174.199242
330.434265	2188.695080
330.827938	2204.163861
331.221547	2223.496686
331.615091	2239.784654
332.008571	2256.949783
332.401986	2275.902001
332.795338	2294.334980
333.188625	2311.621096
333.581847	2328.846719
333.975006	2347.428412
334.368100	2371.464633
334.761129	2384.997611
335.154095	2402.301372
335.546996	2429.858839
335.939833	2457.086111
336.332606	2474.460448
336.725315	2485.929073
337.117960	2501.879283
337.510540	2511.346570
337.903056	2521.020545
338.295508	2529.683767
338.687896	2540.376055
339.080220	2547.249668
339.472480	2554.544218
339.864676	2560.391956
340.256807	2565.410425
340.648875	2570.378482
341.040879	2570.819583
341.432818	2576.463155
341.824694	2577.476427
342.216506	2578.759400
342.608253	2579.634040
342.999937	2577.496591
343.391557	2581.431212
343.783113	2579.548341
344.174605	2578.542631
344.566033	2576.790830
344.957397	2576.841241
345.348697	2571.716908
345.739934	2573.113308
346.131106	2571.512742
346.522215	2571.346383
346.913260	2567.522668
347.304241	2568.556105
347.695159	2563.819941
348.086012	2563.217523
348.476802	2560.676781
348.867528	2556.961451
349.258191	2550.748229
349.648789	2552.782334
350.039324	2549.278732
350.429796	2556.011193
350.820203	2551.534649
351.210548	2549.175389
351.600828	2552.043805
351.991045	2547.542055
352.381198	2547.562220
352.771288	2546.284287
353.161314	2546.899308
353.551276	2544.492157
353.941175	2544.779503
354.331010	2548.094061
354.720782	2544.870243
355.110490	2546.591798
355.500135	2543.050387
355.889717	2543.824204
356.279235	2541.563247
356.668689	2543.862013
357.058080	2544.598021
357.447408	2544.267826
357.836672	2543.536858
358.225873	2548.252858
358.615010	2542.339584
359.004084	2548.449463
359.393095	2544.741694
359.782043	2544.565254
360.170927	2551.015410
360.559748	2548.343598
360.948505	2549.155224
361.337199	2549.606407
361.725830	2549.364432
362.114398	2552.265616
362.502903	2549.535831
362.891344	2549.840821
363.279722	2553.556152
363.668037	2553.266285
364.056289	2552.464742
364.444478	2550.806202
364.832603	2555.943138
365.220665	2554.871893
365.608665	2552.726882
365.996601	2555.484393
366.384474	2553.654454
366.772284	2553.500699
367.160031	2557.889023
367.547715	2557.339538
367.935336	2556.301060
368.322893	2555.953220
368.710388	2555.234856
369.097820	2556.069167
369.485189	2554.329969
369.872495	2558.584702
370.259738	2559.275341
370.646918	2558.335165
371.034035	2562.216854
371.421090	2560.092008
371.808081	2559.338355
372.195010	2559.161915
372.581875	2559.769374
372.968678	2559.643345
373.355418	2562.962945
373.742096	2564.865980
374.128710	2560.497820
374.515262	2562.347924
374.901751	2561.120403
375.288177	2562.194169
375.674540	2561.904302
376.060841	2562.030331
376.447079	2562.340362
376.833254	2562.015208
377.219367	2563.257852
377.605417	2562.418500
377.991404	2560.402038
378.377329	2564.916392
378.763191	2565.508727
379.148991	2564.971844
379.534727	2564.109807
379.920402	2564.198027
380.306013	2563.668706
380.691563	2568.503173
381.077049	2564.460167
381.462474	2566.070816
381.847835	2564.747513
382.233134	2566.325394
382.618371	2566.156516
383.003545	2565.483522
383.388657	2564.923953
383.773706	2565.561659
384.158693	2565.186093
384.543618	2570.018039
384.928480	2569.445868
385.313280	2568.664490
385.698017	2565.526371
386.082692	2569.403019
386.467305	2569.118193
386.851856	2567.026115
387.236344	2567.313460
387.620770	2565.612071
388.005133	2565.680127
388.389435	2568.059551
388.773674	2566.141392
389.157851	2571.066599
389.541965	2571.250602
389.926018	2573.899728
390.310008	2571.134655
390.693936	2571.921075
391.077802	2573.685479
391.461606	2574.814697
391.845348	2572.268915
392.229027	2573.594738
392.612645	2571.749676
392.996200	2571.767320
393.379694	2573.193966
393.763125	2573.045252
394.146494	2573.277145
394.529801	2576.289235
394.913047	2575.787640
395.296230	2575.215469
395.679351	2575.608679
396.062410	2575.694379
396.445408	2573.478792
396.828343	2573.216652
397.211217	2575.298648
397.594028	2576.621951
397.976778	2576.170768
398.359466	2577.547003
398.742092	2576.465675
399.124656	2573.821590
399.507158	2576.798391
399.889598	2576.533731
400.271977	2577.778896
400.654294	2576.690007
401.036549	2577.678073
401.418742	2577.332754
401.800874	2577.685634
402.182944	2579.805440
402.564952	2577.317630
402.946898	2578.968608
403.328783	2579.235789
403.710606	2577.146231
404.092367	2580.117991
404.474067	2580.740574
404.855705	2578.703947
405.237282	2579.505491
405.618797	2581.174113
406.000250	2581.789134
406.381642	2582.804926
406.762972	2580.032292
407.144240	2577.713361
407.525447	2578.025912
407.906593	2575.911148
408.287677	2581.945409
408.668700	2584.518918
409.049661	2582.217632
409.430560	2580.228897
409.811399	2581.320306
410.192176	2581.093454
410.572891	2585.355750
410.953545	2586.807602
411.334138	2581.279977
411.714669	2584.851635
412.095139	2585.128898
412.475547	2584.846593
412.855894	2584.037488
413.236180	2583.435070
413.616405	2584.082859
413.996568	2586.217787
414.376670	2584.387848
414.756711	2582.983887
415.136691	2586.547983
415.516609	2586.784917
415.896466	2587.987232
416.276262	2584.990266
416.655997	2586.840370
417.035670	2586.338775
417.415283	2584.836511
417.794834	2584.440781
418.174324	2586.331213
418.553753	2586.580750
418.933121	2588.057808
419.312428	2586.437077
419.691674	2588.970257
420.070859	2588.330031
420.449983	2587.987232
420.829045	2588.206522
421.208047	2587.621749
421.586988	2589.549990
421.965867	2589.628128
422.344686	2590.550659
422.723444	2589.494537
423.102141	2588.022520
423.480777	2590.061667
423.859352	2592.894796
424.237866	2590.248190
424.616319	2588.612335
424.994712	2590.437233
425.373044	2590.452357
425.751314	2588.272057
426.129524	2585.144022
426.507673	2588.196440
426.885762	2586.600915
427.263789	2593.025866
427.641756	2590.331369
428.019662	2589.988570
428.397508	2591.994950
428.775292	2591.034610
429.153016	2592.758684
429.530679	2592.148705
429.908282	2591.450505
430.285824	2593.789600
430.663305	2594.439909
431.040726	2593.719024
431.418086	2593.807244
431.795385	2593.386308
432.172624	2593.136771
432.549802	2596.307657
432.926920	2593.237594
433.303977	2596.368151
433.680974	2593.761874
434.057910	2596.882348
434.434786	2595.901844
434.811601	2595.304467
435.188355	2595.027204
435.565050	2597.189859
435.941683	2595.773294
436.318257	2598.336721
436.694770	2596.015270
437.071222	2594.039137
437.447614	2598.258583
437.823946	2596.968048
438.200218	2598.808069
438.576429	2597.522575
438.952580	2598.208172
439.328670	2597.091556
439.704700	2600.128851
440.080670	2596.763881
440.456580	2596.035434
440.832429	2599.526433
441.208218	2597.336052
441.583947	2598.240939
441.959616	2598.896289
442.335224	2598.644232
442.710773	2599.644901
443.086261	2598.729931
443.461689	2597.298243
443.837057	2601.152206
444.212365	2599.007195
444.587612	2596.327821
444.962800	2594.470156
445.337927	2597.852770
445.712995	2593.575351
446.088002	2602.319233
446.462949	2601.386619
446.837837	2602.294027
447.212664	2601.109356
447.587431	2600.164139
447.962139	2602.641867
448.336786	2605.316199
448.711374	2606.112701
449.085901	2605.260746
449.460369	2604.121445
449.834776	2606.339553
450.209124	2607.002465
450.583412	2607.186467
450.957640	2606.344594
451.331808	2605.227978
451.705917	2603.730756
452.079965	2603.317381
452.453954	2604.577670
452.827883	2606.515993
453.201752	2606.132866
453.575562	2604.224789
453.949311	2604.582711
454.323001	2605.606065
454.696632	2605.853082
455.070202	2605.734614
455.443713	2608.792074
455.817164	2606.324429
456.190556	2610.616972
456.563888	2608.179574
456.937160	2610.995058
457.310373	2608.411467
457.683526	2608.509770
458.056619	2609.129832
458.429653	2609.817949
458.802628	2611.398351
459.175542	2608.378700
459.548398	2612.431787
459.921194	2612.025974
460.293930	2612.061262
460.666607	2615.572426
461.039224	2617.299021
461.411782	2616.457149
461.784280	2617.447735
462.156719	2620.409413
462.529099	2616.865482
462.901419	2613.253495
463.273680	2615.020420
463.645882	2612.376335
464.018024	2615.695934
464.390106	2612.257867
464.762130	2621.226080
465.134094	2620.096862
465.505999	2619.996039
465.877845	2629.090280
466.249631	2633.080353
466.621358	2633.791156
466.993026	2632.924078
467.364634	2633.665127
467.736184	2631.237812
468.107674	2629.816206
468.479105	2628.293778
468.850477	2630.781587
469.221790	2631.447020
469.593043	2631.643625
469.964238	2630.302678
470.335373	2628.175311
470.706449	2633.367699
471.077467	2629.889303
471.448425	2637.546816
471.819324	2644.944709
472.190164	2650.016110
472.560945	2647.019144
472.931667	2643.639050
473.302330	2643.873464
473.672934	2643.006385
474.043479	2646.746922
474.413965	2649.839669
474.784393	2648.029895
475.154761	2654.175062
475.525070	2655.402583
475.895321	2655.677326
476.265513	2660.728562
476.635645	2664.388439
477.005719	2669.706857
477.375734	2673.432269
477.745691	2680.555420
478.115588	2685.427695
478.485427	2691.250228
478.855207	2701.488811
479.224928	2718.608570
479.594591	2739.695716
479.964194	2748.081676
480.333739	2751.413878
480.703226	2759.895620
481.072653	2765.556835
481.442022	2782.653909
481.811333	2806.914462
482.180584	2811.943012
482.549777	2824.056905
482.918912	2831.497648
483.287988	2854.782738
483.657005	2872.905686
484.025964	2885.904301
484.394864	2905.232085
484.763706	2921.099117
485.132489	2933.089501
485.501213	2956.833336
485.869879	2984.957933
486.238487	3009.299144
486.607036	3043.906666
486.975527	3064.923236
487.343959	3106.157354
487.712333	3138.763537
488.080648	3166.250428
488.448905	3218.759087
488.817104	3248.963160
489.185244	3319.365394
489.553326	3370.555791
489.921350	3454.667443
490.289315	3617.106022
490.657222	3771.418262
491.025070	3858.264740
491.392861	3920.480140
491.760593	3949.123977
492.128267	3977.845951
492.495883	3987.141838
492.863440	4018.631406
493.230939	4036.340979
493.598380	4117.180922
493.965763	4166.440557
494.333088	4213.000654
494.700354	4292.691214
495.067563	4377.831261
495.434713	4450.534782
495.801805	4531.848594
496.168839	4629.992297
496.535815	4711.817786
496.902733	4826.335157
497.269593	4870.949369
497.636395	5007.753681
498.003139	5104.848825
498.369825	5207.048137
498.736453	5311.263910
499.103023	5403.852262
499.469535	5526.140572
499.835989	5671.096431
500.202385	5804.298839
500.568723	5849.349110
500.935003	5985.109904
501.301226	6065.065124
501.667390	6298.450383
502.033497	6512.487693
502.399546	6561.391926
502.765537	6649.924670
503.131470	6829.760272
503.497345	6993.738924
503.863163	6980.606718
504.228923	7245.355516
504.594625	7440.163344
504.960269	7459.745706
505.325856	7729.707057
505.691385	7765.287520
506.056856	8027.578755
506.422270	8206.509470
506.787625	8234.394612
507.152924	8538.850057
507.518164	8666.038369
507.883347	8767.610057
508.248472	8831.302516
508.613540	9220.199808
508.978550	9357.314152
509.343503	9513.053038
509.708398	9767.356565
510.073236	9970.537750
510.438016	10201.425117
510.802738	10303.271548
511.167403	10549.025277
511.532010	10609.025090
511.896561	11068.546428
512.261053	11279.916968
512.625488	11367.403672
512.989866	11510.201916
513.354186	11607.385280
513.718449	11870.047040
514.082655	12170.648523
514.446803	12276.001077
514.810894	12652.890341
515.174927	12612.233435
515.538904	12826.250581
515.902822	13223.433010
516.266684	13340.798633
516.630488	13445.747894
516.994235	13648.233400
517.357925	13955.516933
517.721558	14251.896450
518.085133	14488.142563
518.448651	14638.379030
518.812112	14699.016549
519.175516	14941.304485
519.538863	15256.288381
519.902152	15314.261650
520.265385	15683.080027
520.628560	15741.822072
520.991678	15944.826817
521.354739	16182.618044
521.717743	16410.412663
522.080690	16442.575224
522.443580	16866.896705
522.806413	17027.281015
523.169189	17297.489382
523.531908	17474.305332
523.894569	17430.313703
524.257174	17655.791912
524.619722	17979.799472
524.982213	17922.589938
525.344647	18191.719498
525.707025	18421.991844
526.069345	18616.056102
526.431608	18761.755531
526.793815	19077.016689
527.155964	18804.181881
527.518057	19111.220918
527.880093	19228.662159
528.242072	19507.243882
528.603995	19454.407548
528.965860	19471.187029
529.327669	19715.877075
529.689421	19809.645057
530.051117	19820.712910
530.412755	20150.008641
530.774337	20097.736917
531.135862	20135.769902
531.497331	20443.824732
531.858743	20204.054852
532.220098	20744.572408
532.581396	20573.097560
532.942638	20722.325796
533.303824	20877.547964
533.664953	21038.320443
534.026025	20887.728575
534.387040	21182.023574
534.747999	21380.423225
535.108902	21616.825614
535.469748	21303.328859
535.830537	21585.235224
536.191270	21763.651741
536.551947	21816.414977
536.912567	21604.489911
537.273131	21959.916463
537.633638	21803.723872
537.994089	22097.517278
538.354483	21794.382614
538.714821	22312.479639
539.075103	22461.511270
539.435328	22362.969316
539.795497	22022.804857
540.155609	22471.500317
540.515665	22817.681393
540.875665	22212.503476
541.235609	22522.332792
541.595496	22599.618721
541.955328	22969.294094
542.315102	22963.166572
542.674821	22649.470692
543.034483	22586.794026
543.394090	22794.015696
543.753640	22649.379951
544.113134	23306.491834
544.472571	22999.369618
544.831953	23332.862110
545.191278	23000.024968
545.550548	23007.062419
545.909761	23240.135126
546.268918	23511.757536
546.628019	23506.983564
546.987064	23287.521972
547.346053	23106.456329
547.704986	23274.321711
548.063863	23464.642913
548.422684	23470.205826
548.781449	23105.140588
549.140158	23511.349203
549.498811	23136.398262
549.857408	22899.287591
550.215949	23372.452812
550.574434	23076.728645
550.932864	23326.096881
551.291237	23486.135872
551.649555	23388.443352
552.007817	23472.023162
552.366022	23360.885884
552.724173	23431.174692
553.082267	23382.993864
553.440305	23864.197205
553.798288	23166.511595
554.156215	23707.971847
554.514086	23811.209637
554.871902	23207.319735
555.229661	23507.205374
555.587365	23384.917064
555.945014	23232.485175
556.302606	23529.958622
556.660143	23449.905099
557.017625	23726.044383
557.375050	23284.270428
557.732421	23687.482077
558.089735	23505.430888
558.446994	23578.709101
558.804197	23610.385191
559.161345	23578.898144
559.518437	23319.172857
559.875474	23548.056365
560.232455	23720.426017
560.589381	23566.262492
560.946251	23533.046329
561.303065	23871.383369
561.659825	23964.584222
562.016528	23570.958327
562.373177	23319.525737
562.729770	23672.366177
563.086307	23560.621441
563.442789	23731.995466
563.799216	23562.307707
564.155587	23579.636673
564.511904	23569.100661
564.868164	23489.941943
565.224370	23497.894363
565.580520	23386.873032
565.936615	23541.999418
566.292654	23193.622920
566.648638	23535.269478
567.004567	23349.266024
567.360441	23296.263333
567.716260	23032.537890
568.072023	23351.610161
568.427732	23104.689404
568.783385	22912.717225
569.138982	23137.580413
569.494525	23175.726824
569.850013	22934.384104
570.205445	23026.622096
570.560823	22827.859482
570.916145	22598.481941
571.271412	22781.032204
571.626625	22543.732490
571.981782	22647.035814
572.336884	22445.268673
572.691931	22583.976021
573.046923	22326.771310
573.401860	22216.173436
573.756743	22204.213299
574.111570	22121.770269
574.466342	22061.394890
574.821059	22148.995020
575.175722	21860.714117
575.530330	21845.378927
575.884882	21874.816745
576.239380	21769.940580
576.593823	21667.920229
576.948211	21653.013537
577.302544	21488.813074
577.656823	21365.458560
578.011047	21464.015638
578.365216	21349.853668
578.719330	21223.484544
579.073389	21119.813215
579.427394	21261.114237
579.781344	21053.862320
580.135239	20936.216913
580.489080	20915.903583
580.842866	20680.143942
581.196597	20852.919407
581.550273	20849.554437
581.903895	20743.896894
582.257463	21058.568237
582.610975	20582.312789
582.964434	20878.745238
583.317837	20595.969275
583.671186	20689.248265
584.024481	20646.637912
584.377721	20427.062895
584.730906	20476.403188
585.084037	20519.636124
585.437113	20416.957902
585.790135	20614.689600
586.143103	20103.375448
586.496016	20091.992522
586.848874	20343.780513
587.201679	20286.107192
587.554428	19944.707651
587.907124	20276.793661
588.259765	20063.331042
588.612352	20136.221086
588.964884	19719.181551
589.317362	19881.234483
589.669786	19936.722463
590.022155	19994.022738
590.374470	20157.225053
590.726731	19968.280086
591.078937	19715.188957
591.431090	19824.733231
591.783188	19569.020702
592.135232	19543.245282
592.487222	19636.002513
592.839157	19671.893008
593.191038	19552.158042
593.542866	19446.137536
593.894639	19161.549277
594.246358	19387.266941
594.598022	19290.743968
594.949633	19048.675322
595.301190	19005.888529
595.652692	19161.708074
596.004141	19413.007073
596.355535	18740.050843
596.706876	18751.443850
597.058162	18646.381163
597.409395	18859.480818
597.760573	18957.639646
598.111698	18739.302231
598.462768	18674.203291
598.813785	18626.299727
599.164748	18452.667265
599.515657	18490.947267
599.866511	18271.137835
600.217312	18637.135687
600.568060	18183.419238
600.918753	18485.331421
601.269392	18382.426348
601.619978	18149.341038
601.970510	18376.986943
602.320988	18314.340524
602.671412	18530.386734
603.021783	18424.948480
603.372100	18167.811826
603.722363	18291.708264
604.072572	18228.850116
604.422728	18364.792392
604.772830	18143.987332
605.122878	18080.244463
605.472872	18082.555832
605.822813	18069.060663
606.172701	18011.296602
606.522534	18226.120332
606.872314	18256.120238
607.222041	18087.347448
607.571714	18298.539027
607.921333	18125.516545
608.270899	18198.678811
608.620411	18400.619872
608.969870	18142.205285
609.319276	18157.238005
609.668627	18185.463426
610.017926	18331.823245
610.367171	18442.980688
610.716362	18471.614442
611.065500	18295.388306
611.414585	18424.358665
611.763616	18402.830418
612.112594	18361.472792
612.461518	18337.131580
612.810389	18526.862967
613.159207	18376.102220
613.507971	18281.048744
613.856682	18568.863340
614.205340	18493.374582
614.553945	18633.811046
614.902496	18377.894350
615.250994	18636.422364
615.599439	18556.812462
615.947830	18552.456905
616.296169	18587.034179
616.644454	18559.252381
616.992686	18528.435807
617.340864	18738.009175
617.688990	18509.150873
618.037063	18675.030040
618.385082	18519.691926
618.733048	18806.273960
619.080961	18666.792795
619.428821	18714.993787
619.776628	18600.118494
620.124382	18527.898924
620.472083	18562.985355
620.819731	18575.976408
621.167326	18290.647101
621.514868	18327.379468
621.862357	18078.338907
622.209793	18097.059231
622.557176	17931.459848
622.904506	17769.800127
623.251783	17654.403074
623.599007	17443.035055
623.946179	17384.156898
624.293297	17329.001634
624.640363	17078.854539
624.987376	17103.498220
625.334336	16887.005868
625.681243	16734.339565
626.028097	16734.090028
626.374899	16680.842840
626.721647	16545.500462
627.068343	16373.357661
627.414987	16304.233360
627.761577	16275.828978
628.108115	16329.237483
628.454600	16044.727363
628.801032	16140.232022
629.147412	16069.829788
629.493739	16094.100423
629.840014	15901.430044
630.186236	16009.512383
630.532405	15764.696308
630.878521	15965.911443
631.224585	15850.595049
631.570597	15682.192784
631.916556	15710.619850
632.262462	15698.765577
632.608316	15613.373472
632.954117	15553.635799
633.299866	15552.773762
633.645562	15470.527337
633.991206	15228.993053
634.336797	15105.835144
634.682336	15069.140585
635.027823	14961.514471
635.373257	14844.191698
635.718639	14730.266662
636.063968	14697.466394
636.409245	14447.105050
636.754470	14471.100943
637.099642	14322.497810
637.444762	14091.045834
637.789829	14136.317916
638.134845	13972.228358
638.479808	14000.690713
638.824719	13955.874855
639.169577	13797.139003
639.514383	13846.267568
639.859137	13666.759641
640.203839	13747.833997
640.548489	13588.841046
640.893086	13578.166403
641.237632	13450.257207
641.582125	13588.886417
641.926566	13431.010081
642.270955	13433.979321
642.615292	13401.206780
642.959576	13413.877720
643.303809	13450.224439
643.647990	13376.089231
643.992118	13443.537348
644.336195	13212.133263
644.680219	13405.514446
645.024192	13338.184795
645.368112	13572.611052
645.711981	13632.318478
646.055797	13814.588957
646.399562	13769.120270
646.743274	14044.447928
647.086935	14318.870699
647.430544	14292.593685
647.774101	14312.987673
648.117606	14477.770389
648.461059	14433.468729
648.804460	14432.820941
649.147810	14159.915557
649.491108	14057.252459
649.834354	14076.912959
650.177548	13780.031847
650.520690	13590.630656
650.863781	13510.713244
651.206820	13552.474163
651.549807	13374.471020
651.892742	13190.363041
652.235626	13121.241260
652.578458	13129.702836
652.921238	12812.873879
653.263967	13010.172037
653.606644	12840.060822
653.949269	12813.272130
654.291843	12625.358079
654.634365	12773.774690
654.976836	12624.813635
655.319255	12632.337557
655.661622	12589.623860
656.003938	12505.539935
656.346203	12439.500819
656.688416	12500.014830
657.030577	12458.873973
657.372687	12393.764951
657.714746	12357.448479
658.056753	12552.082387
658.398708	12374.911036
658.740612	12370.613452
659.082465	12474.108340
659.424266	12437.438987
659.766016	12457.480094
660.107715	12359.366638
660.449362	12434.416816
660.790958	12403.726271
661.132503	12347.174607
661.473996	12410.206674
661.815438	12428.377513
662.156829	12436.864296
662.498168	12416.135071
662.839456	12416.722366
663.180693	12440.057867
663.521879	12530.876774
663.863013	12507.780728
664.204097	12478.960451
664.545129	12602.360335
664.886110	12569.807084
665.227040	12655.632729
665.567918	12662.695385
665.908746	12694.255529
666.249522	12676.790451
666.590248	12721.480280
666.930922	12839.876819
667.271545	12822.666320
667.612118	12903.639854
667.952639	12813.904795
668.293109	12815.389415
668.633528	12779.650154
668.973896	12749.015063
669.314213	12841.200122
669.654480	12577.923342
669.994695	12633.635654
670.334859	12670.279801
670.674973	12609.052467
671.015035	12641.000780
671.355047	12589.460023
671.695008	12558.063717
672.034918	12564.728122
672.374777	12606.090789
672.714585	12523.632636
673.054342	12553.982903
673.394049	12507.725275
673.733705	12597.616610
674.073310	12515.546625
674.412864	12527.678162
674.752368	12401.127556
675.091820	12412.240780
675.431223	12402.866754
675.770574	12272.091662
676.109875	12195.098119
676.449125	12160.997234
676.788324	12095.668921
677.127473	11935.496340
677.466571	11927.548961
677.805619	11823.219762
678.144616	11746.715211
678.483562	11710.025693
678.822458	11583.311250
679.161303	11561.147817
679.500098	11559.033053
679.838842	11508.666885
680.177535	11529.653208
680.516179	11580.354613
680.854771	11529.343178
681.193314	11748.933318
681.531805	11888.721994
681.870247	12297.632668
682.208638	12707.473434
682.546978	13021.872556
682.885268	13087.679778
683.223508	12777.547993
683.561697	12620.488325
683.899836	12517.830268
684.237925	12329.243223
684.575963	12238.830129
684.913951	12163.903459
685.251889	12100.558840
685.589776	12207.945500
685.927614	12136.267854
686.265401	12089.695154
686.603137	12136.948409
686.940824	12289.491204
687.278460	12400.053790
687.616046	12455.866925
687.953582	12629.333029
688.291068	12544.298846
688.628504	12782.037141
688.965889	12801.450624
689.303224	12761.194490
689.640510	12661.372082
689.977745	12360.914272
690.314930	12133.041515
690.652065	12046.989019
690.989150	11758.942529
691.326185	11532.297294
691.663170	11328.238948
692.000105	11084.899931
692.336990	10978.718108
692.673825	10730.436239
693.010610	10607.623649
693.347345	10400.742257
693.684030	10200.507627
694.020665	10149.115584
694.357251	9951.885481
694.693786	9900.306915
695.030272	9729.018590
695.366707	9606.158109
695.703093	9538.233602
696.039429	9536.212099
696.375716	9468.711049
696.711952	9339.922171
697.048139	9375.966421
697.384276	9324.561775
697.720363	9346.581535
698.056400	9277.661401
698.392388	9231.287826
698.728326	9189.201753
699.064214	9124.102813
699.400053	9177.803705
699.735842	8996.110438
700.071581	8946.467675
700.407270	8876.302375
700.742910	8795.197772
701.078501	8704.658649
701.414042	8583.910411
701.749533	8516.643775
702.084974	8376.477013
702.420366	8488.630083
702.755709	8377.626396
703.091002	8238.477947
703.426246	8268.593800
703.761440	8217.978095
704.096584	8175.367742
704.431679	8110.639326
704.766725	8100.420907
705.101721	8047.098103
705.436668	8082.308042
705.771565	7980.804409
706.106413	8064.011174
706.441212	8105.202442
706.775961	8063.161739
707.110661	8090.038651
707.445311	8248.950944
707.779913	8134.894838
708.114465	8270.680838
708.448967	8309.137280
708.783421	8441.316333
709.117825	8625.681412
709.452180	8661.793718
709.786485	8744.256912
710.120742	9025.165128
710.454949	9022.165641
710.789107	9125.189182
711.123216	9330.974123
711.457275	9500.024176
711.791286	9666.467953
712.125247	9659.765739
712.459159	9645.156475
712.793023	9900.720290
713.126837	9479.708326
713.460602	9625.367425
713.794318	9452.871744
714.127985	9485.561106
714.461602	9171.320781
714.795171	9120.944530
715.128691	8872.246767
715.462162	8619.463149
715.795584	8569.492711
716.128957	8423.047192
716.462281	8253.097293
716.795556	8296.168911
717.128782	8096.882017
717.461960	7833.789239
717.795088	7896.397850
718.128167	7812.011455
718.461198	7646.626321
718.794180	7583.218688
719.127113	7578.996721
719.459997	7433.299813
719.792833	7204.144083
720.125619	7264.479133
720.458357	7120.864221
720.791046	7111.013807
721.123686	7105.246727
721.456278	6951.040351
721.788821	6967.182126
722.121315	6866.538010
722.453761	6923.165291
722.786158	6873.933383
723.118506	6883.630042
723.450805	6847.855494
723.783056	6918.585403
724.115259	6823.481515
724.447412	6818.163098
724.779518	6861.091043
725.111574	6861.728749
725.443582	6945.490041
725.775542	6924.967503
726.107453	7113.841894
726.439315	7029.987341
726.771129	7082.463232
727.102895	7248.171000
727.434612	7368.473095
727.766281	7395.629791
728.097901	7480.316135
728.429473	7468.038404
728.760996	7441.960516
729.092471	7416.815240
729.423897	7369.874536
729.755276	7381.481793
730.086606	7311.354302
730.417887	7404.504743
730.749120	7588.257321
731.080305	7776.022658
731.411442	7908.882267
731.742530	7903.354642
732.073570	8010.242227
732.404562	8099.889066
732.735506	7942.743697
733.066401	8082.623114
733.397249	8023.399638
733.728048	7787.425748
734.058798	7456.678164
734.389501	7237.042653
734.720156	7060.788791
735.050762	6823.685682
735.381320	6720.447892
735.711831	6678.689494
736.042293	6568.671353
736.372707	6588.336894
736.703073	6454.393436
737.033391	6490.394836
737.363661	6497.432287
737.693883	6520.699732
738.024056	6612.277333
738.354182	6651.212685
738.684260	6689.530495
739.014290	6794.512524
739.344272	6911.424444
739.674207	6934.699451
740.004093	7006.525811
740.333931	7018.264138
740.663722	7025.452823
740.993464	7107.250585
741.323159	7106.418795
741.652806	6854.020825
741.982405	6850.575196
742.311956	6919.094559
742.641460	6762.276866
742.970915	6563.612555
743.300323	6557.570732
743.629683	6501.437484
743.958996	6373.455190
744.288260	6283.705008
744.617477	6229.386575
744.946647	6241.679429
745.275768	6067.137039
745.604842	6024.037694
745.933869	6012.077556
746.262847	5969.051308
746.591778	5952.223937
746.920662	5914.485859
747.249498	5898.994393
747.578286	5949.446261
747.907027	6025.129104
748.235720	6085.572538
748.564365	6055.958280
748.892963	6076.553914
749.221514	6235.771197
749.550017	6080.831333
749.878473	5948.984995
750.206881	6004.271330
750.535242	5945.791424
750.863555	5875.333738
751.191821	5899.823663
751.520039	5905.847842
751.848210	5806.446370
752.176334	5825.713660
752.504411	5875.338779
752.832440	5804.296318
753.160421	5730.685390
753.488356	5776.270023
753.816243	5813.340148
754.144082	5668.888405
754.471875	5634.658971
754.799620	5676.606412
755.127318	5686.209810
755.454969	5642.250948
755.782572	5606.783911
756.110129	5650.200848
756.437638	5637.015710
756.765100	5574.079425
757.092515	5573.003139
757.419882	5620.301765
757.747203	5601.495740
758.074477	5668.359084
758.401703	5659.285007
758.728882	5601.929279
759.056014	5654.022043
759.383099	5789.195542
759.710138	5797.911697
760.037129	5785.800325
760.364073	5789.656808
760.690970	5870.423654
761.017820	5857.205748
761.344623	5804.099713
761.671379	5904.280043
761.998088	6021.358321
762.324751	6251.413897
762.651366	6834.241858
762.977935	8108.401054
763.304456	9726.104803
763.630931	10641.303598
763.957359	10290.283015
764.283740	9360.820274
764.610074	8544.269298
764.936362	7560.533495
765.262602	6962.526620
765.588796	6420.993271
765.914943	6077.514254
766.241044	5913.933853
766.567097	5722.475871
766.893104	5469.760308
767.219064	5284.956649
767.544978	5220.157658
767.870845	5148.757275
768.196665	5037.430954
768.522438	4967.235407
768.848165	4935.476138
769.173846	4864.347978
769.499479	4827.729036
769.825066	4774.532260
770.150607	4717.158888
770.476101	4688.066390
770.801548	4691.713664
771.126949	4613.502683
771.452303	4561.435126
771.777611	4516.954505
772.102872	4533.807082
772.428087	4497.646885
772.753256	4458.766986
773.078378	4417.212755
773.403453	4345.804811
773.728482	4331.737471
774.053465	4285.316006
774.378401	4273.968369
774.703291	4278.848206
775.028135	4206.794994
775.352932	4155.065193
775.677683	4143.866270
776.002388	4157.404289
776.327046	4176.147299
776.651658	4099.836833
776.976224	4034.889127
777.300743	4041.112431
777.625216	4062.698652
777.949643	4061.902150
778.274024	4017.179553
778.598359	3967.183910
778.922647	3989.551510
779.246889	3985.505984
779.571086	3978.677741
779.895236	3968.136688
780.219339	3946.943677
780.543397	3939.139971
780.867409	3993.186182
781.191374	4007.061958
781.515294	3950.762352
781.839167	3942.436886
782.162995	3961.948672
782.486776	3944.886887
782.810511	3956.786530
783.134201	3954.182774
783.457844	3912.237854
783.781441	3853.397506
784.104993	3859.804813
784.428498	3880.748286
784.751958	3876.561608
785.075372	3855.729040
785.398739	3822.069256
785.722061	3828.826922
786.045337	3872.221175
786.368568	3906.939601
786.691752	3819.500788
787.014891	3864.583827
787.337983	3988.271057
787.661030	4143.652021
787.984031	4305.311743
788.306987	4474.278617
788.629897	4554.579156
788.952760	4514.328063
789.275579	4442.657979
789.598351	4386.093712
789.921078	4252.684617
790.243759	4052.691962
790.566395	4024.496788
790.888984	4026.702293
791.211529	3920.674225
791.534027	3859.051160
791.856480	3851.749049
792.178888	3791.232518
792.501249	3739.099425
792.823566	3749.796753
793.145836	3781.049387
793.468062	3734.706059
793.790241	3684.176054
794.112375	3710.435424
794.434464	3772.081174
794.756507	3798.267448
795.078505	3782.856640
795.400457	3809.519303
795.722364	3943.525775
796.044226	4050.294893
796.366042	4123.318527
796.687812	4103.569807
797.009538	4114.819142
797.331218	4071.974375
797.652852	4043.585117
797.974442	4020.973022
798.295986	4025.623486
798.617484	3948.050211
798.938938	3853.805840
799.260346	3895.097931
799.581709	3897.580699
799.903026	3821.955830
800.224299	3783.189357
800.545526	3777.641567
800.866708	3741.735948
801.187845	3677.786391
801.508936	3709.936350
801.829983	3712.981207
802.150984	3635.750730
802.471940	3623.846045
802.792851	3637.401708
803.113717	3632.670585
803.434538	3641.127121
803.755314	3584.812391
804.076045	3556.138308
804.396731	3572.963159
804.717372	3602.448868
805.037967	3587.844645
805.358518	3574.140268
805.679024	3602.917695
805.999485	3614.671145
806.319901	3619.563585
806.640272	3633.605719
806.960598	3648.605672
807.280879	3623.142804
807.601115	3635.181080
807.921306	3649.422339
808.241453	3691.538659
808.561554	3664.966737
808.881611	3602.927777
809.201623	3636.126296
809.521590	3649.329078
809.841513	3622.736991
810.161390	3650.057525
810.481223	3630.931387
810.801011	3575.967687
811.120755	3564.511664
811.440453	3605.244187
811.760107	3606.438941
812.079716	3568.216912
812.399281	3532.253321
812.718801	3551.699572
813.038276	3530.342724
813.357707	3524.348792
813.677093	3542.965773
813.996434	3494.656396
814.315731	3499.790811
814.634983	3502.903723
814.954191	3516.351001
815.273354	3547.462482
815.592473	3543.827810
815.911547	3549.955333
816.230577	3586.992690
816.549562	3634.727376
816.868502	3677.282276
817.187399	3704.423848
817.506250	3700.683312
817.825058	3669.816327
818.143821	3756.267074
818.462539	3862.403527
818.781213	3907.542019
819.099843	3961.555462
819.418429	4197.511709
819.736970	4437.074901
820.055466	4673.895706
820.373919	5035.154873
820.692327	5440.108241
821.010691	5856.126942
821.329011	7174.713827
821.647286	9823.162138
821.965517	14281.621614
822.283704	18304.820305
822.601847	20543.800895
822.919945	18805.182550
823.237999	16265.804644
823.556010	13812.945541
823.873976	11757.636871
824.191897	9678.912041
824.509775	8326.718304
824.827609	7204.771707
825.145398	6653.254352
825.463144	6533.002668
825.780845	6648.656820
826.098502	6819.665361
826.416116	7656.784246
826.733685	8951.334909
827.051210	10063.589888
827.368692	10151.366459
827.686129	8947.649826
828.003522	7440.496060
828.320872	6428.870074
828.638177	5736.684363
828.955439	5185.494684
829.272656	4693.268860
829.589830	4403.710025
829.906960	4231.703335
830.224046	4048.777506
830.541088	3928.286367
830.858086	3875.777709
831.175041	3803.122079
831.491952	3784.973925
831.808819	3795.204947
832.125642	3861.465873
832.442421	4006.746886
832.759157	4267.210702
833.075849	4799.740550
833.392497	5648.620446
833.709101	6409.852321
834.025662	6762.362566
834.342179	6435.065652
834.658653	5778.488131
834.975083	5143.413652
835.291469	4568.381836
835.607811	4158.692304
835.924110	4019.274153
836.240366	3829.746933
836.556578	3620.392855
836.872746	3512.630630
837.188871	3475.920947
837.504952	3409.707912
837.820990	3328.694049
838.136984	3278.857202
838.452935	3305.759320
838.768842	3299.021818
839.084706	3322.788338
839.400526	3472.944146
839.716303	3792.220584
840.032037	4304.157318
840.347727	4585.216769
840.663373	4323.480061
840.978977	3949.441569
841.294537	3643.866988
841.610054	3414.408788
841.925527	3307.473312
842.240957	3235.629308
842.556344	3184.343129
842.871687	3129.268524
843.186987	3080.538210
843.502244	3044.201573
843.817458	3010.040194
844.132629	2977.171871
844.447756	2988.012872
844.762840	2973.922847
845.077881	2940.978907
845.392879	2922.306473
845.707833	2918.994435
846.022745	2916.128539
846.337613	2919.206163
846.652438	2900.546333
846.967221	2905.758886
847.281960	2891.124416
847.596656	2888.059394
847.911309	2884.956564
848.225919	2879.108826
848.540485	2872.777137
848.855009	2875.214534
849.169490	2867.458719
849.483928	2857.328521
849.798323	2855.980012
850.112675	2852.168900
850.426984	2861.986547
850.741251	2860.632997
851.055474	2850.301152
851.369654	2843.437621
851.683792	2847.735205
851.997887	2859.012266
852.311938	2861.177442
852.625947	2847.480627
852.939914	2852.433560
853.253837	2857.522605
853.567718	2839.513083
853.881555	2842.636078
854.195350	2856.184179
854.509103	2852.390710
854.822812	2845.033146
855.136479	2842.900738
855.450103	2843.757734
855.763685	2835.621312
856.077224	2831.711897
856.390720	2846.878209
856.704173	2856.582430
857.017584	2849.300483
857.330953	2843.054493
857.644278	2853.620752
857.957561	2863.579551
858.270802	2864.890251
858.584000	2865.182638
858.897155	2852.380628
859.210268	2852.007583
859.523339	2847.987262
859.836367	2851.014475
860.149352	2845.660770
860.462295	2844.115656
860.775195	2849.676049
861.088054	2850.165041
861.400869	2833.498986
861.713642	2826.688387
862.026373	2843.276304
862.339062	2842.678927
862.651708	2852.486492
862.964312	2858.119982
863.276873	2849.058508
863.589392	2857.134436
863.901869	2867.720859
864.214303	2890.963099
864.526696	2905.844585
864.839045	2900.611868
865.151353	2899.931312
865.463619	2899.139851
865.775842	2901.993144
866.088023	2919.370001
866.400162	2925.961310
866.712258	2898.950807
867.024313	2888.838253
867.336325	2895.492576
867.648296	2917.998807
867.960224	2908.435738
868.272110	2894.267575
868.583954	2900.291754
868.895755	2912.831624
869.207515	2901.078174
869.519233	2901.705798
869.830909	2913.623086
870.142542	2923.997780
870.454134	2923.995260
870.765684	2927.556835
871.077191	2927.148501
871.388657	2933.182763
871.700081	2951.391410
872.011463	2958.522122
872.322803	2960.266362
872.634101	2959.888275
872.945357	2974.880667
873.256571	3001.429903
873.567744	2994.987309
873.878874	2984.612614
874.189963	3007.920389
874.501010	3009.692354
874.812015	3000.320849
875.122979	3003.499297
875.433900	2998.294306
875.744780	3001.563494
876.055618	3011.907942
876.366415	3007.680934
876.677169	3019.056298
876.987882	3016.094620
877.298554	3010.680421
877.609183	3025.650127
877.919771	3054.712379
878.230317	3074.980338
878.540822	3128.913122
878.851285	3167.162877
879.161707	3205.974721
879.472087	3301.489463
879.782425	3517.707072
880.092722	3940.929581
880.402977	4460.158345
880.713191	5064.169234
881.023363	6183.950656
881.333494	7448.743388
881.643583	8025.960545
881.953631	7740.772389
882.263637	7132.950388
882.573602	6559.536782
882.883526	5988.759699
883.193408	5420.455303
883.503248	4961.927072
883.813048	4661.496988
884.122806	4368.981516
884.432522	4061.072880
884.742197	3829.893126
885.051831	3633.603198
885.361424	3499.327025
885.670975	3430.890841
885.980485	3347.704240
886.289954	3272.018877
886.599382	3227.656723
886.908768	3193.565920
887.218113	3147.953560
887.527417	3092.382401
887.836680	3042.744680
888.145901	3037.716129
888.455082	3027.628780
888.764221	2978.069196
889.073319	2948.888477
889.382376	2946.803960
889.691392	2950.234465
890.000366	2949.942078
890.309300	2938.309616
890.618193	2950.423509
890.927044	2967.873463
891.235855	2966.729121
891.544625	2953.062553
891.853353	2964.536219
892.162041	2981.726553
892.470687	3018.179137
892.779293	3069.997157
893.087858	3113.928292
893.396381	3178.820545
893.704864	3295.689615
894.013306	3529.389946
894.321707	3823.679904
894.630068	4030.760422
894.938387	4031.191441
895.246665	3985.223679
895.554903	3869.718242
895.863100	3675.679189
896.171256	3511.299765
896.479371	3375.201214
896.787446	3256.696290
897.095480	3155.137205
897.403473	3088.656988
897.711425	3052.761452
898.019336	3043.745349
898.327207	3020.051926
898.635038	2985.094044
898.942827	2966.517392
899.250576	2957.251752
899.558284	2928.592792
899.865952	2906.681417
900.173579	2885.637120
900.481165	2882.884650
900.788711	2868.744213
901.096216	2842.847806
901.403681	2829.876917
901.711105	2840.594410
902.018489	2838.517455
902.325832	2837.491580
902.633135	2844.980214
902.940397	2878.221583
903.247619	2955.633541
903.554800	3138.408136
903.861941	3467.845019
904.169041	3883.931775
904.476101	4183.693906
904.783121	4152.128721
905.090100	3919.502157
905.397039	3651.332937
905.703938	3402.877149
906.010796	3220.926783
906.317614	3110.699433
906.624391	3019.194929
906.931129	2949.775720
907.237826	2890.421175
907.544483	2843.031808
907.851099	2812.873105
908.157675	2791.488531
908.464211	2773.330295
908.770707	2758.973088
909.077163	2748.147211
909.383578	2731.060220
909.689954	2721.461863
909.996289	2719.720144
910.302584	2722.155021
910.608839	2720.493961
910.915054	2716.148487
911.221229	2707.636498
911.527363	2712.430636
911.833458	2718.109495
912.139513	2722.883468
912.445527	2726.896227
912.751502	2732.665827
913.057436	2745.054463
913.363331	2756.381935
913.669186	2775.233330
913.975000	2809.208187
914.280775	2866.889069
914.586510	2935.358020
914.892205	3014.136132
915.197859	3133.840850
915.503475	3317.356494
915.809050	3526.592105
916.114585	3670.958148
916.420081	3697.419165
916.725536	3642.243736
917.030952	3526.254348
917.336328	3399.265162
917.641665	3274.357973
917.946961	3175.059845
918.252218	3108.015019
918.557435	3032.929553
918.862612	2971.651808
919.167750	2923.241607
919.472848	2883.945813
919.777906	2859.886906
920.082925	2831.112000
920.387904	2803.995633
920.692843	2789.714045
920.997743	2778.104267
921.302603	2764.767895
921.607423	2753.468148
921.912204	2741.876015
922.216946	2733.520303
922.521647	2721.938252
922.826310	2713.569936
923.130932	2706.227496
923.435516	2700.921681
923.740059	2692.573531
924.044564	2685.578930
924.349028	2679.673218
924.653454	2673.906138
924.957840	2666.354489
925.262186	2664.277534
925.566493	2659.322080
925.870761	2654.948879
926.174989	2649.421254
926.479178	2646.250368
926.783328	2642.207362
927.087438	2638.043369
927.391509	2639.049080
927.695541	2636.447844
927.999533	2632.397277
928.303486	2630.045579
928.607400	2629.760754
928.911275	2629.175980
929.215110	2629.281844
929.518906	2626.708335
929.822663	2627.908130
930.126381	2626.743623
930.430060	2629.612040
930.733699	2629.002060
931.037299	2628.412245
931.340861	2629.405352
931.644383	2632.039355
931.947866	2630.806793
932.251309	2627.656072
932.554714	2628.167749
932.858080	2627.131792
933.161407	2624.989302
933.464694	2622.062912
933.767943	2619.166769
934.071153	2621.503344
934.374323	2618.574433
934.677455	2619.766666
934.980548	2617.306583
935.283602	2618.886985
935.586617	2619.121398
935.889593	2618.579474
936.192530	2616.230297
936.495428	2618.256841
936.798287	2622.556945
937.101108	2625.080042
937.403890	2627.212450
937.706632	2633.211423
938.009336	2636.583955
938.312002	2649.300266
938.614628	2655.084990
938.917216	2663.206289
939.219765	2659.465753
939.522275	2660.418531
939.824747	2661.517502
940.127179	2659.052378
940.429573	2653.048364
940.731929	2653.917963
941.034246	2650.457211
941.336524	2644.972435
941.638763	2643.533186
941.940964	2642.582928
942.243126	2639.366672
942.545250	2637.534213
942.847335	2635.253091
943.149381	2631.545322
943.451389	2628.508027
943.753359	2625.445526
944.055290	2624.775053
944.357182	2625.753036
944.659036	2622.625000
944.960851	2622.345216
945.262628	2618.425719
945.564367	2621.147942
945.866067	2623.933180
946.167729	2622.811523
946.469352	2622.801441
946.770937	2621.621811
947.072484	2620.321193
947.373992	2621.750360
947.675462	2616.837756
947.976893	2612.744339
948.278286	2613.923969
948.579641	2610.748042
948.880958	2610.480861
949.182236	2610.909359
949.483476	2612.058742
949.784678	2610.417846
950.085841	2612.983794
950.386967	2610.977414
950.688054	2615.738784
950.989103	2614.864144
951.290114	2615.070831
951.591087	2616.883126
951.892021	2620.348919
952.192917	2623.925618
952.493776	2623.310597
952.794596	2624.011318
953.095378	2624.459980
953.396122	2625.874024
953.696828	2624.086935
953.997496	2620.555607
954.298126	2616.852879
954.598718	2615.955554
954.899272	2616.588219
955.199788	2611.000100
955.500266	2610.974894
955.800706	2606.775613
956.101108	2603.725715
956.401472	2603.224120
956.701798	2603.309819
957.002087	2599.332349
957.302337	2596.453850
957.602550	2597.888058
957.902724	2594.137440
958.202861	2592.388160
958.502960	2590.946390
958.803022	2593.509816
959.103045	2590.659044
959.403031	2591.745412
959.702979	2592.095773
960.002889	2589.723910
960.302762	2590.527974
960.602596	2589.204671
960.902393	2588.821543
961.202153	2589.928077
961.501875	2587.488158
961.801559	2585.406162
962.101205	2587.220977
962.400814	2588.090576
962.700385	2583.913980
962.999918	2586.270719
963.299414	2581.859710
963.598873	2584.491192
963.898293	2584.312231
964.197677	2585.650657
964.497022	2585.640575
964.796331	2585.030596
965.095601	2586.021182
965.394835	2583.498085
965.694030	2585.391038
965.993189	2584.874320
966.292309	2586.835329
966.591393	2583.296439
966.890439	2586.845411
967.189447	2584.042529
967.488419	2584.660071
967.787353	2582.537745
968.086249	2587.641913
968.385108	2584.193764
968.683930	2582.482292
968.982714	2583.840883
969.281462	2583.384659
969.580172	2583.175451
969.878844	2583.919021
970.177480	2585.771645
970.476078	2586.492530
970.774639	2585.360791
971.073162	2586.268199
971.371649	2589.492017
971.670098	2585.443970
971.968510	2587.528487
972.266885	2583.664443
972.565223	2588.201481
972.863524	2584.690318
973.161788	2586.527818
973.460014	2586.056470
973.758204	2584.040009
974.056356	2583.533373
974.354471	2584.334916
974.652550	2584.977663
974.950591	2586.527818
975.248595	2585.653178
975.546563	2586.706779
975.844493	2586.053950
976.142386	2582.711665
976.440243	2584.329875
976.738062	2583.160327
977.035845	2581.600090
977.333590	2582.326017
977.631299	2581.617734
977.928971	2580.203691
978.226606	2579.515573
978.524204	2578.419122
978.821765	2578.938361
979.119290	2579.387024
979.416777	2582.119329
979.714228	2582.315934
980.011642	2580.266705
980.309020	2580.722930
980.606360	2582.205029
980.903664	2580.831314
981.200931	2582.447004
981.498162	2584.034968
981.795356	2583.740060
982.092513	2585.693507
982.389633	2588.138467
982.686717	2592.289857
982.983764	2595.395208
983.280775	2596.834457
983.577749	2601.111876
983.874686	2598.545929
984.171587	2597.036103
984.468451	2594.823037
984.765279	2591.831112
985.062070	2591.745412
985.358824	2588.748447
985.655543	2585.287694
985.952224	2584.695359
986.248869	2582.870461
986.545478	2584.360122
986.842050	2580.612024
987.138586	2582.724268
987.435086	2584.463466
987.731549	2582.129412
988.027975	2583.016655
988.324366	2576.846282
988.620719	2581.277457
988.917037	2579.528176
989.213318	2580.909452
989.509563	2580.221335
989.805772	2581.458938
990.101944	2580.052456
990.398080	2579.533217
990.694180	2581.322827
990.990244	2578.512384
991.286271	2578.277970
991.582262	2577.741087
991.878217	2579.699575
992.174136	2578.479616
992.470019	2579.253433
992.765865	2576.059862
993.061676	2575.217990
993.357450	2577.420974
993.653188	2574.890315
993.948890	2580.589339
994.244556	2579.825604
994.540186	2579.755028
994.835780	2579.195460
995.131337	2580.586818
995.426859	2581.252251
995.722345	2583.273753
996.017795	2583.982036
996.313208	2580.511201
996.608586	2583.777869
996.903928	2585.519587
997.199234	2583.097313
997.494504	2585.766604
997.789738	2582.880543
998.084936	2581.340471
998.380099	2580.831314
998.675225	2581.766448
998.970316	2579.099678
999.265371	2580.470872
999.560390	2580.365008
999.855373	2581.768969
1000.150320	2578.232600
1000.445232	2578.986252
1000.740108	2575.510377
1001.034948	2578.691345
1001.329752	2580.155800
1001.624521	2577.899883
1001.919254	2576.553895
1002.213951	2581.272415
1002.508613	2576.082547
1002.803239	2578.373752
1003.097829	2577.395768
1003.392384	2577.678073
1003.686903	2578.167065
1003.981386	2576.556416
1004.275834	2576.858885
1004.570246	2575.805284
1004.864623	2577.143710
1005.158964	2578.197312
1005.453270	2578.114132
1005.747540	2577.035326
1006.041775	2577.093299
1006.335974	2576.521128
1006.630138	2577.118505
1006.924266	2577.776375
1007.218359	2576.319482
1007.512416	2576.543813
1007.806438	2574.396282
1008.100425	2574.890315
1008.394376	2574.224882
1008.688292	2575.442321
1008.982172	2574.605489
1009.276017	2578.247723
1009.569827	2577.037846
1009.863602	2576.697568
1010.157341	2577.093299
1010.451045	2576.662280
1010.744714	2575.129769
1011.038347	2576.193453
1011.331945	2576.158165
1011.625508	2576.611869
1011.919036	2576.080027
1012.212528	2574.842424
1012.505986	2577.163875
1012.799408	2576.760583
1013.092795	2576.652198
1013.386147	2574.318144
1013.679464	2575.752352
1013.972745	2575.575912
1014.265992	2577.731005
1014.559204	2575.109605
1014.852380	2575.374265
1015.145521	2576.768144
1015.438628	2576.092630
1015.731699	2577.824266
1016.024736	2576.344687
1016.317737	2573.539285
1016.610703	2578.499781
1016.903635	2578.971129
1017.196531	2574.330747
1017.489393	2577.403330
1017.782219	2571.835375
1018.075011	2578.005748
1018.367768	2575.941395
1018.660490	2575.046590
1018.953177	2575.046590
1019.245829	2575.046590
