Dividing Wavelength (nm)	Counts (n)	Blue Motor Position (mm): 49.000000	Red Motor Position (mm): 0.000000	
326.493990	2046.955478
326.888308	2046.955478
327.282561	2046.955478
327.676750	2022.029493
328.070874	2022.848680
328.464933	2030.518796
328.858929	2037.962060
329.252859	2049.927238
329.646726	2059.306305
330.040528	2080.902608
330.434265	2093.359299
330.827938	2117.914760
331.221547	2137.847482
331.615091	2156.928249
332.008571	2176.563543
332.401986	2200.274611
332.795338	2219.720862
333.188625	2239.202401
333.581847	2259.051944
333.975006	2275.072731
334.368100	2293.299023
334.761129	2310.191929
335.154095	2323.306491
335.546996	2377.564430
335.939833	2486.057622
336.332606	2494.834271
336.725315	2508.405057
337.117960	2515.233300
337.510540	2525.912984
337.903056	2536.398584
338.295508	2543.052908
338.687896	2548.797302
339.080220	2556.043961
339.472480	2560.926318
339.864676	2564.097204
340.256807	2567.434448
340.648875	2570.716239
341.040879	2568.127607
341.432818	2569.319840
341.824694	2573.425859
342.216506	2570.486867
342.608253	2572.238668
342.999937	2569.536609
343.391557	2569.478636
343.783113	2567.873028
344.174605	2566.716084
344.566033	2564.087122
344.957397	2562.511761
345.348697	2558.584702
345.739934	2560.606205
346.131106	2557.306770
346.522215	2556.767367
346.913260	2554.763508
347.304241	2553.064639
347.695159	2551.020451
348.086012	2552.807540
348.476802	2549.815615
348.867528	2545.800336
349.258191	2540.434028
349.648789	2543.062990
350.039324	2535.518903
350.429796	2544.040974
350.820203	2540.983514
351.210548	2542.324461
351.600828	2542.412681
351.991045	2541.991745
352.381198	2540.307999
352.771288	2539.549306
353.161314	2536.398584
353.551276	2538.006713
353.941175	2535.140817
354.331010	2537.991589
354.720782	2543.405788
355.110490	2542.947043
355.500135	2543.080634
355.889717	2539.997968
356.279235	2537.661393
356.668689	2540.146682
357.058080	2540.623071
357.447408	2542.528627
357.836672	2544.136756
358.225873	2542.836138
358.615010	2540.708771
359.004084	2545.901159
359.393095	2543.622558
359.782043	2544.129194
360.170927	2546.735470
360.559748	2543.383103
360.948505	2549.165307
361.337199	2550.027344
361.725830	2549.833259
362.114398	2549.722354
362.502903	2547.252189
362.891344	2549.669422
363.279722	2549.654298
363.668037	2553.447767
364.056289	2550.327292
364.444478	2552.568085
364.832603	2550.745708
365.220665	2556.883313
365.608665	2555.920453
365.996601	2551.834598
366.384474	2553.074721
366.772284	2554.382901
367.160031	2556.520350
367.547715	2557.190823
367.935336	2553.409958
368.322893	2555.257541
368.710388	2553.780483
369.097820	2553.871224
369.485189	2553.218394
369.872495	2558.924980
370.259738	2559.204764
370.646918	2558.322563
371.034035	2564.034190
371.421090	2560.480176
371.808081	2560.918757
372.195010	2561.269117
372.581875	2562.698284
372.968678	2560.830537
373.355418	2564.883624
373.742096	2565.425548
374.128710	2567.101732
374.515262	2569.103070
374.901751	2574.056004
375.288177	2573.710685
375.674540	2574.454255
376.060841	2578.028433
376.447079	2579.432394
376.833254	2585.423806
377.219367	2587.929259
377.605417	2595.919488
377.991404	2597.542739
378.377329	2601.298399
378.763191	2606.538678
379.148991	2613.850872
379.534727	2618.574433
379.920402	2625.937038
380.306013	2633.287041
380.691563	2641.894811
381.077049	2651.586429
381.462474	2656.514157
381.847835	2666.871208
382.233134	2680.769669
382.618371	2687.035823
383.003545	2701.892103
383.388657	2710.956098
383.773706	2727.193655
384.158693	2739.058010
384.543618	2751.315576
384.928480	2764.941815
385.313280	2779.833383
385.698017	2794.891310
386.082692	2817.024496
386.467305	2829.337514
386.851856	2851.251410
387.236344	2874.947353
387.620770	2886.075700
388.005133	2904.516241
388.389435	2931.980447
388.773674	2942.261881
389.157851	2976.745893
389.541965	3000.151971
389.926018	3011.169413
390.310008	3040.624874
390.693936	3061.356620
391.077802	3091.006166
391.461606	3116.108592
391.845348	3134.433186
392.229027	3162.013338
392.612645	3197.061961
392.996200	3228.743092
393.379694	3261.641662
393.763125	3297.874955
394.146494	3322.155673
394.529801	3355.359233
394.913047	3397.278947
395.296230	3404.961666
395.679351	3425.065787
396.062410	3472.508086
396.445408	3458.836477
396.828343	3496.491376
397.211217	3528.512785
397.594028	3508.713653
397.976778	3552.914490
398.359466	3584.023450
398.742092	3590.619800
399.124656	3615.177781
399.507158	3666.360616
399.889598	3673.380423
400.271977	3733.090370
400.654294	3726.403279
401.036549	3780.610806
401.418742	3781.893780
401.800874	3844.847709
402.182944	3871.686812
402.564952	3950.898463
402.946898	3944.982669
403.328783	3942.431845
403.710606	3987.083865
404.092367	4050.176426
404.474067	4109.578862
404.855705	4100.877831
405.237282	4078.628698
405.618797	4168.613294
406.000250	4236.263058
406.381642	4315.068896
406.762972	4313.712826
407.144240	4279.306951
407.525447	4334.968851
407.906593	4356.282849
408.287677	4428.058798
408.668700	4454.655925
409.049661	4493.097244
409.430560	4529.769118
409.811399	4512.770347
410.192176	4557.397161
410.572891	4632.248214
410.953545	4727.246237
411.334138	4628.553048
411.714669	4737.366354
412.095139	4660.259385
412.475547	4756.666411
412.855894	4761.256382
413.236180	4854.464796
413.616405	4790.714364
413.996568	4884.784816
414.376670	4894.612545
414.756711	4884.283221
415.136691	4947.408549
415.516609	5032.409965
415.896466	5062.682094
416.276262	5144.883148
416.655997	5253.993882
417.035670	5335.290050
417.415283	5463.403413
417.794834	5517.457185
418.174324	5471.708714
418.553753	5480.298840
418.933121	5628.657477
419.312428	5636.509074
419.691674	5578.782822
420.070859	5782.500890
420.449983	5676.132543
420.829045	5857.919072
421.208047	5789.024143
421.586988	5941.871927
421.965867	6012.317011
422.344686	6086.094298
422.723444	6237.485189
423.102141	5886.116766
423.480777	6241.762608
423.859352	6077.420992
424.237866	6419.901861
424.616319	6413.439102
424.994712	6555.314815
425.373044	6487.473488
425.751314	6767.325582
426.129524	6518.970617
426.507673	6770.652743
426.885762	6807.576674
427.263789	6841.438105
427.641756	6926.560508
428.019662	6987.472770
428.397508	7034.166457
428.775292	7027.796960
429.153016	7173.040164
429.530679	7121.764067
429.908282	7172.029412
430.285824	7115.928932
430.663305	7356.833071
431.040726	7265.089112
431.418086	7264.635408
431.795385	7399.398054
432.172624	7577.688542
432.549802	7450.570806
432.926920	7586.528205
433.303977	7543.726288
433.680974	7592.814524
434.057910	7774.343953
434.434786	7817.168555
434.811601	7778.326465
435.188355	8110.024306
435.565050	8005.327102
435.941683	8014.098710
436.318257	8327.650917
436.694770	8274.721322
437.071222	8480.450811
437.447614	8256.399249
437.823946	8233.577945
438.200218	8371.829069
438.576429	8270.824510
438.952580	8417.784227
439.328670	8430.190507
439.704700	8512.328547
440.080670	8407.916169
440.456580	8655.588057
440.832429	8643.005337
441.208218	8391.587871
441.583947	8505.485181
441.959616	8605.252136
442.335224	8640.847723
442.710773	8720.127429
443.086261	8895.985561
443.461689	8634.397567
443.837057	8788.810630
444.212365	8986.065939
444.587612	8978.940268
444.962800	8878.767500
445.337927	9014.248509
445.712995	8561.704128
446.088002	9203.264052
446.462949	9271.039845
446.837837	9276.859857
447.212664	9335.790946
447.587431	10230.820085
447.962139	11191.994203
448.336786	11938.034561
448.711374	11537.182172
449.085901	10399.638245
449.460369	10375.465912
449.834776	10303.067381
450.209124	11221.149717
450.583412	10991.293266
450.957640	11193.418329
451.331808	10788.664087
451.705917	10303.778184
452.079965	10234.321166
452.453954	10426.190002
452.827883	10389.550896
453.201752	10344.470377
453.575562	10369.212361
453.949311	10713.475277
454.323001	10793.027206
454.696632	10713.515607
455.070202	11293.795264
455.443713	11354.891528
455.817164	11505.097748
456.190556	11813.510499
456.563888	11644.379788
456.937160	11859.004392
457.310373	11364.391583
457.683526	11405.577809
458.056619	11442.773963
458.429653	11521.340346
458.802628	11702.247193
459.175542	11752.046231
459.548398	12299.976804
459.921194	12873.440822
460.293930	13204.095144
460.666607	14032.218089
461.039224	14752.490589
461.411782	15005.543909
461.784280	14601.699595
462.156719	14506.499925
462.529099	14408.152055
462.901419	13834.909848
463.273680	13483.859017
463.645882	13719.699318
464.018024	13674.432277
464.390106	14086.407972
464.762130	15254.723102
465.134094	16939.252386
465.505999	19209.999807
465.877845	21209.074406
466.249631	22069.927043
466.621358	21405.860887
466.993026	20551.798685
467.364634	19841.968936
467.736184	19144.527822
468.107674	18600.947764
468.479105	18459.061968
468.850477	18198.414150
469.221790	17771.292308
469.593043	17141.039692
469.964238	16801.023948
470.335373	16915.422852
470.706449	17773.308770
471.077467	18911.979395
471.448425	21237.461143
471.819324	22733.811716
472.190164	22196.787679
472.560945	20531.666837
472.931667	19134.069948
473.302330	18894.872239
473.672934	18444.649310
474.043479	18876.325834
474.413965	18684.890537
474.784393	18528.826497
475.154761	19153.919491
475.525070	19289.834040
475.895321	19132.219844
476.265513	19649.354009
476.635645	20227.193748
477.005719	20285.245155
477.375734	20670.689258
477.745691	21283.164244
478.115588	21929.238521
478.485427	23188.715357
478.855207	25065.289917
479.224928	26766.976768
479.594591	27920.854034
479.964194	27364.645886
480.333739	27733.431496
480.703226	28024.069138
481.072653	28531.352888
481.442022	29035.049857
481.811333	29323.711367
482.180584	28812.951742
482.549777	28603.378374
482.918912	28410.813858
483.287988	28376.178611
483.657005	28195.586836
484.025964	27849.015071
484.394864	28034.330407
484.763706	27976.616757
485.132489	27485.870512
485.501213	27563.237101
485.869879	27756.729188
486.238487	27712.349390
486.607036	27991.163007
486.975527	27716.863743
487.343959	28039.845429
487.712333	28370.411531
488.080648	28333.648917
488.448905	28769.885165
488.817104	28707.130361
489.185244	29587.356152
489.553326	30755.522568
489.921350	32689.168031
490.289315	35061.779527
490.657222	35731.247278
491.025070	36128.346528
491.392861	35738.395634
491.760593	34918.487249
492.128267	33904.151643
492.495883	32961.521409
492.863440	32147.627120
493.230939	31265.120207
493.598380	30764.440369
493.965763	30660.884987
494.333088	30194.863081
494.700354	30032.858041
495.067563	30017.918581
495.434713	29930.295766
495.801805	30226.372813
496.168839	30094.786095
496.535815	29985.065382
496.902733	30117.183942
497.269593	29951.619846
497.636395	30097.899007
498.003139	30393.212320
498.369825	30170.738639
498.736453	30565.700440
499.103023	30440.662181
499.469535	30532.582580
499.835989	30675.557265
500.202385	30541.500381
500.568723	30612.613418
500.935003	30941.155497
501.301226	30851.249038
501.667390	31539.227907
502.033497	31735.081775
502.399546	31542.025747
502.765537	31153.519143
503.131470	31613.708434
503.497345	32052.067008
503.863163	31052.383515
504.228923	31812.130770
504.594625	32213.842676
504.960269	31727.971227
505.325856	32394.900757
505.691385	32081.809816
506.056856	32390.013359
506.422270	32883.804460
506.787625	32423.731116
507.152924	32888.666653
507.518164	33089.559155
507.883347	32665.164577
508.248472	32835.086750
508.613540	33497.396062
508.978550	33746.270266
509.343503	33606.232053
509.708398	33982.886904
510.073236	34575.943366
510.438016	34680.801887
510.802738	34363.776324
511.167403	34942.034479
511.532010	35183.369637
511.896561	35679.381367
512.261053	36419.873935
512.625488	36193.785747
512.989866	36143.749774
513.354186	36212.838787
513.718449	36181.666813
514.082655	37048.742754
514.446803	36756.819617
514.810894	37376.808443
515.174927	37395.538850
515.538904	37403.455982
515.902822	38042.838127
516.266684	37751.429188
516.630488	38124.928277
516.994235	38123.700756
517.357925	38715.552382
517.721558	38980.598607
518.085133	39355.607521
518.448651	39532.756188
518.812112	39434.713307
519.175516	39584.654867
519.538863	40036.687570
519.902152	40095.840470
520.265385	40633.973560
520.628560	40661.626810
520.991678	40626.580708
521.354739	40859.061080
521.717743	41217.688764
522.080690	41112.842847
522.443580	41804.917652
522.806413	41837.730523
523.169189	41979.331493
523.531908	42210.334806
523.894569	42065.089082
524.257174	42265.411933
524.619722	42598.730504
524.982213	42737.084972
525.344647	42780.237249
525.707025	42889.234557
526.069345	43358.046741
526.431608	43250.496244
526.793815	43643.343281
527.155964	43201.687793
527.518057	43466.605468
527.880093	43322.461236
528.242072	43938.149958
528.603995	43684.705948
528.965860	43599.762506
529.327669	43836.149772
529.689421	43890.334614
530.051117	43836.490049
530.412755	44117.783913
530.774337	44187.351837
531.135862	44141.840300
531.497331	44270.790494
531.858743	44279.385662
532.220098	44686.088310
532.581396	44423.509730
532.942638	44172.908931
533.303824	44416.636116
533.664953	44494.456408
534.026025	44163.126572
534.387040	44728.388632
534.747999	44811.575232
535.108902	45125.598788
535.469748	44457.623218
535.830537	44714.527979
536.191270	44955.391790
536.551947	44697.995515
536.912567	44973.275283
537.273131	45129.561134
537.633638	44752.571047
537.994089	44947.704030
538.354483	44711.707454
538.714821	45349.758734
539.075103	45636.202137
539.435328	45496.980591
539.795497	45257.929076
540.155609	45362.404469
540.515665	45954.344315
540.875665	45281.254495
541.235609	45540.934412
541.595496	45681.063365
541.955328	46243.318377
542.315102	45686.069231
542.674821	45559.473255
543.034483	45444.212313
543.394090	45492.506567
543.753640	45455.817050
544.113134	46528.773714
544.472571	45619.563809
544.831953	46767.434540
545.191278	46022.808226
545.550548	45707.980606
545.909761	46356.714092
546.268918	46503.068870
546.628019	46907.656754
546.987064	46365.228601
547.346053	45647.413663
547.704986	46557.097437
548.063863	46204.067953
548.422684	46410.324242
548.781449	46000.372570
549.140158	46521.514452
549.498811	46300.074208
549.857408	45673.892324
550.215949	46531.634568
550.574434	46369.180865
550.932864	46300.565720
551.291237	47018.824279
551.649555	46781.650593
552.007817	46955.744321
552.366022	46620.938609
552.724173	46704.626804
553.082267	47107.344420
553.440305	47439.979915
553.798288	46696.417285
554.156215	47086.509331
554.514086	47300.226528
554.871902	46918.306192
555.229661	47093.168695
555.587365	46782.792415
555.945014	46909.801765
556.302606	46939.743699
556.660143	47028.783078
557.017625	47248.733662
557.375050	46949.521017
557.732421	47359.321454
558.089735	47417.856812
558.446994	47304.456056
558.804197	47775.319990
559.161345	47622.497411
559.518437	46979.074781
559.875474	47234.326044
560.232455	47463.025550
560.589381	47515.294754
560.946251	47326.420363
561.303065	47976.595619
561.659825	47659.504521
562.016528	47478.640524
562.373177	47055.246616
562.729770	47675.358950
563.086307	47214.912561
563.442789	47764.307589
563.799216	47619.051782
564.155587	47508.491717
564.511904	47473.838825
564.868164	47526.496198
565.224370	47842.311883
565.580520	47584.272862
565.936615	47774.538611
566.292654	47423.664221
566.648638	47781.117317
567.004567	47712.151812
567.360441	47827.110284
567.716260	47531.862506
568.072023	47908.247655
568.427732	47835.057663
568.783385	47388.693737
569.138982	47773.933672
569.494525	47909.984332
569.850013	47495.883791
570.205445	47651.413469
570.560823	47411.346162
570.916145	47279.973692
571.271412	47528.268163
571.626625	47177.514761
571.981782	47261.157586
572.336884	46848.145933
572.691931	47180.602468
573.046923	46830.837132
573.401860	46680.935901
573.756743	46681.535799
574.111570	46849.464195
574.466342	46755.983559
574.821059	46897.241731
575.175722	46410.755261
575.530330	46510.880138
575.884882	46139.115207
576.239380	46049.843934
576.593823	46135.878786
576.948211	46064.271716
577.302544	45620.667822
577.656823	45599.338700
578.011047	45878.149795
578.365216	45690.465117
578.719330	45417.718529
579.073389	45391.940589
579.427394	45445.086954
579.781344	45385.399692
580.135239	45147.111912
580.489080	45190.029775
580.842866	44691.812540
581.196597	45187.365525
581.550273	45176.892528
581.903895	45120.655936
582.257463	45554.699282
582.610975	44989.233055
582.964434	45328.152349
583.317837	44838.555487
583.671186	44783.551458
584.024481	45047.186160
584.377721	44609.145179
584.730906	44808.248071
585.084037	44939.131548
585.437113	44639.634077
585.790135	44771.553512
586.143103	44341.694323
586.496016	44472.461854
586.848874	44586.162558
587.201679	44616.233041
587.554428	44115.964057
587.907124	44392.864555
588.259765	44164.354093
588.612352	44325.696222
588.964884	43774.839258
589.317362	44091.569913
589.669786	44081.555661
590.022155	43947.231597
590.374470	44392.720882
590.726731	43971.078775
591.078937	43317.558714
591.431090	43643.146676
591.783188	43183.035523
592.135232	42959.747696
592.487222	43237.880757
592.839157	43380.452149
593.191038	43020.969989
593.542866	42828.549147
593.894639	42244.491144
594.246358	42526.586552
594.598022	42528.008157
594.949633	42092.129831
595.301190	42075.166348
595.652692	42019.348172
596.004141	42495.767458
596.355535	41406.490058
596.706876	41421.663931
597.058162	41153.459423
597.409395	41643.809937
597.760573	41854.562935
598.111698	41472.420789
598.462768	41387.313509
598.813785	41394.166957
599.164748	41006.378718
599.515657	41289.928499
599.866511	40772.212081
600.217312	41473.912970
600.568060	40412.656824
600.918753	41239.514440
601.269392	41168.804695
601.619978	40877.252083
601.970510	41095.075300
602.320988	41213.784391
602.671412	41486.989723
603.021783	41343.556293
603.372100	40921.629361
603.722363	41035.125898
604.072572	41063.472306
604.422728	41058.242109
604.772830	40838.326814
605.122878	40997.019816
605.472872	40849.170336
605.822813	41112.033741
606.172701	40877.509182
606.522534	41201.151259
606.872314	41409.053485
607.222041	41242.521488
607.571714	41544.136243
607.921333	41056.606255
608.270899	41262.187029
608.620411	41665.219718
608.969870	41402.096693
609.319276	41413.782087
609.668627	41464.770838
610.017926	41843.777387
610.367171	41987.921619
610.716362	42033.052549
611.065500	41914.608119
611.414585	42149.273830
611.763616	42304.735453
612.112594	42231.205183
612.461518	42342.604601
612.810389	42735.292842
613.159207	42528.156871
613.507971	42508.493851
613.856682	43000.593645
614.205340	42833.305475
614.553945	43520.508006
614.902496	42851.352806
615.250994	43274.141776
615.599439	43331.066485
615.947830	43440.399030
616.296169	43435.398205
616.644454	43487.801000
616.992686	43645.561389
617.340864	44094.072846
617.688990	43632.764420
618.037063	44308.125280
618.385082	44133.701357
618.733048	44459.672447
619.080961	44329.497252
619.428821	44351.058267
619.776628	44366.239701
620.124382	44177.130897
620.472083	44301.869208
620.819731	44373.267070
621.167326	43953.457422
621.514868	43926.109162
621.862357	43391.804828
622.209793	43473.340450
622.557176	43040.476734
622.904506	42793.702171
623.251783	42422.464040
623.599007	42108.432922
623.946179	42022.372865
624.293297	41744.126378
624.640363	41218.155071
624.987376	41075.752557
625.334336	40856.706861
625.681243	40454.261467
626.028097	40370.285926
626.374899	40191.050222
626.721647	40171.465339
627.068343	39956.369387
627.414987	39668.431282
627.761577	39414.299155
628.108115	39740.119010
628.454600	38991.142180
628.801032	39231.416176
629.147412	39115.474678
629.493739	39023.425730
629.840014	38586.309800
630.186236	39022.142756
630.532405	38472.851071
630.878521	38704.902944
631.224585	38484.274326
631.570597	38153.869541
631.916556	38310.964498
632.262462	38191.998308
632.608316	38138.826738
632.954117	37994.571600
633.299866	37932.189842
633.645562	37858.735189
633.991206	37327.120310
634.336797	36907.237565
634.682336	36797.930226
635.027823	36567.841882
635.373257	36452.351568
635.718639	36113.384384
636.063968	36010.565010
636.409245	35358.859764
636.754470	35311.805634
637.099642	35078.012042
637.444762	34513.715363
637.789829	34674.603788
638.134845	34275.304074
638.479808	34212.889548
638.824719	34154.223121
639.169577	33644.789319
639.514383	33739.885645
639.859137	33366.091649
640.203839	33534.405693
640.548489	33239.311671
640.893086	33232.392687
641.237632	32965.763540
641.582125	33057.378949
641.926566	32861.210009
642.270955	32907.835641
642.615292	32826.829340
642.959576	32703.328632
643.303809	32716.405385
643.647990	32809.570949
643.992118	32766.758950
644.336195	32606.903962
644.680219	32702.368292
645.024192	32907.986875
645.368112	33437.625622
645.711981	33457.896102
646.055797	34188.571022
646.399562	34002.065974
646.743274	34868.841966
647.086935	35274.554028
647.430544	35226.713478
647.774101	35273.253410
648.117606	35539.128905
648.461059	35685.055186
648.804460	35275.458915
649.147810	34755.295017
649.491108	34397.917539
649.834354	34257.418060
650.177548	33422.333282
650.520690	32934.944446
650.863781	32918.802671
651.206820	32744.066196
651.549807	32331.104956
651.892742	31760.612698
652.235626	31665.818841
652.578458	31542.101364
652.921238	30848.993122
653.263967	31157.224392
653.606644	30876.658974
653.949269	30782.754881
654.291843	30377.683046
654.634365	30753.692629
654.976836	30283.471442
655.319255	30366.085872
655.661622	30246.948283
656.003938	30104.087024
656.346203	29931.727453
656.688416	30164.379224
657.030577	29952.887697
657.372687	29764.197308
657.714746	29936.040160
658.056753	30123.813059
658.398708	29503.108389
658.740612	29566.705065
659.082465	29779.426634
659.424266	29681.915595
659.766016	29682.273517
660.107715	29548.801407
660.449362	29641.099893
660.790958	29625.492481
661.132503	29555.554033
661.473996	29630.548758
661.815438	29707.204543
662.156829	29824.497070
662.498168	29625.699168
662.839456	29604.581774
663.180693	29733.685724
663.521879	29816.590020
663.863013	29781.561562
664.204097	29765.956671
664.545129	30176.573775
664.886110	30111.535329
665.227040	30221.021628
665.567918	30212.900330
665.908746	30298.163885
666.249522	30383.003984
666.590248	30403.566850
666.930922	30491.890386
667.271545	30493.753093
667.612118	30543.118592
667.952639	30356.263183
668.293109	30388.728214
668.633528	30259.795663
668.973896	30212.915453
669.314213	30191.908965
669.654480	30013.454639
669.994695	29983.109414
670.334859	29904.643854
670.674973	29743.624359
671.015035	29923.182698
671.355047	29861.778923
671.695008	29797.148810
672.034918	29717.692664
672.374777	29809.774380
672.714585	29691.574446
673.054342	29818.672017
673.394049	29667.230714
673.733705	29879.271727
674.073310	29601.771331
674.412864	29655.268056
674.752368	29345.564769
675.091820	29578.584544
675.431223	29177.699387
675.770574	28969.950917
676.109875	28814.388471
676.449125	28605.299053
676.788324	28500.347271
677.127473	28020.749538
677.466571	27911.860615
677.805619	27645.062589
678.144616	27584.011696
678.483562	27533.655610
678.822458	27214.774903
679.161303	27159.087797
679.500098	27088.809071
679.838842	27021.416406
680.177535	27108.983769
680.516179	27348.672990
680.854771	27487.778589
681.193314	28256.141176
681.531805	29292.128538
681.870247	30042.529494
682.208638	30775.351947
682.546978	31042.959078
682.885268	31162.991472
683.223508	30716.362885
683.561697	30424.742217
683.899836	30271.758321
684.237925	29854.111328
684.575963	29714.773836
684.913951	29351.102477
685.251889	29519.724032
685.589776	29558.757686
685.927614	29570.372504
686.265401	29741.703680
686.603137	29871.372239
686.940824	30372.054598
687.278460	30717.444212
687.616046	30884.543339
687.953582	31546.015820
688.291068	31460.459878
688.628504	31795.068985
688.965889	31775.819339
689.303224	31494.598572
689.640510	31198.365248
689.977745	30545.462728
690.314930	29808.907302
690.652065	29353.118938
690.989150	28689.009933
691.326185	27846.554988
691.663170	27190.821860
692.000105	26466.408053
692.336990	25870.672217
692.673825	25439.398985
693.010610	24951.742968
693.347345	24467.033505
693.684030	23828.205887
694.020665	23645.085973
694.357251	22977.717863
694.693786	22982.680878
695.030272	22738.063929
695.366707	22258.597266
695.703093	21989.729847
696.039429	22048.970966
696.375716	21816.316675
696.711952	21821.788847
697.048139	21688.674659
697.384276	21529.938807
697.720363	21643.760499
698.056400	21537.525744
698.392388	21382.994214
698.728326	21370.598016
699.064214	21217.288966
699.400053	21222.010007
699.735842	20834.133548
700.071581	20623.884665
700.407270	20382.181502
700.742910	20209.708506
701.078501	19952.342478
701.414042	19755.394680
701.749533	19451.375294
702.084974	19141.808119
702.420366	19369.365804
702.755709	18967.638774
703.091002	18660.390530
703.426246	18732.516838
703.761440	18667.579215
704.096584	18421.253315
704.431679	18352.209672
704.766725	18306.219225
705.101721	18241.354698
705.436668	18355.073047
705.771565	18092.817100
706.106413	18406.984329
706.441212	18487.935177
706.775961	18594.921065
707.110661	18681.855763
707.445311	19030.804432
707.779913	18919.180683
708.114465	19218.630262
708.448967	19534.022491
708.783421	20167.272073
709.117825	20539.957015
709.452180	20771.381264
709.786485	21223.940769
710.120742	21984.943271
710.454949	22096.609870
710.789107	22605.511830
711.123216	23318.366272
711.457275	23523.858826
711.791286	24084.709877
712.125247	24232.166147
712.459159	23957.831596
712.793023	24683.183058
713.126837	23670.808461
713.460602	23900.047370
713.794318	23571.122164
714.127985	23275.778604
714.461602	22373.480121
714.795171	22353.139066
715.128691	21381.789378
715.462162	20855.659274
715.795584	20425.273285
716.128957	20163.382823
716.462281	19783.161355
716.795556	19503.768006
717.128782	19025.080202
717.461960	18431.965767
717.795088	18390.048572
718.128167	18051.461995
718.461198	17598.816791
718.794180	17468.452553
719.127113	17149.644942
719.459997	16961.269626
719.792833	16593.991321
720.125619	16628.742515
720.458357	16306.988350
720.791046	16168.772515
721.123686	16024.156934
721.456278	15801.910105
721.788821	15800.886751
722.121315	15543.208172
722.453761	15651.555171
722.786158	15530.338107
723.118506	15606.371309
723.450805	15499.395504
723.783056	15675.067113
724.115259	15566.828499
724.447412	15563.408076
724.779518	15787.381500
725.111574	15830.374981
725.443582	16106.733555
725.775542	16055.583488
726.107453	16581.592603
726.439315	16503.245511
726.771129	16919.884273
727.102895	17331.096234
727.434612	17611.008822
727.766281	17775.899923
728.097901	18093.505218
728.429473	18172.921035
728.760996	18177.790790
729.092471	18306.262075
729.423897	18195.699489
729.755276	18066.041012
730.086606	18174.801385
730.417887	18758.801414
730.749120	19324.686057
731.080305	19528.005874
731.411442	19925.604198
731.742530	20037.089316
732.073570	20197.012360
732.404562	20516.472800
732.735506	20364.608040
733.066401	20148.546707
733.397249	19641.459562
733.728048	19012.474797
734.058798	18143.420203
734.389501	17388.366262
734.720156	16882.199128
735.050762	16311.527909
735.381320	15928.473314
735.711831	15666.474466
736.042293	15297.401511
736.372707	15340.659652
736.703073	15136.606347
737.033391	15344.664849
737.363661	15339.447254
737.693883	15464.253621
738.024056	15665.476318
738.354182	15893.046605
738.684260	16264.720796
739.014290	16543.647838
739.344272	16774.399094
739.674207	17113.330990
740.004093	17276.719828
740.333931	17331.376018
740.663722	17403.585505
740.993464	17442.644365
741.323159	17283.633770
741.652806	16979.679920
741.982405	16806.707849
742.311956	16449.615196
742.641460	16340.572517
742.970915	15994.961092
743.300323	15655.976263
743.629683	15438.553818
743.958996	15130.602333
744.288260	14813.473427
744.617477	14511.815822
744.946647	14477.798116
745.275768	14164.858408
745.604842	13962.256956
745.933869	13788.490903
746.262847	13760.557870
746.591778	13687.687991
746.920662	13577.750508
747.249498	13584.697218
747.578286	13737.718922
747.907027	13914.542435
748.235720	14183.770297
748.564365	14256.068005
748.892963	14179.676880
749.221514	14277.797898
749.550017	14148.290656
749.878473	14120.730668
750.206881	13893.288930
750.535242	13814.888905
750.863555	13744.216970
751.191821	13643.088903
751.520039	13666.709229
751.848210	13587.222836
752.176334	13633.714877
752.504411	13551.639852
752.832440	13376.119477
753.160421	13493.666582
753.488356	13399.094536
753.816243	13293.041262
754.144082	13132.195687
754.471875	13073.879619
754.799620	13051.882544
755.127318	13021.544881
755.454969	13017.612781
755.782572	12980.620794
756.110129	13002.673321
756.437638	12906.775452
756.765100	12914.138057
757.092515	12937.097992
757.419882	12964.073206
757.747203	12991.270231
758.074477	13088.156167
758.401703	13068.125142
758.728882	13267.651491
759.056014	13308.956185
759.383099	13481.328358
759.710138	13607.616824
760.037129	13727.964290
760.364073	13791.679433
760.690970	13809.454542
761.017820	13832.099405
761.344623	14055.750195
761.671379	14432.626857
761.998088	15136.361851
762.324751	16906.938590
762.651366	20342.116932
762.977935	24814.676515
763.304456	27790.764538
763.630931	28819.598503
763.957359	27585.854237
764.283740	25306.062987
764.610074	23030.652498
764.936362	20392.987216
765.262602	18517.277213
765.588796	16593.167092
765.914943	15315.065714
766.241044	14214.039905
766.567097	13435.859671
766.893104	12715.604815
767.219064	12260.865012
767.544978	11783.175356
767.870845	11403.301728
768.196665	11178.284785
768.522438	10952.799015
768.848165	10750.008519
769.173846	10551.200535
769.499479	10418.837479
769.825066	10246.606458
770.150607	10019.313434
770.476101	9940.328635
770.801548	9813.684768
771.126949	9649.307865
771.452303	9547.050580
771.777611	9350.737967
772.102872	9338.755144
772.428087	9198.366571
772.753256	9047.356287
773.078378	8951.675187
773.403453	8774.045090
773.728482	8654.922625
774.053465	8589.526257
774.378401	8484.438363
774.703291	8363.685085
775.028135	8241.469872
775.352932	8208.604069
775.677683	8098.228006
776.002388	7999.655804
776.327046	8005.458172
776.651658	7912.380828
776.976224	7814.668143
777.300743	7813.914490
777.625216	7718.548463
777.949643	7681.440529
778.274024	7689.524019
778.598359	7608.817667
778.922647	7621.218905
779.246889	7583.712721
779.571086	7587.664985
779.895236	7601.092098
780.219339	7611.234900
780.543397	7611.307997
780.867409	7690.602826
781.191374	7702.588169
781.515294	7666.513673
781.839167	7763.775174
782.162995	7731.259732
782.486776	7681.223759
782.810511	7631.858260
783.134201	7541.404837
783.457844	7535.010133
783.781441	7482.009962
784.104993	7417.606701
784.428498	7393.910758
784.751958	7382.124540
785.075372	7349.588933
785.398739	7297.241592
785.722061	7338.609300
786.045337	7346.105496
786.368568	7502.262798
786.691752	7528.882611
787.014891	7871.723922
787.337983	8232.332780
787.661030	8834.450716
787.984031	9462.059247
788.306987	9867.960351
788.629897	10059.693076
788.952760	10015.396457
789.275579	9791.541500
789.598351	9383.059325
789.921078	9029.150160
790.243759	8611.944268
790.566395	8324.381729
790.888984	8072.621465
791.211529	7859.146243
791.534027	7642.210270
791.856480	7443.435053
792.178888	7371.792695
792.501249	7276.966071
792.823566	7117.070753
793.145836	7122.520240
793.468062	7093.243739
793.790241	7046.504682
794.112375	7114.028417
794.434464	7265.290758
794.756507	7315.475445
795.078505	7476.013510
795.400457	7787.952548
795.722364	8142.920355
796.044226	8433.588245
796.366042	8708.119401
796.687812	8650.922469
797.009538	8730.592865
797.331218	8617.970967
797.652852	8527.429323
797.974442	8387.522181
798.295986	8288.450905
798.617484	8093.927901
798.938938	7955.006304
799.260346	7854.974688
799.581709	7649.479614
799.903026	7577.181906
800.224299	7472.716595
800.545526	7301.035060
800.866708	7198.117383
801.187845	7138.427601
801.508936	7030.713267
801.829983	6988.133161
802.150984	6838.436098
802.471940	6798.847917
802.792851	6781.667664
803.113717	6748.756491
803.434538	6717.125772
803.755314	6655.895917
804.076045	6668.806312
804.396731	6611.294308
804.717372	6646.342930
805.037967	6648.399721
805.358518	6695.302617
805.679024	6776.931500
805.999485	6785.448530
806.319901	6827.862277
806.640272	6850.635690
806.960598	6936.355470
807.280879	6939.397806
807.601115	7014.241297
807.921306	6953.500434
808.241453	6969.339740
808.561554	6990.194993
808.881611	6950.934487
809.201623	6961.851106
809.521590	6904.739874
809.841513	6883.826647
810.161390	6924.854078
810.481223	6790.202338
810.801011	6774.494102
811.120755	6751.619867
811.440453	6672.524163
811.760107	6641.110213
812.079716	6607.415140
812.399281	6542.185130
812.718801	6532.909407
813.038276	6484.350493
813.357707	6423.133241
813.677093	6469.461445
813.996434	6369.825560
814.315731	6414.999339
814.634983	6408.087917
814.954191	6419.470843
815.273354	6526.834817
815.592473	6594.313182
815.911547	6715.482355
816.230577	6792.785929
816.549562	6939.690193
816.868502	7042.219701
817.187399	7144.474465
817.506250	7296.044317
817.825058	7323.919378
818.143821	7593.878207
818.462539	7871.502111
818.781213	8235.168429
819.099843	8782.655381
819.418429	9788.171489
819.736970	10772.348393
820.055466	11950.897065
820.373919	13482.994460
820.692327	15829.273488
821.010691	19965.192380
821.329011	28987.720984
821.647286	42071.980339
821.965517	55598.038855
822.283704	60970.232672
822.601847	62943.453713
822.919945	60216.628063
823.237999	55993.073753
823.556010	49774.903745
823.873976	43001.964839
824.191897	36440.915711
824.509775	31600.109922
824.827609	27061.216315
825.145398	24456.855415
825.463144	23092.583073
825.780845	23408.718872
826.098502	25194.071233
826.416116	29010.199489
826.733685	32731.871645
827.051210	33947.898776
827.368692	32163.312670
827.686129	28167.883175
828.003522	24001.210725
828.320872	20263.888307
828.638177	17396.459834
828.955439	15235.314660
829.272656	13416.234459
829.589830	11938.977257
829.906960	10665.241517
830.224046	9720.763700
830.541088	8968.386612
830.858086	8512.255450
831.175041	8139.318451
831.491952	8021.133640
831.808819	8070.231958
832.125642	8476.667425
832.442421	9359.446560
832.759157	11161.008751
833.075849	14118.666316
833.392497	17365.970936
833.709101	19568.753521
834.025662	19402.498787
834.342179	17699.907049
834.658653	15477.733666
834.975083	13527.641439
835.291469	11902.196998
835.607811	10578.664741
835.924110	9673.641515
836.240366	8799.558370
836.556578	8000.064137
836.872746	7349.044488
837.188871	6843.918353
837.504952	6426.064672
837.820990	6119.456654
838.136984	5899.576647
838.452935	5802.337830
838.768842	5834.772614
839.084706	6257.286841
839.400526	7472.560319
839.716303	9064.266838
840.032037	10172.660293
840.347727	10093.420916
840.663373	9114.766596
840.978977	8063.151657
841.294537	7248.811227
841.610054	6652.757799
841.925527	6215.987188
842.240957	5857.543506
842.556344	5523.733422
842.871687	5237.625256
843.186987	4958.453717
843.502244	4735.579265
843.817458	4567.552566
844.132629	4429.994601
844.447756	4338.417000
844.762840	4258.479423
845.077881	4187.063918
845.392879	4126.759115
845.707833	4074.759613
846.022745	4034.011966
846.337613	4002.734127
846.652438	3958.495482
846.967221	3943.366979
847.281960	3912.479829
847.596656	3892.988208
847.911309	3874.139334
848.225919	3849.029346
848.540485	3833.706759
848.855009	3821.749142
849.169490	3800.541008
849.483928	3791.650933
849.798323	3781.913945
850.112675	3762.848301
850.426984	3768.706122
850.741251	3751.946806
851.055474	3747.613934
851.369654	3755.417640
851.683792	3750.315992
851.997887	3759.553907
852.311938	3757.177003
852.625947	3763.644803
852.939914	3753.388576
853.253837	3762.886109
853.567718	3762.510543
853.881555	3749.700972
854.195350	3766.016666
854.509103	3764.438785
854.822812	3755.631889
855.136479	3752.627361
855.450103	3763.022221
855.763685	3747.122421
856.077224	3750.091661
856.390720	3768.098663
856.704173	3789.934420
857.017584	3801.695432
857.330953	3809.678099
857.644278	3838.523582
857.957561	3838.596678
858.270802	3841.550795
858.584000	3841.482739
858.897155	3833.643745
859.210268	3817.696055
859.523339	3798.852222
859.836367	3796.200575
860.149352	3786.312351
860.462295	3780.729273
860.775195	3769.560597
861.088054	3760.715893
861.400869	3762.709669
861.713642	3762.145060
862.026373	3772.945732
862.339062	3782.508801
862.651708	3800.722490
862.964312	3837.200279
863.276873	3849.263760
863.589392	3907.249632
863.901869	3950.643884
864.214303	3999.722038
864.526696	4032.043396
864.839045	4073.973193
865.151353	4105.548460
865.463619	4110.924850
865.775842	4119.033546
866.088023	4136.705311
866.400162	4121.685193
866.712258	4134.756905
867.024313	4134.121720
867.336325	4131.457470
867.648296	4141.517093
867.960224	4138.986433
868.272110	4149.673679
868.583954	4154.697189
868.895755	4165.238242
869.207515	4163.037778
869.519233	4204.970096
869.830909	4217.872929
870.142542	4246.637753
870.454134	4257.750977
870.765684	4287.518990
871.077191	4327.013910
871.388657	4347.773382
871.700081	4387.112026
872.011463	4432.074077
872.322803	4466.454746
872.634101	4495.264940
872.945357	4539.354872
873.256571	4589.070731
873.567744	4620.424187
873.878874	4637.269203
874.189963	4679.282179
874.501010	4687.869785
874.812015	4688.237789
875.122979	4729.295466
875.433900	4725.328078
875.744780	4739.836519
876.055618	4767.404069
876.366415	4769.085294
876.677169	4784.629692
876.987882	4835.447043
877.298554	4884.217686
877.609183	4966.033092
877.919771	5073.865893
878.230317	5219.860229
878.540822	5433.794196
878.851285	5757.443834
879.161707	6226.452624
879.472087	6980.122768
879.782425	8225.479332
880.092722	10422.177243
880.402977	13767.459209
880.713191	17579.370540
881.023363	21359.273064
881.333494	23621.485812
881.643583	24851.847463
881.953631	24824.340407
882.263637	23955.157264
882.573602	22439.604936
882.883526	20861.562466
883.193408	19158.789246
883.503248	17440.816947
883.813048	15875.705036
884.122806	14428.520837
884.432522	12949.290022
884.742197	11673.046309
885.051831	10580.562736
885.361424	9569.115710
885.670975	8743.717509
885.980485	8050.369812
886.289954	7471.715926
886.599382	6999.649677
886.908768	6622.238653
887.218113	6254.834320
887.527417	5968.504343
887.836680	5702.507860
888.145901	5478.108459
888.455082	5318.308923
888.764221	5167.132281
889.073319	5030.524573
889.382376	4959.708965
889.691392	4903.608484
890.000366	4875.131006
890.309300	4861.335888
890.618193	4859.737843
890.927044	4847.379454
891.235855	4871.937435
891.544625	4897.677567
891.853353	4964.417402
892.162041	5083.141617
892.470687	5270.793527
892.779293	5517.328636
893.087858	5891.624226
893.396381	6478.553166
893.704864	7281.717358
894.013306	8453.422664
894.321707	9649.512032
894.630068	10478.005502
894.938387	10695.775786
895.246665	10457.815681
895.554903	9840.518830
895.863100	9130.512640
896.171256	8563.491218
896.479371	8041.172226
896.787446	7550.549490
897.095480	7113.299970
897.403473	6792.049921
897.711425	6468.813657
898.019336	6203.996804
898.327207	5928.185195
898.635038	5698.754721
898.942827	5447.753151
899.250576	5246.313684
899.558284	5053.280342
899.865952	4926.903656
900.173579	4782.003250
900.481165	4672.227084
900.788711	4581.032611
901.096216	4509.390253
901.403681	4445.082774
901.711105	4419.582097
902.018489	4406.316301
902.325832	4478.931602
902.633135	4593.978294
902.940397	4941.495276
903.247619	5742.597636
903.554800	7201.167282
903.861941	9149.172471
904.169041	10686.142141
904.476101	11324.412712
904.783121	10957.336053
905.090100	10202.062823
905.397039	9356.187454
905.703938	8593.644879
906.010796	7890.378712
906.317614	7330.674524
906.624391	6791.480270
906.931129	6363.614858
907.237826	5957.738959
907.544483	5585.515282
907.851099	5207.166604
908.157675	4851.339280
908.464211	4523.283673
908.770707	4286.314154
909.077163	4083.024584
909.383578	3942.320939
909.689954	3823.291735
909.996289	3755.185747
910.302584	3687.946837
910.608839	3655.912825
910.915054	3625.186992
911.221229	3612.586628
911.527363	3625.418885
911.833458	3637.351296
912.139513	3666.458919
912.445527	3692.151159
912.751502	3779.773975
913.057436	3879.614027
913.363331	4016.340201
913.669186	4219.153382
913.975000	4479.163495
914.280775	4901.246703
914.586510	5485.564325
914.892205	6289.840092
915.197859	7345.722368
915.503475	8585.069877
915.809050	9665.426954
916.114585	10325.785341
916.420081	10597.006979
916.725536	10562.308718
917.030952	10109.461868
917.336328	9691.388897
917.641665	9266.016335
917.946961	8787.008417
918.252218	8356.146039
918.557435	7832.879311
918.862612	7396.489308
919.167750	7022.158429
919.472848	6589.483756
919.777906	6213.892589
920.082925	5849.323904
920.387904	5480.019056
920.692843	5208.973858
920.997743	4959.056135
921.302603	4723.598962
921.607423	4564.008635
921.912204	4400.549221
922.216946	4274.709418
922.521647	4154.767765
922.826310	4049.962177
923.130932	3954.429791
923.435516	3855.827342
923.740059	3789.120274
924.044564	3706.397460
924.349028	3650.954850
924.653454	3582.891711
924.957840	3511.710619
925.262186	3468.583548
925.566493	3408.503076
925.870761	3351.749766
926.174989	3311.418015
926.479178	3278.400978
926.783328	3233.007908
927.087438	3207.275338
927.391509	3168.718073
927.695541	3143.950884
927.999533	3114.520628
928.303486	3092.198399
928.607400	3074.536716
928.911275	3067.164029
929.215110	3048.446225
929.518906	3038.258053
929.822663	3038.782333
930.126381	3036.221427
930.430060	3044.612427
930.733699	3046.578477
931.037299	3057.812688
931.340861	3054.732543
931.644383	3066.244018
931.947866	3062.740416
932.251309	3059.214129
932.554714	3059.027607
932.858080	3049.900598
933.161407	3043.420194
933.464694	3031.439892
933.767943	3028.576517
934.071153	3023.202647
934.374323	3012.013806
934.677455	3004.499966
934.980548	2998.473267
935.283602	2994.669716
935.586617	2989.449601
935.889593	3001.019049
936.192530	3004.424349
936.495428	3020.558562
936.798287	3043.097560
937.101108	3073.967066
937.403890	3128.492186
937.706632	3190.395035
938.009336	3271.726490
938.312002	3351.308665
938.614628	3414.910383
938.917216	3465.122796
939.219765	3499.536233
939.522275	3529.417672
939.824747	3537.685164
940.127179	3530.887168
940.429573	3524.583205
940.731929	3519.605066
941.034246	3506.059486
941.336524	3490.147083
941.638763	3475.817604
941.940964	3463.073567
942.243126	3418.056063
942.545250	3397.117630
942.847335	3356.183461
943.149381	3324.434274
943.451389	3290.124181
943.753359	3254.311824
944.055290	3230.278123
944.357182	3204.812735
944.659036	3189.361598
944.960851	3179.256605
945.262628	3166.275634
945.564367	3166.144564
945.866067	3162.671209
946.167729	3157.287257
946.469352	3157.335148
946.770937	3153.050167
947.072484	3137.281438
947.373992	3140.308651
947.675462	3132.245325
947.976893	3115.317130
948.278286	3106.631222
948.579641	3099.508072
948.880958	3095.013883
949.182236	3097.131168
949.483476	3089.740836
949.784678	3088.757811
950.085841	3092.213522
950.386967	3102.235336
950.688054	3120.496916
950.989103	3141.137920
951.290114	3159.724655
951.591087	3189.976619
951.892021	3218.310424
952.192917	3245.361256
952.493776	3272.712036
952.794596	3280.848458
953.095378	3282.630506
953.396122	3279.978859
953.696828	3273.415277
953.997496	3261.513112
954.298126	3235.644432
954.598718	3216.956874
954.899272	3189.752287
955.199788	3161.655417
955.500266	3131.269862
955.800706	3095.023966
956.101108	3056.635579
956.401472	3023.119468
956.701798	2990.646875
957.002087	2949.259002
957.302337	2919.967378
957.602550	2892.089797
957.902724	2863.637525
958.202861	2838.030984
958.502960	2816.444763
958.803022	2796.517082
959.103045	2771.681837
959.403031	2757.473345
959.702979	2746.047570
960.002889	2728.219529
960.302762	2715.868702
960.602596	2705.617516
960.902393	2696.056968
961.202153	2690.632686
961.501875	2681.707323
961.801559	2677.629030
962.101205	2670.463030
962.400814	2664.965652
962.700385	2658.873417
962.999918	2648.841521
963.299414	2644.070069
963.598873	2643.389513
963.898293	2632.576238
964.197677	2638.260139
964.497022	2633.430714
964.796331	2634.121352
965.095601	2626.337810
965.394835	2625.324538
965.694030	2624.311266
965.993189	2624.631380
966.292309	2623.857562
966.591393	2623.313118
966.890439	2621.667181
967.189447	2624.212964
967.488419	2622.514095
967.787353	2621.455453
968.086249	2623.431585
968.385108	2627.401494
968.683930	2627.106586
968.982714	2632.258645
969.281462	2638.174439
969.580172	2640.324492
969.878844	2647.629123
970.177480	2658.243273
970.476078	2663.959941
970.774639	2671.012516
971.073162	2678.110460
971.371649	2686.322500
971.670098	2690.121009
971.968510	2699.295909
972.266885	2701.907227
972.565223	2703.568287
972.863524	2705.425952
973.161788	2711.959288
973.460014	2713.864844
973.758204	2714.986501
974.056356	2717.839794
974.354471	2721.330793
974.652550	2721.124105
974.950591	2720.577140
975.248595	2717.539845
975.546563	2713.995914
975.844493	2711.445090
976.142386	2706.116590
976.440243	2700.394881
976.738062	2698.701053
977.035845	2689.009435
977.333590	2682.803774
977.631299	2679.811850
977.928971	2672.255160
978.226606	2663.596978
978.524204	2660.355516
978.821765	2657.189672
979.119290	2659.806031
979.416777	2659.314518
979.714228	2662.737462
980.011642	2664.751402
980.309020	2673.160047
980.606360	2688.338961
980.903664	2714.162272
981.200931	2750.451018
981.498162	2798.662093
981.795356	2874.460882
982.092513	2963.563276
982.389633	3072.111921
982.686717	3168.692867
982.983764	3245.293200
983.280775	3296.264307
983.577749	3301.343269
983.874686	3287.495219
984.171587	3251.413161
984.468451	3214.554764
984.765279	3167.699760
985.062070	3121.036319
985.358824	3077.248857
985.655543	3018.945392
985.952224	2966.378761
986.248869	2902.290572
986.545478	2842.026098
986.842050	2785.204732
987.138586	2740.005747
987.435086	2699.762216
987.731549	2668.489418
988.027975	2645.499236
988.324366	2628.528192
988.620719	2612.767024
988.917037	2600.098604
989.213318	2593.829930
989.509563	2587.367170
989.805772	2579.737384
990.101944	2572.861250
990.398080	2571.893349
990.694180	2570.897721
990.990244	2573.357804
991.286271	2570.491908
991.582262	2571.061558
991.878217	2575.560788
992.174136	2578.827456
992.470019	2582.109247
992.765865	2586.479927
993.061676	2587.241142
993.357450	2599.148347
993.653188	2603.468616
993.948890	2622.234311
994.244556	2641.254584
994.540186	2664.557318
994.835780	2694.287523
995.131337	2737.575911
995.426859	2778.628547
995.722345	2823.852738
996.017795	2879.842314
996.313208	2915.909249
996.608586	2946.032664
996.903928	2959.235446
997.199234	2958.469190
997.494504	2955.358798
997.789738	2941.089812
998.084936	2916.783889
998.380099	2880.883312
998.675225	2853.497244
998.970316	2823.083962
999.265371	2785.923097
999.560390	2749.752818
999.855373	2716.874413
1000.150320	2689.475742
1000.445232	2662.608912
1000.740108	2643.603762
1001.034948	2619.907818
1001.329752	2608.645881
1001.624521	2594.616350
1001.919254	2583.772828
1002.213951	2576.884091
1002.508613	2567.207596
1002.803239	2561.616957
1003.097829	2553.654454
1003.392384	2548.968702
1003.686903	2545.931406
1003.981386	2540.701209
1004.275834	2537.759696
1004.570246	2534.803059
1004.864623	2535.481094
1005.158964	2531.806093
1005.453270	2527.175793
1005.747540	2526.555732
1006.041775	2526.896009
1006.335974	2525.943231
1006.630138	2520.949968
1006.924266	2523.417613
1007.218359	2520.292098
1007.512416	2519.135153
1007.806438	2517.786644
1008.100425	2519.808147
1008.394376	2511.875892
1008.688292	2520.292098
1008.982172	2516.881757
1009.276017	2517.002745
1009.569827	2514.456962
1009.863602	2514.517456
1010.157341	2516.874196
1010.451045	2514.363701
1010.744714	2516.067611
1011.038347	2513.511746
1011.331945	2511.480161
1011.625508	2507.878257
1011.919036	2510.081241
1012.212528	2509.609893
1012.505986	2505.650067
1012.799408	2509.564523
1013.092795	2507.490088
1013.386147	2505.806342
1013.679464	2508.059738
1013.972745	2507.293483
1014.265992	2507.197701
1014.559204	2506.068482
1014.852380	2504.903976
1015.145521	2505.377844
1015.438628	2506.812052
1015.731699	2504.742659
1016.024736	2506.610406
1016.317737	2511.160048
1016.610703	2511.071828
1016.903635	2512.725326
1017.196531	2512.740449
1017.489393	2512.974863
1017.782219	2513.347908
1018.075011	2515.729854
1018.367768	2514.847652
1018.660490	2514.678773
1018.953177	2514.678773
1019.245829	2514.678773
