Dividing Wavelength (nm)	Counts (n)	Blue Motor Position (mm): 7.800000	Red Motor Position (mm): 0.000000	
326.493990	2160.154588
326.888308	2160.154588
327.282561	2160.154588
327.676750	2118.146653
328.070874	2111.527618
328.464933	2112.364449
328.858929	2115.994080
329.252859	2123.134874
329.646726	2130.797428
330.040528	2143.601959
330.434265	2158.238949
330.827938	2174.819304
331.221547	2191.765143
331.615091	2207.662422
332.008571	2226.649928
332.401986	2244.838411
332.795338	2263.725093
333.188625	2284.134205
333.581847	2301.813531
333.975006	2319.112251
334.368100	2337.678820
334.761129	2353.210615
335.154095	2374.852289
335.546996	2390.396687
335.939833	2409.164903
336.332606	2422.375246
336.725315	2436.520724
337.117960	2451.250975
337.510540	2461.056020
337.903056	2470.072123
338.295508	2483.209370
338.687896	2490.025010
339.080220	2497.828716
339.472480	2505.667711
339.864676	2509.788854
340.256807	2515.752539
340.648875	2517.842097
341.040879	2522.638755
341.432818	2522.411903
341.824694	2529.353572
342.216506	2527.821061
342.608253	2530.467667
342.999937	2528.287368
343.391557	2529.527492
343.783113	2528.612522
344.174605	2530.318953
344.566033	2526.255783
344.957397	2524.735875
345.348697	2524.294774
345.739934	2523.679753
346.131106	2520.440812
346.522215	2518.830163
346.913260	2516.823784
347.304241	2515.568537
347.695159	2516.730523
348.086012	2513.826818
348.476802	2511.409585
348.867528	2506.096209
349.258191	2501.753255
349.648789	2503.063955
350.039324	2501.420538
350.429796	2506.121414
350.820203	2499.847698
351.210548	2502.776609
351.600828	2497.944663
351.991045	2498.857112
352.381198	2497.377533
352.771288	2496.298726
353.161314	2496.646566
353.551276	2497.322080
353.941175	2496.026504
354.331010	2493.959631
354.720782	2493.374857
355.110490	2493.016935
355.500135	2494.398211
355.889717	2494.183962
356.279235	2492.923674
356.668689	2494.592296
357.058080	2493.778149
357.447408	2496.286123
357.836672	2493.127840
358.225873	2495.575321
358.615010	2494.713283
359.004084	2497.889210
359.393095	2495.910557
359.782043	2497.861484
360.170927	2498.627739
360.559748	2500.112359
360.948505	2497.866525
361.337199	2502.527072
361.725830	2499.951042
362.114398	2500.417349
362.502903	2499.086484
362.891344	2503.936074
363.279722	2502.050683
363.668037	2501.803666
364.056289	2500.714777
364.444478	2504.372134
364.832603	2501.473471
365.220665	2505.052690
365.608665	2504.941784
365.996601	2507.323730
366.384474	2504.866167
366.772284	2504.493122
367.160031	2507.651405
367.547715	2506.862464
367.935336	2505.264418
368.322893	2503.736949
368.710388	2502.733759
369.097820	2504.820797
369.485189	2503.860457
369.872495	2506.363390
370.259738	2509.254492
370.646918	2507.737104
371.034035	2505.440859
371.421090	2506.035715
371.808081	2511.119718
372.195010	2507.051507
372.581875	2511.039060
372.968678	2508.384893
373.355418	2508.939419
373.742096	2510.718947
374.128710	2510.434122
374.515262	2508.541168
374.901751	2514.764473
375.288177	2510.686179
375.674540	2511.845645
376.060841	2510.091323
376.447079	2512.279184
376.833254	2514.177178
377.219367	2512.687517
377.605417	2515.334123
377.991404	2512.407733
378.377329	2515.535769
378.763191	2510.023268
379.148991	2515.142559
379.534727	2515.898732
379.920402	2513.773886
380.306013	2510.666015
380.691563	2516.213804
381.077049	2512.291787
381.462474	2514.015861
381.847835	2513.824298
382.233134	2517.292611
382.618371	2515.976870
383.003545	2512.006962
383.388657	2516.884278
383.773706	2515.752539
384.158693	2516.440656
384.543618	2517.053157
384.928480	2515.470234
385.313280	2518.507529
385.698017	2517.118692
386.082692	2518.535256
386.467305	2517.143897
386.851856	2519.114988
387.236344	2517.751356
387.620770	2517.262364
388.005133	2513.080727
388.389435	2517.970647
388.773674	2514.154493
389.157851	2519.490554
389.541965	2518.293280
389.926018	2520.841584
390.310008	2520.617252
390.693936	2518.575585
391.077802	2517.905112
391.461606	2518.870493
391.845348	2518.378980
392.229027	2518.694052
392.612645	2519.394773
392.996200	2520.992818
393.379694	2521.449043
393.763125	2523.052130
394.146494	2520.420647
394.529801	2522.497603
394.913047	2521.522139
395.296230	2521.665812
395.679351	2520.171110
396.062410	2523.205885
396.445408	2520.501306
396.828343	2518.936028
397.211217	2521.955679
397.594028	2521.764115
397.976778	2522.225380
398.359466	2525.277799
398.742092	2524.849301
399.124656	2525.108920
399.507158	2525.640762
399.889598	2525.776873
400.271977	2524.887110
400.654294	2524.909795
401.036549	2523.304187
401.418742	2524.773684
401.800874	2523.866276
402.182944	2526.754857
402.564952	2525.176976
402.946898	2524.856863
403.328783	2524.753519
403.710606	2525.749147
404.092367	2525.827285
404.474067	2525.532377
404.855705	2526.686802
405.237282	2526.369209
405.618797	2523.652027
406.000250	2527.551359
406.381642	2528.403314
406.762972	2525.270237
407.144240	2521.691018
407.525447	2524.902233
407.906593	2523.899043
408.287677	2524.181348
408.668700	2526.545649
409.049661	2527.397604
409.430560	2527.566483
409.811399	2528.136133
410.192176	2528.889786
410.572891	2527.712676
410.953545	2527.412728
411.334138	2529.517409
411.714669	2527.226205
412.095139	2528.030269
412.475547	2528.100845
412.855894	2527.294261
413.236180	2527.044723
413.616405	2527.405166
413.996568	2528.557070
414.376670	2529.240146
414.756711	2529.900537
415.136691	2530.805424
415.516609	2531.125537
415.896466	2531.891793
416.276262	2530.170239
416.655997	2532.201824
417.035670	2531.627132
417.415283	2530.815507
417.794834	2530.949097
418.174324	2533.525127
418.553753	2532.161495
418.933121	2532.494211
419.312428	2530.651669
419.691674	2533.288193
420.070859	2533.303316
420.449983	2531.110414
420.829045	2530.931453
421.208047	2530.187883
421.586988	2533.021011
421.965867	2532.438758
422.344686	2533.399098
422.723444	2533.908254
423.102141	2531.808614
423.480777	2533.794828
423.859352	2531.722914
424.237866	2531.833820
424.616319	2531.622091
424.994712	2533.711649
425.373044	2533.111752
425.751314	2528.834333
426.129524	2528.620084
426.507673	2531.564118
426.885762	2525.663447
427.263789	2533.126876
427.641756	2532.902544
428.019662	2534.014119
428.397508	2535.203831
428.775292	2534.792977
429.153016	2535.284489
429.530679	2533.326001
429.908282	2534.838347
430.285824	2535.967566
430.663305	2534.606454
431.040726	2534.303985
431.418086	2533.971269
431.795385	2535.264325
432.172624	2535.980169
432.549802	2534.263656
432.926920	2536.759027
433.303977	2534.558563
433.680974	2538.268852
434.057910	2534.707277
434.434786	2533.714170
434.811601	2536.149047
435.188355	2537.621064
435.565050	2537.681558
435.941683	2536.383461
436.318257	2537.174922
436.694770	2537.132072
437.071222	2533.527647
437.447614	2539.400592
437.823946	2539.211548
438.200218	2537.147196
438.576429	2538.752803
438.952580	2535.740714
439.328670	2536.592669
439.704700	2536.728780
440.080670	2540.068544
440.456580	2539.665252
440.832429	2534.419932
441.208218	2539.887063
441.583947	2537.545447
441.959616	2539.030067
442.335224	2537.928575
442.710773	2537.820190
443.086261	2538.672145
443.461689	2536.648122
443.837057	2539.365303
444.212365	2538.107536
444.587612	2535.012267
444.962800	2535.584438
445.337927	2536.096115
445.712995	2534.699716
446.088002	2539.705581
446.462949	2538.896476
446.837837	2538.823379
447.212664	2539.251877
447.587431	2542.188350
447.962139	2538.667104
448.336786	2540.764224
448.711374	2540.391178
449.085901	2538.402443
449.460369	2540.822197
449.834776	2537.578214
450.209124	2539.650129
450.583412	2542.029553
450.957640	2540.537372
451.331808	2539.587114
451.705917	2537.857998
452.079965	2540.199614
452.453954	2541.059131
452.827883	2539.503935
453.201752	2541.109543
453.575562	2541.472506
453.949311	2539.123328
454.323001	2540.169367
454.696632	2538.430169
455.070202	2542.319420
455.443713	2542.253885
455.817164	2543.156251
456.190556	2540.721374
456.563888	2542.203473
456.937160	2541.999306
457.310373	2540.920499
457.683526	2542.740356
458.056619	2540.630633
458.429653	2544.015768
458.802628	2542.483257
459.175542	2541.427135
459.548398	2539.912269
459.921194	2543.642722
460.293930	2541.482588
460.666607	2544.320758
461.039224	2540.123997
461.411782	2540.401261
461.784280	2542.919317
462.156719	2542.160623
462.529099	2544.645912
462.901419	2545.699513
463.273680	2540.973432
463.645882	2537.416898
464.018024	2542.095088
464.390106	2538.599048
464.762130	2541.870757
465.134094	2541.434697
465.505999	2545.255892
465.877845	2545.412168
466.249631	2544.963505
466.621358	2543.836807
466.993026	2544.577857
467.364634	2548.404092
467.736184	2544.018288
468.107674	2545.712116
468.479105	2542.551313
468.850477	2544.056097
469.221790	2541.306148
469.593043	2544.373690
469.964238	2543.065510
470.335373	2544.729091
470.706449	2543.685572
471.077467	2542.619368
471.448425	2545.170192
471.819324	2543.594832
472.190164	2545.631458
472.560945	2543.126004
472.931667	2542.871426
473.302330	2542.712630
473.672934	2542.720191
474.043479	2546.606921
474.413965	2545.328988
474.784393	2546.122970
475.154761	2544.741694
475.525070	2545.265974
475.895321	2544.134235
476.265513	2542.863864
476.635645	2545.258412
477.005719	2544.756817
477.375734	2544.829914
477.745691	2544.852599
478.115588	2545.235727
478.485427	2543.519214
478.855207	2545.472661
479.224928	2543.869574
479.594591	2547.418547
479.964194	2546.256561
480.333739	2545.709596
480.703226	2546.662374
481.072653	2544.414019
481.442022	2545.601211
481.811333	2543.189019
482.180584	2543.151210
482.549777	2544.890408
482.918912	2541.492670
483.287988	2545.404606
483.657005	2547.479041
484.025964	2547.569781
484.394864	2545.139945
484.763706	2547.721016
485.132489	2545.356715
485.501213	2547.592467
485.869879	2546.339740
486.238487	2546.856458
486.607036	2546.503577
486.975527	2544.134235
487.343959	2548.383928
487.712333	2546.506098
488.080648	2546.858979
488.448905	2548.983825
488.817104	2545.933927
489.185244	2549.571119
489.553326	2550.286963
489.921350	2547.174051
490.289315	2548.789741
490.657222	2549.215718
491.025070	2547.726057
491.392861	2549.130018
491.760593	2550.367622
492.128267	2547.121119
492.495883	2548.643547
492.863440	2549.669422
493.230939	2551.217056
493.598380	2548.547765
493.965763	2549.568599
494.333088	2548.189843
494.700354	2548.348640
495.067563	2548.290666
495.434713	2547.012734
495.801805	2550.569268
496.168839	2548.562889
496.535815	2550.259237
496.902733	2547.690769
497.269593	2549.346788
497.636395	2548.709082
498.003139	2547.693290
498.369825	2547.637837
498.736453	2549.041798
499.103023	2549.369473
499.469535	2549.424926
499.835989	2551.315359
500.202385	2547.284956
500.568723	2544.040974
500.935003	2543.551982
501.301226	2544.434184
501.667390	2550.138249
502.033497	2548.963660
502.399546	2549.077086
502.765537	2549.561037
503.131470	2549.828218
503.497345	2549.384597
503.863163	2551.189330
504.228923	2548.303269
504.594625	2551.272509
504.960269	2550.264278
505.325856	2549.495502
505.691385	2552.086655
506.056856	2549.767724
506.422270	2549.361912
506.787625	2550.249155
507.152924	2545.739842
507.518164	2550.539021
507.883347	2549.311500
508.248472	2549.006510
508.613540	2548.726726
508.978550	2548.363763
509.343503	2548.159596
509.708398	2548.371325
510.073236	2552.429454
510.438016	2553.662016
510.802738	2549.419885
511.167403	2549.893753
511.532010	2547.920142
511.896561	2548.812426
512.261053	2548.930893
512.625488	2549.767724
512.989866	2549.777807
513.354186	2549.278733
513.718449	2551.335523
514.082655	2550.473486
514.446803	2552.116902
514.810894	2553.760318
515.174927	2552.895760
515.538904	2549.324103
515.902822	2549.921480
516.266684	2551.917777
516.630488	2553.225956
516.994235	2549.387117
517.357925	2548.570450
517.721558	2551.113713
518.085133	2551.149001
518.448651	2549.409802
518.812112	2547.668084
519.175516	2550.712941
519.538863	2549.195553
519.902152	2549.747560
520.265385	2553.546069
520.628560	2550.090358
520.991678	2552.313507
521.354739	2553.309135
521.717743	2551.635472
522.080690	2552.008517
522.443580	2549.840821
522.806413	2551.685883
523.169189	2550.407951
523.531908	2553.077242
523.894569	2551.194371
524.257174	2551.247303
524.619722	2553.425082
524.982213	2554.554300
525.344647	2550.178578
525.707025	2555.174362
526.069345	2553.528425
526.431608	2554.193857
526.793815	2554.153528
527.155964	2550.811243
527.518057	2552.429454
527.880093	2551.577499
528.242072	2551.892571
528.603995	2553.084804
528.965860	2552.023641
529.327669	2553.712427
529.689421	2549.550955
530.051117	2553.457849
530.412755	2551.953065
530.774337	2550.602035
531.135862	2550.614638
531.497331	2551.968188
531.858743	2553.805689
532.220098	2554.007335
532.581396	2552.361398
532.942638	2555.292829
533.303824	2555.088662
533.664953	2555.784342
534.026025	2553.896429
534.387040	2555.560010
534.747999	2556.507747
535.108902	2556.404403
535.469748	2552.205122
535.830537	2557.095042
536.191270	2552.968857
536.551947	2554.831563
536.912567	2552.222766
537.273131	2556.066646
537.633638	2553.122612
537.994089	2557.052192
538.354483	2556.797613
538.714821	2556.240566
539.075103	2556.202757
539.435328	2558.133519
539.795497	2558.181410
540.155609	2561.470763
540.515665	2561.748027
540.875665	2563.220043
541.235609	2560.399518
541.595496	2562.105948
541.955328	2561.153170
542.315102	2562.355486
542.674821	2561.982440
543.034483	2565.420507
543.394090	2563.399004
543.753640	2564.830692
544.113134	2565.788511
544.472571	2566.834551
544.831953	2566.055693
545.191278	2565.591906
545.550548	2567.121897
545.909761	2568.598955
546.268918	2566.879921
546.628019	2566.912689
546.987064	2569.559294
547.346053	2567.217678
547.704986	2566.577452
548.063863	2568.881259
548.422684	2566.960580
548.781449	2569.927299
549.140158	2570.335632
549.498811	2571.104408
549.857408	2568.780436
550.215949	2571.331260
550.574434	2570.476784
550.932864	2571.379151
551.291237	2572.531055
551.649555	2571.769840
552.007817	2572.183215
552.366022	2571.626168
552.724173	2574.456775
553.082267	2575.081878
553.440305	2572.460478
553.798288	2574.469378
554.156215	2573.587176
554.514086	2573.501477
554.871902	2569.881928
555.229661	2571.724470
555.587365	2571.162381
555.945014	2574.832341
556.302606	2576.952147
556.660143	2575.719584
557.017625	2578.008268
557.375050	2576.478278
557.732421	2577.675552
558.089735	2575.679255
558.446994	2576.858885
558.804197	2579.112281
559.161345	2576.453072
559.518437	2575.336457
559.875474	2576.319482
560.232455	2576.127918
560.589381	2576.337126
560.946251	2576.014492
561.303065	2579.742425
561.659825	2576.868968
562.016528	2579.465162
562.373177	2576.289235
562.729770	2576.150603
563.086307	2579.515573
563.442789	2577.652867
563.799216	2576.427867
564.155587	2579.447518
564.511904	2580.143197
564.868164	2575.243195
565.224370	2576.957188
565.580520	2579.220666
565.936615	2579.709658
566.292654	2577.121025
566.648638	2577.703278
567.004567	2576.107753
567.360441	2577.441138
567.716260	2577.204204
568.072023	2578.381314
568.427732	2576.047259
568.783385	2576.909297
569.138982	2576.523648
569.494525	2577.458782
569.850013	2576.319482
570.205445	2577.133628
570.560823	2573.703123
570.916145	2577.985583
571.271412	2577.292424
571.626625	2577.965418
571.981782	2575.916189
572.336884	2575.076837
572.691931	2571.976528
573.046923	2571.643812
573.401860	2569.612227
573.756743	2575.127249
574.111570	2573.405695
574.466342	2573.604820
574.821059	2573.501477
575.175722	2572.231106
575.530330	2575.263360
575.884882	2572.798236
576.239380	2575.890984
576.593823	2574.867629
576.948211	2574.176991
577.302544	2573.544327
577.656823	2572.495767
578.011047	2574.295458
578.365216	2573.383010
578.719330	2574.187074
579.073389	2572.362176
579.427394	2573.355283
579.781344	2570.869994
580.135239	2573.143555
580.489080	2571.790005
580.842866	2570.345714
581.196597	2574.360993
581.550273	2570.242371
581.903895	2571.303534
582.257463	2571.669017
582.610975	2570.738924
582.964434	2571.149778
583.317837	2570.953173
583.671186	2570.824624
584.024481	2571.981569
584.377721	2568.767833
584.730906	2569.292113
585.084037	2570.668348
585.437113	2572.321847
585.790135	2573.440983
586.143103	2570.428893
586.496016	2569.055179
586.848874	2569.463512
587.201679	2570.345714
587.554428	2568.382185
587.907124	2571.210272
588.259765	2568.233471
588.612352	2566.653069
588.964884	2570.557443
589.317362	2568.326732
589.669786	2567.741958
590.022155	2566.456464
590.374470	2563.751885
590.726731	2564.997050
591.078937	2565.700291
591.431090	2569.203893
591.783188	2569.153482
592.135232	2567.129458
592.487222	2569.375292
592.839157	2567.084088
593.191038	2568.558625
593.542866	2567.454613
593.894639	2567.764644
594.246358	2567.121897
594.598022	2567.429407
594.949633	2565.289437
595.301190	2565.319684
595.652692	2567.426886
596.004141	2562.988150
596.355535	2567.217678
596.706876	2563.656103
597.058162	2563.293140
597.409395	2565.579303
597.760573	2565.949828
598.111698	2562.758778
598.462768	2566.337997
598.813785	2567.021073
599.164748	2567.300858
599.515657	2567.139541
599.866511	2567.184911
600.217312	2566.476629
600.568060	2566.665672
600.918753	2569.236661
601.269392	2567.807493
601.619978	2564.671896
601.970510	2562.121072
602.320988	2567.373954
602.671412	2566.658110
603.021783	2564.785322
603.372100	2567.265569
603.722363	2567.588203
604.072572	2568.293965
604.422728	2566.436300
604.772830	2570.411249
605.122878	2565.982596
605.472872	2565.932184
605.822813	2567.641135
606.172701	2567.184911
606.522534	2565.360013
606.872314	2565.906978
607.222041	2567.792370
607.571714	2561.690053
607.921333	2562.421021
608.270899	2565.286917
608.620411	2563.386402
608.969870	2571.603482
609.319276	2572.997361
609.668627	2575.890984
610.017926	2581.222004
610.367171	2579.991962
610.716362	2582.999011
611.065500	2579.601273
611.414585	2577.443659
611.763616	2577.783937
612.112594	2577.559606
612.461518	2573.705643
612.810389	2571.550550
613.159207	2573.166240
613.507971	2572.392423
613.856682	2573.062896
614.205340	2575.381827
614.553945	2574.537434
614.902496	2571.963925
615.250994	2574.033318
615.599439	2570.869994
615.947830	2573.035170
616.296169	2572.911662
616.644454	2574.600448
616.992686	2571.671538
617.340864	2574.736559
617.688990	2572.773030
618.037063	2572.911662
618.385082	2572.037022
618.733048	2571.560632
619.080961	2572.770509
619.428821	2577.443659
619.776628	2573.060376
620.124382	2577.554564
620.472083	2575.734708
620.819731	2576.037177
621.167326	2577.559606
621.514868	2576.407702
621.862357	2576.657239
622.209793	2576.495922
622.557176	2577.753690
622.904506	2574.418967
623.251783	2574.928123
623.599007	2575.502815
623.946179	2576.011971
624.293297	2576.609348
624.640363	2574.182032
624.987376	2573.650191
625.334336	2571.026270
625.681243	2574.199677
626.028097	2570.955694
626.374899	2578.996334
626.721647	2576.054821
627.068343	2573.511559
627.414987	2575.059193
627.761577	2576.165727
628.108115	2574.441652
628.454600	2574.711354
628.801032	2577.214287
629.147412	2578.487178
629.493739	2577.960377
629.840014	2581.247210
630.186236	2578.661098
630.532405	2579.936510
630.878521	2580.743094
631.224585	2579.031622
631.570597	2576.574060
631.916556	2577.131107
632.262462	2577.688155
632.608316	2579.021540
632.954117	2580.024730
633.299866	2581.955492
633.645562	2581.804257
633.991206	2581.932807
634.336797	2580.551530
634.682336	2578.968608
635.027823	2581.489185
635.373257	2580.743094
635.718639	2581.824422
636.063968	2580.717888
636.409245	2580.793506
636.754470	2581.138825
637.099642	2580.372569
637.444762	2576.377455
637.789829	2584.143353
638.134845	2581.267374
638.479808	2578.630851
638.824719	2583.382138
639.169577	2581.040522
639.514383	2579.944071
639.859137	2581.234607
640.203839	2582.787282
640.548489	2581.579926
640.893086	2584.743250
641.237632	2580.904411
641.582125	2585.086048
641.926566	2583.850966
642.270955	2579.994483
642.615292	2580.859041
642.959576	2582.164700
643.303809	2582.273084
643.647990	2587.004207
643.992118	2586.237952
644.336195	2584.428178
644.680219	2588.680391
645.024192	2588.445977
645.368112	2589.973447
645.711981	2591.921853
646.055797	2589.746595
646.399562	2588.677870
646.743274	2591.500917
647.086935	2598.505600
647.430544	2595.115424
647.774101	2597.744386
648.117606	2600.980806
648.461059	2599.959973
648.804460	2604.761672
649.147810	2606.410129
649.491108	2600.398553
649.834354	2602.306630
650.177548	2601.187494
650.520690	2601.868049
650.863781	2602.556167
651.206820	2602.556167
651.549807	2602.798142
651.892742	2604.338215
652.235626	2606.092536
652.578458	2606.473143
652.921238	2607.068000
653.263967	2605.253184
653.606644	2605.500201
653.949269	2608.605552
654.291843	2607.388113
654.634365	2610.100254
654.976836	2610.531272
655.319255	2611.466406
655.661622	2613.555965
656.003938	2613.011520
656.346203	2614.821294
656.688416	2615.597632
657.030577	2616.782303
657.372687	2618.647530
657.714746	2620.099382
658.056753	2620.031327
658.398708	2621.377315
658.740612	2621.210957
659.082465	2623.918056
659.424266	2620.268261
659.766016	2622.612397
660.107715	2626.587347
660.449362	2628.041720
660.790958	2632.795528
661.132503	2631.573048
661.473996	2636.145375
661.815438	2636.485653
662.156829	2639.933802
662.498168	2637.819038
662.839456	2643.359266
663.180693	2643.296252
663.521879	2645.431180
663.863013	2648.246665
664.204097	2650.855462
664.545129	2649.751449
664.886110	2652.750936
665.227040	2657.262768
665.567918	2657.850063
665.908746	2663.566731
666.249522	2663.596978
666.590248	2668.358348
666.930922	2674.523679
667.271545	2675.471416
667.612118	2679.703465
667.952639	2681.883764
668.293109	2683.542303
668.633528	2684.157324
668.973896	2685.556244
669.314213	2694.935311
669.654480	2685.369722
669.994695	2689.561441
670.334859	2691.877851
670.674973	2696.568645
671.015035	2700.873790
671.355047	2701.088039
671.695008	2702.817155
672.034918	2704.437886
672.374777	2711.724874
672.714585	2710.300748
673.054342	2719.654609
673.394049	2717.547407
673.733705	2723.259034
674.073310	2729.167266
674.412864	2736.597927
674.752368	2733.028790
675.091820	2728.113665
675.431223	2739.841910
675.770574	2735.879563
676.109875	2739.325191
676.449125	2738.337125
676.788324	2738.495922
677.127473	2734.873852
677.466571	2740.777044
677.805619	2744.376427
678.144616	2743.731160
678.483562	2754.143663
678.822458	2749.228538
679.161303	2746.075296
679.500098	2759.426792
679.838842	2760.208171
680.177535	2759.459560
680.516179	2762.499376
680.854771	2770.935747
681.193314	2782.578291
681.531805	2782.691717
681.870247	2809.475368
682.208638	2819.366112
682.546978	2839.243381
682.885268	2851.264012
683.223508	2840.818742
683.561697	2837.363031
683.899836	2840.027281
684.237925	2840.191118
684.575963	2841.930316
684.913951	2859.009745
685.251889	2854.127388
685.589776	2870.427959
685.927614	2877.200749
686.265401	2865.843029
686.603137	2887.351112
686.940824	2896.158008
687.278460	2910.958836
687.616046	2931.879624
687.953582	2946.325051
688.291068	2939.174174
688.628504	2950.738581
688.965889	2969.771457
689.303224	2984.968015
689.640510	2983.947182
689.977745	2963.754840
690.314930	2963.243163
690.652065	2964.165694
690.989150	2940.535285
691.326185	2938.957404
691.663170	2934.256528
692.000105	2922.271185
692.336990	2935.526899
692.673825	2917.086358
693.010610	2917.623241
693.347345	2904.054976
693.684030	2895.618605
694.020665	2897.035169
694.357251	2897.440982
694.693786	2914.596028
695.030272	2888.460166
695.366707	2890.942934
695.703093	2894.186917
696.039429	2899.686816
696.375716	2909.401119
696.711952	2892.679612
697.048139	2904.700243
697.384276	2917.973601
697.720363	2914.243148
698.056400	2912.345153
698.392388	2923.516350
698.728326	2923.261772
699.064214	2919.478386
699.400053	2942.546706
699.735842	2929.411979
700.071581	2928.083635
700.407270	2919.891760
700.742910	2922.382090
701.078501	2927.355189
701.414042	2918.162645
701.749533	2917.940834
702.084974	2909.716191
702.420366	2918.117274
702.755709	2922.296391
703.091002	2912.095616
703.426246	2917.708941
703.761440	2922.833274
704.096584	2923.828902
704.431679	2917.141811
704.766725	2924.113727
705.101721	2922.954261
705.436668	2926.049530
705.771565	2928.912905
706.106413	2940.046293
706.441212	2954.060701
706.775961	2940.721808
707.110661	2945.102571
707.445311	2977.073568
707.779913	2968.478401
708.114465	2983.906853
708.448967	2991.831546
708.783421	2993.739623
709.117825	3031.356713
709.452180	3038.847868
709.786485	3043.147972
710.120742	3080.553333
710.454949	3082.539548
710.789107	3098.540170
711.123216	3121.721916
711.457275	3158.280364
711.791286	3185.457224
712.125247	3174.464988
712.459159	3201.220912
712.793023	3227.140005
713.126837	3190.218594
713.460602	3207.391285
713.794318	3172.672858
714.127985	3206.221737
714.461602	3187.052750
714.795171	3162.159532
715.128691	3154.159221
715.462162	3121.913480
715.795584	3140.374186
716.128957	3119.647482
716.462281	3080.505442
716.795556	3125.684263
717.128782	3094.597988
717.461960	3056.048285
717.795088	3083.300762
718.128167	3077.236254
718.461198	3058.596588
718.794180	3053.837739
719.127113	3071.249884
719.459997	3058.803275
719.792833	3025.549304
720.125619	3041.219731
720.458357	3018.748787
720.791046	3026.799510
721.123686	3052.143911
721.456278	3028.783204
721.788821	3026.650796
722.121315	3012.308713
722.453761	3034.328473
722.786158	3045.701316
723.118506	3044.446069
723.450805	3041.746531
723.783056	3048.426060
724.115259	3033.564738
724.447412	3046.696944
724.779518	3050.485371
725.111574	3053.071483
725.443582	3075.088723
725.775542	3068.734348
726.107453	3100.150819
726.439315	3094.131681
726.771129	3098.661158
727.102895	3123.451032
727.434612	3147.046153
727.766281	3155.048984
728.097901	3170.774864
728.429473	3161.423523
728.760996	3167.999709
729.092471	3173.469361
729.423897	3174.470030
729.755276	3194.226312
730.086606	3184.391020
730.417887	3183.932275
730.749120	3204.905996
731.080305	3264.386570
731.411442	3286.426495
731.742530	3266.440840
732.073570	3317.348933
732.404562	3336.757375
732.735506	3287.341464
733.066401	3333.140347
733.397249	3327.045592
733.728048	3295.929070
734.058798	3250.094899
734.389501	3235.432703
734.720156	3217.221535
735.050762	3162.469563
735.381320	3152.281391
735.711831	3165.113648
736.042293	3150.257368
736.372707	3166.220181
736.703073	3140.679175
737.033391	3140.757313
737.363661	3142.854433
737.693883	3157.592247
738.024056	3188.522246
738.354182	3194.909388
738.684260	3192.434181
739.014290	3220.135322
739.344272	3239.994947
739.674207	3235.936818
740.004093	3252.703696
740.333931	3264.240377
740.663722	3266.352620
740.993464	3297.280099
741.323159	3318.578974
741.652806	3238.084350
741.982405	3235.926736
742.311956	3300.927374
742.641460	3266.881941
742.970915	3213.465875
743.300323	3228.770818
743.629683	3221.614900
743.958996	3195.284954
744.288260	3186.621731
744.617477	3191.337730
744.946647	3207.308106
745.275768	3160.919408
745.604842	3167.735048
745.933869	3167.919050
746.262847	3146.496667
746.591778	3163.250942
746.920662	3155.265754
747.249498	3153.506391
747.578286	3168.019873
747.907027	3195.287474
748.235720	3213.344887
748.564365	3182.127542
748.892963	3188.310517
749.221514	3259.254676
749.550017	3225.085735
749.878473	3173.262673
750.206881	3208.192828
750.535242	3198.372661
750.863555	3174.699402
751.191821	3197.863504
751.520039	3210.040411
751.848210	3178.361800
752.176334	3176.965401
752.504411	3215.673901
752.832440	3199.448947
753.160421	3156.883964
753.488356	3188.010569
753.816243	3223.437277
754.144082	3174.666635
754.471875	3156.737771
754.799620	3183.740712
755.127318	3191.499047
755.454969	3180.887418
755.782572	3169.214627
756.110129	3196.731765
756.437638	3212.934033
756.765100	3178.898683
757.092515	3174.001202
757.419882	3197.966848
757.747203	3192.547607
758.074477	3225.244531
758.401703	3227.800396
758.728882	3190.558872
759.056014	3197.051878
759.383099	3269.321860
759.710138	3262.803648
760.037129	3239.611820
760.364073	3237.779360
760.690970	3289.940179
761.017820	3295.969399
761.344623	3256.245107
761.671379	3282.892646
761.998088	3323.922597
762.324751	3372.345400
762.651366	3511.519055
762.977935	3784.109367
763.304456	4116.223103
763.630931	4311.532527
763.957359	4238.329932
764.283740	4106.831433
764.610074	3984.976663
764.936362	3747.414808
765.262602	3594.937548
765.588796	3456.915797
765.914943	3366.258207
766.241044	3363.692260
766.567097	3332.210254
766.893104	3252.996083
767.219064	3195.947866
767.544978	3195.864687
767.870845	3190.873944
768.196665	3155.830363
768.522438	3132.477218
768.848165	3133.520737
769.173846	3127.496558
769.499479	3118.440125
769.825066	3099.523195
770.150607	3086.002821
770.476101	3081.324630
770.801548	3091.621187
771.126949	3086.045671
771.452303	3063.383163
771.777611	3052.136349
772.102872	3058.168090
772.428087	3049.535114
772.753256	3054.949313
773.078378	3046.812891
773.403453	3020.823222
773.728482	3023.273223
774.053465	3010.967766
774.378401	3008.908455
774.703291	3020.818181
775.028135	2999.390757
775.352932	2979.543734
775.677683	2975.253712
776.002388	2994.808348
776.327046	3006.808814
776.651658	2969.463947
776.976224	2942.914710
777.300743	2950.592387
777.625216	2972.019812
777.949643	2979.324444
778.274024	2953.231431
778.598359	2935.131168
778.922647	2944.485029
779.246889	2952.200515
779.571086	2956.717389
779.895236	2954.353088
780.219339	2939.514452
780.543397	2933.041610
780.867409	2954.925259
781.191374	2968.223823
781.515294	2949.395113
781.839167	2941.936726
782.162995	2952.192954
782.486776	2948.752366
782.810511	2960.808286
783.134201	2969.088381
783.457844	2952.500464
783.781441	2930.042124
784.104993	2930.221085
784.428498	2942.544185
784.751958	2953.223870
785.075372	2941.944288
785.398739	2920.262285
785.722061	2924.718665
786.045337	2954.101030
786.368568	2972.599544
786.691752	2931.436003
787.014891	2937.069492
787.337983	2979.435349
787.661030	3025.042668
787.984031	3070.322312
788.306987	3125.399438
788.629897	3142.791419
788.952760	3127.322638
789.275579	3122.420116
789.598351	3130.685088
789.921078	3094.933225
790.243759	3013.004393
790.566395	3007.746469
790.888984	3025.428316
791.211529	2984.161431
791.534027	2970.333546
791.856480	2980.252016
792.178888	2948.069290
792.501249	2921.565423
792.823566	2932.991199
793.145836	2954.224539
793.468062	2936.134358
793.790241	2910.043866
794.112375	2923.473500
794.434464	2949.574074
794.756507	2965.930098
795.078505	2952.336627
795.400457	2943.557457
795.722364	2990.591423
796.044226	3025.493851
796.366042	3048.103426
796.687812	3052.249775
797.009538	3053.200033
797.331218	3036.208824
797.652852	3029.753626
797.974442	3037.247301
798.295986	3048.741132
798.617484	3018.075793
798.938938	2978.643888
799.260346	3003.340501
799.581709	3015.850124
799.903026	2989.132008
800.224299	2968.901858
800.545526	2973.665748
800.866708	2962.242494
801.187845	2929.404418
801.508936	2954.257306
801.829983	2965.292392
802.150984	2923.256731
802.471940	2915.311872
802.792851	2928.088677
803.113717	2929.414500
803.434538	2941.939247
803.755314	2909.310378
804.076045	2892.427554
804.396731	2904.352404
804.717372	2918.079466
805.037967	2918.608787
805.358518	2909.436407
805.679024	2916.637696
805.999485	2918.812953
806.319901	2920.753798
806.640272	2934.347269
806.960598	2937.457661
807.280879	2922.671957
807.601115	2924.932914
807.921306	2939.587548
808.241453	2961.859366
808.561554	2951.766976
808.881611	2918.843200
809.201623	2935.199224
809.521590	2949.647171
809.841513	2938.256684
810.161390	2955.071453
810.481223	2950.899898
810.801011	2923.365115
811.120755	2913.141655
811.440453	2941.034360
811.760107	2949.989969
812.079716	2933.540684
812.399281	2910.255595
812.718801	2926.737647
813.038276	2916.451173
813.357707	2925.058943
813.677093	2935.796601
813.996434	2911.823394
814.315731	2908.022364
814.634983	2912.892118
814.954191	2919.233890
815.273354	2943.214659
815.592473	2942.627364
815.911547	2934.203596
816.230577	2946.274639
816.549562	2972.730614
816.868502	2999.698267
817.187399	3013.032119
817.506250	3001.792866
817.825058	2989.847852
818.143821	3036.854091
818.462539	3092.339551
818.781213	3112.652881
819.099843	3119.140846
819.418429	3213.748180
819.736970	3307.448106
820.055466	3393.170407
820.373919	3561.486972
820.692327	3741.735948
821.010691	3877.035477
821.329011	4350.351932
821.647286	5203.743661
821.965517	6395.787502
822.283704	7337.469999
822.601847	7933.785567
822.919945	7731.937767
823.237999	7307.117212
823.556010	6746.755153
823.873976	6210.504933
824.191897	5435.586326
824.509775	4909.922529
824.827609	4480.552333
825.145398	4258.088734
825.463144	4234.107965
825.780845	4276.907361
826.098502	4275.014408
826.416116	4524.170916
826.733685	4971.369153
827.051210	5409.765536
827.368692	5548.566145
827.686129	5149.026977
828.003522	4571.207402
828.320872	4200.581772
828.638177	3941.741207
828.955439	3724.651478
829.272656	3499.319463
829.589830	3360.125643
829.906960	3297.582568
830.224046	3212.651729
830.541088	3161.519305
830.858086	3145.127994
831.175041	3113.812346
831.491952	3103.069647
831.808819	3114.989455
832.125642	3142.100781
832.442421	3209.180894
832.759157	3323.171465
833.075849	3538.705998
833.392497	3851.446580
833.709101	4104.504941
834.025662	4274.689254
834.342179	4209.295406
834.658653	3981.349552
834.975083	3735.215216
835.291469	3488.644820
835.607811	3290.613173
835.924110	3240.206676
836.240366	3148.893736
836.556578	3042.197714
836.872746	2991.549242
837.188871	2982.097078
837.504952	2955.971298
837.820990	2910.878177
838.136984	2880.961450
838.452935	2898.005591
838.768842	2899.790159
839.084706	2914.848086
839.400526	2973.146510
839.716303	3088.122626
840.032037	3283.457255
840.347727	3431.445367
840.663373	3358.099100
840.978977	3210.100905
841.294537	3072.873136
841.610054	2959.046402
841.925527	2904.541447
842.240957	2871.882332
842.556344	2849.353415
842.871687	2824.994560
843.186987	2798.614202
843.502244	2779.977056
843.817458	2764.934253
844.132629	2740.477095
844.447756	2753.334558
844.762840	2745.283835
845.077881	2732.088615
845.392879	2720.516646
845.707833	2718.016234
846.022745	2714.953733
846.337613	2720.219218
846.652438	2714.948692
846.967221	2715.488095
847.281960	2702.207176
847.596656	2703.306147
847.911309	2704.047197
848.225919	2698.454037
848.540485	2696.200641
848.855009	2699.058975
849.169490	2697.511341
849.483928	2689.569003
849.798323	2686.725792
850.112675	2683.698579
850.426984	2692.076977
850.741251	2693.085208
851.055474	2689.503468
851.369654	2686.163703
851.683792	2686.521625
851.997887	2691.940866
852.311938	2692.001360
852.625947	2686.788807
852.939914	2690.569672
853.253837	2695.343645
853.567718	2680.585667
853.881555	2681.268743
854.195350	2690.146215
854.509103	2691.635876
854.822812	2686.619928
855.136479	2688.223015
855.450103	2683.897705
855.763685	2679.955522
856.077224	2678.354956
856.390720	2689.039682
856.704173	2692.623942
857.017584	2691.391380
857.330953	2685.767973
857.644278	2691.414065
857.957561	2696.631659
858.270802	2696.961855
858.584000	2700.178111
858.897155	2691.877851
859.210268	2694.884900
859.523339	2692.172759
859.836367	2692.712162
860.149352	2691.018335
860.462295	2691.081349
860.775195	2693.624611
861.088054	2695.767102
861.400869	2685.367201
861.713642	2680.867971
862.026373	2689.695032
862.339062	2689.783252
862.651708	2694.874817
862.964312	2698.174252
863.276873	2694.274920
863.589392	2694.562266
863.901869	2699.371527
864.214303	2711.379555
864.526696	2724.184086
864.839045	2721.292984
865.151353	2717.320555
865.463619	2715.455328
865.775842	2717.282746
866.088023	2726.376988
866.400162	2736.882752
866.712258	2722.971688
867.024313	2715.478013
867.336325	2720.572099
867.648296	2733.096846
867.960224	2728.458984
868.272110	2721.388766
868.583954	2728.264900
868.895755	2737.162536
869.207515	2726.830692
869.519233	2725.794734
869.830909	2732.743965
870.142542	2742.024729
870.454134	2741.581108
870.765684	2743.181674
871.077191	2742.851478
871.388657	2743.466499
871.700081	2752.638879
872.011463	2760.850918
872.322803	2760.740013
872.634101	2757.070053
872.945357	2766.275200
873.256571	2782.225411
873.567744	2773.968001
873.878874	2765.425765
874.189963	2785.955864
874.501010	2788.511729
874.812015	2781.970832
875.122979	2785.187088
875.433900	2784.060391
875.744780	2783.031995
876.055618	2792.297636
876.366415	2791.130609
876.677169	2802.153092
876.987882	2801.258287
877.298554	2794.848460
877.609183	2808.923361
877.919771	2823.237718
878.230317	2842.121880
878.540822	2878.811398
878.851285	2903.510531
879.161707	2922.868562
879.472087	2974.119452
879.782425	3096.059923
880.092722	3339.925740
880.402977	3596.732199
880.713191	3792.815440
881.023363	4129.950165
881.333494	4525.201832
881.643583	4710.801993
881.953631	4698.660374
882.263637	4608.174183
882.573602	4490.153210
882.883526	4295.665495
883.193408	4031.292264
883.503248	3806.050989
883.813048	3687.319213
884.122806	3561.098803
884.432522	3398.771129
884.742197	3273.977365
885.051831	3161.264727
885.361424	3078.473858
885.670975	3042.026315
885.980485	2994.957062
886.289954	2952.634055
886.599382	2926.225970
886.908768	2905.526993
887.218113	2879.290307
887.527417	2848.627489
887.836680	2817.999959
888.145901	2820.485248
888.455082	2818.738488
888.764221	2789.605660
889.073319	2768.788215
889.382376	2770.434152
889.691392	2772.034718
890.000366	2772.138062
890.309300	2763.542894
890.618193	2770.845006
890.927044	2781.859927
891.235855	2784.501492
891.544625	2769.708226
891.853353	2773.809204
892.162041	2783.465534
892.470687	2808.666262
892.779293	2838.159533
893.087858	2861.497555
893.396381	2899.843092
893.704864	2957.987760
894.013306	3079.086358
894.321707	3234.490007
894.630068	3351.079293
894.938387	3355.674305
895.246665	3344.266173
895.554903	3299.704894
895.863100	3196.293185
896.171256	3106.409412
896.479371	3035.881149
896.787446	2964.407669
897.095480	2901.864594
897.403473	2859.443285
897.711425	2831.275838
898.019336	2827.429437
898.327207	2813.924186
898.635038	2792.688325
898.942827	2783.914197
899.250576	2774.272990
899.558284	2754.093252
899.865952	2741.208062
900.173579	2733.311095
900.481165	2730.152812
900.788711	2724.494117
901.096216	2708.415357
901.403681	2699.202648
901.711105	2706.272866
902.018489	2705.647763
902.325832	2705.572146
902.633135	2706.933257
902.940397	2728.554766
903.247619	2769.025149
903.554800	2871.786550
903.861941	3038.318547
904.169041	3247.634816
904.476101	3415.099426
904.783121	3429.328083
905.090100	3327.280006
905.397039	3187.297246
905.703938	3046.328940
906.010796	2938.576797
906.317614	2873.760162
906.624391	2819.403920
906.931129	2775.934051
907.237826	2741.001375
907.544483	2708.952239
907.851099	2690.289888
908.157675	2677.011489
908.464211	2665.613440
908.770707	2656.229332
909.077163	2648.574340
909.383578	2640.924389
909.689954	2634.249901
909.996289	2627.988788
910.302584	2628.939046
910.608839	2635.248050
910.915054	2631.041207
911.221229	2623.585340
911.527363	2624.800258
911.833458	2628.654220
912.139513	2635.805097
912.445527	2632.926598
912.751502	2641.146200
913.057436	2646.860347
913.363331	2652.657674
913.669186	2667.309788
913.975000	2687.247552
914.280775	2716.350133
914.586510	2762.406114
914.892205	2805.208031
915.197859	2868.073740
915.503475	2964.251394
915.809050	3074.579566
916.114585	3156.601660
916.420081	3183.468489
916.725536	3164.208761
917.030952	3105.721294
917.336328	3039.886345
917.641665	2963.238122
917.946961	2903.881056
918.252218	2869.729759
918.557435	2824.722337
918.862612	2788.428550
919.167750	2758.847060
919.472848	2734.573904
919.777906	2721.592933
920.082925	2704.684903
920.387904	2687.232428
920.692843	2676.341015
920.997743	2668.360869
921.302603	2661.250321
921.607423	2653.509629
921.912204	2646.857827
922.216946	2641.395737
922.521647	2633.007257
922.826310	2628.989457
923.130932	2626.731020
923.435516	2622.123406
923.740059	2613.697117
924.044564	2608.474482
924.349028	2607.284769
924.653454	2601.822679
924.957840	2598.077102
925.262186	2592.438571
925.566493	2592.231884
925.870761	2587.233580
926.174989	2587.772983
926.479178	2580.859041
926.783328	2578.106571
927.087438	2580.475913
927.391509	2575.704461
927.695541	2576.803432
927.999533	2572.526013
928.303486	2571.144737
928.607400	2572.780592
928.911275	2569.367731
929.215110	2569.329922
929.518906	2569.518965
929.822663	2571.472412
930.126381	2568.835889
930.430060	2567.729356
930.733699	2568.041907
931.037299	2570.275138
931.340861	2570.668348
931.644383	2573.970304
931.947866	2572.515931
932.251309	2567.346228
932.554714	2569.037535
932.858080	2569.035014
933.161407	2566.663152
933.464694	2568.762792
933.767943	2561.327090
934.071153	2566.242215
934.374323	2565.682647
934.677455	2565.972513
934.980548	2564.770198
935.283602	2566.557287
935.586617	2561.790876
935.889593	2565.680127
936.192530	2565.544015
936.495428	2568.495611
936.798287	2567.842782
937.101108	2568.099880
937.403890	2570.229768
937.706632	2577.211766
938.009336	2580.072621
938.312002	2583.530852
938.614628	2591.397573
938.917216	2595.745568
939.219765	2593.973602
939.522275	2596.882348
939.824747	2593.131730
940.127179	2590.792634
940.429573	2589.781883
940.731929	2584.597056
941.034246	2586.434557
941.336524	2586.124526
941.638763	2580.606983
941.940964	2579.263516
942.243126	2577.917528
942.545250	2580.039853
942.847335	2578.151941
943.149381	2573.483833
943.451389	2569.818914
943.753359	2566.854715
944.055290	2567.620971
944.357182	2571.686661
944.659036	2568.861095
944.960851	2570.295303
945.262628	2565.080229
945.564367	2564.621484
945.866067	2566.932853
946.167729	2569.173646
946.469352	2570.355797
946.770937	2570.101218
947.072484	2566.267421
947.373992	2566.849674
947.675462	2563.651062
947.976893	2560.364230
948.278286	2560.117213
948.579641	2562.179045
948.880958	2557.674774
949.182236	2560.923798
949.483476	2559.718962
949.784678	2558.645196
950.085841	2561.669889
950.386967	2560.200392
950.688054	2562.247101
950.989103	2563.761967
951.290114	2564.228274
951.591087	2565.788511
951.892021	2567.734397
952.192917	2569.798749
952.493776	2569.587021
952.794596	2571.280848
953.095378	2570.572566
953.396122	2565.168449
953.696828	2569.276990
953.997496	2567.557956
954.298126	2565.107956
954.598718	2565.458316
954.899272	2560.742316
955.199788	2562.408418
955.500266	2560.938921
955.800706	2556.938766
956.101108	2554.529094
956.401472	2555.917932
956.701798	2552.633620
957.002087	2552.011038
957.302337	2551.320400
957.602550	2548.585574
957.902724	2548.146993
958.202861	2550.967519
958.502960	2549.397200
958.803022	2547.955430
959.103045	2546.440563
959.403031	2547.615152
959.702979	2545.225645
960.002889	2548.094061
960.302762	2545.502908
960.602596	2546.896787
960.902393	2544.305634
961.202153	2545.457538
961.501875	2542.813453
961.801559	2543.950233
962.101205	2545.608772
962.400814	2543.103319
962.700385	2542.853782
962.999918	2542.521066
963.299414	2539.471168
963.598873	2541.863195
963.898293	2540.983514
964.197677	2543.927548
964.497022	2541.933771
964.796331	2541.553164
965.095601	2540.837320
965.394835	2541.275901
965.694030	2540.917979
965.993189	2540.381096
966.292309	2541.348997
966.591393	2542.047197
966.890439	2545.631458
967.189447	2542.231199
967.488419	2540.416384
967.787353	2544.582898
968.086249	2541.210366
968.385108	2542.503422
968.683930	2542.037115
968.982714	2540.360931
969.281462	2541.485109
969.580172	2543.874616
969.878844	2541.560726
970.177480	2543.385624
970.476078	2543.221786
970.774639	2543.776313
971.073162	2543.821683
971.371649	2540.686086
971.670098	2541.931251
971.968510	2542.896632
972.266885	2544.603062
972.565223	2543.143648
972.863524	2544.545089
973.161788	2542.828576
973.460014	2541.933771
973.758204	2542.395037
974.056356	2542.715150
974.354471	2542.677342
974.652550	2542.528627
974.950591	2542.742877
975.248595	2542.208514
975.546563	2544.086344
975.844493	2542.863864
976.142386	2545.124822
976.440243	2542.727753
976.738062	2544.930737
977.035845	2543.637681
977.333590	2544.086344
977.631299	2541.535520
977.928971	2538.402443
978.226606	2535.534027
978.524204	2537.694161
978.821765	2536.597710
979.119290	2542.644574
979.416777	2541.003678
979.714228	2541.054090
980.011642	2539.259439
980.309020	2540.305479
980.606360	2540.481919
980.903664	2541.802701
981.200931	2540.098791
981.498162	2540.945705
981.795356	2544.557692
982.092513	2546.211190
982.389633	2547.738660
982.686717	2548.668753
982.983764	2551.799309
983.280775	2553.813250
983.577749	2552.769732
983.874686	2553.800647
984.171587	2548.482230
984.468451	2553.034392
984.765279	2549.203115
985.062070	2545.414688
985.358824	2546.740512
985.655543	2543.264636
985.952224	2544.852599
986.248869	2543.509132
986.545478	2542.090047
986.842050	2541.601055
987.138586	2540.612989
987.435086	2539.735828
987.731549	2539.067875
988.027975	2541.003678
988.324366	2539.665252
988.620719	2537.613503
988.917037	2541.772454
989.213318	2541.424615
989.509563	2538.843544
989.805772	2538.871270
990.101944	2540.834800
990.398080	2540.575180
990.694180	2538.878832
990.990244	2537.074099
991.286271	2539.597197
991.582262	2540.955787
991.878217	2537.033770
992.174136	2542.410160
992.470019	2541.364121
992.765865	2537.948739
993.061676	2536.239788
993.357450	2537.671476
993.653188	2536.600231
993.948890	2540.005530
994.244556	2540.794471
994.540186	2540.562577
994.835780	2540.988555
995.131337	2540.875129
995.426859	2540.118956
995.722345	2539.884542
996.017795	2542.057280
996.313208	2543.970397
996.608586	2543.640202
996.903928	2544.293031
997.199234	2542.316899
997.494504	2542.243802
997.789738	2544.240099
998.084936	2545.520552
998.380099	2539.592155
998.675225	2539.687937
998.970316	2542.626930
999.265371	2540.819676
999.560390	2541.633823
999.855373	2540.547454
1000.150320	2540.920499
1000.445232	2542.979811
1000.740108	2540.849923
1001.034948	2537.711805
1001.329752	2538.064686
1001.624521	2539.476209
1001.919254	2539.405633
1002.213951	2541.038967
1002.508613	2539.514018
1002.803239	2539.062834
1003.097829	2539.945036
1003.392384	2539.095602
1003.686903	2539.430838
1003.981386	2539.627443
1004.275834	2541.994265
1004.570246	2540.920499
1004.864623	2539.486291
1005.158964	2540.580222
1005.453270	2538.457896
1005.747540	2540.053421
1006.041775	2539.214069
1006.335974	2538.979655
1006.630138	2539.607279
1006.924266	2538.432690
1007.218359	2539.511497
1007.512416	2536.736342
1007.806438	2533.613347
1008.100425	2537.114428
1008.394376	2531.879190
1008.688292	2539.239275
1008.982172	2537.300951
1009.276017	2542.077444
1009.569827	2538.654501
1009.863602	2537.363965
1010.157341	2539.607279
1010.451045	2541.296065
1010.744714	2538.725077
1011.038347	2541.086858
1011.331945	2539.556867
1011.625508	2539.539223
1011.919036	2539.579552
1012.212528	2541.626261
1012.505986	2539.894625
1012.799408	2540.396219
1013.092795	2538.939326
1013.386147	2542.042156
1013.679464	2538.808256
1013.972745	2537.416897
1014.265992	2541.059131
1014.559204	2537.285827
1014.852380	2537.840354
1015.145521	2536.491846
1015.438628	2539.793802
1015.731699	2541.028884
1016.024736	2538.392361
1016.317737	2540.078627
1016.610703	2536.597710
1016.903635	2538.357073
1017.196531	2540.383617
1017.489393	2537.936136
1017.782219	2539.672814
1018.075011	2540.053421
1018.367768	2538.236085
1018.660490	2539.014943
1018.953177	2539.014943
1019.245829	2539.014943
