Dividing Wavelength (nm)	Counts (n)	Blue Motor Position (mm): 21.100000	Red Motor Position (mm): 0.000000	
326.493990	2135.589045
326.888308	2135.589045
327.282561	2135.589045
327.676750	2100.157295
328.070874	2100.845413
328.464933	2102.718201
328.858929	2109.498553
329.252859	2118.214708
329.646726	2130.371451
330.040528	2144.718575
330.434265	2159.277427
330.827938	2178.471620
331.221547	2194.673889
331.615091	2212.990921
332.008571	2232.648901
332.401986	2252.248907
332.795338	2269.867739
333.188625	2295.507048
333.581847	2311.066569
333.975006	2328.133396
334.368100	2347.599811
334.761129	2367.020856
335.154095	2380.508463
335.546996	2402.475291
335.939833	2426.176276
336.332606	2439.326126
336.725315	2452.405400
337.117960	2461.729014
337.510540	2470.513224
337.903056	2483.567292
338.295508	2485.830770
338.687896	2496.512975
339.080220	2506.675941
339.472480	2509.740963
339.864676	2515.881088
340.256807	2522.013652
340.648875	2522.971471
341.040879	2524.357788
341.432818	2526.643952
341.824694	2530.301309
342.216506	2528.604961
342.608253	2528.189065
342.999937	2527.526154
343.391557	2530.203006
343.783113	2527.238808
344.174605	2526.613705
344.566033	2524.209074
344.957397	2521.633045
345.348697	2522.732016
345.739934	2519.707324
346.131106	2519.425019
346.522215	2515.412261
346.913260	2513.846983
347.304241	2512.085099
347.695159	2508.886487
348.086012	2509.682990
348.476802	2508.599142
348.867528	2507.558143
349.258191	2503.247957
349.648789	2505.390447
350.039324	2502.900117
350.429796	2503.411794
350.820203	2499.572956
351.210548	2498.342914
351.600828	2498.968017
351.991045	2497.538850
352.381198	2495.862666
352.771288	2494.872080
353.161314	2493.208499
353.551276	2494.332676
353.941175	2493.137923
354.331010	2494.473828
354.720782	2496.021463
355.110490	2494.887203
355.500135	2497.601864
355.889717	2495.421565
356.279235	2495.338386
356.668689	2499.348624
357.058080	2497.057420
357.447408	2494.778818
357.836672	2491.880155
358.225873	2494.592296
358.615010	2492.280927
359.004084	2499.996412
359.393095	2499.041114
359.782043	2497.765702
360.170927	2502.154026
360.559748	2500.802997
360.948505	2500.714777
361.337199	2500.636639
361.725830	2499.580517
362.114398	2503.333656
362.502903	2500.936588
362.891344	2502.378358
363.279722	2504.793070
363.668037	2502.262411
364.056289	2504.175529
364.444478	2502.927843
364.832603	2505.435818
365.220665	2506.817094
365.608665	2506.590242
365.996601	2506.088647
366.384474	2506.509583
366.772284	2507.227948
367.160031	2508.314316
367.547715	2505.448420
367.935336	2508.193329
368.322893	2510.242558
368.710388	2505.987824
369.097820	2511.500326
369.485189	2506.900273
369.872495	2508.079903
370.259738	2510.114008
370.646918	2506.539830
371.034035	2510.295490
371.421090	2512.490912
371.808081	2507.129645
372.195010	2513.489061
372.581875	2512.034688
372.968678	2510.398833
373.355418	2512.221211
373.742096	2513.554596
374.128710	2510.068638
374.515262	2512.785820
374.901751	2513.685666
375.288177	2514.096520
375.674540	2511.223062
376.060841	2512.710203
376.447079	2512.674914
376.833254	2512.821108
377.219367	2510.262722
377.605417	2510.071158
377.991404	2507.837927
378.377329	2513.075686
378.763191	2507.505211
379.148991	2514.398989
379.534727	2514.509894
379.920402	2516.733043
380.306013	2517.461490
380.691563	2516.677591
381.077049	2518.200019
381.462474	2515.780265
381.847835	2518.542818
382.233134	2517.615245
382.618371	2516.455780
383.003545	2518.066428
383.388657	2515.203053
383.773706	2517.602642
384.158693	2518.499968
384.543618	2519.198168
384.928480	2517.280008
385.313280	2519.856038
385.698017	2518.744464
386.082692	2518.961233
386.467305	2520.337468
386.851856	2518.419309
387.236344	2520.314783
387.620770	2521.451563
388.005133	2519.485513
388.389435	2521.401152
388.773674	2520.357633
389.157851	2520.707993
389.541965	2518.958713
389.926018	2522.837881
390.310008	2520.667664
390.693936	2521.827129
391.077802	2519.074659
391.461606	2521.738909
391.845348	2519.692201
392.229027	2523.246214
392.612645	2518.651202
392.996200	2521.259999
393.379694	2522.936183
393.763125	2522.351409
394.146494	2520.430730
394.529801	2522.026255
394.913047	2521.754033
395.296230	2525.292923
395.679351	2520.886954
396.062410	2526.117151
396.445408	2524.330062
396.828343	2524.017511
397.211217	2518.570544
397.594028	2522.298477
397.976778	2519.692201
398.359466	2523.934332
398.742092	2523.460463
399.124656	2521.998528
399.507158	2525.192099
399.889598	2526.775022
400.271977	2525.817203
400.654294	2524.546832
401.036549	2526.996832
401.418742	2525.955834
401.800874	2524.325021
402.182944	2525.910464
402.564952	2525.570186
402.946898	2528.756195
403.328783	2528.085722
403.710606	2528.151257
404.092367	2527.397604
404.474067	2528.705784
404.855705	2529.015815
405.237282	2529.973634
405.618797	2526.580937
406.000250	2529.136802
406.381642	2528.970444
406.762972	2530.528161
407.144240	2527.828623
407.525447	2530.601257
407.906593	2528.554549
408.287677	2526.643952
408.668700	2530.263500
409.049661	2528.511699
409.430560	2530.013963
409.811399	2529.865249
410.192176	2530.160157
410.572891	2531.196114
410.953545	2525.993643
411.334138	2533.270548
411.714669	2529.855167
412.095139	2533.245343
412.475547	2532.194262
412.855894	2529.524971
413.236180	2527.238808
413.616405	2533.830117
413.996568	2532.325332
414.376670	2530.664272
414.756711	2527.821061
415.136691	2532.867256
415.516609	2533.565456
415.896466	2533.026053
416.276262	2536.685930
416.655997	2529.817358
417.035670	2529.091432
417.415283	2529.305681
417.794834	2528.332738
418.174324	2532.080836
418.553753	2534.919006
418.933121	2535.128214
419.312428	2531.359951
419.691674	2532.635363
420.070859	2535.292051
420.449983	2530.702081
420.829045	2532.728624
421.208047	2534.190559
421.586988	2536.317926
421.965867	2532.340456
422.344686	2533.822555
422.723444	2534.876156
423.102141	2534.283820
423.480777	2532.471526
423.859352	2535.193749
424.237866	2536.685930
424.616319	2536.827082
424.994712	2537.764737
425.373044	2536.126362
425.751314	2537.616023
426.129524	2536.413708
426.507673	2534.838347
426.885762	2538.001671
427.263789	2536.975797
427.641756	2540.343287
428.019662	2536.980838
428.397508	2537.694161
428.775292	2536.832124
429.153016	2535.954963
429.530679	2536.716177
429.908282	2537.273225
430.285824	2539.012423
430.663305	2536.446475
431.040726	2539.163657
431.418086	2537.910931
431.795385	2537.631147
432.172624	2537.621064
432.549802	2538.036959
432.926920	2539.597197
433.303977	2539.506456
433.680974	2539.985365
434.057910	2539.463606
434.434786	2539.405633
434.811601	2540.219779
435.188355	2541.711961
435.565050	2539.735828
435.941683	2542.163144
436.318257	2539.387989
436.694770	2534.593851
437.071222	2535.768440
437.447614	2535.198790
437.823946	2538.286497
438.200218	2537.850437
438.576429	2538.359593
438.952580	2542.800850
439.328670	2542.384955
439.704700	2539.917310
440.080670	2540.867567
440.456580	2541.008720
440.832429	2541.780016
441.208218	2538.795653
441.583947	2539.819007
441.959616	2541.157434
442.335224	2541.812784
442.710773	2542.637012
443.086261	2541.636343
443.461689	2542.435366
443.837057	2541.293545
444.212365	2543.052907
444.587612	2544.960984
444.962800	2539.526620
445.337927	2544.323278
445.712995	2543.352856
446.088002	2544.701365
446.462949	2544.310675
446.837837	2544.446787
447.212664	2542.891591
447.587431	2543.436035
447.962139	2545.938968
448.336786	2545.240768
448.711374	2546.448125
449.085901	2546.082641
449.460369	2543.161292
449.834776	2543.836807
450.209124	2544.958464
450.583412	2545.069369
450.957640	2547.577343
451.331808	2547.148845
451.705917	2543.501570
452.079965	2545.271015
452.453954	2543.856972
452.827883	2545.046684
453.201752	2544.293031
453.575562	2545.636499
453.949311	2546.352343
454.323001	2547.151366
454.696632	2546.929555
455.070202	2546.775800
455.443713	2545.449976
455.817164	2546.274205
456.190556	2543.126004
456.563888	2547.400903
456.937160	2541.661549
457.310373	2548.416695
457.683526	2546.480892
458.056619	2549.261088
458.429653	2547.809236
458.802628	2550.145811
459.175542	2549.266130
459.548398	2551.209494
459.921194	2547.975594
460.293930	2548.063814
460.666607	2549.377035
461.039224	2550.075235
461.411782	2550.022303
461.784280	2549.316541
462.156719	2549.553475
462.529099	2551.242262
462.901419	2550.493651
463.273680	2549.351829
463.645882	2551.290153
464.018024	2550.677653
464.390106	2549.588763
464.762130	2553.011707
465.134094	2550.430636
465.505999	2552.691594
465.877845	2555.318035
466.249631	2556.084290
466.621358	2553.760318
466.993026	2558.027655
467.364634	2557.180741
467.736184	2554.158569
468.107674	2554.158569
468.479105	2555.312994
468.850477	2553.306614
469.221790	2556.921122
469.593043	2555.691080
469.964238	2554.085473
470.335373	2555.812068
470.706449	2556.041440
471.077467	2559.502193
471.448425	2559.393808
471.819324	2560.918757
472.190164	2559.229970
472.560945	2560.013870
472.931667	2557.798283
473.302330	2557.886503
473.672934	2559.431616
474.043479	2559.613098
474.413965	2561.639642
474.784393	2557.528581
475.154761	2559.824826
475.525070	2560.828016
475.895321	2562.715928
476.265513	2560.359189
476.635645	2567.568039
477.005719	2568.699778
477.375734	2570.751527
477.745691	2571.452248
478.115588	2576.435428
478.485427	2577.229410
478.855207	2585.171748
479.224928	2592.405804
479.594591	2598.162801
479.964194	2602.846033
480.333739	2602.354521
480.703226	2609.321395
481.072653	2613.475306
481.442022	2622.325052
481.811333	2628.928963
482.180584	2630.610188
482.549777	2639.666621
482.918912	2643.649132
483.287988	2648.506284
483.657005	2657.398880
484.025964	2661.104128
484.394864	2666.034376
484.763706	2675.627692
485.132489	2678.133145
485.501213	2688.777542
485.869879	2700.200796
486.238487	2706.194728
486.607036	2717.333158
486.975527	2724.912532
487.343959	2737.149933
487.712333	2749.175606
488.080648	2758.347985
488.448905	2776.186108
488.817104	2787.548869
489.185244	2807.214410
489.553326	2829.551763
489.921350	2867.965355
490.289315	2930.654624
490.657222	2955.134467
491.025070	2975.263794
491.392861	2991.970178
491.760593	2998.455622
492.128267	2997.835561
492.495883	3001.271107
492.863440	3007.476767
493.230939	3017.977491
493.598380	3035.397198
493.965763	3051.372614
494.333088	3068.331056
494.700354	3092.644541
495.067563	3115.664970
495.434713	3133.316570
495.801805	3171.251253
496.168839	3196.094059
496.535815	3225.615056
496.902733	3245.298241
497.269593	3275.502314
497.636395	3307.995072
498.003139	3351.147348
498.369825	3366.772405
498.736453	3417.269643
499.103023	3440.932819
499.469535	3483.109633
499.835989	3512.003006
500.202385	3549.448697
500.568723	3574.883838
500.935003	3635.163436
501.301226	3669.836492
501.667390	3731.081470
502.033497	3795.673774
502.399546	3811.729849
502.765537	3840.648428
503.131470	3902.016914
503.497345	3976.421825
503.863163	3959.281902
504.228923	4059.326120
504.594625	4113.773102
504.960269	4123.076552
505.325856	4212.332701
505.691385	4231.647882
506.056856	4311.618226
506.422270	4372.071743
506.787625	4398.656268
507.152924	4484.088702
507.518164	4524.740567
507.883347	4565.969643
508.248472	4607.614615
508.613540	4719.810535
508.978550	4756.222790
509.343503	4806.639369
509.708398	4897.730499
510.073236	4987.707533
510.438016	5048.342532
510.802738	5101.277168
511.167403	5180.566956
511.532010	5218.231937
511.896561	5335.269885
512.261053	5430.961067
512.625488	5457.240602
512.989866	5518.362072
513.354186	5581.154684
513.718449	5613.211382
514.082655	5742.103603
514.446803	5779.824037
514.810894	5886.968721
515.174927	5917.792856
515.538904	5978.982381
515.902822	6116.923474
516.266684	6138.872658
516.630488	6190.645308
516.994235	6267.853100
517.357925	6373.545931
517.721558	6477.179451
518.085133	6563.466361
518.448651	6627.337780
518.812112	6648.258569
519.175516	6733.610345
519.538863	6857.796649
519.902152	6872.819288
520.265385	7040.777931
520.628560	7051.513068
520.991678	7127.896631
521.354739	7218.526495
521.717743	7249.509426
522.080690	7308.690052
522.443580	7463.587066
522.806413	7502.756831
523.169189	7588.564831
523.531908	7685.453287
523.894569	7654.132599
524.257174	7730.947180
524.619722	7874.615024
524.982213	7891.999443
525.344647	8001.785691
525.707025	8034.217955
526.069345	8156.027355
526.431608	8188.048764
526.793815	8311.307496
527.155964	8244.731498
527.518057	8334.859767
527.880093	8369.552988
528.242072	8478.681366
528.603995	8478.943506
528.965860	8480.818815
529.327669	8583.625586
529.689421	8598.328111
530.051117	8638.508628
530.412755	8777.611707
530.774337	8736.990089
531.135862	8792.246176
531.497331	8849.306997
531.858743	8808.745873
532.220098	8975.552612
532.581396	8931.747506
532.942638	8970.435841
533.303824	8996.012135
533.664953	9062.310870
534.026025	9042.874701
534.387040	9166.745934
534.747999	9211.707985
535.108902	9300.767529
535.469748	9158.337289
535.830537	9286.264130
536.191270	9316.586670
536.551947	9382.356084
536.912567	9416.686341
537.273131	9394.969051
537.633638	9415.660467
537.994089	9454.610942
538.354483	9449.106002
538.714821	9603.514023
539.075103	9646.119335
539.435328	9660.922683
539.795497	9541.598572
540.155609	9715.987207
540.515665	9830.726389
540.875665	9634.018045
541.235609	9732.433971
541.595496	9760.765256
541.955328	9927.546790
542.315102	9845.892700
542.674821	9844.650056
543.034483	9867.017656
543.394090	9902.595599
543.753640	9865.555721
544.113134	10095.359240
544.472571	9986.394699
544.831953	10150.759000
545.191278	9991.614814
545.550548	10045.172032
545.909761	10189.855668
546.268918	10183.720584
546.628019	10289.131111
546.987064	10187.178816
547.346053	10134.995312
547.704986	10248.328012
548.063863	10259.905022
548.422684	10271.721486
548.781449	10207.373678
549.140158	10324.119239
549.498811	10224.669877
549.857408	10104.168656
550.215949	10338.864614
550.574434	10221.035205
550.932864	10327.403551
551.291237	10389.898735
551.649555	10367.556342
552.007817	10387.471420
552.366022	10367.531136
552.724173	10375.783505
553.082267	10373.542712
553.440305	10521.228355
553.798288	10339.318318
554.156215	10497.988636
554.514086	10487.074538
554.871902	10346.423825
555.229661	10385.399506
555.587365	10382.170647
555.945014	10281.395461
556.302606	10408.626622
556.660143	10322.720319
557.017625	10479.515327
557.375050	10388.020906
557.732421	10524.318582
558.089735	10457.268715
558.446994	10452.877870
558.804197	10503.181024
559.161345	10506.871149
559.518437	10359.460248
559.875474	10454.251585
560.232455	10496.236835
560.589381	10444.635584
560.946251	10446.273959
561.303065	10560.377956
561.659825	10505.757054
562.016528	10435.364902
562.373177	10319.181429
562.729770	10434.666702
563.086307	10358.512512
563.442789	10453.636564
563.799216	10337.332104
564.155587	10396.701772
564.511904	10345.975162
564.868164	10341.112969
565.224370	10354.300627
565.580520	10287.737232
565.936615	10290.915680
566.292654	10170.006125
566.648638	10299.309201
567.004567	10257.071893
567.360441	10248.222148
567.716260	10157.340226
568.072023	10252.902859
568.427732	10206.834275
568.783385	10117.759607
569.138982	10191.970433
569.494525	10208.460047
569.850013	10084.974463
570.205445	10169.955714
570.560823	10065.984436
570.916145	9990.588939
571.271412	10056.333147
571.626625	10003.761474
571.981782	9983.584256
572.336884	9956.659453
572.691931	9964.616915
573.046923	9910.479963
573.401860	9867.562100
573.756743	9806.140682
574.111570	9848.609882
574.466342	9831.890896
574.821059	9870.158294
575.175722	9753.969781
575.530330	9763.021172
575.884882	9761.649978
576.239380	9685.024440
576.593823	9661.877982
576.948211	9684.434625
577.302544	9567.810051
577.656823	9581.874871
578.011047	9587.195808
578.365216	9557.999966
578.719330	9482.647319
579.073389	9495.159463
579.427394	9442.933109
579.781344	9425.190768
580.135239	9372.220844
580.489080	9377.085557
580.842866	9287.688256
581.196597	9289.959295
581.550273	9328.108227
581.903895	9297.889030
582.257463	9362.602322
582.610975	9241.312161
582.964434	9269.030945
583.317837	9193.186786
583.671186	9172.966718
584.024481	9174.705916
584.377721	9092.227598
584.730906	9066.036283
585.084037	9099.985933
585.437113	9030.118062
585.790135	9056.805930
586.143103	8953.810116
586.496016	8931.888658
586.848874	8988.427719
587.201679	8977.374989
587.554428	8862.517340
587.907124	8907.365965
588.259765	8884.010300
588.612352	8882.775217
588.964884	8761.384232
589.317362	8779.550030
589.669786	8778.929968
590.022155	8824.610384
590.374470	8836.242846
590.726731	8779.247561
591.078937	8628.814489
591.431090	8742.618537
591.783188	8612.050132
592.135232	8611.384700
592.487222	8601.783822
592.839157	8664.241198
593.191038	8589.180937
593.542866	8538.232516
593.894639	8440.164430
594.246358	8495.773398
594.598022	8512.835183
594.949633	8407.260819
595.301190	8381.901294
595.652692	8407.076817
596.004141	8516.860544
596.355535	8307.330026
596.706876	8278.189636
597.058162	8213.564564
597.409395	8292.468704
597.760573	8348.826284
598.111698	8261.407635
598.462768	8248.179647
598.813785	8215.182775
599.164748	8178.147938
599.515657	8171.652411
599.866511	8083.240655
600.217312	8206.751445
600.568060	8070.080723
600.918753	8169.278028
601.269392	8144.914131
601.619978	8051.491468
601.970510	8115.778783
602.320988	8112.738967
602.671412	8172.133842
603.021783	8105.683872
603.372100	8079.033812
603.722363	8087.215605
604.072572	8054.566572
604.422728	8069.581649
604.772830	7999.439034
605.122878	8004.510435
605.472872	8001.606730
605.822813	8034.240640
606.172701	7973.388872
606.522534	8052.277888
606.872314	8051.776293
607.222041	8020.145574
607.571714	8072.676917
607.921333	8037.434211
608.270899	8037.945888
608.620411	8131.023232
608.969870	8037.235085
609.319276	8026.804938
609.668627	8040.103502
610.017926	8077.856703
610.367171	8123.978219
610.716362	8103.248995
611.065500	8091.102335
611.414585	8118.163248
611.763616	8107.808718
612.112594	8088.022190
612.461518	8109.437011
612.810389	8164.730907
613.159207	8106.054397
613.507971	8051.446098
613.856682	8171.788522
614.205340	8125.914022
614.553945	8204.863533
614.902496	8107.662525
615.250994	8161.393663
615.599439	8138.579922
615.947830	8153.078280
616.296169	8124.610884
616.644454	8137.589335
616.992686	8138.292576
617.340864	8195.658386
617.688990	8097.313036
618.037063	8198.292389
618.385082	8141.292062
618.733048	8223.394814
619.080961	8163.173191
619.428821	8184.184720
619.776628	8183.153804
620.124382	8133.211093
620.472083	8124.991491
620.819731	8142.900190
621.167326	8041.424284
621.514868	8046.881333
621.862357	7940.308820
622.209793	7957.683157
622.557176	7892.725369
622.904506	7858.720266
623.251783	7800.794887
623.599007	7751.308401
623.946179	7755.006087
624.293297	7708.783747
624.640363	7626.907847
624.987376	7616.046681
625.334336	7561.254380
625.681243	7509.040629
626.028097	7499.832962
626.374899	7479.718758
626.721647	7470.503529
627.068343	7398.808239
627.414987	7370.734053
627.761577	7325.434244
628.108115	7361.617126
628.454600	7260.547033
628.801032	7315.659447
629.147412	7275.763756
629.493739	7261.204903
629.840014	7198.155192
630.186236	7249.242245
630.532405	7137.268136
630.878521	7184.967534
631.224585	7141.895915
631.570597	7068.431180
631.916556	7101.770851
632.262462	7091.093687
632.608316	7058.421969
632.954117	7039.915893
633.299866	7027.207145
633.645562	7014.175762
633.991206	6933.744152
634.336797	6881.858076
634.682336	6835.602969
635.027823	6805.592980
635.373257	6793.968080
635.718639	6728.390230
636.063968	6740.262147
636.409245	6638.231714
636.754470	6633.016640
637.099642	6591.432162
637.444762	6538.028699
637.789829	6551.544032
638.134845	6492.950701
638.479808	6469.433718
638.824719	6480.443598
639.169577	6408.440798
639.514383	6430.100116
639.859137	6359.660073
640.203839	6361.878181
640.548489	6351.203537
640.893086	6324.445093
641.237632	6301.396937
641.582125	6322.952911
641.926566	6290.611389
642.270955	6302.032123
642.615292	6304.396424
642.959576	6314.929915
643.303809	6303.168903
643.647990	6312.041334
643.992118	6301.835518
644.336195	6250.093115
644.680219	6278.237877
645.024192	6263.432008
645.368112	6359.534044
645.711981	6380.404421
646.055797	6455.948632
646.399562	6416.395739
646.743274	6541.149173
647.086935	6586.511996
647.430544	6586.784218
647.774101	6609.726509
648.117606	6612.620132
648.461059	6609.403876
648.804460	6562.637091
649.147810	6474.046374
649.491108	6443.529749
649.834354	6420.685761
650.177548	6337.647875
650.520690	6255.164515
650.863781	6231.347584
651.206820	6250.589668
651.549807	6172.532442
651.892742	6117.054544
652.235626	6124.117201
652.578458	6111.758812
652.921238	6019.271283
653.263967	6054.035080
653.606644	5995.988714
653.949269	5995.598024
654.291843	5940.024344
654.634365	5988.923537
654.976836	5945.786383
655.319255	5941.496361
655.661622	5923.012971
656.003938	5918.324698
656.346203	5880.117793
656.688416	5910.049644
657.030577	5861.828487
657.372687	5832.249516
657.714746	5818.202341
658.056753	5863.731522
658.398708	5804.114837
658.740612	5793.397344
659.082465	5838.112378
659.424266	5835.629610
659.766016	5832.660370
660.107715	5810.018028
660.449362	5822.250388
660.790958	5820.339790
661.132503	5803.976205
661.473996	5840.408624
661.815438	5828.279608
662.156829	5823.382127
662.498168	5822.063865
662.839456	5790.990193
663.180693	5830.172561
663.521879	5831.079969
663.863013	5815.840561
664.204097	5834.497871
664.545129	5879.180138
664.886110	5873.904571
665.227040	5906.808182
665.567918	5875.502616
665.908746	5896.572119
666.249522	5903.748201
666.590248	5889.302775
666.930922	5917.394605
667.271545	5928.989259
667.612118	5936.049395
667.952639	5904.355660
668.293109	5930.549496
668.633528	5887.067023
668.973896	5888.627260
669.314213	5883.999481
669.654480	5861.069793
669.994695	5853.969328
670.334859	5849.684347
670.674973	5834.016441
671.015035	5842.130178
671.355047	5837.078942
671.695008	5828.335060
672.034918	5800.767511
672.374777	5809.355116
672.714585	5794.811387
673.054342	5798.342716
673.394049	5795.832221
673.733705	5825.512014
674.073310	5809.362678
674.412864	5768.988077
674.752368	5762.759731
675.091820	5768.405823
675.431223	5701.804619
675.770574	5705.514909
676.109875	5659.020347
676.449125	5662.299617
676.788324	5632.123270
677.127473	5572.814095
677.466571	5564.990225
677.805619	5552.432710
678.144616	5540.366709
678.483562	5517.510117
678.822458	5488.155478
679.161303	5483.590713
679.500098	5474.783818
679.838842	5457.883349
680.177535	5465.492971
680.516179	5483.832689
680.854771	5488.407536
681.193314	5567.288991
681.531805	5676.656823
681.870247	5829.595349
682.208638	5926.970277
682.546978	5935.709117
682.885268	5912.633235
683.223508	5832.420916
683.561697	5779.292195
683.899836	5745.461012
684.237925	5704.168921
684.575963	5669.319424
684.913951	5625.579853
685.251889	5688.921951
685.589776	5659.710985
685.927614	5630.789885
686.265401	5698.447211
686.603137	5684.619326
686.940824	5762.590853
687.278460	5782.440396
687.616046	5793.127642
687.953582	5858.672724
688.291068	5839.763356
688.628504	5904.990846
688.965889	5867.363673
689.303224	5811.752185
689.640510	5765.718888
689.977745	5686.908010
690.314930	5591.683134
690.652065	5531.464031
690.989150	5442.303663
691.326185	5368.327251
691.663170	5313.381195
692.000105	5239.225822
692.336990	5162.628010
692.673825	5136.640862
693.010610	5068.038320
693.347345	5000.076004
693.684030	4986.757276
694.020665	4946.702788
694.357251	4857.247513
694.693786	4864.428636
695.030272	4837.574410
695.366707	4800.663081
695.703093	4765.669912
696.039429	4789.857368
696.375716	4769.803658
696.711952	4745.699381
697.048139	4735.634717
697.384276	4711.671593
697.720363	4723.336822
698.056400	4734.422320
698.392388	4678.495759
698.728326	4662.031351
699.064214	4640.152743
699.400053	4634.977998
699.735842	4599.826033
700.071581	4579.961366
700.407270	4550.977252
700.742910	4534.780025
701.078501	4482.296572
701.414042	4479.932271
701.749533	4451.769865
702.084974	4384.896438
702.420366	4441.475829
702.755709	4388.604207
703.091002	4326.668591
703.426246	4378.476529
703.761440	4334.406762
704.096584	4292.494609
704.431679	4317.138290
704.766725	4301.079694
705.101721	4291.105771
705.436668	4319.394206
705.771565	4267.366978
706.106413	4294.831184
706.441212	4328.743026
706.775961	4336.322401
707.110661	4317.110563
707.445311	4340.922453
707.779913	4366.753326
708.114465	4380.228330
708.448967	4400.803799
708.783421	4464.390393
709.117825	4502.604860
709.452180	4511.353783
709.786485	4550.198394
710.120742	4636.152587
710.454949	4620.885453
710.789107	4687.970608
711.123216	4761.420219
711.457275	4752.315895
711.791286	4823.015557
712.125247	4839.094318
712.459159	4742.765429
712.793023	4815.398374
713.126837	4776.152991
713.460602	4771.139564
713.794318	4690.191236
714.127985	4698.983008
714.461602	4613.948825
714.795171	4586.840020
715.128691	4521.211759
715.462162	4464.655054
715.795584	4417.989093
716.128957	4401.048295
716.462281	4347.513762
716.795556	4320.397396
717.128782	4281.378865
717.461960	4212.103329
717.795088	4227.095720
718.128167	4182.511756
718.461198	4126.078559
718.794180	4122.990852
719.127113	4105.462760
719.459997	4082.447372
719.792833	4038.027245
720.125619	4027.155997
720.458357	3990.932786
720.791046	3997.440916
721.123686	3976.300837
721.456278	3932.377263
721.788821	3944.211372
722.121315	3918.158689
722.453761	3899.448447
722.786158	3911.154006
723.118506	3934.436575
723.450805	3882.870612
723.783056	3907.988161
724.115259	3921.498453
724.447412	3927.247889
724.779518	3918.100716
725.111574	3924.901232
725.443582	3949.970890
725.775542	3940.354889
726.107453	3991.152076
726.439315	3992.724916
726.771129	4005.045496
727.102895	4039.058161
727.434612	4090.394751
727.766281	4096.454218
728.097901	4096.915484
728.429473	4103.136268
728.760996	4107.620374
729.092471	4104.119293
729.423897	4092.244855
729.755276	4097.621245
730.086606	4097.255762
730.417887	4133.206750
730.749120	4196.551369
731.080305	4263.409672
731.411442	4287.423208
731.742530	4256.180657
732.073570	4256.709978
732.404562	4315.731808
732.735506	4304.931136
733.066401	4266.391514
733.397249	4209.121486
733.728048	4126.890185
734.058798	4044.610992
734.389501	3977.853512
734.720156	3916.545520
735.050762	3867.409393
735.381320	3864.568703
735.711831	3812.581804
736.042293	3780.643574
736.372707	3807.291113
736.703073	3782.294552
737.033391	3769.313581
737.363661	3792.361736
737.693883	3813.388389
738.024056	3820.098164
738.354182	3817.048266
738.684260	3883.168040
739.014290	3901.290988
739.344272	3893.827560
739.674207	3936.382460
740.004093	3942.295734
740.333931	3938.056123
740.663722	3937.136113
740.993464	3934.592851
741.323159	3909.319026
741.652806	3880.332391
741.982405	3855.235007
742.311956	3825.288032
742.641460	3813.648008
742.970915	3790.221766
743.300323	3747.737442
743.629683	3714.917010
743.958996	3706.311760
744.288260	3677.917461
744.617477	3647.055518
744.946647	3633.436840
745.275768	3611.961525
745.604842	3609.637553
745.933869	3562.381777
746.262847	3552.949778
746.591778	3591.915377
746.920662	3559.347002
747.249498	3530.430944
747.578286	3575.309816
747.907027	3591.683484
748.235720	3592.457301
748.564365	3616.818677
748.892963	3612.914303
749.221514	3599.151953
749.550017	3576.880135
749.878473	3573.310998
750.206881	3544.563819
750.535242	3541.690361
750.863555	3545.080537
751.191821	3534.912530
751.520039	3517.202956
751.848210	3495.089935
752.176334	3529.387425
752.504411	3537.944784
752.832440	3496.254441
753.160421	3479.827842
753.488356	3487.354284
753.816243	3498.603619
754.144082	3454.289356
754.471875	3443.329888
754.799620	3462.990388
755.127318	3453.460086
755.454969	3452.303142
755.782572	3456.900674
756.110129	3439.511214
756.437638	3426.189965
756.765100	3439.244033
757.092515	3448.280301
757.419882	3455.148873
757.747203	3428.834050
758.074477	3429.733896
758.401703	3450.384983
758.728882	3467.565235
759.056014	3475.999085
759.383099	3478.204590
759.710138	3471.351141
760.037129	3492.899553
760.364073	3522.924666
760.690970	3510.354549
761.017820	3484.773213
761.344623	3502.795338
761.671379	3546.935682
761.998088	3598.070626
762.324751	3725.072414
762.651366	3968.234991
762.977935	4440.429789
763.304456	4874.493300
763.630931	4965.486127
763.957359	4605.454481
764.283740	4268.972585
764.610074	4079.888987
764.936362	3881.542268
765.262602	3729.339751
765.588796	3618.515025
765.914943	3532.936397
766.241044	3445.721915
766.567097	3415.994231
766.893104	3370.873383
767.219064	3339.071264
767.544978	3313.565547
767.870845	3255.234355
768.196665	3238.840523
768.522438	3247.949888
768.848165	3242.830596
769.173846	3206.398177
769.499479	3191.975436
769.825066	3175.180832
770.150607	3158.592916
770.476101	3175.390040
770.801548	3169.943073
771.126949	3122.165538
771.452303	3105.731376
771.777611	3113.469547
772.102872	3120.159159
772.428087	3094.197216
772.753256	3087.704210
773.078378	3078.289855
773.403453	3042.696789
773.728482	3032.952238
774.053465	3052.075855
774.378401	3040.057745
774.703291	3008.850482
775.028135	3010.113291
775.352932	3004.000892
775.677683	2992.907833
776.002388	2991.070332
776.327046	2990.576299
776.651658	2982.273519
776.976224	2971.172898
777.300743	2969.426138
777.625216	2962.449181
777.949643	2955.804940
778.274024	2957.685291
778.598359	2947.789506
778.922647	2952.505505
779.246889	2952.674384
779.571086	2935.826848
779.895236	2930.589089
780.219339	2941.087292
780.543397	2955.452060
780.867409	2954.952985
781.191374	2948.379321
781.515294	2947.035853
781.839167	2949.291770
782.162995	2937.782815
782.486776	2949.611883
782.810511	2944.152313
783.134201	2933.066816
783.457844	2941.271294
783.781441	2929.306115
784.104993	2908.085378
784.428498	2911.828435
784.751958	2925.701690
785.075372	2915.619383
785.398739	2904.027249
785.722061	2918.137439
786.045337	2932.083791
786.368568	2913.917993
786.691752	2904.869122
787.014891	2955.227728
787.337983	2984.501709
787.661030	3011.318127
787.984031	3078.269691
788.306987	3121.646299
788.629897	3115.289404
788.952760	3102.285748
789.275579	3081.939651
789.598351	3022.948068
789.921078	2979.853765
790.243759	2974.106849
790.566395	2956.130095
790.888984	2933.754933
791.211529	2914.777510
791.534027	2908.339956
791.856480	2897.020045
792.178888	2882.176368
792.501249	2872.845192
792.823566	2869.739841
793.145836	2868.068699
793.468062	2865.633822
793.790241	2862.210878
794.112375	2869.535675
794.434464	2882.604866
794.756507	2885.778272
795.078505	2888.160218
795.400457	2902.288051
795.722364	2943.194494
796.044226	2964.198462
796.366042	2967.578555
796.687812	2955.787296
797.009538	2975.725060
797.331218	2961.463636
797.652852	2948.260854
797.974442	2933.333997
798.295986	2928.300405
798.617484	2922.951741
798.938938	2909.522107
799.260346	2886.882285
799.581709	2886.983108
799.903026	2882.181409
800.224299	2872.169678
800.545526	2866.236239
800.866708	2851.581605
801.187845	2839.152640
801.508936	2840.168433
801.829983	2848.982890
802.150984	2838.893021
802.471940	2823.633448
802.792851	2823.351144
803.113717	2824.808037
803.434538	2830.141578
803.755314	2825.395332
804.076045	2815.365956
804.396731	2813.553661
804.717372	2817.606749
805.037967	2809.556026
805.358518	2817.770586
805.679024	2828.447750
805.999485	2824.208140
806.319901	2826.373315
806.640272	2819.703869
806.960598	2824.359374
807.280879	2833.967814
807.601115	2842.265553
807.921306	2827.028665
808.241453	2824.702173
808.561554	2830.754078
808.881611	2831.527895
809.201623	2827.177379
809.521590	2825.017245
809.841513	2822.564724
810.161390	2826.504385
810.481223	2821.059939
810.801011	2811.806901
811.120755	2806.395223
811.440453	2808.358752
811.760107	2811.335553
812.079716	2810.400419
812.399281	2799.955149
812.718801	2790.755043
813.038276	2787.649692
813.357707	2793.028603
813.677093	2800.912968
813.996434	2794.447688
814.315731	2787.508540
814.634983	2785.628189
814.954191	2787.110289
815.273354	2800.844912
815.592473	2808.031077
815.911547	2810.365131
816.230577	2819.109013
816.549562	2826.222081
816.868502	2824.745023
817.187399	2834.391271
817.506250	2851.569002
817.825058	2842.736901
818.143821	2855.778366
818.462539	2872.492311
818.781213	2897.360323
819.099843	2936.071344
819.418429	2992.832215
819.736970	3052.022923
820.055466	3120.035650
820.373919	3230.492372
820.692327	3363.765357
821.010691	3527.449101
821.329011	3962.830874
821.647286	4850.890618
821.965517	6206.207350
822.283704	6929.864984
822.601847	6902.604945
822.919945	6275.702176
823.237999	5785.379388
823.556010	5212.661462
823.873976	4673.762116
824.191897	4268.902009
824.509775	3981.931806
824.827609	3720.341292
825.145398	3598.947786
825.463144	3588.139552
825.780845	3678.976104
826.098502	3781.503091
826.416116	4061.367787
826.733685	4367.837174
827.051210	4426.417902
827.368692	4315.847754
827.686129	4051.744225
828.003522	3736.203282
828.320872	3482.837410
828.638177	3293.214408
828.955439	3151.805002
829.272656	3073.301634
829.589830	3007.209586
829.906960	2962.779377
830.224046	2917.308169
830.541088	2884.177706
830.858086	2867.788915
831.175041	2853.124198
831.491952	2853.275433
831.808819	2866.689943
832.125642	2890.658109
832.442421	2933.097063
832.759157	3013.705113
833.075849	3186.730116
833.392497	3466.131027
833.709101	3664.664268
834.025662	3611.573356
834.342179	3453.898667
834.658653	3284.606638
834.975083	3135.133906
835.291469	3036.957435
835.607811	2957.899540
835.924110	2901.433576
836.240366	2849.550020
836.556578	2811.295224
836.872746	2789.469549
837.188871	2766.665889
837.504952	2746.710482
837.820990	2745.462796
838.136984	2729.487380
838.452935	2721.053529
838.768842	2720.352809
839.084706	2736.446692
839.400526	2815.373518
839.716303	2945.026953
840.032037	3021.743233
840.347727	3009.067251
840.663373	2950.093313
840.978977	2874.037425
841.294537	2803.972948
841.610054	2758.741195
841.925527	2734.442834
842.240957	2715.530945
842.556344	2690.957841
842.871687	2677.923937
843.186987	2670.286589
843.502244	2664.650579
843.817458	2660.448778
844.132629	2649.249854
844.447756	2643.089564
844.762840	2632.815693
845.077881	2636.483132
845.392879	2634.862401
845.707833	2631.946094
846.022745	2625.627007
846.337613	2625.387553
846.652438	2623.330762
846.967221	2626.468880
847.281960	2624.346554
847.596656	2622.463683
847.911309	2622.090638
848.225919	2619.761625
848.540485	2614.236520
848.855009	2616.358846
849.169490	2615.915225
849.483928	2617.997221
849.798323	2616.895729
850.112675	2614.115533
850.426984	2612.958588
850.741251	2610.806015
851.055474	2612.542693
851.369654	2618.012345
851.683792	2616.900770
851.997887	2615.867334
852.311938	2613.626541
852.625947	2613.250975
852.939914	2616.618466
853.253837	2614.768362
853.567718	2614.528907
853.881555	2609.976745
854.195350	2616.431943
854.509103	2616.278188
854.822812	2612.242744
855.136479	2611.037908
855.450103	2617.195678
855.763685	2614.927158
856.077224	2613.354318
856.390720	2611.085799
856.704173	2614.707868
857.017584	2616.918414
857.330953	2620.162397
857.644278	2621.253807
857.957561	2619.438991
858.270802	2615.585029
858.584000	2616.162241
858.897155	2618.397993
859.210268	2620.028806
859.523339	2615.456480
859.836367	2612.456993
860.149352	2612.071345
860.462295	2614.037395
860.775195	2610.180912
861.088054	2610.213680
861.400869	2609.301231
861.713642	2605.200252
862.026373	2607.667897
862.339062	2611.514297
862.651708	2617.339351
862.964312	2617.283898
863.276873	2612.956067
863.589392	2616.925976
863.901869	2620.759773
864.214303	2624.951493
864.526696	2626.710856
864.839045	2629.879221
865.151353	2632.389715
865.463619	2632.263687
865.775842	2632.906434
866.088023	2631.268059
866.400162	2634.214613
866.712258	2632.689664
867.024313	2627.517440
867.336325	2628.051802
867.648296	2629.599437
867.960224	2636.384830
868.272110	2634.433903
868.583954	2627.872842
868.895755	2630.393418
869.207515	2631.492390
869.519233	2642.013278
869.830909	2636.031949
870.142542	2631.789818
870.454134	2634.471712
870.765684	2638.975983
871.077191	2639.434728
871.388657	2645.920172
871.700081	2640.546302
872.011463	2640.195942
872.322803	2645.040491
872.634101	2647.172899
872.945357	2652.304794
873.256571	2657.792090
873.567744	2656.516678
873.878874	2654.016265
874.189963	2656.337717
874.501010	2660.776453
874.812015	2664.698470
875.122979	2666.024294
875.433900	2656.761174
875.744780	2652.758497
876.055618	2659.614467
876.366415	2665.999088
876.677169	2668.945642
876.987882	2659.324600
877.298554	2659.879127
877.609183	2668.121414
877.919771	2674.773216
878.230317	2682.508867
878.540822	2691.832481
878.851285	2703.364120
879.161707	2728.411093
879.472087	2766.784356
879.782425	2808.638536
880.092722	2923.246648
880.402977	3107.757920
880.713191	3358.933411
881.023363	3642.130310
881.333494	3826.805420
881.643583	3991.399093
881.953631	3990.221983
882.263637	3815.530879
882.573602	3603.252932
882.883526	3474.945484
883.193408	3367.775594
883.503248	3267.827158
883.813048	3155.265754
884.122806	3044.030174
884.432522	2961.357771
884.742197	2901.650345
885.051831	2863.062833
885.361424	2830.817092
885.670975	2798.261321
885.980485	2767.217896
886.289954	2746.395410
886.599382	2737.880901
886.908768	2724.657954
887.218113	2707.865871
887.527417	2692.034127
887.836680	2686.350226
888.145901	2684.119516
888.455082	2672.177022
888.764221	2663.145795
889.073319	2654.911070
889.382376	2656.675474
889.691392	2656.279743
890.000366	2656.219250
890.309300	2654.931235
890.618193	2656.587254
890.927044	2661.056237
891.235855	2661.822492
891.544625	2656.128509
891.853353	2657.499703
892.162041	2666.351969
892.470687	2685.316790
892.779293	2694.927749
893.087858	2706.734132
893.396381	2728.814386
893.704864	2770.857609
894.013306	2834.913030
894.321707	2924.668254
894.630068	2970.182311
894.938387	2988.096051
895.246665	2986.137563
895.554903	2943.171809
895.863100	2902.333422
896.171256	2846.789988
896.479371	2786.039043
896.787446	2747.839700
897.095480	2730.551063
897.403473	2723.947152
897.711425	2709.431149
898.019336	2689.702593
898.327207	2676.741787
898.635038	2675.584842
898.942827	2675.857064
899.250576	2665.373985
899.558284	2655.606749
899.865952	2653.287819
900.173579	2650.147180
900.481165	2647.074597
900.788711	2639.238123
901.096216	2630.423665
901.403681	2626.952831
901.711105	2628.823099
902.018489	2628.959210
902.325832	2632.399798
902.633135	2633.108080
902.940397	2648.465955
903.247619	2683.068435
903.554800	2750.551841
903.861941	2872.575490
904.169041	2995.504027
904.476101	3050.190464
904.783121	3046.102088
905.090100	2990.840960
905.397039	2920.042995
905.703938	2848.481296
906.010796	2788.226904
906.317614	2738.430387
906.624391	2705.163812
906.931129	2678.861592
907.237826	2655.889054
907.544483	2642.371200
907.851099	2625.405197
908.157675	2616.048815
908.464211	2609.533124
908.770707	2599.584407
909.077163	2593.686257
909.383578	2591.379929
909.689954	2593.252718
909.996289	2590.558221
910.302584	2589.121492
910.608839	2586.001018
910.915054	2588.703076
911.221229	2588.781214
911.527363	2591.621904
911.833458	2590.815320
912.139513	2592.458736
912.445527	2590.046544
912.751502	2597.762030
913.057436	2603.539192
913.363331	2611.360542
913.669186	2618.992849
913.975000	2633.173615
914.280775	2647.160296
914.586510	2666.155364
914.892205	2702.018132
915.197859	2766.499531
915.503475	2844.849144
915.809050	2907.969432
916.114585	2920.012748
916.420081	2931.183945
916.725536	2943.602828
917.030952	2921.046185
917.336328	2872.512476
917.641665	2825.707883
917.946961	2777.784154
918.252218	2748.114443
918.557435	2723.402707
918.862612	2698.184335
919.167750	2684.447191
919.472848	2667.919768
919.777906	2652.529125
920.082925	2640.379944
920.387904	2629.216309
920.692843	2628.021556
920.997743	2622.062912
921.302603	2617.823301
921.607423	2612.913217
921.912204	2603.181270
922.216946	2602.788060
922.521647	2599.118100
922.826310	2595.216247
923.130932	2592.120978
923.435516	2585.882551
923.740059	2587.301635
924.044564	2583.044381
924.349028	2580.871644
924.653454	2572.599110
924.957840	2570.764130
925.262186	2569.249263
925.566493	2567.600806
925.870761	2565.496124
926.174989	2569.047617
926.479178	2566.781619
926.783328	2563.298181
927.087438	2563.736762
927.391509	2564.593758
927.695541	2562.199210
927.999533	2560.003787
928.303486	2558.264589
928.607400	2558.418344
928.911275	2558.912377
929.215110	2557.894064
929.518906	2558.002449
929.822663	2559.973540
930.126381	2554.824002
930.430060	2558.435988
930.733699	2558.478838
931.037299	2557.805844
931.340861	2557.400031
931.644383	2558.425906
931.947866	2559.154353
932.251309	2557.253838
932.554714	2557.478169
932.858080	2558.551935
933.161407	2557.747871
933.464694	2556.752243
933.767943	2555.136553
934.071153	2557.120247
934.374323	2556.343910
934.677455	2555.307953
934.980548	2555.781821
935.283602	2554.508930
935.586617	2556.144784
935.889593	2555.953220
936.192530	2557.591595
936.495428	2553.518343
936.798287	2555.491955
937.101108	2555.381049
937.403890	2560.954045
937.706632	2562.940259
938.009336	2564.664334
938.312002	2569.831517
938.614628	2570.799418
938.917216	2577.320151
939.219765	2576.836200
939.522275	2576.914338
939.824747	2575.737228
940.127179	2571.250602
940.429573	2567.623491
940.731929	2569.211455
941.034246	2565.775908
941.336524	2567.620971
941.638763	2567.981413
941.940964	2567.489901
942.243126	2564.752554
942.545250	2564.883624
942.847335	2560.313818
943.149381	2562.504200
943.451389	2562.602502
943.753359	2560.525547
944.055290	2560.225598
944.357182	2558.100752
944.659036	2557.218550
944.960851	2556.323745
945.262628	2558.743499
945.564367	2557.541184
945.866067	2558.060422
946.167729	2559.151832
946.469352	2558.022614
946.770937	2557.659651
947.072484	2558.375495
947.373992	2557.178221
947.675462	2558.254507
947.976893	2557.122768
948.278286	2555.859959
948.579641	2551.948023
948.880958	2552.366439
949.182236	2555.928014
949.483476	2556.689229
949.784678	2555.088662
950.085841	2554.682849
950.386967	2554.604712
950.688054	2556.464897
950.989103	2556.343910
951.290114	2558.007490
951.591087	2561.173335
951.892021	2557.596636
952.192917	2560.311298
952.493776	2557.682336
952.794596	2564.470250
953.095378	2564.871021
953.396122	2562.859601
953.696828	2561.415310
953.997496	2560.631411
954.298126	2555.612942
954.598718	2558.851884
954.899272	2557.586554
955.199788	2553.596481
955.500266	2555.171841
955.800706	2549.949206
956.101108	2548.552806
956.401472	2547.194215
956.701798	2544.265305
957.002087	2548.325954
957.302337	2542.556354
957.602550	2548.129349
957.902724	2543.912424
958.202861	2544.230017
958.502960	2546.843855
958.803022	2544.330840
959.103045	2544.600542
959.403031	2544.721529
959.702979	2542.629451
960.002889	2543.090716
960.302762	2543.892260
960.602596	2543.851930
960.902393	2543.032743
961.202153	2543.879657
961.501875	2543.216745
961.801559	2542.395037
962.101205	2542.379913
962.400814	2543.418391
962.700385	2541.903524
962.999918	2541.515356
963.299414	2544.923176
963.598873	2542.843700
963.898293	2538.941847
964.197677	2542.916796
964.497022	2539.529141
964.796331	2544.240099
965.095601	2539.476209
965.394835	2541.341436
965.694030	2541.424615
965.993189	2543.967877
966.292309	2542.160623
966.591393	2542.775644
966.890439	2537.376568
967.189447	2538.898997
967.488419	2540.224820
967.787353	2540.129038
968.086249	2538.639377
968.385108	2542.095088
968.683930	2543.118443
968.982714	2540.313040
969.281462	2542.054759
969.580172	2541.580891
969.878844	2539.493853
970.177480	2541.575849
970.476078	2540.728936
970.774639	2543.630120
971.073162	2542.014430
971.371649	2538.009233
971.670098	2538.636857
971.968510	2536.207021
972.266885	2536.181815
972.565223	2541.250695
972.863524	2543.143648
973.161788	2541.477547
973.460014	2540.693647
973.758204	2540.539892
974.056356	2542.077444
974.354471	2542.067362
974.652550	2542.412681
974.950591	2543.357897
975.248595	2542.243802
975.546563	2539.708102
975.844493	2541.825387
976.142386	2540.842362
976.440243	2541.782537
976.738062	2538.437731
977.035845	2542.032074
977.333590	2538.858668
977.631299	2541.225489
977.928971	2538.525951
978.226606	2541.480067
978.524204	2539.975283
978.821765	2536.932947
979.119290	2537.058976
979.416777	2540.181970
979.714228	2540.693648
980.011642	2538.641898
980.309020	2544.923176
980.606360	2540.610468
980.903664	2542.558874
981.200931	2541.535520
981.498162	2544.482075
981.795356	2541.880839
982.092513	2545.714637
982.389633	2549.508105
982.686717	2553.762839
982.983764	2552.953734
983.280775	2557.064795
983.577749	2555.118909
983.874686	2554.362736
984.171587	2549.518187
984.468451	2549.359391
984.765279	2545.137425
985.062070	2545.056766
985.358824	2545.223124
985.655543	2541.164995
985.952224	2541.371683
986.248869	2540.761703
986.545478	2536.638039
986.842050	2538.097453
987.138586	2535.113090
987.435086	2538.951929
987.731549	2536.890097
988.027975	2538.256250
988.324366	2537.603420
988.620719	2537.565612
988.917037	2538.543595
989.213318	2536.965714
989.509563	2537.948739
989.805772	2536.733821
990.101944	2534.893800
990.398080	2536.973276
990.694180	2537.484953
990.990244	2538.440252
991.286271	2537.454706
991.582262	2537.046373
991.878217	2539.130890
992.174136	2539.203987
992.470019	2538.916641
992.765865	2540.484440
993.061676	2538.084850
993.357450	2537.038811
993.653188	2536.080992
993.948890	2539.632485
994.244556	2538.228523
994.540186	2538.334388
994.835780	2538.747762
995.131337	2538.296579
995.426859	2538.972093
995.722345	2539.100643
996.017795	2539.834131
996.313208	2543.035263
996.608586	2539.622402
996.903928	2542.689944
997.199234	2540.141641
997.494504	2540.048380
997.789738	2538.646939
998.084936	2539.471168
998.380099	2539.284645
998.675225	2539.516538
998.970316	2542.526107
999.265371	2538.621733
999.560390	2538.573842
999.855373	2538.576363
1000.150320	2536.363296
1000.445232	2537.399253
1000.740108	2534.535878
1001.034948	2537.540406
1001.329752	2535.254242
1001.624521	2536.398584
1001.919254	2534.523275
1002.213951	2534.329191
1002.508613	2531.949766
1002.803239	2534.752648
1003.097829	2528.927594
1003.392384	2536.701054
1003.686903	2537.026208
1003.981386	2536.121321
1004.275834	2535.135775
1004.570246	2536.239788
1004.864623	2534.588810
1005.158964	2535.909592
1005.453270	2533.900693
1005.747540	2538.596528
1006.041775	2536.017977
1006.335974	2535.586959
1006.630138	2537.868081
1006.924266	2533.411701
1007.218359	2533.273069
1007.512416	2536.665766
1007.806438	2534.326670
1008.100425	2538.490663
1008.394376	2531.760723
1008.688292	2536.423790
1008.982172	2536.186856
1009.276017	2535.652494
1009.569827	2535.823893
1009.863602	2538.415046
1010.157341	2534.177956
1010.451045	2537.489994
1010.744714	2535.304654
1011.038347	2535.876825
1011.331945	2533.820034
1011.625508	2534.926568
1011.919036	2535.791125
1012.212528	2534.677030
1012.505986	2534.145189
1012.799408	2536.932947
1013.092795	2535.501259
1013.386147	2532.902544
1013.679464	2533.189890
1013.972745	2534.235929
1014.265992	2533.878007
1014.559204	2534.430014
1014.852380	2532.433717
1015.145521	2537.127031
1015.438628	2536.103677
1015.731699	2535.881866
1016.024736	2535.528985
1016.317737	2536.461599
1016.610703	2535.072761
1016.903635	2532.496731
1017.196531	2528.804086
1017.489393	2530.538243
1017.782219	2529.943387
1018.075011	2534.056968
1018.367768	2536.592669
1018.660490	2533.623429
1018.953177	2533.623429
1019.245829	2533.623429
