Dividing Wavelength (nm)	Counts (n)	Blue Motor Position (mm): 38.800000	Red Motor Position (mm): 0.000000	
326.493990	2052.122661
326.888308	2052.122661
327.282561	2052.122661
327.676750	2025.772550
328.070874	2025.591068
328.464933	2034.259332
328.858929	2040.359128
329.252859	2052.082332
329.646726	2064.765875
330.040528	2081.071487
330.434265	2100.167378
330.827938	2122.202261
331.221547	2140.040384
331.615091	2161.437561
332.008571	2179.951199
332.401986	2204.244519
332.795338	2223.176573
333.188625	2243.699110
333.581847	2261.133940
333.975006	2280.244955
334.368100	2295.101235
334.761129	2314.665953
335.154095	2329.305464
335.546996	2380.579040
335.939833	2491.053406
336.332606	2499.862822
336.725315	2514.134328
337.117960	2521.784279
337.510540	2533.328522
337.903056	2540.676003
338.295508	2548.139432
338.687896	2555.446584
339.080220	2558.700649
339.472480	2565.647359
339.864676	2567.804973
340.256807	2572.168092
340.648875	2570.612896
341.040879	2571.643812
341.432818	2576.276632
341.824694	2576.541293
342.216506	2576.730336
342.608253	2573.945098
342.999937	2574.610531
343.391557	2572.717577
343.783113	2574.275294
344.174605	2571.336301
344.566033	2567.920919
344.957397	2568.059551
345.348697	2564.596278
345.739934	2563.522513
346.131106	2562.098387
346.522215	2560.845660
346.913260	2559.398849
347.304241	2558.977912
347.695159	2554.894578
348.086012	2556.495144
348.476802	2553.684701
348.867528	2549.984494
349.258191	2547.844524
349.648789	2547.988197
350.039324	2540.449152
350.429796	2547.768907
350.820203	2547.950388
351.210548	2549.016593
351.600828	2548.434339
351.991045	2544.038453
352.381198	2544.454348
352.771288	2544.232537
353.161314	2541.898483
353.551276	2544.285470
353.941175	2539.466127
354.331010	2545.008875
354.720782	2545.452497
355.110490	2547.698331
355.500135	2544.865202
355.889717	2543.413350
356.279235	2543.370500
356.668689	2544.809750
357.058080	2545.334030
357.447408	2545.505429
357.836672	2546.921993
358.225873	2550.798640
358.615010	2546.707744
359.004084	2543.524255
359.393095	2549.571119
359.782043	2549.349309
360.170927	2550.667570
360.559748	2550.526418
360.948505	2550.163455
361.337199	2552.535318
361.725830	2549.682025
362.114398	2550.861655
362.502903	2553.094886
362.891344	2553.354505
363.279722	2550.034906
363.668037	2555.804506
364.056289	2551.844680
364.444478	2556.180072
364.832603	2555.958261
365.220665	2557.357182
365.608665	2556.711914
365.996601	2557.848694
366.384474	2556.772408
366.772284	2555.673436
367.160031	2555.343241
367.547715	2557.568910
367.935336	2556.482541
368.322893	2560.916236
368.710388	2554.171172
369.097820	2557.722665
369.485189	2557.410114
369.872495	2558.720814
370.259738	2559.078736
370.646918	2559.361040
371.034035	2559.938252
371.421090	2560.903633
371.808081	2562.247101
372.195010	2562.572255
372.581875	2560.807851
372.968678	2563.149467
373.355418	2562.199210
373.742096	2564.135013
374.128710	2564.266083
374.515262	2561.642162
374.901751	2563.209961
375.288177	2568.483008
375.674540	2564.369427
376.060841	2565.307081
376.447079	2566.665672
376.833254	2566.010322
377.219367	2566.380847
377.605417	2567.575600
377.991404	2569.927299
378.377329	2571.535427
378.763191	2567.570559
379.148991	2566.315312
379.534727	2569.186249
379.920402	2571.905952
380.306013	2572.644481
380.691563	2572.331929
381.077049	2572.011816
381.462474	2568.140210
381.847835	2573.509038
382.233134	2573.529203
382.618371	2573.743452
383.003545	2573.481312
383.388657	2573.582135
383.773706	2574.897876
384.158693	2575.480130
384.543618	2573.413257
384.928480	2576.213618
385.313280	2571.974007
385.698017	2576.195973
386.082692	2575.240675
386.467305	2578.963567
386.851856	2577.453741
387.236344	2581.186716
387.620770	2576.692527
388.005133	2574.184553
388.389435	2583.092272
388.773674	2575.674214
389.157851	2583.561099
389.541965	2582.603280
389.926018	2580.947261
390.310008	2582.938517
390.693936	2586.096800
391.077802	2587.410020
391.461606	2585.438929
391.845348	2585.988415
392.229027	2586.066553
392.612645	2587.364650
392.996200	2587.263827
393.379694	2589.494537
393.763125	2589.028231
394.146494	2591.153077
394.529801	2593.890423
394.913047	2594.528129
395.296230	2595.934611
395.679351	2599.171032
396.062410	2600.234716
396.445408	2601.253029
396.828343	2604.859974
397.211217	2610.259050
397.594028	2613.399689
397.976778	2619.050822
398.359466	2620.633745
398.742092	2625.818571
399.124656	2629.168418
399.507158	2637.748462
399.889598	2647.513177
400.271977	2655.082469
400.654294	2665.179901
401.036549	2676.610717
401.418742	2684.232942
401.800874	2699.699202
402.182944	2712.942313
402.564952	2732.620457
402.946898	2742.266705
403.328783	2756.790269
403.710606	2778.096706
404.092367	2801.946404
404.474067	2826.665702
404.855705	2840.241530
405.237282	2855.095289
405.618797	2886.955382
406.000250	2922.379570
406.381642	2954.418623
406.762972	2978.343939
407.144240	2993.011176
407.525447	3031.729758
407.906593	3057.333779
408.287677	3104.435800
408.668700	3137.117600
409.049661	3177.466996
409.430560	3218.196998
409.811399	3239.921851
410.192176	3279.590690
410.572891	3332.505162
410.953545	3403.865215
411.334138	3397.984709
411.714669	3468.117241
412.095139	3476.480515
412.475547	3544.054662
412.855894	3578.669745
413.236180	3651.844614
413.616405	3662.882220
413.996568	3736.848550
414.376670	3778.700209
414.756711	3805.856905
415.136691	3873.352914
415.516609	3955.737970
415.896466	4013.509593
416.276262	4096.950772
416.655997	4196.427861
417.035670	4279.574132
417.415283	4404.004932
417.794834	4476.325325
418.174324	4490.927027
418.553753	4530.580743
418.933121	4671.218853
419.312428	4720.909507
419.691674	4720.281883
420.070859	4903.600922
420.449983	4865.608266
420.829045	5039.825502
421.208047	5026.060632
421.586988	5175.992109
421.965867	5267.872179
422.344686	5361.163772
422.723444	5526.385068
423.102141	5280.989261
423.480777	5602.924907
423.859352	5502.704248
424.237866	5825.302806
424.616319	5851.491601
424.994712	6010.482031
425.373044	5984.895655
425.751314	6263.646257
426.129524	6068.160393
426.507673	6325.057593
426.885762	6386.383229
427.263789	6452.709691
427.641756	6556.726338
428.019662	6639.983515
428.397508	6699.980807
428.775292	6725.466361
429.153016	6880.741461
429.530679	6859.785384
429.908282	6931.203411
430.285824	6892.910806
430.663305	7147.421020
431.040726	7080.766884
431.418086	7095.681137
431.795385	7244.866524
432.172624	7424.558453
432.549802	7327.528844
432.926920	7468.824824
433.303977	7438.991276
433.680974	7498.812128
434.057910	7693.688012
434.434786	7751.910819
434.811601	7716.428657
435.188355	8062.176194
435.565050	7962.583158
435.941683	7985.724575
436.318257	8294.412069
436.694770	8252.431861
437.071222	8468.349521
437.447614	8256.248014
437.823946	8243.400633
438.200218	8386.662664
438.576429	8283.966798
438.952580	8444.877909
439.328670	8460.243346
439.704700	8544.448259
440.080670	8440.398843
440.456580	8695.506434
440.832429	8680.826594
441.208218	8427.690095
441.583947	8551.394969
441.959616	8660.616608
442.335224	8693.437040
442.710773	8770.881766
443.086261	8953.457235
443.461689	8694.286475
443.837057	8843.058486
444.212365	9047.441987
444.587612	9041.919403
444.962800	8941.234957
445.337927	9077.066327
445.712995	8633.099470
446.088002	9274.747614
446.462949	9341.666410
446.837837	9345.979117
447.212664	9406.987161
447.587431	10312.779164
447.962139	11269.938003
448.336786	12029.995289
448.711374	11629.062242
449.085901	10491.397327
449.460369	10469.997629
449.834776	10386.803467
450.209124	11315.464664
450.583412	11081.361041
450.957640	11290.299224
451.331808	10878.890658
451.705917	10396.913501
452.079965	10323.040432
452.453954	10513.933805
452.827883	10474.353186
453.201752	10435.616960
453.575562	10466.657864
453.949311	10810.419186
454.323001	10891.609490
454.696632	10807.981788
455.070202	11392.785882
455.443713	11447.472318
455.817164	11606.500558
456.190556	11913.640418
456.563888	11749.618915
456.937160	11966.471710
457.310373	11468.776235
457.683526	11509.153356
458.056619	11550.712629
458.429653	11633.006945
458.802628	11805.179993
459.175542	11866.921524
459.548398	12413.160790
459.921194	12991.875170
460.293930	13307.741267
460.666607	14142.233710
461.039224	14871.033321
461.411782	15126.776097
461.784280	14739.592797
462.156719	14661.946424
462.529099	14569.378237
462.901419	13990.767201
463.273680	13633.490546
463.645882	13866.883366
464.018024	13823.479032
464.390106	14225.710176
464.762130	15392.366767
465.134094	17059.428453
465.505999	19335.332974
465.877845	21342.352431
466.249631	22248.199887
466.621358	21609.299172
466.993026	20799.276489
467.364634	20090.160063
467.736184	19390.238701
468.107674	18844.465742
468.479105	18692.081743
468.850477	18433.788144
469.221790	18009.968257
469.593043	17383.002474
469.964238	17032.831325
470.335373	17148.866084
470.706449	18020.635339
471.077467	19149.672319
471.448425	21498.620639
471.819324	22985.997958
472.190164	22465.410603
472.560945	20788.059922
472.931667	19379.727895
473.302330	19145.039499
473.672934	18687.249797
474.043479	19125.873032
474.413965	18931.425646
474.784393	18784.395353
475.154761	19405.520959
475.525070	19548.946827
475.895321	19385.600840
476.265513	19899.987575
476.635645	20480.620113
477.005719	20548.773993
477.375734	20931.879000
477.745691	21532.005680
478.115588	22191.502029
478.485427	23462.691986
478.855207	25337.587842
479.224928	27061.261686
479.594591	28231.071518
479.964194	27701.374798
480.333739	28082.352438
480.703226	28376.518889
481.072653	28892.617096
481.442022	29369.101917
481.811333	29681.542550
482.180584	29169.676391
482.549777	28982.793256
482.918912	28770.911039
483.287988	28729.949144
483.657005	28555.036229
484.025964	28207.138640
484.394864	28403.383198
484.763706	28359.754532
485.132489	27853.118570
485.501213	27924.944930
485.869879	28131.400345
486.238487	28083.106091
486.607036	28358.574902
486.975527	28075.108300
487.343959	28411.801925
487.712333	28730.259175
488.080648	28699.238435
488.448905	29137.163469
488.817104	29072.067050
489.185244	29963.295159
489.553326	31123.287344
489.921350	33056.489185
490.289315	35442.006035
490.657222	36102.440039
491.025070	36508.336103
491.392861	36138.643085
491.760593	35332.862534
492.128267	34321.763348
492.495883	33400.104314
492.863440	32561.349575
493.230939	31677.814267
493.598380	31166.306030
493.965763	31051.339996
494.333088	30610.228952
494.700354	30427.880335
495.067563	30402.586346
495.434713	30332.710913
495.801805	30624.429883
496.168839	30478.554014
496.535815	30355.060868
496.902733	30493.826189
497.269593	30318.938480
497.636395	30479.733644
498.003139	30785.343513
498.369825	30550.939942
498.736453	30972.728243
499.103023	30805.666925
499.469535	30917.421744
499.835989	31064.331050
500.202385	30928.066141
500.568723	30996.414104
500.935003	31326.584476
501.301226	31225.249722
501.667390	31935.187856
502.033497	32136.677734
502.399546	31937.806735
502.765537	31558.386812
503.131470	32015.800947
503.497345	32461.328042
503.863163	31457.757819
504.228923	32220.875086
504.594625	32626.743423
504.960269	32119.638634
505.325856	32813.457679
505.691385	32486.858965
506.056856	32826.710873
506.422270	33307.077381
506.787625	32857.782024
507.152924	33324.439115
507.518164	33528.784807
507.883347	33095.487552
508.248472	33262.460649
508.613540	33953.570074
508.978550	34199.321283
509.343503	34058.219387
509.708398	34419.047535
510.073236	35041.020055
510.438016	35141.565869
510.802738	34841.329869
511.167403	35383.344648
511.532010	35650.881204
511.896561	36142.318086
512.261053	36907.799654
512.625488	36695.924999
512.989866	36631.814125
513.354186	36692.975924
513.718449	36660.886459
514.082655	37551.595329
514.446803	37266.623943
514.810894	37876.840493
515.174927	37903.790502
515.538904	37909.484485
515.902822	38561.121675
516.266684	38258.836446
516.630488	38628.806727
516.994235	38641.263418
517.357925	39247.220193
517.721558	39496.293522
518.085133	39896.717413
518.448651	40073.999671
518.812112	39978.643725
519.175516	40126.747784
519.538863	40583.105798
519.902152	40641.668882
520.265385	41194.403675
520.628560	41224.743859
520.991678	41169.429798
521.354739	41418.205700
521.717743	41785.219344
522.080690	41687.486494
522.443580	42365.806512
522.806413	42394.261304
523.169189	42541.475600
523.531908	42773.829942
523.894569	42633.577480
524.257174	42840.907535
524.619722	43193.120352
524.982213	43321.989888
525.344647	43346.598280
525.707025	43475.324144
526.069345	43934.099391
526.431608	43851.822719
526.793815	44247.505405
527.155964	43781.531390
527.518057	44060.163525
527.880093	43891.615067
528.242072	44520.541859
528.603995	44289.596519
528.965860	44181.708265
529.327669	44429.296974
529.689421	44476.885467
530.051117	44431.063899
530.412755	44715.064862
530.774337	44786.563547
531.135862	44727.897119
531.497331	44872.971445
531.858743	44871.660745
532.220098	45269.947187
532.581396	45017.329926
532.942638	44754.504329
533.303824	45013.075193
533.664953	45076.616416
534.026025	44747.819759
534.387040	45331.769377
534.747999	45404.782929
535.108902	45728.823257
535.469748	45050.210852
535.830537	45308.474205
536.191270	45545.274845
536.551947	45287.578622
536.912567	45558.076855
537.273131	45732.934318
537.633638	45348.798395
537.994089	45532.543411
538.354483	45286.766997
538.714821	45922.597649
539.075103	46219.955150
539.435328	46075.599189
539.795497	45829.974009
540.155609	45957.653833
540.515665	46530.959054
540.875665	45847.333222
541.235609	46122.323123
541.595496	46256.107784
541.955328	46819.358424
542.315102	46268.670340
542.674821	46149.295817
543.034483	46041.584003
543.394090	46057.040181
543.753640	46038.919753
544.113134	47097.146166
544.472571	46200.773559
544.831953	47345.942232
545.191278	46595.165710
545.550548	46292.719164
545.909761	46935.919983
546.268918	47089.100484
546.628019	47507.153290
546.987064	46923.150741
547.346053	46216.403657
547.704986	47128.746639
548.063863	46765.019827
548.422684	46981.771798
548.781449	46569.491113
549.140158	47096.415198
549.498811	46863.244189
549.857408	46258.116684
550.215949	47098.943337
550.574434	46942.155891
550.932864	46871.413379
551.291237	47598.451107
551.649555	47354.300465
552.007817	47522.372534
552.366022	47202.687763
552.724173	47260.088861
553.082267	47679.588478
553.440305	48018.971558
553.798288	47262.122967
554.156215	47642.218405
554.514086	47856.782515
554.871902	47486.030856
555.229661	47656.585693
555.587365	47348.319136
555.945014	47474.274885
556.302606	47494.167278
556.660143	47607.724310
557.017625	47792.926220
557.375050	47507.123043
557.732421	47923.252649
558.089735	47982.708018
558.446994	47843.108386
558.804197	48330.640895
559.161345	48202.071307
559.518437	47535.958443
559.875474	47809.209147
560.232455	48025.608237
560.589381	48093.270604
560.946251	47880.589364
561.303065	48550.455367
561.659825	48219.687619
562.016528	48035.824135
562.373177	47630.333885
562.729770	48252.593751
563.086307	47759.589069
563.442789	48315.368719
563.799216	48169.071914
564.155587	48055.033452
564.511904	48022.744862
564.868164	48074.842666
565.224370	48381.833812
565.580520	48120.255901
565.936615	48308.598449
566.292654	47967.080441
566.648638	48319.704111
567.004567	48262.900390
567.360441	48361.651552
567.716260	48076.113037
568.072023	48441.916804
568.427732	48386.191889
568.783385	47898.293897
569.138982	48331.752469
569.494525	48457.229309
569.850013	48043.988284
570.205445	48175.322945
570.560823	47955.425293
570.916145	47831.627158
571.271412	48051.247546
571.626625	47711.269610
571.981782	47791.996127
572.336884	47395.607679
572.691931	47720.837720
573.046923	47379.392808
573.401860	47209.044658
573.756743	47220.934219
574.111570	47382.261224
574.466342	47272.447250
574.821059	47423.540713
575.175722	46931.967719
575.530330	47048.617498
575.884882	46673.361568
576.239380	46565.722851
576.593823	46660.297417
576.948211	46585.655573
577.302544	46144.390774
577.656823	46121.566950
578.011047	46401.595484
578.365216	46220.814666
578.719330	45929.229287
579.073389	45920.815601
579.427394	45972.381564
579.781344	45893.270736
580.135239	45646.556667
580.489080	45710.677623
580.842866	45197.664602
581.196597	45680.677717
581.550273	45681.920361
581.903895	45610.988806
582.257463	46050.537092
582.610975	45488.879457
582.964434	45824.141394
583.317837	45324.195043
583.671186	45278.549916
584.024481	45558.404530
584.377721	45095.737513
584.730906	45317.654146
585.084037	45446.276666
585.437113	45142.002702
585.790135	45259.275064
586.143103	44817.269215
586.496016	44980.922713
586.848874	45096.609632
587.201679	45111.914575
587.554428	44611.927896
587.907124	44896.904323
588.259765	44651.357281
588.612352	44817.196119
588.964884	44271.657573
589.317362	44584.294811
589.669786	44592.595071
590.022155	44451.059635
590.374470	44893.854425
590.726731	44466.059589
591.078937	43810.830576
591.431090	44157.147763
591.783188	43686.782904
592.135232	43471.364318
592.487222	43741.713837
592.839157	43890.238832
593.191038	43530.083677
593.542866	43326.189169
593.894639	42746.849687
594.246358	43021.907643
594.598022	43024.879404
594.949633	42603.567492
595.301190	42576.216711
595.652692	42516.945345
596.004141	43018.467056
596.355535	41911.238108
596.706876	41920.186156
597.058162	41640.490337
597.409395	42135.745894
597.760573	42350.050385
598.111698	41954.531537
598.462768	41884.847667
598.813785	41893.105077
599.164748	41479.977478
599.515657	41776.344392
599.866511	41272.324790
600.217312	41972.407468
600.568060	40882.507486
600.918753	41721.531927
601.269392	41651.336380
601.619978	41353.275638
601.970510	41573.425347
602.320988	41710.022972
602.671412	41980.806031
603.021783	41850.915661
603.372100	41410.081880
603.722363	41523.033973
604.072572	41542.107179
604.422728	41546.455174
604.772830	41330.839983
605.122878	41490.465599
605.472872	41333.448780
605.822813	41595.556013
606.172701	41354.959383
606.522534	41668.932527
606.872314	41905.024885
607.222041	41717.088149
607.571714	42046.517471
607.921333	41543.790924
608.270899	41756.099118
608.620411	42138.384938
608.969870	41880.000598
609.319276	41902.640420
609.668627	41933.973711
610.017926	42339.761390
610.367171	42468.290649
610.716362	42507.039478
611.065500	42391.120666
611.414585	42615.192392
611.763616	42786.175728
612.112594	42676.351671
612.461518	42816.954493
612.810389	43194.678068
613.159207	42997.712626
613.507971	42952.470790
613.856682	43460.493069
614.205340	43297.300837
614.553945	43987.059232
614.902496	43302.919203
615.250994	43725.624994
615.599439	43788.092452
615.947830	43895.380809
616.296169	43903.744083
616.644454	43950.029437
616.992686	44091.211992
617.340864	44550.014965
617.688990	44081.490126
618.037063	44757.443322
618.385082	44566.948201
618.733048	44912.783957
619.080961	44780.914934
619.428821	44801.422348
619.776628	44818.400954
620.124382	44641.781609
620.472083	44740.983955
620.819731	44842.926168
621.167326	44396.751285
621.514868	44401.147171
621.862357	43861.645407
622.209793	43944.466524
622.557176	43521.362481
622.904506	43268.170529
623.251783	42904.380703
623.599007	42579.531270
623.946179	42517.252855
624.293297	42252.274686
624.640363	41725.431259
624.987376	41550.667058
625.334336	41341.895233
625.681243	40936.273912
626.028097	40841.664058
626.374899	40637.651082
626.721647	40618.164502
627.068343	40410.443758
627.414987	40138.874279
627.761577	39859.276764
628.108115	40182.548316
628.454600	39431.708780
628.801032	39649.678190
629.147412	39558.904653
629.493739	39466.321342
629.840014	39013.754276
630.186236	39457.365732
630.532405	38891.826408
630.878521	39120.467941
631.224585	38908.671424
631.570597	38551.107423
631.916556	38731.545443
632.262462	38606.671021
632.608316	38538.991010
632.954117	38398.032786
633.299866	38360.498875
633.645562	38273.155844
633.991206	37744.973991
634.336797	37337.268153
634.682336	37232.893583
635.027823	36991.134968
635.373257	36868.763479
635.718639	36545.053347
636.063968	36445.482996
636.409245	35786.125279
636.754470	35733.979584
637.099642	35509.756622
637.444762	34922.646201
637.789829	35078.606898
638.134845	34714.136517
638.479808	34625.167713
638.824719	34563.970626
639.169577	34047.340577
639.514383	34145.759023
639.859137	33765.371198
640.203839	33932.906384
640.548489	33635.223729
640.893086	33620.470792
641.237632	33351.931048
641.582125	33452.907880
641.926566	33237.519541
642.270955	33278.783905
642.615292	33201.291288
642.959576	33099.762450
643.303809	33094.978395
643.647990	33180.846889
643.992118	33141.059582
644.336195	32977.154027
644.680219	33066.296750
645.024192	33270.153450
645.368112	33793.468069
645.711981	33813.030267
646.055797	34526.903022
646.399562	34333.438660
646.743274	35210.213781
647.086935	35612.248321
647.430544	35567.014048
647.774101	35611.633300
648.117606	35902.278505
648.461059	36049.107152
648.804460	35628.992514
649.147810	35130.003982
649.491108	34780.049603
649.834354	34644.382071
650.177548	33820.675176
650.520690	33326.304342
650.863781	33293.428457
651.206820	33133.611278
651.549807	32723.420151
651.892742	32141.875164
652.235626	32037.132590
652.578458	31917.395103
652.921238	31229.756513
653.263967	31534.159026
653.606644	31229.867418
653.949269	31129.051903
654.291843	30735.509187
654.634365	31107.251433
654.976836	30648.214047
655.319255	30719.180890
655.661622	30586.865725
656.003938	30460.216817
656.346203	30288.898244
656.688416	30503.452273
657.030577	30290.309768
657.372687	30097.304151
657.714746	30274.977098
658.056753	30464.547168
658.398708	29828.587966
658.740612	29905.495809
659.082465	30118.572779
659.424266	29998.558030
659.766016	30021.555774
660.107715	29881.015966
660.449362	29973.377466
660.790958	29962.493615
661.132503	29876.640245
661.473996	29961.107298
661.815438	30039.454390
662.156829	30169.380048
662.498168	29964.807505
662.839456	29939.256417
663.180693	30074.074514
663.521879	30153.906227
663.863013	30097.089902
664.204097	30084.882748
664.545129	30500.210811
664.886110	30424.038976
665.227040	30543.756298
665.567918	30525.245181
665.908746	30605.805340
666.249522	30699.759845
666.590248	30717.771887
666.930922	30821.531436
667.271545	30824.208289
667.612118	30877.553779
667.952639	30678.284529
668.293109	30716.940097
668.633528	30572.102706
668.973896	30546.362574
669.314213	30520.756033
669.654480	30324.793780
669.994695	30317.600054
670.334859	30238.937889
670.674973	30077.668857
671.015035	30263.014440
671.355047	30188.818738
671.695008	30119.815424
672.034918	30032.716888
672.374777	30129.348246
672.714585	29994.252884
673.054342	30126.918410
673.394049	29973.931993
673.733705	30202.182837
674.073310	29912.992005
674.412864	29969.936879
674.752368	29665.927576
675.091820	29911.305739
675.431223	29501.575878
675.770574	29301.961309
676.109875	29134.468972
676.449125	28931.393652
676.788324	28814.905189
677.127473	28350.088119
677.466571	28248.397964
677.805619	27966.786507
678.144616	27903.525068
678.483562	27839.893103
678.822458	27523.933745
679.161303	27479.926992
679.500098	27402.973779
679.838842	27317.483371
680.177535	27413.086333
680.516179	27634.045148
680.854771	27768.543132
681.193314	28525.104378
681.531805	29528.543530
681.870247	30266.878484
682.208638	31008.159993
682.546978	31288.745575
682.885268	31423.379671
683.223508	30992.252632
683.561697	30716.642669
683.899836	30560.485367
684.237925	30137.761932
684.575963	30013.333652
684.913951	29623.473498
685.251889	29806.522836
685.589776	29810.407045
685.927614	29811.790842
686.265401	30005.277888
686.603137	30105.795975
686.940824	30609.550917
687.278460	30928.905493
687.616046	31110.422319
687.953582	31759.087749
688.291068	31685.605370
688.628504	32030.937012
688.965889	32027.360313
689.303224	31753.527357
689.640510	31469.594448
689.977745	30853.865397
690.314930	30128.647525
690.652065	29695.877071
690.989150	29023.855975
691.326185	28185.151648
691.663170	27538.200210
692.000105	26796.759905
692.336990	26201.197990
692.673825	25776.306858
693.010610	25265.244764
693.347345	24767.854278
693.684030	24148.304033
694.020665	23941.677219
694.357251	23245.604778
694.693786	23256.145831
695.030272	23023.887270
695.366707	22538.139329
695.703093	22252.487388
696.039429	22326.171413
696.375716	22074.645562
696.711952	22070.421076
697.048139	21933.803286
697.384276	21772.864449
697.720363	21886.325699
698.056400	21781.210079
698.392388	21615.393927
698.728326	21612.223041
699.064214	21460.506995
699.400053	21460.373405
699.735842	21072.978376
700.071581	20872.151409
700.407270	20617.797471
700.742910	20456.324272
701.078501	20201.246929
701.414042	19998.274952
701.749533	19684.427837
702.084974	19370.880670
702.420366	19610.579974
702.755709	19192.983392
703.091002	18888.054078
703.426246	18953.100087
703.761440	18879.554693
704.096584	18639.852869
704.431679	18578.960772
704.766725	18517.632614
705.101721	18450.000494
705.436668	18569.581705
705.771565	18290.536195
706.106413	18603.123022
706.441212	18681.452470
706.775961	18777.163817
707.110661	18859.306899
707.445311	19216.220591
707.779913	19094.053269
708.114465	19391.766171
708.448967	19699.087512
708.783421	20321.450722
709.117825	20683.551762
709.452180	20921.894995
709.786485	21361.864217
710.120742	22121.987038
710.454949	22226.386814
710.789107	22732.637127
711.123216	23460.330205
711.457275	23666.019365
711.791286	24245.162242
712.125247	24395.386106
712.459159	24121.611123
712.793023	24892.761468
713.126837	23862.566391
713.460602	24133.049501
713.794318	23794.228510
714.127985	23532.761504
714.461602	22631.924956
714.795171	22618.001289
715.128691	21632.773304
715.462162	21113.307606
715.795584	20687.866989
716.128957	20414.165103
716.462281	20031.105466
716.795556	19758.278220
717.128782	19283.784655
717.461960	18670.949226
717.795088	18634.935223
718.128167	18280.481614
718.461198	17823.133014
718.794180	17692.105863
719.127113	17357.274946
719.459997	17154.660890
719.792833	16791.521373
720.125619	16838.081470
720.458357	16493.052298
720.791046	16361.200919
721.123686	16214.029473
721.456278	15975.978627
721.788821	15971.086187
722.121315	15712.348966
722.453761	15809.439069
722.786158	15696.907912
723.118506	15772.835251
723.450805	15649.314378
723.783056	15837.210785
724.115259	15717.445573
724.447412	15707.638008
724.779518	15929.302584
725.111574	15978.020294
725.443582	16245.181284
725.775542	16198.860642
726.107453	16717.703757
726.439315	16633.115716
726.771129	17047.322122
727.102895	17475.515209
727.434612	17741.413389
727.766281	17913.969565
728.097901	18243.172034
728.429473	18325.277307
728.760996	18333.943051
729.092471	18465.192012
729.423897	18363.073358
729.755276	18234.715499
730.086606	18338.492692
730.417887	18925.230067
730.749120	19481.965016
731.080305	19694.474856
731.411442	20091.022100
731.742530	20220.403314
732.073570	20380.028930
732.404562	20703.119000
732.735506	20548.332892
733.066401	20356.111175
733.397249	19856.101810
733.728048	19235.790350
734.058798	18379.809989
734.389501	17607.570755
734.720156	17089.602279
735.050762	16505.793814
735.381320	16126.076462
735.711831	15848.069431
736.042293	15468.891482
736.372707	15501.066647
736.703073	15284.322237
737.033391	15484.244316
737.363661	15475.994468
737.693883	15597.670278
738.024056	15794.290401
738.354182	16006.341497
738.684260	16373.239194
739.014290	16639.840615
739.344272	16863.665326
739.674207	17220.324440
740.004093	17401.319507
740.333931	17441.951207
740.663722	17530.922531
740.993464	17577.089418
741.323159	17434.041636
741.652806	17135.476779
741.982405	16975.069784
742.311956	16623.575332
742.641460	16513.907551
742.970915	16179.051428
743.300323	15835.406052
743.629683	15621.782117
743.958996	15313.452545
744.288260	14985.467514
744.617477	14676.711964
744.946647	14649.048632
745.275768	14331.077853
745.604842	14127.412718
745.933869	13941.676445
746.262847	13915.512857
746.591778	13827.839630
746.920662	13711.827556
747.249498	13719.578330
747.578286	13874.495508
747.907027	14048.473289
748.235720	14313.474144
748.564365	14381.892684
748.892963	14303.394357
749.221514	14404.572835
749.550017	14270.301703
749.878473	14247.979473
750.206881	14022.060164
750.535242	13947.441005
750.863555	13863.367161
751.191821	13768.134724
751.520039	13778.930355
751.848210	13709.916959
752.176334	13757.606274
752.504411	13689.175131
752.832440	13501.555988
753.160421	13613.547741
753.488356	13505.737625
753.816243	13412.299839
754.144082	13249.102565
754.471875	13199.651367
754.799620	13166.092405
755.127318	13142.104075
755.454969	13130.332981
755.782572	13097.300820
756.110129	13113.145167
756.437638	13017.368285
756.765100	13017.045651
757.092515	13046.170917
757.419882	13083.195672
757.747203	13095.274276
758.074477	13179.766535
758.401703	13167.662725
758.728882	13356.648021
759.056014	13399.883477
759.383099	13569.750197
759.710138	13692.340976
760.037129	13813.159790
760.364073	13874.775293
760.690970	13907.177309
761.017820	13922.313373
761.344623	14151.743847
761.671379	14522.447615
761.998088	15225.718824
762.324751	16983.072616
762.651366	20371.758917
762.977935	24836.454300
763.304456	27833.523605
763.630931	28934.042778
763.957359	27759.360670
764.283740	25510.181826
764.610074	23260.236727
764.936362	20617.850403
765.262602	18731.092712
765.588796	16800.751726
765.914943	15510.551578
766.241044	14391.208737
766.567097	13594.807252
766.893104	12870.940409
767.219064	12402.007237
767.544978	11915.341807
767.870845	11524.947291
768.196665	11298.231479
768.522438	11067.507950
768.848165	10857.785868
769.173846	10650.823817
769.499479	10515.872129
769.825066	10351.661583
770.150607	10117.905800
770.476101	10048.736128
770.801548	9921.646119
771.126949	9763.071584
771.452303	9645.365683
771.777611	9448.748080
772.102872	9441.521586
772.428087	9297.901633
772.753256	9141.696440
773.078378	9047.177326
773.403453	8861.567083
773.728482	8755.125640
774.053465	8678.338784
774.378401	8572.736694
774.703291	8457.891647
775.028135	8331.303233
775.352932	8291.105072
775.677683	8184.961057
776.002388	8086.686284
776.327046	8091.825740
776.651658	7994.763364
776.976224	7892.317036
777.300743	7885.269502
777.625216	7794.145606
777.949643	7754.812003
778.274024	7764.196111
778.598359	7677.110178
778.922647	7698.782098
779.246889	7650.394583
779.571086	7656.799369
779.895236	7659.508989
780.219339	7673.427615
780.543397	7671.711102
780.867409	7749.266733
781.191374	7766.368848
781.515294	7730.874084
781.839167	7823.757343
782.162995	7800.547871
782.486776	7738.496308
782.810511	7691.164915
783.134201	7608.815146
783.457844	7606.589477
783.781441	7543.305352
784.104993	7475.821946
784.428498	7462.863660
784.751958	7445.743902
785.075372	7413.604025
785.398739	7361.218875
785.722061	7408.157058
786.045337	7407.403406
786.368568	7568.700164
786.691752	7590.702280
787.014891	7928.457067
787.337983	8282.499823
787.661030	8876.766162
787.984031	9497.594340
788.306987	9903.581144
788.629897	10118.528383
788.952760	10071.204551
789.275579	9852.783958
789.598351	9460.945152
789.921078	9102.776212
790.243759	8689.333541
790.566395	8396.757575
790.888984	8144.969584
791.211529	7936.709436
791.534027	7714.671815
791.856480	7513.885178
792.178888	7437.592356
792.501249	7335.750966
792.823566	7179.727254
793.145836	7181.305135
793.468062	7150.274313
793.790241	7100.187929
794.112375	7165.107908
794.434464	7323.705129
794.756507	7362.423711
795.078505	7521.560335
795.400457	7823.812796
795.722364	8177.583329
796.044226	8466.217113
796.366042	8746.389320
796.687812	8692.345630
797.009538	8774.231613
797.331218	8673.862240
797.652852	8590.373170
797.974442	8439.267104
798.295986	8349.874844
798.617484	8160.108169
798.938938	8019.762446
799.260346	7923.330214
799.581709	7720.423772
799.903026	7640.418140
800.224299	7527.612240
800.545526	7356.906168
800.866708	7259.987465
801.187845	7192.188987
801.508936	7081.727223
801.829983	7042.859927
802.150984	6890.276803
802.471940	6845.644948
802.792851	6835.043401
803.113717	6802.255737
803.434538	6763.887515
803.755314	6703.469286
804.076045	6705.551282
804.396731	6654.650752
804.717372	6686.873807
805.037967	6690.362286
805.358518	6731.162864
805.679024	6810.137581
805.999485	6813.840308
806.319901	6859.712288
806.640272	6881.215329
806.960598	6964.260777
807.280879	6959.063347
807.601115	7038.655605
807.921306	6989.096022
808.241453	6998.679255
808.561554	7027.295365
808.881611	6990.169787
809.201623	6998.601117
809.521590	6945.565658
809.841513	6927.417504
810.161390	6965.168185
810.481223	6832.921075
810.801011	6822.188459
811.120755	6799.316744
811.440453	6723.265897
811.760107	6690.639549
812.079716	6657.372975
812.399281	6590.721359
812.718801	6583.663744
813.038276	6540.065325
813.357707	6478.674153
813.677093	6519.056316
813.996434	6427.438386
814.315731	6468.869109
814.634983	6456.624147
814.954191	6474.033771
815.273354	6579.010759
815.592473	6645.438043
815.911547	6767.315499
816.230577	6846.302818
816.549562	6993.907803
816.868502	7097.571570
817.187399	7200.350615
817.506250	7353.783173
817.825058	7391.748103
818.143821	7657.605954
818.462539	7936.742204
818.781213	8296.478942
819.099843	8847.048560
819.418429	9843.641825
819.736970	10819.256329
820.055466	12003.980415
820.373919	13546.515519
820.692327	15905.818368
821.010691	20049.160359
821.329011	29045.560663
821.647286	42063.435583
821.965517	55560.668782
822.283704	60965.141106
822.601847	62988.851824
822.919945	60346.616735
823.237999	56252.804082
823.556010	50172.507111
823.873976	43462.045745
824.191897	36884.567496
824.509775	31997.713287
824.827609	27422.399865
825.145398	24777.424909
825.463144	23392.854361
825.780845	23673.641589
826.098502	25419.541880
826.416116	29180.746765
826.733685	32810.236382
827.051210	33985.392358
827.368692	32215.982646
827.686129	28258.190405
828.003522	24146.101048
828.320872	20420.733726
828.638177	17558.326243
828.955439	15387.282763
829.272656	13564.215010
829.589830	12072.736712
829.906960	10792.069386
830.224046	9839.069499
830.541088	9088.033358
830.858086	8617.764280
831.175041	8231.995023
831.491952	8111.208977
831.808819	8153.486613
832.125642	8559.138181
832.442421	9434.743754
832.759157	11230.470810
833.075849	14143.914935
833.392497	17373.275568
833.709101	19560.944773
834.025662	19423.059133
834.342179	17762.250999
834.658653	15556.748712
834.975083	13630.077685
835.291469	11997.610917
835.607811	10668.765284
835.924110	9756.266026
836.240366	8884.569868
836.556578	8067.976041
836.872746	7422.116013
837.188871	6914.880155
837.504952	6487.387788
837.820990	6174.959758
838.136984	5954.999092
838.452935	5857.639288
838.768842	5889.385954
839.084706	6306.697711
839.400526	7513.930548
839.716303	9091.514274
840.032037	10202.599705
840.347727	10141.979830
840.663373	9178.632974
840.978977	8129.468036
841.294537	7308.397665
841.610054	6706.027671
841.925527	6270.696310
842.240957	5905.147122
842.556344	5571.947017
842.871687	5281.563952
843.186987	4997.116847
843.502244	4771.419348
843.817458	4605.930870
844.132629	4466.724448
844.447756	4377.203638
844.762840	4291.604845
845.077881	4218.049370
845.392879	4152.274915
845.707833	4103.017801
846.022745	4059.295873
846.337613	4029.701780
846.652438	3987.388855
846.967221	3970.778253
847.281960	3936.319446
847.596656	3921.390069
847.911309	3903.317532
848.225919	3878.331053
848.540485	3856.860779
848.855009	3843.105991
849.169490	3817.570026
849.483928	3809.501659
849.798323	3802.020587
850.112675	3782.102988
850.426984	3788.500212
850.741251	3776.915641
851.055474	3766.631687
851.369654	3773.159981
851.683792	3769.195113
851.997887	3777.155095
852.311938	3781.477885
852.625947	3779.058131
852.939914	3771.461112
853.253837	3781.674490
853.567718	3776.479581
853.881555	3768.222171
854.195350	3781.838327
854.509103	3777.719705
854.822812	3775.617543
855.136479	3769.638735
855.450103	3776.920682
855.763685	3763.851490
856.077224	3769.457253
856.390720	3785.530973
856.704173	3802.068478
857.017584	3817.769151
857.330953	3830.813137
857.644278	3850.619830
857.957561	3857.148125
858.270802	3853.397506
858.584000	3859.867827
858.897155	3853.475644
859.210268	3839.599868
859.523339	3813.363183
859.836367	3809.547029
860.149352	3806.040907
860.462295	3797.347437
860.775195	3785.631796
861.088054	3779.789098
861.400869	3783.527114
861.713642	3779.998306
862.026373	3791.023310
862.339062	3798.854742
862.651708	3814.000889
862.964312	3848.598328
863.276873	3860.757591
863.589392	3917.531065
863.901869	3966.760453
864.214303	4009.020446
864.526696	4044.411867
864.839045	4091.927262
865.151353	4115.960963
865.463619	4129.146101
865.775842	4133.279847
866.088023	4153.381448
866.400162	4143.455416
866.712258	4152.837003
867.024313	4153.008403
867.336325	4152.237106
867.648296	4159.647602
867.960224	4157.169875
868.272110	4170.932225
868.583954	4169.475332
868.895755	4187.225234
869.207515	4177.566384
869.519233	4220.882498
869.830909	4239.867483
870.142542	4261.657871
870.454134	4275.941980
870.765684	4304.210251
871.077191	4343.183411
871.388657	4367.403635
871.700081	4406.215478
872.011463	4451.074186
872.322803	4482.379751
872.634101	4514.378475
872.945357	4550.705030
873.256571	4608.529585
873.567744	4637.228874
873.878874	4655.737470
874.189963	4694.085527
874.501010	4707.182445
874.812015	4706.857291
875.122979	4750.493518
875.433900	4743.093104
875.744780	4759.413840
876.055618	4787.402326
876.366415	4788.352584
876.677169	4809.152384
876.987882	4853.854816
877.298554	4913.330349
877.609183	4993.214994
877.919771	5100.730202
878.230317	5244.014918
878.540822	5467.985822
878.851285	5783.388133
879.161707	6252.505307
879.472087	7014.760536
879.782425	8254.841532
880.092722	10447.030132
880.402977	13780.172999
880.713191	17573.432061
881.023363	21333.338848
881.333494	23575.099634
881.643583	24820.234387
881.953631	24829.903321
882.263637	23991.196473
882.573602	22518.993027
882.883526	20957.631734
883.193408	19263.418394
883.503248	17558.563178
883.813048	15990.756770
884.122806	14546.105750
884.432522	13065.072723
884.742197	11771.084148
885.051831	10672.586478
885.361424	9650.729470
885.670975	8816.710896
885.980485	8112.086137
886.289954	7530.720111
886.599382	7053.761423
886.908768	6667.805643
887.218113	6299.529190
887.527417	6013.499162
887.836680	5741.438171
888.145901	5516.882493
888.455082	5353.496177
888.764221	5193.089182
889.073319	5066.485644
889.382376	4988.614941
889.691392	4927.667391
890.000366	4902.433895
890.309300	4884.575608
890.618193	4887.013006
890.927044	4869.641189
891.235855	4895.220004
891.544625	4926.139921
891.853353	4988.577132
892.162041	5107.324032
892.470687	5289.092916
892.779293	5540.659096
893.087858	5916.270428
893.396381	6505.253637
893.704864	7310.625855
894.013306	8455.214795
894.321707	9642.648501
894.630068	10464.664088
894.938387	10671.217805
895.246665	10442.790522
895.554903	9835.828037
895.863100	9140.453796
896.171256	8581.790606
896.479371	8072.515600
896.787446	7571.331647
897.095480	7138.591439
897.403473	6817.921122
897.711425	6493.822821
898.019336	6230.248612
898.327207	5952.163443
898.635038	5718.372372
898.942827	5470.093024
899.250576	5276.434578
899.558284	5079.879990
899.865952	4955.678562
900.173579	4807.191376
900.481165	4698.393193
900.788711	4604.713431
901.096216	4531.939334
901.403681	4464.531546
901.711105	4441.884162
902.018489	4427.756328
902.325832	4496.817616
902.633135	4615.864464
902.940397	4961.128049
903.247619	5759.540954
903.554800	7203.261881
903.861941	9132.904668
904.169041	10666.514409
904.476101	11318.259984
904.783121	10971.418517
905.090100	10238.180169
905.397039	9399.019618
905.703938	8638.344790
906.010796	7932.868077
906.317614	7376.468365
906.624391	6830.894532
906.931129	6404.632206
907.237826	6002.020454
907.544483	5617.841682
907.851099	5240.511316
908.157675	4883.922778
908.464211	4553.104619
908.770707	4315.320954
909.077163	4114.037763
909.383578	3965.911019
909.689954	3844.925847
909.996289	3771.196452
910.302584	3706.664641
910.608839	3676.054755
910.915054	3640.882625
911.221229	3628.143629
911.527363	3637.157212
911.833458	3652.736898
912.139513	3681.375693
912.445527	3712.429201
912.751502	3797.256696
913.057436	3896.625400
913.363331	4033.351575
913.669186	4239.227257
913.975000	4498.133357
914.280775	4927.863996
914.586510	5513.043655
914.892205	6312.840357
915.197859	7361.823813
915.503475	8587.603056
915.809050	9646.313420
916.114585	10305.696343
916.420081	10569.036137
916.725536	10534.416013
917.030952	10091.870761
917.336328	9688.107106
917.641665	9272.884907
917.946961	8793.965210
918.252218	8368.345632
918.557435	7853.469904
918.862612	7420.016373
919.167750	7037.906994
919.472848	6616.302695
919.777906	6234.387400
920.082925	5873.450867
920.387904	5502.779866
920.692843	5232.901694
920.997743	4985.519672
921.302603	4749.444958
921.607423	4582.769289
921.912204	4418.354577
922.216946	4299.005259
922.521647	4178.244419
922.826310	4069.093356
923.130932	3974.685147
923.435516	3874.477091
923.740059	3803.948828
924.044564	3725.873958
924.349028	3667.280627
924.653454	3598.254628
924.957840	3529.768032
925.262186	3483.157524
925.566493	3420.758121
925.870761	3363.334338
926.174989	3325.308914
926.479178	3286.928090
926.783328	3242.318919
927.087438	3216.107440
927.391509	3183.276925
927.695541	3152.881288
927.999533	3127.012607
928.303486	3103.944287
928.607400	3088.805702
928.911275	3077.354721
929.215110	3057.956361
929.518906	3047.674928
929.822663	3048.816749
930.126381	3046.376831
930.430060	3052.781617
930.733699	3055.040054
931.037299	3064.391394
931.340861	3062.037175
931.644383	3068.666293
931.947866	3066.947259
932.251309	3060.532391
932.554714	3060.842422
932.858080	3057.479972
933.161407	3049.386400
933.464694	3039.601520
933.767943	3034.875438
934.071153	3028.034593
934.374323	3018.363139
934.677455	3013.160668
934.980548	3006.740759
935.283602	2997.664161
935.586617	2999.675582
935.889593	3006.526510
936.192530	3010.783764
936.495428	3023.623583
936.798287	3047.800957
937.101108	3078.299938
937.403890	3132.751961
937.706632	3191.430992
938.009336	3270.534257
938.312002	3347.169878
938.614628	3406.191707
938.917216	3459.433854
939.219765	3492.798730
939.522275	3529.266437
939.824747	3532.321377
940.127179	3527.106303
940.429573	3520.706558
940.731929	3521.888709
941.034246	3508.174250
941.336524	3494.636231
941.638763	3478.285248
941.940964	3467.008187
942.243126	3422.706527
942.545250	3402.262128
942.847335	3365.794421
943.149381	3328.999039
943.451389	3298.333700
943.753359	3261.389604
944.055290	3236.312384
944.357182	3213.828838
944.659036	3195.113555
944.960851	3188.597863
945.262628	3172.617406
945.564367	3172.229237
945.866067	3168.042558
946.167729	3166.439472
946.469352	3162.827485
946.770937	3160.619459
947.072484	3140.648928
947.373992	3146.050525
947.675462	3140.308651
947.976893	3119.992801
948.278286	3113.454424
948.579641	3105.925461
948.880958	3097.196703
949.182236	3102.308433
949.483476	3097.781477
949.784678	3095.346599
950.085841	3096.876590
950.386967	3107.818414
950.688054	3123.887092
950.989103	3142.640184
951.290114	3163.833195
951.591087	3190.783203
951.892021	3220.778069
952.192917	3248.103643
952.493776	3271.126593
952.794596	3281.859209
953.095378	3287.159983
953.396122	3281.118160
953.696828	3277.420473
953.997496	3263.814399
954.298126	3242.918817
954.598718	3221.647668
954.899272	3195.058102
955.199788	3166.699091
955.500266	3135.375882
955.800706	3099.185438
956.101108	3061.303688
956.401472	3031.780170
956.701798	2997.104593
957.002087	2956.304015
957.302337	2929.724531
957.602550	2898.522309
957.902724	2870.586755
958.202861	2846.880729
958.502960	2826.131340
958.803022	2804.134265
959.103045	2784.130967
959.403031	2767.117072
959.702979	2752.149887
960.002889	2737.306209
960.302762	2726.379508
960.602596	2714.726881
960.902393	2704.183308
961.202153	2698.890096
961.501875	2687.106399
961.801559	2682.092972
962.101205	2677.419822
962.400814	2669.190138
962.700385	2660.186638
962.999918	2653.643220
963.299414	2650.232879
963.598873	2648.050060
963.898293	2640.397588
964.197677	2642.000675
964.497022	2638.189563
964.796331	2638.169398
965.095601	2633.075312
965.394835	2634.935498
965.694030	2629.281844
965.993189	2627.814868
966.292309	2628.467698
966.591393	2627.809827
966.890439	2628.084570
967.189447	2624.442336
967.488419	2628.071967
967.787353	2629.233953
968.086249	2628.356792
968.385108	2630.544653
968.683930	2629.818727
968.982714	2636.599079
969.281462	2641.647794
969.580172	2646.809936
969.878844	2652.486275
970.177480	2661.983809
970.476078	2665.885662
970.774639	2677.644153
971.073162	2681.530883
971.371649	2688.996832
971.670098	2692.760053
971.968510	2701.198945
972.266885	2703.782536
972.565223	2706.850078
972.863524	2710.804863
973.161788	2714.202601
973.460014	2715.535986
973.758204	2720.330124
974.056356	2723.644682
974.354471	2725.343551
974.652550	2725.930846
974.950591	2723.178376
975.248595	2720.267109
975.546563	2717.136553
975.844493	2716.650081
976.142386	2711.140100
976.440243	2704.752958
976.738062	2699.149716
977.035845	2694.148891
977.333590	2686.382994
977.631299	2682.707992
977.928971	2677.651715
978.226606	2670.886487
978.524204	2667.881959
978.821765	2662.777791
979.119290	2663.690240
979.416777	2665.189983
979.714228	2667.375323
980.011642	2670.994872
980.309020	2679.814370
980.606360	2694.214426
980.903664	2716.811398
981.200931	2752.298601
981.498162	2800.333235
981.795356	2878.468599
982.092513	2966.882876
982.389633	3075.784402
982.686717	3170.666479
982.983764	3248.456524
983.280775	3294.567958
983.577749	3304.272179
983.874686	3290.255251
984.171587	3256.456835
984.468451	3218.532235
984.765279	3175.362314
985.062070	3128.076291
985.358824	3081.896801
985.655543	3024.977133
985.952224	2972.092908
986.248869	2906.986407
986.545478	2847.223528
986.842050	2793.187400
987.138586	2745.588825
987.435086	2707.434852
987.731549	2677.404699
988.027975	2648.654998
988.324366	2632.482977
988.620719	2615.796757
988.917037	2608.023298
989.213318	2600.048193
989.509563	2590.139805
989.805772	2583.886254
990.101944	2582.230235
990.398080	2577.685634
990.694180	2575.364183
990.990244	2578.656057
991.286271	2578.474575
991.582262	2577.121025
991.878217	2580.425502
992.174136	2582.898187
992.470019	2585.935483
992.765865	2587.999835
993.061676	2592.874631
993.357450	2605.974069
993.653188	2610.092692
993.948890	2631.913326
994.244556	2646.366314
994.540186	2672.731549
994.835780	2700.848585
995.131337	2740.658577
995.426859	2780.352622
995.722345	2830.895230
996.017795	2882.015051
996.313208	2919.256575
996.608586	2946.778754
996.903928	2960.289047
997.199234	2962.068574
997.494504	2958.567493
997.789738	2942.433280
998.084936	2918.371853
998.380099	2887.346071
998.675225	2857.086545
998.970316	2827.454643
999.265371	2789.393931
999.560390	2754.108375
999.855373	2723.080073
1000.150320	2696.213244
1000.445232	2667.082936
1000.740108	2646.336067
1001.034948	2626.075670
1001.329752	2613.044287
1001.624521	2600.653131
1001.919254	2588.987901
1002.213951	2580.637230
1002.508613	2571.696744
1002.803239	2563.628377
1003.097829	2560.384394
1003.392384	2556.101934
1003.686903	2548.099102
1003.981386	2548.472148
1004.275834	2542.284132
1004.570246	2539.743390
1004.864623	2542.077444
1005.158964	2534.868594
1005.453270	2533.411701
1005.747540	2531.841381
1006.041775	2528.978006
1006.335974	2527.904240
1006.630138	2529.983716
1006.924266	2528.506658
1007.218359	2524.435926
1007.512416	2524.977850
1007.806438	2518.472241
1008.100425	2523.541122
1008.394376	2518.852848
1008.688292	2524.385515
1008.982172	2525.073632
1009.276017	2524.103210
1009.569827	2519.072139
1009.863602	2521.365864
1010.157341	2520.634896
1010.451045	2519.730009
1010.744714	2517.038033
1011.038347	2514.751870
1011.331945	2518.704134
1011.625508	2516.296983
1011.919036	2513.836900
1012.212528	2514.489730
1012.505986	2511.162568
1012.799408	2512.957219
1013.092795	2510.844976
1013.386147	2510.597959
1013.679464	2513.418485
1013.972745	2510.358504
1014.265992	2512.075017
1014.559204	2512.004441
1014.852380	2509.496467
1015.145521	2511.659122
1015.438628	2509.849348
1015.731699	2509.771210
1016.024736	2510.923113
1016.317737	2513.481499
1016.610703	2514.920748
1016.903635	2515.820594
1017.196531	2516.773373
1017.489393	2517.521984
1017.782219	2520.579444
1018.075011	2522.759743
1018.367768	2520.725637
1018.660490	2520.914680
1018.953177	2520.914680
1019.245829	2520.914680
