Dividing Wavelength (nm)	Counts (n)	Blue Motor Position (mm): 22.000000	Red Motor Position (mm): 0.000000	
326.493990	2059.094577
326.888308	2059.094577
327.282561	2059.094577
327.676750	2034.682789
328.070874	2037.523479
328.464933	2043.197298
328.858929	2052.525953
329.252859	2061.771429
329.646726	2076.612586
330.040528	2092.426686
330.434265	2107.522421
330.827938	2131.311626
331.221547	2149.495068
331.615091	2171.976093
332.008571	2191.898733
332.401986	2211.884388
332.795338	2232.888355
333.188625	2253.007600
333.581847	2269.104005
333.975006	2289.535801
334.368100	2306.065745
334.761129	2323.500575
335.154095	2338.951712
335.546996	2386.996428
335.939833	2486.196254
336.332606	2490.433344
336.725315	2508.916734
337.117960	2518.318486
337.510540	2526.981709
337.903056	2536.370858
338.295508	2543.375541
338.687896	2548.852755
339.080220	2555.625545
339.472480	2560.686864
339.864676	2560.707028
340.256807	2566.529561
340.648875	2565.637277
341.040879	2566.774057
341.432818	2569.758420
341.824694	2569.909655
342.216506	2571.096846
342.608253	2570.091136
342.999937	2568.724983
343.391557	2570.935529
343.783113	2568.616599
344.174605	2565.367575
344.566033	2563.615774
344.957397	2560.971689
345.348697	2560.734755
345.739934	2557.936914
346.131106	2559.469425
346.522215	2556.570762
346.913260	2554.208981
347.304241	2553.387273
347.695159	2549.772766
348.086012	2550.662529
348.476802	2546.339740
348.867528	2544.991231
349.258191	2541.215407
349.648789	2541.585932
350.039324	2537.966383
350.429796	2541.338915
350.820203	2539.892104
351.210548	2540.146682
351.600828	2539.138452
351.991045	2540.852444
352.381198	2538.490663
352.771288	2537.696682
353.161314	2533.633512
353.551276	2536.907741
353.941175	2534.112421
354.331010	2538.546116
354.720782	2540.141641
355.110490	2542.067362
355.500135	2537.517721
355.889717	2538.596528
356.279235	2539.135931
356.668689	2537.638708
357.058080	2538.513348
357.447408	2541.913607
357.836672	2539.103163
358.225873	2538.780530
358.615010	2542.039636
359.004084	2538.757844
359.393095	2543.216745
359.782043	2540.728936
360.170927	2542.407640
360.559748	2545.059287
360.948505	2544.903011
361.337199	2546.216232
361.725830	2545.984338
362.114398	2542.526107
362.502903	2542.430325
362.891344	2547.368135
363.279722	2544.005686
363.668037	2548.005841
364.056289	2546.034750
364.444478	2547.010213
364.832603	2547.690769
365.220665	2547.305121
365.608665	2551.784186
365.996601	2548.646068
366.384474	2548.799823
366.772284	2549.644216
367.160031	2550.355019
367.547715	2552.101779
367.935336	2548.716644
368.322893	2547.002652
368.710388	2549.619010
369.097820	2549.616490
369.485189	2549.583722
369.872495	2552.399207
370.259738	2551.310318
370.646918	2553.467931
371.034035	2553.525905
371.421090	2556.008673
371.808081	2554.047664
372.195010	2553.253682
372.581875	2553.150339
372.968678	2554.135884
373.355418	2553.961964
373.742096	2554.498847
374.128710	2555.219732
374.515262	2558.574620
374.901751	2554.032541
375.288177	2559.769374
375.674540	2554.972716
376.060841	2557.331976
376.447079	2555.244938
376.833254	2556.172510
377.219367	2554.995401
377.605417	2559.355999
377.991404	2557.644527
378.377329	2556.936245
378.763191	2556.550597
379.148991	2557.314332
379.534727	2559.582851
379.920402	2562.695763
380.306013	2558.577141
380.691563	2562.247101
381.077049	2559.156873
381.462474	2557.994887
381.847835	2559.945814
382.233134	2561.528736
382.618371	2558.652758
383.003545	2559.419013
383.388657	2559.935732
383.773706	2563.756926
384.158693	2562.496638
384.543618	2563.373799
384.928480	2562.572255
385.313280	2563.537636
385.698017	2563.812379
386.082692	2564.694581
386.467305	2565.700291
386.851856	2565.176011
387.236344	2563.681309
387.620770	2560.777604
388.005133	2559.439178
388.389435	2565.634756
388.773674	2559.295505
389.157851	2565.475960
389.541965	2565.412945
389.926018	2566.201886
390.310008	2566.211968
390.693936	2564.412276
391.077802	2566.343038
391.461606	2568.132648
391.845348	2568.840930
392.229027	2566.206927
392.612645	2565.390260
392.996200	2569.249263
393.379694	2566.093501
393.763125	2567.537792
394.146494	2568.140210
394.529801	2566.280024
394.913047	2570.459140
395.296230	2570.239850
395.679351	2570.252453
396.062410	2568.465364
396.445408	2570.953173
396.828343	2569.705488
397.211217	2570.968297
397.594028	2572.735221
397.976778	2568.810683
398.359466	2572.909141
398.742092	2572.672207
399.124656	2572.261353
399.507158	2571.124573
399.889598	2571.800087
400.271977	2573.980386
400.654294	2571.754717
401.036549	2572.284038
401.418742	2572.929306
401.800874	2572.210941
402.182944	2572.021898
402.564952	2574.255129
402.946898	2571.653894
403.328783	2574.686148
403.710606	2575.931313
404.092367	2574.996179
404.474067	2575.543144
404.855705	2575.684296
405.237282	2573.078020
405.618797	2575.094481
406.000250	2577.438618
406.381642	2572.851168
406.762972	2576.110274
407.144240	2572.563822
407.525447	2574.106415
407.906593	2572.652042
408.287677	2576.614389
408.668700	2576.654718
409.049661	2578.993814
409.430560	2578.756880
409.811399	2577.529359
410.192176	2576.475757
410.572891	2578.192270
410.953545	2574.401323
411.334138	2580.614545
411.714669	2577.373083
412.095139	2581.118660
412.475547	2578.101530
412.855894	2581.710996
413.236180	2580.793506
413.616405	2582.409196
413.996568	2578.852662
414.376670	2578.635892
414.756711	2578.504822
415.136691	2581.879874
415.516609	2582.794844
415.896466	2580.400296
416.276262	2581.363156
416.655997	2581.607652
417.035670	2582.691500
417.415283	2583.994638
417.794834	2582.628486
418.174324	2581.683269
418.553753	2583.442632
418.933121	2581.020358
419.312428	2580.664956
419.691674	2581.247210
420.070859	2583.735019
420.449983	2582.116809
420.829045	2581.688311
421.208047	2582.404154
421.586988	2581.436253
421.965867	2582.489854
422.344686	2583.157807
422.723444	2582.825091
423.102141	2583.462797
423.480777	2582.792323
423.859352	2583.273753
424.237866	2587.402458
424.616319	2582.978846
424.994712	2586.311049
425.373044	2584.546645
425.751314	2582.406675
426.129524	2580.105388
426.507673	2585.385997
426.885762	2579.893660
427.263789	2586.111923
427.641756	2587.745257
428.019662	2586.815164
428.397508	2587.183168
428.775292	2586.505133
429.153016	2585.640575
429.530679	2588.430854
429.908282	2584.413054
430.285824	2587.851121
430.663305	2587.904053
431.040726	2587.818354
431.418086	2588.597212
431.795385	2589.290371
432.172624	2587.926738
432.549802	2587.410020
432.926920	2587.210895
433.303977	2589.950762
433.680974	2588.342634
434.057910	2587.702407
434.434786	2589.131574
434.811601	2591.029569
435.188355	2588.932449
435.565050	2589.834815
435.941683	2590.472521
436.318257	2588.854311
436.694770	2589.234918
437.071222	2589.958323
437.447614	2590.462439
437.823946	2593.237594
438.200218	2592.120978
438.576429	2593.353541
438.952580	2589.154259
439.328670	2589.048395
439.704700	2592.035279
440.080670	2594.344127
440.456580	2589.376070
440.832429	2593.726586
441.208218	2591.911771
441.583947	2593.298088
441.959616	2592.625094
442.335224	2591.160639
442.710773	2592.511668
443.086261	2592.196596
443.461689	2591.571493
443.837057	2592.415886
444.212365	2593.419076
444.587612	2593.650969
444.962800	2591.233735
445.337927	2594.016452
445.712995	2590.245669
446.088002	2594.525609
446.462949	2597.373861
446.837837	2596.267327
447.212664	2599.541557
447.587431	2598.182966
447.962139	2601.384099
448.336786	2600.527102
448.711374	2602.339397
449.085901	2599.070209
449.460369	2600.890066
449.834776	2599.975096
450.209124	2605.069182
450.583412	2603.977772
450.957640	2600.827051
451.331808	2602.964500
451.705917	2602.205807
452.079965	2603.866867
452.453954	2601.348811
452.827883	2603.113214
453.201752	2604.600355
453.575562	2604.439038
453.949311	2604.176898
454.323001	2607.451127
454.696632	2609.215531
455.070202	2608.471961
455.443713	2610.173350
455.817164	2609.157558
456.190556	2610.405243
456.563888	2612.388937
456.937160	2614.158382
457.310373	2613.021602
457.683526	2612.517487
458.056619	2612.527569
458.429653	2613.339195
458.802628	2616.169803
459.175542	2615.950513
459.548398	2618.836573
459.921194	2619.910339
460.293930	2624.046606
460.666607	2625.143057
461.039224	2626.738582
461.411782	2628.429889
461.784280	2627.474590
462.156719	2629.329735
462.529099	2631.867956
462.901419	2631.066412
463.273680	2626.204220
463.645882	2626.254631
464.018024	2628.707152
464.390106	2630.169087
464.762130	2636.969604
465.134094	2644.569143
465.505999	2651.586429
465.877845	2659.125475
466.249631	2667.781136
466.621358	2663.463388
466.993026	2667.261897
467.364634	2666.059582
467.736184	2662.160249
468.107674	2664.234684
468.479105	2662.908861
468.850477	2667.934891
469.221790	2667.287103
469.593043	2668.033194
469.964238	2668.975889
470.335373	2673.349090
470.706449	2682.836542
471.077467	2692.860876
471.448425	2712.387786
471.819324	2721.797099
472.190164	2726.654251
472.560945	2722.543190
472.931667	2720.884651
473.302330	2726.702142
473.672934	2730.004098
474.043479	2741.742425
474.413965	2747.108733
474.784393	2756.563417
475.154761	2771.434821
475.525070	2778.752056
475.895321	2792.796710
476.265513	2806.594348
476.635645	2825.385249
477.005719	2843.178002
477.375734	2860.902699
477.745691	2885.478324
478.115588	2913.860020
478.485427	2957.889458
478.855207	3016.341636
479.224928	3070.652507
479.594591	3116.098509
479.964194	3131.819347
480.333739	3167.757733
480.703226	3200.409287
481.072653	3253.994232
481.442022	3307.145637
481.811333	3353.577185
482.180584	3374.319012
482.549777	3415.432142
482.918912	3451.952781
483.287988	3501.025893
483.657005	3544.626833
484.025964	3575.531627
484.394864	3634.664361
484.763706	3683.563554
485.132489	3720.724419
485.501213	3783.229686
485.869879	3849.014223
486.238487	3907.801638
486.607036	3986.781396
486.975527	4041.427503
487.343959	4126.408754
487.712333	4218.621541
488.080648	4293.747336
488.448905	4402.724479
488.817104	4476.733659
489.185244	4631.376094
489.553326	4818.662521
489.921350	5080.008539
490.289315	5386.223348
490.657222	5564.750770
491.025070	5711.902051
491.392861	5790.246623
491.760593	5835.579198
492.128267	5855.007805
492.495883	5879.031424
492.863440	5913.255818
493.230939	5941.612308
493.598380	6009.481362
493.965763	6126.055524
494.333088	6199.858017
494.700354	6310.148380
495.067563	6438.579336
495.434713	6564.840076
495.801805	6739.914308
496.168839	6864.856785
496.535815	6998.200345
496.902733	7166.055645
497.269593	7281.465301
497.636395	7465.371634
498.003139	7669.621544
498.369825	7795.826830
498.736453	8033.933129
499.103023	8172.809356
499.469535	8354.169907
499.835989	8559.997698
500.202385	8706.947332
500.568723	8897.767608
500.935003	9151.047781
501.301226	9309.188777
501.667390	9649.746445
502.033497	9892.304083
502.399546	10042.313698
502.765537	10138.776177
503.131470	10451.373086
503.497345	10775.473908
503.863163	10706.682322
504.228923	11115.600558
504.594625	11443.739344
504.960269	11508.689570
505.325856	11912.889286
505.691385	12043.167824
506.056856	12350.489166
506.422270	12749.030186
506.787625	12831.415243
507.152924	13210.953633
507.518164	13509.954550
507.883347	13586.580089
508.248472	13868.236916
508.613540	14349.306666
508.978550	14685.854097
509.343503	14863.292630
509.708398	15249.455097
510.073236	15734.272944
510.438016	16015.962539
510.802738	16134.149870
511.167403	16628.059439
511.532010	16984.020353
511.896561	17454.758258
512.261053	18071.553513
512.625488	18238.198936
512.989866	18478.591398
513.354186	18756.424510
513.718449	18986.452360
514.082655	19684.231232
514.446803	19802.342946
514.810894	20379.703775
515.174927	20643.903087
515.538904	20889.636651
515.902822	21504.720435
516.266684	21591.153538
516.630488	22049.114639
516.994235	22316.038694
517.357925	22899.106109
517.721558	23322.192508
518.085133	23783.432879
518.448651	24174.999463
518.812112	24349.204096
519.175516	24697.051273
519.538863	25219.229112
519.902152	25512.646951
520.265385	26112.763548
520.628560	26381.119291
520.991678	26590.518740
521.354739	26997.712900
521.717743	27480.731056
522.080690	27662.683943
522.443580	28371.628970
522.806413	28635.268713
523.169189	28984.867691
523.531908	29372.119047
523.894569	29515.736479
524.257174	29886.084846
524.619722	30366.199297
524.982213	30686.693174
525.344647	30938.478644
525.707025	31258.092839
526.069345	31827.264314
526.431608	31966.710191
526.793815	32483.816629
527.155964	32360.139481
527.518057	32756.480038
527.880093	32869.689230
528.242072	33550.260122
528.603995	33567.742844
528.965860	33719.872264
529.327669	34101.737147
529.689421	34334.426727
530.051117	34495.917569
530.412755	34912.032052
530.774337	35160.815515
531.135862	35301.985467
531.497331	35602.128205
531.858743	35782.679650
532.220098	36293.741745
532.581396	36261.306961
532.942638	36236.501964
533.303824	36612.753522
533.664953	36818.503175
534.026025	36729.609989
534.387040	37385.315390
534.747999	37595.793646
535.108902	38044.428612
535.469748	37634.030797
535.830537	37992.063626
536.191270	38369.416677
536.551947	38301.028383
536.912567	38674.857667
537.273131	38958.253693
537.633638	38761.356306
537.994089	39081.605686
538.354483	38996.354733
538.714821	39714.257891
539.075103	40094.149163
539.435328	40106.963776
539.795497	40022.630313
540.155609	40248.410991
540.515665	40911.063102
540.875665	40410.854612
541.235609	40793.276543
541.595496	41003.406958
541.955328	41668.073011
542.315102	41278.343927
542.674821	41278.893413
543.034483	41283.863991
543.394090	41414.661768
543.753640	41510.887313
544.113134	42584.844646
544.472571	41874.493137
544.831953	43038.503122
545.191278	42434.356122
545.550548	42241.814292
545.909761	42955.568579
546.268918	43183.738764
546.628019	43670.373948
546.987064	43211.961664
547.346053	42634.931030
547.704986	43579.449177
548.063863	43345.915204
548.422684	43618.790341
548.781449	43316.759691
549.140158	43903.764247
549.498811	43765.800470
549.857408	43266.292700
550.215949	44152.540149
550.574434	44071.387654
550.932864	44083.052884
551.291237	44855.259351
551.649555	44681.193350
552.007817	44916.070790
552.366022	44670.483418
552.724173	44800.582996
553.082267	45252.139311
553.440305	45640.789587
553.798288	44969.902751
554.156215	45421.345640
554.514086	45671.505337
554.871902	45361.865065
555.229661	45586.244303
555.587365	45323.338047
555.945014	45507.972827
556.302606	45574.332056
556.660143	45701.563217
557.017625	45984.049314
557.375050	45738.650986
557.732421	46174.615012
558.089735	46274.606298
558.446994	46178.660538
558.804197	46719.621716
559.161345	46613.742362
559.518437	46008.945053
559.875474	46296.386604
560.232455	46581.408401
560.589381	46653.872467
560.946251	46492.837848
561.303065	47173.746498
561.659825	46905.226918
562.016528	46758.305010
562.373177	46367.010648
562.729770	47025.670166
563.086307	46584.155830
563.442789	47142.506468
563.799216	47018.373096
564.155587	46936.015765
564.511904	46932.706248
564.868164	47001.545724
565.224370	47355.699385
565.580520	47102.449460
565.936615	47315.292016
566.292654	46996.688572
566.648638	47353.214096
567.004567	47328.310796
567.360441	47437.580326
567.716260	47191.108232
568.072023	47558.522648
568.427732	47517.706946
568.783385	47072.104234
569.138982	47500.693052
569.494525	47637.595667
569.850013	47233.650530
570.205445	47368.259420
570.560823	47180.209258
570.916145	47093.272039
571.271412	47323.050352
571.626625	46979.750296
571.981782	47075.754029
572.336884	46661.154414
572.691931	47019.456944
573.046923	46688.573249
573.401860	46544.486990
573.756743	46576.818430
574.111570	46719.735142
574.466342	46646.494738
574.821059	46798.273798
575.175722	46297.213353
575.530330	46402.492810
575.884882	46059.593525
576.239380	45970.032386
576.593823	46058.847434
576.948211	46021.109357
577.302544	45556.680456
577.656823	45576.056131
578.011047	45822.931517
578.365216	45644.802346
578.719330	45383.216872
579.073389	45375.955090
579.427394	45428.446105
579.781344	45358.507657
580.135239	45119.715761
580.489080	45190.034816
580.842866	44684.888515
581.196597	45185.475092
581.550273	45175.594431
581.903895	45108.726046
582.257463	45558.480148
582.610975	44989.926214
582.964434	45323.484241
583.317837	44828.400083
583.671186	44804.142051
584.024481	45069.982258
584.377721	44622.252179
584.730906	44835.160270
585.084037	44961.761287
585.437113	44686.542014
585.790135	44812.797712
586.143103	44349.785375
586.496016	44528.002767
586.848874	44638.618285
587.201679	44663.952603
587.554428	44164.896017
587.907124	44462.722345
588.259765	44224.308535
588.612352	44384.007248
588.964884	43848.724930
589.317362	44152.681301
589.669786	44160.041386
590.022155	44006.893652
590.374470	44469.185104
590.726731	44038.284917
591.078937	43391.182245
591.431090	43727.580962
591.783188	43253.652006
592.135232	43060.008684
592.487222	43334.897762
592.839157	43474.918331
593.191038	43110.425264
593.542866	42928.505145
593.894639	42322.235819
594.246358	42632.488591
594.598022	42632.733087
594.949633	42219.771846
595.301190	42185.809593
595.652692	42139.277222
596.004141	42617.017290
596.355535	41534.028730
596.706876	41560.517473
597.058162	41261.992945
597.409395	41775.449587
597.760573	41991.972186
598.111698	41570.322517
598.462768	41501.780469
598.813785	41523.717050
599.164748	41114.672785
599.515657	41410.883424
599.866511	40905.963975
600.217312	41609.525050
600.568060	40548.072299
600.918753	41382.831923
601.269392	41297.868316
601.619978	41030.916535
601.970510	41237.646692
602.320988	41350.888652
602.671412	41624.945939
603.021783	41492.313182
603.372100	41046.080326
603.722363	41177.241066
604.072572	41209.229708
604.422728	41193.334950
604.772830	40989.306851
605.122878	41140.745633
605.472872	41005.544408
605.822813	41277.736468
606.172701	41033.757225
606.522534	41345.560152
606.872314	41546.891234
607.222041	41391.381720
607.571714	41710.401059
607.921333	41225.121946
608.270899	41426.551330
608.620411	41816.804693
608.969870	41535.117619
609.319276	41564.568040
609.668627	41613.716769
610.017926	42003.622293
610.367171	42128.610141
610.716362	42178.545290
611.065500	42054.298492
611.414585	42288.626446
611.763616	42476.285919
612.112594	42359.381561
612.461518	42487.444513
612.810389	42880.594019
613.159207	42658.816017
613.507971	42644.310097
613.856682	43127.534940
614.205340	42971.420488
614.553945	43655.724355
614.902496	42977.757218
615.250994	43407.966767
615.599439	43466.192094
615.947830	43560.728852
616.296169	43590.262452
616.644454	43611.883960
616.992686	43774.879588
617.340864	44235.782202
617.688990	43761.162608
618.037063	44441.544458
618.385082	44261.701294
618.733048	44598.853663
619.080961	44485.052136
619.428821	44496.188045
619.776628	44508.274211
620.124382	44308.016895
620.472083	44429.526347
620.819731	44529.615936
621.167326	44104.374444
621.514868	44089.961785
621.862357	43562.362186
622.209793	43636.114266
622.557176	43212.105337
622.904506	42963.523520
623.251783	42590.188269
623.599007	42286.577217
623.946179	42187.775643
624.293297	41934.775255
624.640363	41405.706159
624.987376	41237.515622
625.334336	41037.467514
625.681243	40633.431636
626.028097	40545.024921
626.374899	40353.945026
626.721647	40329.631541
627.068343	40111.556267
627.414987	39821.470630
627.761577	39580.826110
628.108115	39908.780894
628.454600	39157.835494
628.801032	39378.796829
629.147412	39283.899628
629.493739	39190.144249
629.840014	38749.174357
630.186236	39168.928553
630.532405	38618.545458
630.878521	38851.640851
631.224585	38633.328642
631.570597	38291.218298
631.916556	38451.418606
632.262462	38340.979528
632.608316	38271.666183
632.954117	38143.479723
633.299866	38105.522355
633.645562	38010.126080
633.991206	37479.731161
634.336797	37082.208453
634.682336	36979.121898
635.027823	36739.946875
635.373257	36628.597869
635.718639	36274.913035
636.063968	36165.663670
636.409245	35513.250142
636.754470	35484.933981
637.099642	35248.957569
637.444762	34701.954568
637.789829	34823.027960
638.134845	34455.195129
638.479808	34375.527254
638.824719	34310.942511
639.169577	33801.531395
639.514383	33918.748304
639.859137	33521.598642
640.203839	33681.821635
640.548489	33400.830240
640.893086	33397.124992
641.237632	33120.053094
641.582125	33215.643453
641.926566	33004.766947
642.270955	33035.520506
642.615292	32975.160250
642.959576	32849.547299
643.303809	32854.399410
643.647990	32937.316308
643.992118	32895.809968
644.336195	32747.819335
644.680219	32835.754703
645.024192	33049.459296
645.368112	33564.524067
645.711981	33572.509255
646.055797	34305.830781
646.399562	34107.589927
646.743274	34966.262264
647.086935	35383.279113
647.430544	35323.536399
647.774101	35380.181324
648.117606	35661.540723
648.461059	35798.375283
648.804460	35399.267133
649.147810	34886.745624
649.491108	34538.447264
649.834354	34393.622476
650.177548	33569.345931
650.520690	33094.295319
650.863781	33068.484611
651.206820	32893.947262
651.549807	32480.139107
651.892742	31904.600655
652.235626	31801.889666
652.578458	31667.071568
652.921238	30986.901447
653.263967	31292.458385
653.606644	30993.175163
653.949269	30914.722206
654.291843	30518.409376
654.634365	30880.593595
654.976836	30426.347825
655.319255	30486.634983
655.661622	30372.513343
656.003938	30228.343904
656.346203	30063.112525
656.688416	30293.654573
657.030577	30061.164119
657.372687	29895.514325
657.714746	30047.086697
658.056753	30246.512223
658.398708	29632.729057
658.740612	29690.697285
659.082465	29884.406142
659.424266	29779.222467
659.766016	29788.921647
660.107715	29643.441509
660.449362	29743.883979
660.790958	29736.115561
661.132503	29651.351079
661.473996	29740.095552
661.815438	29817.285699
662.156829	29935.911611
662.498168	29749.807334
662.839456	29724.810773
663.180693	29858.413953
663.521879	29946.311511
663.863013	29897.278728
664.204097	29871.931807
664.545129	30288.764654
664.886110	30220.749406
665.227040	30312.936987
665.567918	30317.474025
665.908746	30398.374462
666.249522	30474.253910
666.590248	30503.492602
666.930922	30607.176534
667.271545	30608.542686
667.612118	30662.916572
667.952639	30462.099688
668.293109	30503.709372
668.633528	30377.786390
668.973896	30326.182618
669.314213	30308.573868
669.654480	30133.590377
669.994695	30108.596336
670.334859	30023.509221
670.674973	29855.643839
671.015035	30050.141637
671.355047	29980.044392
671.695008	29899.363246
672.034918	29826.861371
672.374777	29932.778534
672.714585	29784.140113
673.054342	29930.424315
673.394049	29774.435892
673.733705	29987.399436
674.073310	29701.928976
674.412864	29758.987276
674.752368	29455.051069
675.091820	29689.227789
675.431223	29293.013261
675.770574	29083.906199
676.109875	28935.696276
676.449125	28732.043743
676.788324	28635.127561
677.127473	28143.478949
677.466571	28046.252736
677.805619	27764.081711
678.144616	27714.562457
678.483562	27658.061204
678.822458	27329.980392
679.161303	27283.110264
679.500098	27181.712495
679.838842	27121.417775
680.177535	27200.213530
680.516179	27431.980578
680.854771	27573.886538
681.193314	28342.511265
681.531805	29363.556647
681.870247	30093.856002
682.208638	30829.037714
682.546978	31090.184607
682.885268	31237.605590
683.223508	30789.376437
683.561697	30515.298984
683.899836	30353.805621
684.237925	29954.989858
684.575963	29802.590736
684.913951	29447.338104
685.251889	29612.473701
685.589776	29629.991710
685.927614	29641.810696
686.265401	29825.117132
686.603137	29932.566805
686.940824	30434.474165
687.278460	30766.736615
687.616046	30937.011668
687.953582	31603.280807
688.291068	31505.976456
688.628504	31847.068487
688.965889	31831.758503
689.303224	31594.360486
689.640510	31306.510601
689.977745	30661.696613
690.314930	29922.794529
690.652065	29503.783903
690.989150	28827.281222
691.326185	27987.876174
691.663170	27358.886368
692.000105	26621.486548
692.336990	26023.204930
692.673825	25585.857107
693.010610	25112.139880
693.347345	24594.458751
693.684030	23970.643689
694.020665	23777.595223
694.357251	23099.723868
694.693786	23101.367284
695.030272	22877.966031
695.366707	22383.519579
695.703093	22106.971962
696.039429	22183.347963
696.375716	21926.702821
696.711952	21930.145929
697.048139	21788.582767
697.384276	21627.028910
697.720363	21752.578846
698.056400	21640.569449
698.392388	21483.930717
698.728326	21478.609779
699.064214	21323.755615
699.400053	21327.859114
699.735842	20932.582241
700.071581	20742.926472
700.407270	20494.745427
700.742910	20315.897891
701.078501	20069.723225
701.414042	19868.054386
701.749533	19558.146933
702.084974	19248.229397
702.420366	19474.279777
702.755709	19068.882787
703.091002	18774.025699
703.426246	18836.112550
703.761440	18764.271066
704.096584	18521.060599
704.431679	18458.938460
704.766725	18407.760666
705.101721	18331.992124
705.436668	18462.031208
705.771565	18186.804373
706.106413	18499.746601
706.441212	18561.430159
706.775961	18677.396862
707.110661	18752.512575
707.445311	19109.942986
707.779913	18984.161156
708.114465	19295.313774
708.448967	19598.501369
708.783421	20215.016841
709.117825	20586.343192
709.452180	20823.179120
709.786485	21263.213878
710.120742	22036.723483
710.454949	22142.045789
710.789107	22637.843270
711.123216	23356.432025
711.457275	23573.806578
711.791286	24125.187822
712.125247	24274.305152
712.459159	24019.086657
712.793023	24755.894141
713.126837	23741.896292
713.460602	23995.559592
713.794318	23666.586494
714.127985	23395.836204
714.461602	22493.656188
714.795171	22497.152228
715.128691	21504.579283
715.462162	20993.411324
715.795584	20555.990405
716.128957	20278.674011
716.462281	19906.120139
716.795556	19633.676020
717.128782	19155.915788
717.461960	18561.800684
717.795088	18510.900153
718.128167	18179.325821
718.461198	17716.222743
718.794180	17593.195904
719.127113	17260.726767
719.459997	17075.043427
719.792833	16705.683126
720.125619	16731.627424
720.458357	16395.866413
720.791046	16264.647699
721.123686	16113.685306
721.456278	15883.193670
721.788821	15879.672424
722.121315	15609.582524
722.453761	15708.046341
722.786158	15597.211533
723.118506	15682.535582
723.450805	15566.591564
723.783056	15744.405663
724.115259	15640.023532
724.447412	15633.346524
724.779518	15851.046232
725.111574	15905.798204
725.443582	16164.048954
725.775542	16118.600431
726.107453	16633.476159
726.439315	16562.443780
726.771129	16974.341338
727.102895	17395.935554
727.434612	17657.594124
727.766281	17827.473447
728.097901	18153.608375
728.429473	18237.747753
728.760996	18247.008352
729.092471	18379.152118
729.423897	18261.955374
729.755276	18131.389489
730.086606	18248.785359
730.417887	18825.687444
730.749120	19381.053719
731.080305	19592.709084
731.411442	20011.122332
731.742530	20116.729464
732.073570	20285.885382
732.404562	20618.883840
732.735506	20443.265163
733.066401	20243.842158
733.397249	19745.405634
733.728048	19121.018401
734.058798	18257.506555
734.389501	17501.313314
734.720156	16992.242475
735.050762	16409.230512
735.381320	16029.445105
735.711831	15757.172386
736.042293	15389.140428
736.372707	15418.059007
736.703073	15207.527820
737.033391	15407.323870
737.363661	15409.398305
737.693883	15533.050247
738.024056	15728.503344
738.354182	15941.668534
738.684260	16306.244780
739.014290	16577.320225
739.344272	16802.067467
739.674207	17149.420611
740.004093	17319.352866
740.333931	17371.322121
740.663722	17464.369218
740.993464	17500.791554
741.323159	17346.428903
741.652806	17050.883697
741.982405	16890.459058
742.311956	16530.863472
742.641460	16430.327741
742.970915	16098.413131
743.300323	15759.466111
743.629683	15536.800866
743.958996	15220.067690
744.288260	14917.560651
744.617477	14600.048617
744.946647	14565.405808
745.275768	14253.129012
745.604842	14048.611921
745.933869	13873.081465
746.262847	13845.839069
746.591778	13752.514709
746.920662	13634.150937
747.249498	13646.317762
747.578286	13805.056135
747.907027	13975.043843
748.235720	14250.885699
748.564365	14312.143280
748.892963	14229.034817
749.221514	14338.231251
749.550017	14204.265108
749.878473	14167.603317
750.206881	13950.596767
750.535242	13878.654460
750.863555	13795.427531
751.191821	13693.523127
751.520039	13718.544894
751.848210	13640.041525
752.176334	13686.730172
752.504411	13620.746509
752.832440	13436.136935
753.160421	13549.378894
753.488356	13443.239920
753.816243	13353.517464
754.144082	13191.701467
754.471875	13130.075882
754.799620	13105.036471
755.127318	13076.183427
755.454969	13061.627095
755.782572	13038.004248
756.110129	13052.845405
756.437638	12953.428810
756.765100	12957.502062
757.092515	12996.321467
757.419882	13027.637115
757.747203	13034.672045
758.074477	13125.911889
758.401703	13101.439607
758.728882	13303.899908
759.056014	13344.224097
759.383099	13512.729706
759.710138	13638.735867
760.037129	13761.034259
760.364073	13820.217405
760.690970	13839.623327
761.017820	13865.723901
761.344623	14090.163632
761.671379	14473.261077
761.998088	15171.465926
762.324751	16945.198427
762.651366	20348.219249
762.977935	24804.115298
763.304456	27759.111133
763.630931	28803.444126
763.957359	27614.205687
764.283740	25371.918100
764.610074	23122.383854
764.936362	20487.118161
765.262602	18620.986351
765.588796	16685.563881
765.914943	15409.874694
766.241044	14294.191731
766.567097	13515.472093
766.893104	12785.704580
767.219064	12327.977893
767.544978	11851.084739
767.870845	11467.911677
768.196665	11244.505382
768.522438	11010.447130
768.848165	10810.794752
769.173846	10606.781777
769.499479	10472.898813
769.825066	10298.676536
770.150607	10080.843237
770.476101	9996.207305
770.801548	9867.468839
771.126949	9710.149551
771.452303	9592.574720
771.777611	9396.693125
772.102872	9388.009738
772.428087	9249.645188
772.753256	9097.117517
773.078378	9006.293568
773.403453	8821.729364
773.728482	8709.654432
774.053465	8637.964183
774.378401	8538.386271
774.703291	8410.741735
775.028135	8283.346737
775.352932	8257.830936
775.677683	8155.155235
776.002388	8041.227679
776.327046	8054.289309
776.651658	7957.012683
776.976224	7853.742126
777.300743	7850.397321
777.625216	7765.448837
777.949643	7723.327476
778.274024	7734.927171
778.598359	7652.242166
778.922647	7666.574166
779.246889	7614.960313
779.571086	7627.472457
779.895236	7627.558156
780.219339	7643.135322
780.543397	7639.291442
780.867409	7713.968574
781.191374	7732.099084
781.515294	7696.470729
781.839167	7793.848178
782.162995	7766.116790
782.486776	7706.411885
782.810511	7662.553846
783.134201	7577.476813
783.457844	7567.407108
783.781441	7517.887854
784.104993	7445.391021
784.428498	7425.561642
784.751958	7414.040085
785.075372	7378.983901
785.398739	7324.405849
785.722061	7376.571709
786.045337	7373.725978
786.368568	7534.112808
786.691752	7559.842857
787.014891	7899.127634
787.337983	8258.176255
787.661030	8847.540072
787.984031	9475.105753
788.306987	9885.685048
788.629897	10081.745604
788.952760	10034.772132
789.275579	9807.499273
789.598351	9413.840610
789.921078	9059.087052
790.243759	8655.736771
790.566395	8360.930094
790.888984	8105.404088
791.211529	7896.859115
791.534027	7679.630755
791.856480	7477.412430
792.178888	7402.868888
792.501249	7304.082437
792.823566	7144.885319
793.145836	7146.869013
793.468062	7123.906558
793.790241	7073.091727
794.112375	7140.791902
794.434464	7298.832076
794.756507	7336.068558
795.078505	7498.678538
795.400457	7802.715567
795.722364	8156.717993
796.044226	8442.266591
796.366042	8712.613589
796.687812	8670.277979
797.009538	8745.570133
797.331218	8637.628947
797.652852	8553.865134
797.974442	8406.358452
798.295986	8315.058115
798.617484	8120.464535
798.938938	7980.045715
799.260346	7881.513843
799.581709	7681.722834
799.903026	7599.753672
800.224299	7492.172928
800.545526	7321.691188
800.866708	7221.702422
801.187845	7156.938718
801.508936	7055.757719
801.829983	7018.813623
802.150984	6862.517690
802.471940	6818.941956
802.792851	6805.648433
803.113717	6775.769514
803.434538	6736.982877
803.755314	6681.341141
804.076045	6685.721904
804.396731	6625.051617
804.717372	6659.230640
805.037967	6667.820766
805.358518	6705.185799
805.679024	6786.267717
805.999485	6798.583256
806.319901	6839.333423
806.640272	6859.966866
806.960598	6936.519308
807.280879	6936.872188
807.601115	7018.816144
807.921306	6962.387988
808.241453	6977.362736
808.561554	7000.652867
808.881611	6968.122301
809.201623	6975.310986
809.521590	6918.436689
809.841513	6902.761221
810.161390	6941.744463
810.481223	6808.703372
810.801011	6795.911444
811.120755	6774.360512
811.440453	6694.604417
811.760107	6662.303223
812.079716	6633.987062
812.399281	6564.368728
812.718801	6554.508231
813.038276	6510.927456
813.357707	6448.268434
813.677093	6495.282235
813.996434	6402.199850
814.315731	6440.242917
814.634983	6432.287976
814.954191	6447.371109
815.273354	6553.590741
815.592473	6615.546522
815.911547	6739.571509
816.230577	6821.371792
816.549562	6963.900335
816.868502	7071.213897
817.187399	7163.708988
817.506250	7321.139181
817.825058	7350.972730
818.143821	7623.416848
818.462539	7890.557673
818.781213	8254.715503
819.099843	8808.975245
819.418429	9805.243356
819.736970	10774.891655
820.055466	11945.881117
820.373919	13484.912619
820.692327	15838.425703
821.010691	19988.059053
821.329011	28964.876995
821.647286	41896.122208
821.965517	55319.376474
822.283704	60710.658619
822.601847	62704.858422
822.919945	60015.808658
823.237999	55848.503543
823.556010	49718.147915
823.873976	43011.951365
824.191897	36479.702349
824.509775	31656.366678
824.827609	27141.627760
825.145398	24552.274375
825.463144	23176.367050
825.780845	23474.228667
826.098502	25248.901343
826.416116	29016.730304
826.733685	32632.671820
827.051210	33785.850886
827.368692	31986.186689
827.686129	28048.402788
828.003522	23947.698877
828.320872	20253.397666
828.638177	17405.377636
828.955439	15261.480769
829.272656	13444.623717
829.589830	11982.936118
829.906960	10699.100427
830.224046	9766.612994
830.541088	9012.123663
830.858086	8561.048778
831.175041	8179.496447
831.491952	8059.597644
831.808819	8105.383923
832.125642	8506.006940
832.442421	9400.685719
832.759157	11190.524707
833.075849	14104.427577
833.392497	17299.939382
833.709101	19484.944338
834.025662	19323.430810
834.342179	17625.678579
834.658653	15442.289313
834.975083	13525.398125
835.291469	11909.587330
835.607811	10594.998080
835.924110	9680.500004
836.240366	8816.589908
836.556578	8014.900253
836.872746	7366.890173
837.188871	6872.685697
837.504952	6454.406039
837.820990	6146.343648
838.136984	5923.108753
838.452935	5830.704403
838.768842	5860.603486
839.084706	6282.921108
839.400526	7484.928790
839.716303	9062.895644
840.032037	10152.916614
840.347727	10081.720398
840.663373	9111.641081
840.978977	8069.069972
841.294537	7270.311748
841.610054	6665.022926
841.925527	6232.101237
842.240957	5869.155804
842.556344	5537.364702
842.871687	5257.293317
843.186987	4973.262107
843.502244	4752.532665
843.817458	4585.380606
844.132629	4448.243578
844.447756	4360.648488
844.762840	4279.795943
845.077881	4203.631670
845.392879	4141.630518
845.707833	4094.901543
846.022745	4049.221127
846.337613	4017.814739
846.652438	3977.435097
846.967221	3959.410451
847.281960	3928.014145
847.596656	3910.677617
847.911309	3889.890419
848.225919	3864.818240
848.540485	3849.334336
848.855009	3834.929239
849.169490	3815.656908
849.483928	3802.076039
849.798323	3794.531953
850.112675	3774.639560
850.426984	3783.627937
850.741251	3767.952469
851.055474	3762.291253
851.369654	3765.368878
851.683792	3765.081532
851.997887	3770.616719
852.311938	3773.243160
852.625947	3773.112090
852.939914	3762.818054
853.253837	3771.695526
853.567718	3769.162346
853.881555	3760.224380
854.195350	3774.919344
854.509103	3771.677882
854.822812	3772.242491
855.136479	3761.245214
855.450103	3770.402470
855.763685	3757.411416
856.077224	3761.613218
856.390720	3779.910086
856.704173	3799.404228
857.017584	3805.579641
857.330953	3822.754853
857.644278	3844.008357
857.957561	3851.358359
858.270802	3847.196887
858.584000	3849.674614
858.897155	3845.530786
859.210268	3829.189885
859.523339	3805.546874
859.836367	3808.576607
860.149352	3798.721152
860.462295	3790.950213
860.775195	3778.952267
861.088054	3774.374899
861.400869	3770.662089
861.713642	3774.216103
862.026373	3786.579533
862.339062	3791.824853
862.651708	3806.489570
862.964312	3845.245960
863.276873	3855.419009
863.589392	3911.527051
863.901869	3959.516315
864.214303	4003.437368
864.526696	4036.986247
864.839045	4083.294286
865.151353	4106.017287
865.463619	4115.517342
865.775842	4125.145945
866.088023	4141.217144
866.400162	4131.339003
866.712258	4139.530878
867.024313	4144.529182
867.336325	4143.120179
867.648296	4145.681086
867.960224	4149.502280
868.272110	4157.195081
868.583954	4163.007531
868.895755	4177.226106
869.207515	4171.418697
869.519233	4213.038463
869.830909	4226.067325
870.142542	4247.928288
870.454134	4261.161317
870.765684	4294.768169
871.077191	4331.838294
871.388657	4351.518959
871.700081	4390.867685
872.011463	4437.614305
872.322803	4468.524140
872.634101	4500.782483
872.945357	4540.075757
873.256571	4593.900156
873.567744	4626.360146
873.878874	4643.381602
874.189963	4679.486346
874.501010	4690.833983
874.812015	4686.738046
875.122979	4731.591712
875.433900	4729.383687
875.744780	4742.457919
876.055618	4770.436323
876.366415	4764.820477
876.677169	4785.958036
876.987882	4836.049461
877.298554	4892.475096
877.609183	4966.796827
877.919771	5077.389660
878.230317	5225.357608
878.540822	5432.911994
878.851285	5762.192601
879.161707	6219.871397
879.472087	6974.287632
879.782425	8208.299079
880.092722	10377.550429
880.402977	13677.963605
880.713191	17412.147905
881.023363	21113.917586
881.333494	23293.026912
881.643583	24511.085628
881.953631	24531.615727
882.263637	23703.414644
882.573602	22231.634655
882.883526	20684.829694
883.193408	19016.545528
883.503248	17327.363259
883.813048	15790.771676
884.122806	14367.059089
884.432522	12888.720559
884.742197	11639.459622
885.051831	10541.400532
885.361424	9551.307834
885.670975	8729.652689
885.980485	8038.961680
886.289954	7468.663508
886.599382	6991.387226
886.908768	6616.658096
887.218113	6257.594352
887.527417	5968.007789
887.836680	5700.768662
888.145901	5478.927646
888.455082	5319.864119
888.764221	5167.885933
889.073319	5032.218401
889.382376	4961.249037
889.691392	4900.039347
890.000366	4872.948186
890.309300	4855.130228
890.618193	4861.154407
890.927044	4847.598744
891.235855	4873.805183
891.544625	4904.107558
891.853353	4963.144511
892.162041	5079.716153
892.470687	5269.712200
892.779293	5514.891238
893.087858	5889.562394
893.396381	6466.212421
893.704864	7264.824452
894.013306	8406.721415
894.321707	9578.197349
894.630068	10390.652388
894.938387	10593.783162
895.246665	10353.050421
895.554903	9764.122664
895.863100	9057.609994
896.171256	8514.778548
896.479371	8005.438007
896.787446	7504.115422
897.095480	7078.563899
897.403473	6763.637978
897.711425	6447.628207
898.019336	6179.307753
898.327207	5906.389766
898.635038	5682.875087
898.942827	5432.992652
899.250576	5239.553497
899.558284	5052.509045
899.865952	4928.408440
900.173579	4781.128610
900.481165	4673.812527
900.788711	4581.274587
901.096216	4507.819934
901.403681	4445.244091
901.711105	4421.033950
902.018489	4406.782608
902.325832	4474.568483
902.633135	4596.244293
902.940397	4941.041572
903.247619	5727.106171
903.554800	7166.083371
903.861941	9079.874250
904.169041	10587.605227
904.476101	11208.186389
904.783121	10858.821825
905.090100	10129.941555
905.397039	9293.387280
905.703938	8539.051704
906.010796	7854.049637
906.317614	7301.995400
906.624391	6772.432270
906.931129	6348.519123
907.237826	5949.448782
907.544483	5574.790228
907.851099	5197.457342
908.157675	4847.384495
908.464211	4525.285011
908.770707	4287.897077
909.077163	4087.801078
909.383578	3948.453503
909.689954	3830.850946
909.996289	3759.256479
910.302584	3697.020914
910.608839	3661.188392
910.915054	3632.852067
911.221229	3617.683235
911.527363	3628.703197
911.833458	3642.145434
912.139513	3672.014270
912.445527	3702.699774
912.751502	3784.976446
913.057436	3880.604613
913.363331	4019.253988
913.669186	4223.423240
913.975000	4481.207683
914.280775	4901.352568
914.586510	5483.807483
914.892205	6272.609428
915.197859	7305.501522
915.503475	8514.468517
915.809050	9574.040917
916.114585	10212.699657
916.420081	10459.748963
916.725536	10431.052195
917.030952	9990.004165
917.336328	9585.509542
917.641665	9174.176594
917.946961	8704.898103
918.252218	8281.910008
918.557435	7780.262268
918.862612	7349.651947
919.167750	6978.481872
919.472848	6552.663168
919.777906	6185.468043
920.082925	5824.312220
920.387904	5460.978618
920.692843	5195.473648
920.997743	4950.284528
921.302603	4718.041090
921.607423	4559.816915
921.912204	4393.418509
922.216946	4274.878297
922.521647	4150.255933
922.826310	4052.412178
923.130932	3957.073876
923.435516	3858.423537
923.740059	3789.579019
924.044564	3712.978686
924.349028	3651.665653
924.653454	3588.978905
924.957840	3522.559182
925.262186	3475.356338
925.566493	3412.873757
925.870761	3355.051722
926.174989	3317.041422
926.479178	3286.771814
926.783328	3241.897983
927.087438	3213.899414
927.391509	3177.986234
927.695541	3148.732419
927.999533	3123.274592
928.303486	3103.634256
928.607400	3087.192533
928.911275	3074.876994
929.215110	3054.377142
929.518906	3047.984959
929.822663	3045.451779
930.126381	3047.044784
930.430060	3052.234652
930.733699	3053.338664
931.037299	3062.672361
931.340861	3061.918708
931.644383	3069.543453
931.947866	3065.681930
932.251309	3063.118503
932.554714	3061.810323
932.858080	3056.817061
933.161407	3047.425391
933.464694	3039.876263
933.767943	3032.793442
934.071153	3027.003677
934.374323	3016.757532
934.677455	3010.814011
934.980548	3003.670696
935.283602	2998.818586
935.586617	2996.479490
935.889593	3006.120697
936.192530	3013.407685
936.495428	3025.231711
936.798287	3045.333312
937.101108	3077.064855
937.403890	3130.170890
937.706632	3188.302956
938.009336	3266.829009
938.312002	3339.973631
938.614628	3405.969897
938.917216	3456.199953
939.219765	3488.352433
939.522275	3519.267309
939.824747	3523.580016
940.127179	3525.596477
940.429573	3511.710619
940.731929	3512.398737
941.034246	3502.024042
941.336524	3486.593070
941.638763	3473.211327
941.940964	3458.400417
942.243126	3416.856268
942.545250	3396.699215
942.847335	3359.228318
943.149381	3324.477124
943.451389	3290.620735
943.753359	3255.700662
944.055290	3233.086046
944.357182	3208.429762
944.659036	3193.364274
944.960851	3183.579395
945.262628	3169.181859
945.564367	3170.643794
945.866067	3162.983761
946.167729	3162.595592
946.469352	3159.407062
946.770937	3154.547390
947.072484	3140.164978
947.373992	3143.547592
947.675462	3136.096767
947.976893	3117.699076
948.278286	3108.942591
948.579641	3099.878597
948.880958	3096.848863
949.182236	3099.984461
949.483476	3091.122113
949.784678	3094.255190
950.085841	3093.320056
950.386967	3102.515120
950.688054	3117.852831
950.989103	3140.790081
951.290114	3162.272958
951.591087	3186.883871
951.892021	3216.223386
952.192917	3245.091554
952.493776	3270.118362
952.794596	3278.627830
953.095378	3284.100002
953.396122	3276.591204
953.696828	3270.652724
953.997496	3260.240221
954.298126	3235.619226
954.598718	3217.453428
954.899272	3190.508461
955.199788	3164.128102
955.500266	3130.143164
955.800706	3097.451281
956.101108	3057.989129
956.401472	3025.924870
956.701798	2996.930673
957.002087	2953.924590
957.302337	2927.821495
957.602550	2897.808986
957.902724	2869.576004
958.202861	2847.432736
958.502960	2827.278202
958.803022	2801.487659
959.103045	2785.565175
959.403031	2766.922988
959.702979	2753.866400
960.002889	2740.351066
960.302762	2728.514437
960.602596	2716.289639
960.902393	2708.120449
961.202153	2699.099304
961.501875	2691.126719
961.801559	2684.971471
962.101205	2679.814370
962.400814	2673.845644
962.700385	2665.996567
962.999918	2660.471463
963.299414	2655.110196
963.598873	2653.895278
963.898293	2643.946561
964.197677	2648.045019
964.497022	2645.678197
964.796331	2643.926396
965.095601	2637.990437
965.394835	2637.025056
965.694030	2636.042031
965.993189	2633.304685
966.292309	2632.432565
966.591393	2632.687143
966.890439	2630.675723
967.189447	2631.018522
967.488419	2634.237298
967.787353	2631.704118
968.086249	2635.815179
968.385108	2637.919861
968.683930	2637.176291
968.982714	2642.018319
969.281462	2647.422436
969.580172	2651.919145
969.878844	2659.493479
970.177480	2666.369613
970.476078	2672.149296
970.774639	2678.201201
971.073162	2688.160000
971.371649	2694.380784
971.670098	2696.006556
971.968510	2705.831765
972.266885	2710.618341
972.565223	2714.739484
972.863524	2714.000955
973.161788	2717.164279
973.460014	2722.079404
973.758204	2726.737430
974.056356	2724.579816
974.354471	2727.985116
974.652550	2727.065105
974.950591	2726.097204
975.248595	2728.098542
975.546563	2723.143087
975.844493	2719.757953
976.142386	2713.459031
976.440243	2708.266642
976.738062	2705.554502
977.035845	2696.901361
977.333590	2693.417924
977.631299	2687.270237
977.928971	2680.063907
978.226606	2673.127280
978.524204	2670.286589
978.821765	2666.563697
979.119290	2668.302895
979.416777	2669.888338
979.714228	2669.832886
980.011642	2676.182219
980.309020	2680.857889
980.606360	2696.034283
980.903664	2722.175186
981.200931	2755.293046
981.498162	2805.039152
981.795356	2878.471120
982.092513	2966.713997
982.389633	3069.586303
982.686717	3164.695232
982.983764	3239.692478
983.280775	3286.552524
983.577749	3296.075263
983.874686	3280.906431
984.171587	3249.431987
984.468451	3209.934547
984.765279	3164.987619
985.062070	3118.563633
985.358824	3074.357755
985.655543	3017.322141
985.952224	2968.322125
986.248869	2908.123187
986.545478	2849.270236
986.842050	2793.136988
987.138586	2747.839700
987.435086	2708.216231
987.731549	2679.496777
988.027975	2656.602377
988.324366	2637.435910
988.620719	2622.357819
988.917037	2611.804164
989.213318	2604.907865
989.509563	2598.366968
989.805772	2589.348344
990.101944	2588.211564
990.398080	2585.963209
990.694180	2586.482448
990.990244	2583.109916
991.286271	2583.084710
991.582262	2584.014803
991.878217	2588.985381
992.174136	2588.652665
992.470019	2592.967892
992.765865	2598.525764
993.061676	2599.849067
993.357450	2610.284256
993.653188	2616.479834
993.948890	2632.956845
994.244556	2653.721358
994.540186	2674.833710
994.835780	2704.137937
995.131337	2743.065727
995.426859	2784.645164
995.722345	2831.543019
996.017795	2881.291645
996.313208	2919.803540
996.608586	2946.635082
996.903928	2958.514561
997.199234	2958.867441
997.494504	2952.785289
997.789738	2937.979420
998.084936	2916.703231
998.380099	2885.543859
998.675225	2855.034796
998.970316	2825.692760
999.265371	2788.915022
999.560390	2756.094590
999.855373	2726.573593
1000.150320	2699.162319
1000.445232	2672.383709
1000.740108	2651.316727
1001.034948	2633.813841
1001.329752	2619.817078
1001.624521	2606.699995
1001.919254	2594.626432
1002.213951	2590.417068
1002.508613	2578.008268
1002.803239	2572.576425
1003.097829	2565.944787
1003.392384	2560.344065
1003.686903	2557.145453
1003.981386	2553.041954
1004.275834	2550.544062
1004.570246	2550.949875
1004.864623	2547.947868
1005.158964	2542.639533
1005.453270	2544.807229
1005.747540	2538.135262
1006.041775	2538.268852
1006.335974	2538.755324
1006.630138	2533.986392
1006.924266	2538.520910
1007.218359	2535.476053
1007.512416	2532.458923
1007.806438	2529.860208
1008.100425	2530.152595
1008.394376	2527.858870
1008.688292	2530.260980
1008.982172	2530.596216
1009.276017	2531.485980
1009.569827	2527.632018
1009.863602	2531.017153
1010.157341	2528.536905
1010.451045	2527.647141
1010.744714	2528.935156
1011.038347	2527.810979
1011.331945	2524.778725
1011.625508	2522.190092
1011.919036	2523.215967
1012.212528	2521.547345
1012.505986	2518.817560
1012.799408	2522.222860
1013.092795	2519.392252
1013.386147	2520.677746
1013.679464	2522.263189
1013.972745	2520.118178
1014.265992	2518.545338
1014.559204	2517.365708
1014.852380	2518.497447
1015.145521	2518.739423
1015.438628	2517.143897
1015.731699	2519.147756
1016.024736	2520.261851
1016.317737	2522.217819
1016.610703	2522.563138
1016.903635	2523.465504
1017.196531	2526.071781
1017.489393	2526.621267
1017.782219	2525.219826
1018.075011	2527.725279
1018.367768	2529.275434
1018.660490	2531.309540
1018.953177	2531.309540
1019.245829	2531.309540
