Dividing Wavelength (nm)	Counts (n)	Blue Motor Position (mm): 38.600000	Red Motor Position (mm): 0.000000	
326.493990	2130.013529
326.888308	2130.013529
327.282561	2130.013529
327.676750	2097.304002
328.070874	2096.010946
328.464933	2100.018663
328.858929	2105.395054
329.252859	2111.693976
329.646726	2125.650410
330.040528	2137.736577
330.434265	2157.104690
330.827938	2172.449962
331.221547	2192.349917
331.615091	2212.423791
332.008571	2229.863663
332.401986	2250.383680
332.795338	2265.161822
333.188625	2287.047992
333.581847	2306.176650
333.975006	2323.929073
334.368100	2344.260047
334.761129	2362.733355
335.154095	2377.332537
335.546996	2398.419683
335.939833	2427.882707
336.332606	2439.527772
336.725315	2452.049998
337.117960	2460.879579
337.510540	2471.682772
337.903056	2481.760038
338.295508	2488.996615
338.687896	2497.269148
339.080220	2506.244923
339.472480	2513.012672
339.864676	2514.676253
340.256807	2519.646830
340.648875	2521.449043
341.040879	2525.073632
341.432818	2525.706297
341.824694	2529.119158
342.216506	2530.187883
342.608253	2530.223171
342.999937	2529.247708
343.391557	2529.908099
343.783113	2528.070598
344.174605	2527.319466
344.566033	2525.499610
344.957397	2526.457429
345.348697	2521.335617
345.739934	2521.542304
346.131106	2519.722448
346.522215	2519.087262
346.913260	2515.336644
347.304241	2517.721109
347.695159	2509.950171
348.086012	2510.398833
348.476802	2505.937412
348.867528	2507.603514
349.258191	2504.079747
349.648789	2505.702999
350.039324	2502.096053
350.429796	2502.370796
350.820203	2501.291989
351.210548	2502.383399
351.600828	2500.389622
351.991045	2498.368120
352.381198	2497.826196
352.771288	2498.171515
353.161314	2497.914416
353.551276	2495.300578
353.941175	2496.409632
354.331010	2495.361072
354.720782	2495.749240
355.110490	2497.942142
355.500135	2496.898623
355.889717	2496.061792
356.279235	2495.192193
356.668689	2500.253511
357.058080	2499.830054
357.447408	2496.366782
357.836672	2493.281596
358.225873	2497.763181
358.615010	2492.938797
359.004084	2499.953563
359.393095	2498.143788
359.782043	2498.385764
360.170927	2499.535147
360.559748	2500.946670
360.948505	2499.247801
361.337199	2506.743997
361.725830	2502.534633
362.114398	2501.828872
362.502903	2502.496825
362.891344	2503.293327
363.279722	2502.388440
363.668037	2507.086795
364.056289	2507.227948
364.444478	2505.871877
364.832603	2508.445386
365.220665	2508.939419
365.608665	2505.395488
365.996601	2507.560664
366.384474	2508.200890
366.772284	2508.074862
367.160031	2508.009327
367.547715	2509.110819
367.935336	2509.534276
368.322893	2509.816580
368.710388	2513.100892
369.097820	2512.385048
369.485189	2512.354801
369.872495	2514.482168
370.259738	2511.759945
370.646918	2510.797085
371.034035	2514.020903
371.421090	2513.068124
371.808081	2514.542662
372.195010	2514.807323
372.581875	2512.805984
372.968678	2514.099040
373.355418	2513.869668
373.742096	2516.359998
374.128710	2514.756911
374.515262	2516.869154
374.901751	2514.202384
375.288177	2516.601973
375.674540	2517.849659
376.060841	2513.985614
376.447079	2515.901253
376.833254	2518.421830
377.219367	2514.499812
377.605417	2515.558454
377.991404	2516.576767
378.377329	2514.179699
378.763191	2516.377642
379.148991	2520.571882
379.534727	2521.678415
379.920402	2518.013496
380.306013	2518.288239
380.691563	2523.475587
381.077049	2520.592047
381.462474	2522.210257
381.847835	2523.798220
382.233134	2523.616739
382.618371	2522.106913
383.003545	2523.294105
383.388657	2525.844929
383.773706	2523.455422
384.158693	2526.860721
384.543618	2526.701925
384.928480	2526.283509
385.313280	2526.840557
385.698017	2527.629497
386.082692	2526.737213
386.467305	2526.570855
386.851856	2529.164529
387.236344	2530.898686
387.620770	2529.219981
388.005133	2530.087060
388.389435	2533.792308
388.773674	2529.474560
389.157851	2527.309384
389.541965	2530.495393
389.926018	2533.406660
390.310008	2532.297606
390.693936	2534.636701
391.077802	2537.074099
391.461606	2541.734646
391.845348	2541.285983
392.229027	2547.862168
392.612645	2549.808054
392.996200	2557.730227
393.379694	2563.910682
393.763125	2573.463668
394.146494	2581.101016
394.529801	2590.628797
394.913047	2606.339553
395.296230	2617.384721
395.679351	2635.598410
396.062410	2649.970739
396.445408	2663.972544
396.828343	2681.712365
397.211217	2700.563759
397.594028	2713.234700
397.976778	2737.457444
398.359466	2766.197062
398.742092	2788.592388
399.124656	2803.615026
399.507158	2838.051148
399.889598	2866.178266
400.271977	2908.337436
400.654294	2933.265942
401.036549	2963.540591
401.418742	2988.900115
401.800874	3046.084444
402.182944	3087.613469
402.564952	3140.714463
402.946898	3169.196983
403.328783	3205.021942
403.710606	3213.304558
404.092367	3319.587205
404.474067	3345.158458
404.855705	3387.365518
405.237282	3389.679408
405.618797	3481.123418
406.000250	3538.718601
406.381642	3616.332205
406.762972	3637.678971
407.144240	3688.458514
407.525447	3727.053588
407.906593	3801.571924
408.287677	3866.038199
408.668700	3860.785317
409.049661	3932.798200
409.430560	3998.791945
409.811399	3989.029750
410.192176	4135.119868
410.572891	4125.821460
410.953545	4239.524685
411.334138	4189.448383
411.714669	4274.076753
412.095139	4225.618662
412.475547	4366.231566
412.855894	4388.044639
413.236180	4423.768776
413.616405	4415.687806
413.996568	4513.219010
414.376670	4493.127491
414.756711	4476.506807
415.136691	4526.615876
415.516609	4614.533599
415.896466	4670.399666
416.276262	4723.354467
416.655997	4724.453438
417.035670	4907.472528
417.415283	5013.281307
417.794834	4976.667406
418.174324	4945.797901
418.553753	4876.202251
418.933121	5060.156476
419.312428	5139.254700
419.691674	5091.686372
420.070859	5227.676538
420.449983	5150.267101
420.829045	5270.002066
421.208047	5189.976269
421.586988	5265.306231
421.965867	5280.207882
422.344686	5421.587042
422.723444	5280.081853
423.102141	5104.690029
423.480777	5405.878806
423.859352	5181.938150
424.237866	5439.566317
424.616319	5430.283032
424.994712	5550.020518
425.373044	5420.714922
425.751314	5571.115227
426.129524	5375.336976
426.507673	5568.319907
426.885762	5654.107742
427.263789	5584.900262
427.641756	5471.716276
428.019662	5587.080561
428.397508	5598.864258
428.775292	5545.876690
429.153016	5645.426875
429.530679	5571.611780
429.908282	5663.494371
430.285824	5525.102095
430.663305	5803.794723
431.040726	5539.416451
431.418086	5541.654723
431.795385	5646.218337
432.172624	5663.128887
432.549802	5652.587834
432.926920	5669.261451
433.303977	5672.268499
433.680974	5712.174273
434.057910	5734.486420
434.434786	5735.555144
434.811601	5706.399631
435.188355	5941.529129
435.565050	5816.158153
435.941683	5797.725174
436.318257	6008.818450
436.694770	5994.390668
437.071222	6029.467017
437.447614	5959.838600
437.823946	5874.391042
438.200218	6025.764289
438.576429	5891.296551
438.952580	5994.292366
439.328670	6039.645106
439.704700	5945.574655
440.080670	5928.205359
440.456580	6200.127718
440.832429	6083.087249
441.208218	5930.957829
441.583947	6088.256953
441.959616	6090.485143
442.335224	6016.775912
442.710773	6152.642570
443.086261	6181.394791
443.461689	5975.045240
443.837057	6120.928671
444.212365	6280.576972
444.587612	6172.202247
444.962800	6327.673952
445.337927	6299.834180
445.712995	5909.840436
446.088002	6493.147306
446.462949	6324.331667
446.837837	6255.918168
447.212664	6427.821514
447.587431	6575.411375
447.962139	7113.335258
448.336786	8039.493522
448.711374	7779.304449
449.085901	6843.714186
449.460369	6777.246572
449.834776	6708.452466
450.209124	7097.866477
450.583412	7251.788028
450.957640	7394.868577
451.331808	7163.406519
451.705917	6708.172682
452.079965	6635.887577
452.453954	6849.201482
452.827883	6724.311936
453.201752	6820.174518
453.575562	6615.894361
453.949311	6819.834240
454.323001	6703.986004
454.696632	6783.721934
455.070202	6921.647904
455.443713	7080.257727
455.817164	7177.872110
456.190556	7259.168277
456.563888	7332.338105
456.937160	7382.124540
457.310373	7033.422887
457.683526	7058.293420
458.056619	6950.344672
458.429653	6937.628361
458.802628	6872.673094
459.175542	6981.486400
459.548398	7333.563105
459.921194	7498.623085
460.293930	7502.250195
460.666607	8028.511368
461.039224	8337.592073
461.411782	8467.190056
461.784280	8482.237900
462.156719	8367.965024
462.529099	8248.497240
462.901419	7836.818973
463.273680	7732.769558
463.645882	7745.269098
464.018024	7614.080631
464.390106	7779.191023
464.762130	8164.156216
465.134094	8635.546950
465.505999	9656.504112
465.877845	10877.668179
466.249631	11524.969977
466.621358	11136.632252
466.993026	10516.663590
467.364634	10259.718499
467.736184	9894.033199
468.107674	9558.128515
468.479105	9592.925080
468.850477	9357.571251
469.221790	9132.342579
469.593043	8807.130183
469.964238	8662.449067
470.335373	8676.173609
470.706449	8737.274914
471.077467	8706.975059
471.448425	10031.845742
471.819324	11096.406365
472.190164	11115.910589
472.560945	9865.152429
472.931667	9076.196728
473.302330	8945.691337
473.672934	8589.972399
474.043479	8953.013613
474.413965	8891.713183
474.784393	8769.923947
475.154761	8927.825488
475.525070	9012.426132
475.895321	8849.992593
476.265513	9026.291826
476.635645	9195.961941
477.005719	9193.065798
477.375734	9300.777612
477.745691	9543.241988
478.115588	9668.552470
478.485427	9915.153113
478.855207	10458.352563
479.224928	11274.376739
479.594591	11897.682645
479.964194	11709.619880
480.333739	11649.511682
480.703226	11558.959956
481.072653	11652.881694
481.442022	11889.402550
481.811333	12076.532701
482.180584	11883.312836
482.549777	11596.093096
482.918912	11421.149934
483.287988	11443.714138
483.657005	11451.250663
484.025964	11128.785696
484.394864	11268.937334
484.763706	11237.843497
485.132489	10994.118833
485.501213	10958.858482
485.869879	11039.229598
486.238487	10878.154650
486.607036	10984.407050
486.975527	10772.577765
487.343959	10961.313524
487.712333	11003.523105
488.080648	10935.923753
488.448905	10978.924795
488.817104	10916.570763
489.185244	11192.889008
489.553326	11343.773263
489.921350	11885.490614
490.289315	12949.065691
490.657222	13275.878654
491.025070	13184.535467
491.392861	13058.715828
491.760593	12679.399248
492.128267	12332.081393
492.495883	11996.857265
492.863440	11666.258395
493.230939	11334.684063
493.598380	11264.178485
493.965763	11131.172682
494.333088	11030.657116
494.700354	10952.864550
495.067563	11017.371155
495.434713	10845.800525
495.801805	10968.608073
496.168839	10900.600388
496.535815	10833.986581
496.902733	10830.603966
497.269593	10763.390262
497.636395	10869.549400
498.003139	10853.775630
498.369825	10723.557585
498.736453	10884.352749
499.103023	10814.293313
499.469535	10837.447333
499.835989	10827.359984
500.202385	10788.386823
500.568723	10638.765377
500.935003	10861.226455
501.301226	10666.879892
501.667390	10925.372618
502.033497	11014.641370
502.399546	10877.776563
502.765537	10786.282142
503.131470	10865.448422
503.497345	11040.981399
503.863163	10651.544702
504.228923	10961.714296
504.594625	11020.262256
504.960269	10771.758578
505.325856	10988.298820
505.691385	10789.074941
506.056856	10935.061715
506.422270	10967.133536
506.787625	10853.132883
507.152924	10971.899947
507.518164	10947.934302
507.883347	10873.988136
508.248472	10789.793305
508.613540	11027.040088
508.978550	10905.528115
509.343503	10884.970290
509.708398	11002.582930
510.073236	11112.585948
510.438016	11116.964190
510.802738	11057.473533
511.167403	11120.513162
511.532010	11013.174394
511.896561	11253.607186
512.261053	11323.596045
512.625488	11194.643330
512.989866	11179.426607
513.354186	11160.678556
513.718449	11063.149873
514.082655	11258.081210
514.446803	11152.169088
514.810894	11284.809407
515.174927	11134.983794
515.538904	11171.285143
515.902822	11311.890486
516.266684	11196.710203
516.630488	11141.817078
516.994235	11198.341016
517.357925	11259.507856
517.721558	11347.917092
518.085133	11362.385203
518.448651	11381.060158
518.812112	11255.099367
519.175516	11276.872111
519.538863	11385.876980
519.902152	11309.029631
520.265385	11472.133643
520.628560	11381.516382
520.991678	11360.320851
521.354739	11420.297979
521.717743	11354.805828
522.080690	11340.582213
522.443580	11472.491565
522.806413	11424.383834
523.169189	11461.156531
523.531908	11513.536640
523.894569	11340.998108
524.257174	11336.055257
524.619722	11459.160234
524.982213	11406.918756
525.344647	11454.121600
525.707025	11411.662482
526.069345	11498.503919
526.431608	11419.912330
526.793815	11529.043229
527.155964	11319.462299
527.518057	11369.286543
527.880093	11319.961373
528.242072	11387.767413
528.603995	11292.845007
528.965860	11211.069929
529.327669	11259.742270
529.689421	11217.189890
530.051117	11184.281238
530.412755	11287.902155
530.774337	11174.589620
531.135862	11158.533545
531.497331	11176.974085
531.858743	11033.815398
532.220098	11207.180679
532.581396	11072.533981
532.942638	11058.282639
533.303824	11018.502894
533.664953	11033.865810
534.026025	10946.742069
534.387040	11050.148737
534.747999	11045.392408
535.108902	11103.917684
535.469748	10865.811385
535.830537	10975.191820
536.191270	10945.073447
536.551947	10967.748557
536.912567	10969.810389
537.273131	10889.577905
537.633638	10873.010153
537.994089	10864.785510
538.354483	10809.544546
538.714821	10959.067690
539.075103	10965.772424
539.435328	10926.728688
539.795497	10759.984963
540.155609	10907.524412
540.515665	11001.337765
540.875665	10739.858156
541.235609	10804.964658
541.595496	10797.700355
541.955328	10956.811773
542.315102	10839.587302
542.674821	10788.202821
543.034483	10793.324634
543.394090	10798.713627
543.753640	10722.405681
544.113134	10942.704104
544.472571	10793.276743
544.831953	10941.489186
545.191278	10749.244784
545.550548	10774.392580
545.909761	10914.070351
546.268918	10888.504139
546.628019	10975.000257
546.987064	10828.320324
547.346053	10759.437998
547.704986	10859.368790
548.063863	10840.535039
548.422684	10838.319452
548.781449	10754.074210
549.140158	10855.587925
549.498811	10738.166849
549.857408	10586.440721
550.215949	10814.263066
550.574434	10668.392238
550.932864	10762.674418
551.291237	10822.580970
551.649555	10773.122210
552.007817	10786.370362
552.366022	10753.963304
552.724173	10740.228681
553.082267	10724.500281
553.440305	10864.311642
553.798288	10666.975674
554.156215	10815.551081
554.514086	10796.679522
554.871902	10643.861984
555.229661	10675.699391
555.587365	10651.859774
555.945014	10547.888497
556.302606	10678.114104
556.660143	10567.876672
557.017625	10727.530014
557.375050	10620.496236
557.732421	10758.810374
558.089735	10667.562969
558.446994	10668.160345
558.804197	10705.953876
559.161345	10706.306757
559.518437	10556.105578
559.875474	10652.348766
560.232455	10681.133755
560.589381	10621.484302
560.946251	10624.972780
561.303065	10733.113092
561.659825	10668.982053
562.016528	10593.679818
562.373177	10476.818310
562.729770	10585.303941
563.086307	10504.927784
563.442789	10600.011507
563.799216	10474.680861
564.155587	10524.633654
564.511904	10480.889042
564.868164	10471.918308
565.224370	10489.595114
565.580520	10420.478375
565.936615	10413.408156
566.292654	10285.627509
566.648638	10412.992261
567.004567	10374.555984
567.360441	10359.485454
567.716260	10267.214695
568.072023	10363.324293
568.427732	10312.234719
568.783385	10220.155524
569.138982	10287.931317
569.494525	10311.221447
569.850013	10184.822076
570.205445	10266.292164
570.560823	10160.490947
570.916145	10078.080685
571.271412	10147.164657
571.626625	10095.243293
571.981782	10070.975178
572.336884	10042.134737
572.691931	10048.355521
573.046923	9991.766049
573.401860	9947.504718
573.756743	9888.059432
574.111570	9931.524260
574.466342	9913.514738
574.821059	9944.502711
575.175722	9838.467081
575.530330	9840.617133
575.884882	9837.841978
576.239380	9767.593499
576.593823	9742.110466
576.948211	9758.920194
577.302544	9637.274631
577.656823	9655.296756
578.011047	9653.524790
578.365216	9625.715265
578.719330	9555.038288
579.073389	9562.211850
579.427394	9510.212348
579.781344	9490.866920
580.135239	9435.242829
580.489080	9448.826218
580.842866	9344.849899
581.196597	9351.005148
581.550273	9388.959995
581.903895	9364.643990
582.257463	9427.539946
582.610975	9303.774578
582.964434	9328.264503
583.317837	9249.733408
583.671186	9230.619873
584.024481	9233.846212
584.377721	9150.190784
584.730906	9122.812278
585.084037	9158.536415
585.437113	9093.006456
585.790135	9115.308520
586.143103	9012.504270
586.496016	8983.336154
586.848874	9044.129949
587.201679	9036.343887
587.554428	8919.623531
587.907124	8968.658834
588.259765	8936.347559
588.612352	8936.710522
588.964884	8819.649888
589.317362	8830.692536
589.669786	8830.374943
590.022155	8877.139207
590.374470	8892.660920
590.726731	8833.838216
591.078937	8677.806943
591.431090	8791.028737
591.783188	8666.648349
592.135232	8663.167432
592.487222	8653.097727
592.839157	8707.312816
593.191038	8643.937951
593.542866	8591.852749
593.894639	8492.378181
594.246358	8542.910707
594.598022	8563.455929
594.949633	8458.410886
595.301190	8426.079446
595.652692	8464.440106
596.004141	8573.727280
596.355535	8346.872837
596.706876	8331.482194
597.058162	8261.510979
597.409395	8339.255653
597.760573	8399.787308
598.111698	8306.594018
598.462768	8299.710322
598.813785	8261.009384
599.164748	8230.265907
599.515657	8226.185093
599.866511	8129.662120
600.217312	8255.292715
600.568060	8116.834904
600.918753	8220.813744
601.269392	8193.392387
601.619978	8100.660362
601.970510	8167.039756
602.320988	8159.198241
602.671412	8220.947334
603.021783	8157.960637
603.372100	8127.895196
603.722363	8126.818910
604.072572	8104.627750
604.422728	8111.410623
604.772830	8043.763379
605.122878	8053.389463
605.472872	8045.875623
605.822813	8079.870644
606.172701	8022.671192
606.522534	8099.395033
606.872314	8093.557377
607.222041	8064.928664
607.571714	8125.160370
607.921333	8073.546516
608.270899	8084.586643
608.620411	8169.404057
608.969870	8075.242865
609.319276	8069.926968
609.668627	8089.055626
610.017926	8128.462326
610.367171	8170.208121
610.716362	8149.801530
611.065500	8137.589335
611.414585	8168.700816
611.763616	8151.124833
612.112594	8133.720249
612.461518	8148.533680
612.810389	8215.548258
613.159207	8150.759349
613.507971	8102.961649
613.856682	8214.386273
614.205340	8174.339346
614.553945	8248.562775
614.902496	8152.823702
615.250994	8208.510808
615.599439	8189.442643
615.947830	8197.473201
616.296169	8169.212493
616.644454	8191.559928
616.992686	8181.560799
617.340864	8242.238648
617.688990	8143.419429
618.037063	8237.343687
618.385082	8189.193106
618.733048	8270.882484
619.080961	8210.063483
619.428821	8221.206954
619.776628	8230.003767
620.124382	8182.168258
620.472083	8172.040580
620.819731	8193.357099
621.167326	8083.439781
621.514868	8096.004857
621.862357	7979.735684
622.209793	7997.561204
622.557176	7938.284797
622.904506	7905.771875
623.251783	7835.856112
623.599007	7791.970348
623.946179	7799.756410
624.293297	7752.311590
624.640363	7674.075403
624.987376	7650.283678
625.334336	7601.422294
625.681243	7545.904067
626.028097	7535.655401
626.374899	7518.031527
626.721647	7513.055908
627.068343	7440.115453
627.414987	7414.518995
627.761577	7366.368414
628.108115	7408.651092
628.454600	7295.136910
628.801032	7349.536001
629.147412	7304.319372
629.493739	7293.725387
629.840014	7230.040490
630.186236	7290.640201
630.532405	7174.670977
630.878521	7221.120168
631.224585	7183.412338
631.570597	7105.571881
631.916556	7138.563712
632.262462	7132.922661
632.608316	7092.941270
632.954117	7074.440236
633.299866	7060.347690
633.645562	7051.084570
633.991206	6969.974925
634.336797	6917.395690
634.682336	6869.066148
635.027823	6839.880388
635.373257	6832.669018
635.718639	6768.472444
636.063968	6778.111130
636.409245	6673.121540
636.754470	6671.281518
637.099642	6629.848275
637.444762	6574.970274
637.789829	6579.519916
638.134845	6521.022366
638.479808	6506.937383
638.824719	6512.875862
639.169577	6443.507064
639.514383	6463.316278
639.859137	6388.681996
640.203839	6398.340846
640.548489	6384.767540
640.893086	6358.288879
641.237632	6327.676472
641.582125	6354.578590
641.926566	6323.441903
642.270955	6335.754921
642.615292	6333.935065
642.959576	6343.646848
643.303809	6334.262740
643.647990	6338.706517
643.992118	6333.015054
644.336195	6279.742661
644.680219	6303.042874
645.024192	6293.079033
645.368112	6393.939919
645.711981	6410.590850
646.055797	6483.823692
646.399562	6448.664165
646.743274	6569.775365
647.086935	6621.616071
647.430544	6622.604137
647.774101	6643.608104
648.117606	6648.987016
648.461059	6640.132229
648.804460	6598.923317
649.147810	6510.677919
649.491108	6478.762374
649.834354	6458.386030
650.177548	6368.721547
650.520690	6283.163084
650.863781	6264.460403
651.206820	6287.526202
651.549807	6204.490837
651.892742	6146.250387
652.235626	6153.870091
652.578458	6140.201002
652.921238	6046.818668
653.263967	6087.904072
653.606644	6027.029619
653.949269	6030.437439
654.291843	5968.211956
654.634365	6018.636098
654.976836	5975.390559
655.319255	5972.199509
655.661622	5950.590603
656.003938	5946.323266
656.346203	5904.249796
656.688416	5938.459066
657.030577	5889.380913
657.372687	5861.087437
657.714746	5845.845508
658.056753	5893.872581
658.398708	5831.563919
658.740612	5821.002702
659.082465	5869.818715
659.424266	5861.909145
659.766016	5865.569023
660.107715	5836.073232
660.449362	5852.013360
660.790958	5841.328634
661.132503	5833.968550
661.473996	5869.115474
661.815438	5857.311613
662.156829	5850.470767
662.498168	5844.852401
662.839456	5822.648639
663.180693	5855.330439
663.521879	5856.394123
663.863013	5848.721487
664.204097	5862.289752
664.545129	5907.448408
664.886110	5904.133850
665.227040	5936.873623
665.567918	5899.995062
665.908746	5928.616213
666.249522	5937.435712
666.590248	5919.864770
666.930922	5945.262103
667.271545	5960.632581
667.612118	5963.211132
667.952639	5937.607111
668.293109	5957.834741
668.633528	5917.626498
668.973896	5922.692858
669.314213	5909.061578
669.654480	5889.078444
669.994695	5883.601230
670.334859	5873.851638
670.674973	5868.316452
671.015035	5870.602615
671.355047	5868.311410
671.695008	5858.166088
672.034918	5829.915462
672.374777	5838.543397
672.714585	5828.143497
673.054342	5831.942006
673.394049	5824.581921
673.733705	5853.644173
674.073310	5839.896947
674.412864	5800.200381
674.752368	5793.190656
675.091820	5795.121418
675.431223	5735.287963
675.770574	5734.408282
676.109875	5684.120252
676.449125	5689.741138
676.788324	5658.609493
677.127473	5600.484989
677.466571	5590.687506
677.805619	5579.995219
678.144616	5570.074228
678.483562	5547.308377
678.822458	5515.697822
679.161303	5508.804044
679.500098	5499.868599
679.838842	5484.084747
680.177535	5490.610520
680.516179	5506.714486
680.854771	5513.855281
681.193314	5596.207570
681.531805	5706.102203
681.870247	5853.588721
682.208638	5954.353824
682.546978	5971.564323
682.885268	5948.438030
683.223508	5865.581626
683.561697	5805.170958
683.899836	5777.984016
684.237925	5731.660853
684.575963	5698.185071
684.913951	5657.858361
685.251889	5719.126024
685.589776	5686.555129
685.927614	5661.785420
686.265401	5728.013578
686.603137	5715.887083
686.940824	5787.867198
687.278460	5812.636907
687.616046	5823.581252
687.953582	5894.777468
688.291068	5873.319797
688.628504	5934.335402
688.965889	5894.706892
689.303224	5841.936093
689.640510	5795.655781
689.977745	5718.342125
690.314930	5617.932422
690.652065	5564.967539
690.989150	5469.722499
691.326185	5392.832300
691.663170	5340.605946
692.000105	5266.702631
692.336990	5187.811094
692.673825	5164.160521
693.010610	5096.031847
693.347345	5023.323285
693.684030	5012.741903
694.020665	4967.374039
694.357251	4879.970514
694.693786	4889.468047
695.030272	4858.396896
695.366707	4819.073375
695.703093	4789.587666
696.039429	4807.753464
696.375716	4794.011279
696.711952	4767.588071
697.048139	4755.605248
697.384276	4730.296135
697.720363	4741.815172
698.056400	4758.687914
698.392388	4704.223288
698.728326	4683.768806
699.064214	4662.643851
699.400053	4656.435670
699.735842	4622.458293
700.071581	4600.567082
700.407270	4572.208071
700.742910	4559.012851
701.078501	4499.948172
701.414042	4498.340044
701.749533	4469.353409
702.084974	4403.006784
702.420366	4458.777069
702.755709	4402.742123
703.091002	4343.150643
703.426246	4394.091503
703.761440	4355.519114
704.096584	4313.473371
704.431679	4332.733099
704.766725	4322.517201
705.101721	4310.496569
705.436668	4338.626208
705.771565	4283.493629
706.106413	4314.378258
706.441212	4345.761961
706.775961	4354.122715
707.110661	4333.779138
707.445311	4360.804764
707.779913	4386.363414
708.114465	4398.021082
708.448967	4419.022529
708.783421	4480.385975
709.117825	4523.414743
709.452180	4523.916338
709.786485	4573.042382
710.120742	4659.344416
710.454949	4641.685254
710.789107	4711.500193
711.123216	4784.869146
711.457275	4777.849340
711.791286	4848.614537
712.125247	4867.120612
712.459159	4768.631590
712.793023	4843.732179
713.126837	4804.597702
713.460602	4795.170744
713.794318	4716.521182
714.127985	4724.839086
714.461602	4636.765087
714.795171	4608.915233
715.128691	4542.934091
715.462162	4489.039115
715.795584	4437.669758
716.128957	4419.766100
716.462281	4366.556721
716.795556	4344.836909
717.128782	4300.008449
717.461960	4233.540835
717.795088	4247.653546
718.128167	4205.620405
718.461198	4141.882576
718.794180	4139.001557
719.127113	4121.138228
719.459997	4099.763736
719.792833	4056.004000
720.125619	4042.559242
720.458357	4010.114376
720.791046	4018.381869
721.123686	3988.094616
721.456278	3948.818987
721.788821	3965.091831
722.121315	3939.018984
722.453761	3912.212648
722.786158	3924.291253
723.118506	3949.307979
723.450805	3901.200247
723.783056	3919.413936
724.115259	3937.040331
724.447412	3943.326650
724.779518	3938.214920
725.111574	3940.564097
725.443582	3969.013849
725.775542	3951.200932
726.107453	4005.242101
726.439315	4004.432996
726.771129	4022.215666
727.102895	4056.515677
727.434612	4105.644242
727.766281	4117.949698
728.097901	4118.199235
728.429473	4122.131335
728.760996	4129.274650
729.092471	4123.169813
729.423897	4110.133389
729.755276	4115.293010
730.086606	4111.814614
730.417887	4149.232578
730.749120	4215.193556
731.080305	4278.258391
731.411442	4308.606137
731.742530	4272.365282
732.073570	4278.253349
732.404562	4329.494158
732.735506	4327.424764
733.066401	4288.686017
733.397249	4226.558837
733.728048	4146.490191
734.058798	4064.389959
734.389501	3990.446315
734.720156	3933.451029
735.050762	3885.481930
735.381320	3878.966238
735.711831	3828.970595
736.042293	3800.840957
736.372707	3821.996159
736.703073	3792.807878
737.033391	3783.171712
737.363661	3800.296512
737.693883	3826.850790
738.024056	3835.037624
738.354182	3831.559228
738.684260	3892.998290
739.014290	3917.813370
739.344272	3911.027977
739.674207	3955.483392
740.004093	3960.683342
740.333931	3954.132363
740.663722	3956.932724
740.993464	3950.936271
741.323159	3928.974485
741.652806	3901.238056
741.982405	3873.950290
742.311956	3840.671113
742.641460	3826.855831
742.970915	3808.100218
743.300323	3763.755708
743.629683	3731.628435
743.958996	3724.159966
744.288260	3693.149308
744.617477	3664.870955
744.946647	3651.257319
745.275768	3621.885036
745.604842	3622.711786
745.933869	3571.922161
746.262847	3561.151735
746.591778	3604.188066
746.920662	3577.621185
747.249498	3541.042573
747.578286	3585.649223
747.907027	3604.477932
748.235720	3604.775360
748.564365	3629.053557
748.892963	3628.188999
749.221514	3610.739045
749.550017	3589.959409
749.878473	3586.271805
750.206881	3556.768452
750.535242	3552.856517
750.863555	3555.268709
751.191821	3549.436094
751.520039	3533.521171
751.848210	3507.728108
752.176334	3540.162891
752.504411	3550.003224
752.832440	3507.851616
753.160421	3492.155983
753.488356	3500.297447
753.816243	3511.307327
754.144082	3467.192189
754.471875	3455.337916
754.799620	3472.601348
755.127318	3463.940645
755.454969	3467.494659
755.782572	3473.148313
756.110129	3448.550002
756.437638	3434.991819
756.765100	3449.964046
757.092515	3462.652630
757.419882	3469.725369
757.747203	3443.586987
758.074477	3443.390382
758.401703	3459.474183
758.728882	3480.949498
759.056014	3489.282526
759.383099	3490.058863
759.710138	3486.151969
760.037129	3506.039321
760.364073	3533.369937
760.690970	3521.271167
761.017820	3496.566993
761.344623	3516.885363
761.671379	3560.705593
761.998088	3612.450517
762.324751	3738.484404
762.651366	3987.257785
762.977935	4460.894353
763.304456	4906.171911
763.630931	5002.354606
763.957359	4640.119975
764.283740	4295.952841
764.610074	4101.724745
764.936362	3904.282913
765.262602	3748.622165
765.588796	3636.292654
765.914943	3546.141700
766.241044	3460.195068
766.567097	3425.746343
766.893104	3382.558778
767.219064	3350.003007
767.544978	3324.593071
767.870845	3269.962086
768.196665	3253.288470
768.522438	3258.238883
768.848165	3251.582039
769.173846	3216.591391
769.499479	3200.810058
769.825066	3182.450176
770.150607	3164.778411
770.476101	3179.228879
770.801548	3175.569001
771.126949	3134.087867
771.452303	3116.317799
771.777611	3122.483131
772.102872	3130.692650
772.428087	3103.316664
772.753256	3092.442895
773.078378	3087.154724
773.403453	3053.147101
773.728482	3038.684030
774.053465	3060.789490
774.378401	3045.111501
774.703291	3015.766945
775.028135	3016.719723
775.352932	3011.660925
775.677683	3001.203051
776.002388	2999.809172
776.327046	2998.001919
776.651658	2987.216370
776.976224	2978.114567
777.300743	2976.221613
777.625216	2966.774491
777.949643	2960.851135
778.274024	2964.521095
778.598359	2952.918880
778.922647	2956.276288
779.246889	2956.089766
779.571086	2942.178702
779.895236	2937.883638
780.219339	2945.704989
780.543397	2959.847946
780.867409	2962.676033
781.191374	2953.667491
781.515294	2951.464507
781.839167	2952.941565
782.162995	2946.388065
782.486776	2954.390897
782.810511	2950.935186
783.134201	2937.931529
783.457844	2946.637602
783.781441	2935.360541
784.104993	2918.260947
784.428498	2917.146852
784.751958	2929.661517
785.075372	2920.458890
785.398739	2905.312743
785.722061	2922.127512
786.045337	2937.966818
786.368568	2923.594488
786.691752	2914.480082
787.014891	2962.174438
787.337983	2988.290136
787.661030	3016.898684
787.984031	3086.300249
788.306987	3131.673154
788.629897	3122.662092
788.952760	3109.303034
789.275579	3093.660333
789.598351	3032.745551
789.921078	2992.050837
790.243759	2980.821666
790.566395	2964.263997
790.888984	2936.867846
791.211529	2920.789086
791.534027	2911.936820
791.856480	2904.806108
792.178888	2886.630227
792.501249	2877.588918
792.823566	2874.780995
793.145836	2871.431148
793.468062	2867.778833
793.790241	2867.705736
794.112375	2872.681355
794.434464	2887.358674
794.756507	2890.237173
795.078505	2898.746641
795.400457	2910.517735
795.722364	2945.959567
796.044226	2973.111222
796.366042	2974.152220
796.687812	2963.112093
797.009538	2981.736636
797.331218	2972.443269
797.652852	2955.086576
797.974442	2938.909513
798.295986	2935.531940
798.617484	2929.359047
798.938938	2911.967067
799.260346	2899.147412
799.581709	2891.371433
799.903026	2885.531256
800.224299	2878.735780
800.545526	2870.498535
800.866708	2856.037985
801.187845	2841.849658
801.508936	2847.525997
801.829983	2853.608149
802.150984	2841.267404
802.471940	2827.270641
802.792851	2826.320383
803.113717	2828.795590
803.434538	2833.486383
803.755314	2826.189313
804.076045	2819.235042
804.396731	2815.272695
804.717372	2820.439877
805.037967	2817.831080
805.358518	2820.465083
805.679024	2831.694253
805.999485	2826.063284
806.319901	2832.737772
806.640272	2825.211329
806.960598	2829.700477
807.280879	2838.225068
807.601115	2844.418126
807.921306	2831.018739
808.241453	2829.241732
808.561554	2834.424038
808.881611	2839.162723
809.201623	2831.991681
809.521590	2828.596464
809.841513	2828.384736
810.161390	2830.880107
810.481223	2825.738130
810.801011	2815.131542
811.120755	2811.217086
811.440453	2814.692962
811.760107	2813.667087
812.079716	2812.341264
812.399281	2802.281641
812.718801	2797.681588
813.038276	2791.453243
813.357707	2797.374078
813.677093	2803.264666
813.996434	2799.703091
814.315731	2793.895682
814.634983	2788.705814
814.954191	2792.211936
815.273354	2803.743576
815.592473	2811.580049
815.911547	2813.641881
816.230577	2823.119251
816.549562	2832.538647
816.868502	2831.469922
817.187399	2840.203721
817.506250	2857.436905
817.825058	2850.429702
818.143821	2862.379757
818.462539	2879.673435
818.781213	2904.659914
819.099843	2944.195163
819.418429	2998.347238
819.736970	3064.078843
820.055466	3133.079636
820.373919	3241.227509
820.692327	3382.399982
821.010691	3551.681928
821.329011	3995.961337
821.647286	4899.003390
821.965517	6284.393125
822.283704	7034.811725
822.601847	7018.705239
822.919945	6385.755606
823.237999	5871.111771
823.556010	5284.628974
823.873976	4729.910487
824.191897	4322.849917
824.509775	4021.197353
824.827609	3747.351794
825.145398	3626.439719
825.463144	3614.300620
825.780845	3705.588355
826.098502	3812.062565
826.416116	4097.510340
826.733685	4413.966252
827.051210	4479.188701
827.368692	4359.950289
827.686129	4095.042695
828.003522	3764.390894
828.320872	3506.951770
828.638177	3311.995227
828.955439	3174.633867
829.272656	3090.628079
829.589830	3019.754498
829.906960	2969.456385
830.224046	2924.983326
830.541088	2894.262534
830.858086	2875.511962
831.175041	2860.131402
831.491952	2858.568644
831.808819	2871.499204
832.125642	2896.314284
832.442421	2942.541665
832.759157	3023.742050
833.075849	3201.846016
833.392497	3486.996362
833.709101	3692.221735
834.025662	3642.616782
834.342179	3479.608551
834.658653	3306.235709
834.975083	3152.392296
835.291469	3057.485013
835.607811	2968.347331
835.924110	2909.711150
836.240366	2861.938656
836.556578	2815.307983
836.872746	2795.246711
837.188871	2769.254522
837.504952	2751.227356
837.820990	2746.529000
838.136984	2730.669530
838.452935	2723.702656
838.768842	2723.281719
839.084706	2740.751838
839.400526	2821.198571
839.716303	2956.082204
840.032037	3035.528268
840.347727	3023.588295
840.663373	2957.874334
840.978977	2881.747870
841.294537	2811.645584
841.610054	2761.377719
841.925527	2739.405850
842.240957	2717.376007
842.556344	2697.561752
842.871687	2680.769669
843.186987	2669.779953
843.502244	2668.454130
843.817458	2660.347955
844.132629	2648.357570
844.447756	2638.436579
844.762840	2634.562453
845.077881	2637.879532
845.392879	2635.343832
845.707833	2629.791001
846.022745	2624.333952
846.337613	2625.664816
846.652438	2625.977368
846.967221	2625.982409
847.281960	2624.790176
847.596656	2621.926801
847.911309	2622.352778
848.225919	2619.229783
848.540485	2616.134515
848.855009	2616.671398
849.169490	2612.754421
849.483928	2614.483537
849.798323	2614.828856
850.112675	2611.562188
850.426984	2614.004627
850.741251	2613.601335
851.055474	2612.313320
851.369654	2616.608383
851.683792	2619.035699
851.997887	2611.975563
852.311938	2611.315172
852.625947	2614.324741
852.939914	2616.973867
853.253837	2614.791047
853.567718	2612.595625
853.881555	2610.894235
854.195350	2615.247272
854.509103	2614.143259
854.822812	2610.248968
855.136479	2611.080758
855.450103	2615.486727
855.763685	2614.720471
856.077224	2611.647888
856.390720	2610.034719
856.704173	2614.319699
857.017584	2618.776079
857.330953	2618.551748
857.644278	2620.046450
857.957561	2620.502675
858.270802	2614.728033
858.584000	2616.812550
858.897155	2617.790534
859.210268	2620.285905
859.523339	2617.510750
859.836367	2608.623196
860.149352	2610.705192
860.462295	2611.423557
860.775195	2610.243927
861.088054	2607.988010
861.400869	2609.936416
861.713642	2603.695468
862.026373	2604.817124
862.339062	2608.482043
862.651708	2614.589401
862.964312	2615.685852
863.276873	2613.679473
863.589392	2619.280195
863.901869	2622.715741
864.214303	2624.613736
864.526696	2630.912657
864.839045	2631.373923
865.151353	2634.302833
865.463619	2632.059520
865.775842	2632.863584
866.088023	2631.817544
866.400162	2631.489869
866.712258	2632.538429
867.024313	2631.615898
867.336325	2626.005094
867.648296	2631.520116
867.960224	2634.633029
868.272110	2632.369551
868.583954	2627.625825
868.895755	2627.126751
869.207515	2633.692854
869.519233	2642.003196
869.830909	2636.936836
870.142542	2634.199490
870.454134	2633.934829
870.765684	2638.925571
871.077191	2638.171919
871.388657	2645.000162
871.700081	2642.545120
872.011463	2642.290542
872.322803	2646.275574
872.634101	2648.584422
872.945357	2655.710093
873.256571	2658.598674
873.567744	2658.999446
873.878874	2657.247645
874.189963	2657.766884
874.501010	2661.643531
874.812015	2667.498831
875.122979	2667.841630
875.433900	2657.628252
875.744780	2657.519867
876.055618	2663.097904
876.366415	2666.553615
876.677169	2666.604027
876.987882	2662.145126
877.298554	2660.355516
877.609183	2671.410767
877.919771	2677.487878
878.230317	2684.495082
878.540822	2696.240970
878.851285	2709.700851
879.161707	2732.718759
879.472087	2772.296858
879.782425	2823.610763
880.092722	2936.787188
880.402977	3124.285343
880.713191	3387.983060
881.023363	3686.938606
881.333494	3883.712485
881.643583	4053.639699
881.953631	4049.939492
882.263637	3872.279148
882.573602	3652.111795
882.883526	3515.302441
883.193408	3402.816655
883.503248	3302.268321
883.813048	3185.994107
884.122806	3068.794842
884.432522	2983.362408
884.742197	2917.373704
885.051831	2875.764020
885.361424	2842.361335
885.670975	2807.085861
885.980485	2775.311468
886.289954	2757.485948
886.599382	2741.777713
886.908768	2733.452247
887.218113	2709.892415
887.527417	2699.099304
887.836680	2690.930114
888.145901	2684.764783
888.455082	2677.535769
888.764221	2667.897082
889.073319	2658.775115
889.382376	2658.155053
889.691392	2658.974240
890.000366	2657.540032
890.309300	2655.253869
890.618193	2659.818633
890.927044	2663.523882
891.235855	2661.847698
891.544625	2660.536998
891.853353	2663.201248
892.162041	2666.699808
892.470687	2689.689991
892.779293	2702.398739
893.087858	2711.674462
893.396381	2732.496948
893.704864	2773.947836
894.013306	2843.845955
894.321707	2940.928495
894.630068	2992.534787
894.938387	3011.643281
895.246665	3005.493073
895.554903	2959.434571
895.863100	2915.105185
896.171256	2857.363809
896.479371	2799.902217
896.787446	2757.425454
897.095480	2738.322002
897.403473	2732.428893
897.711425	2719.042109
898.019336	2697.445806
898.327207	2683.993487
898.635038	2683.139011
898.942827	2681.679597
899.250576	2669.689213
899.558284	2658.586071
899.865952	2655.097593
900.173579	2653.948210
900.481165	2650.885709
900.788711	2643.397075
901.096216	2636.720067
901.403681	2629.347379
901.711105	2632.593882
902.018489	2632.412401
902.325832	2634.305354
902.633135	2634.068420
902.940397	2650.568116
903.247619	2688.149918
903.554800	2756.651637
903.861941	2886.473952
904.169041	3016.190402
904.476101	3081.843869
904.783121	3075.202149
905.090100	3014.761235
905.397039	2937.142589
905.703938	2863.231712
906.010796	2798.478091
906.317614	2747.078486
906.624391	2710.905687
906.931129	2684.845442
907.237826	2660.184117
907.544483	2642.940850
907.851099	2627.588016
908.157675	2619.134001
908.464211	2610.143103
908.770707	2601.368975
909.077163	2596.539550
909.383578	2591.251379
909.689954	2592.189034
909.996289	2589.197109
910.302584	2588.120823
910.608839	2587.397417
910.915054	2588.483786
911.221229	2589.663416
911.527363	2593.197265
911.833458	2588.987901
912.139513	2590.603591
912.445527	2594.233222
912.751502	2598.314036
913.057436	2603.264449
913.363331	2610.770727
913.669186	2621.682305
913.975000	2633.770992
914.280775	2652.634989
914.586510	2672.971004
914.892205	2708.062476
915.197859	2775.024122
915.503475	2860.582585
915.809050	2929.364088
916.114585	2946.380503
916.420081	2960.825930
916.725536	2968.450675
917.030952	2939.925306
917.336328	2890.479148
917.641665	2844.937364
917.946961	2794.856022
918.252218	2757.488469
918.557435	2731.045096
918.862612	2708.755634
919.167750	2690.133612
919.472848	2675.068124
919.777906	2659.160763
920.082925	2645.075779
920.387904	2635.033801
920.692843	2631.323511
920.997743	2623.837398
921.302603	2616.933538
921.607423	2611.272322
921.912204	2607.713267
922.216946	2603.221599
922.521647	2602.505755
922.826310	2597.270517
923.130932	2593.562748
923.435516	2585.035637
923.740059	2585.161666
924.044564	2585.469176
924.349028	2582.154617
924.653454	2571.457289
924.957840	2570.086095
925.262186	2567.381516
925.566493	2572.896538
925.870761	2565.468398
926.174989	2567.560477
926.479178	2562.347924
926.783328	2562.030331
927.087438	2562.839436
927.391509	2563.300702
927.695541	2561.133006
927.999533	2559.658468
928.303486	2557.127809
928.607400	2559.199723
928.911275	2556.636297
929.215110	2556.853066
929.518906	2555.252500
929.822663	2554.589588
930.126381	2554.219063
930.430060	2555.280226
930.733699	2556.064126
931.037299	2556.669064
931.340861	2554.445915
931.644383	2559.149312
931.947866	2553.846018
932.251309	2559.154353
932.554714	2556.016235
932.858080	2558.554456
933.161407	2555.005483
933.464694	2554.302242
933.767943	2552.545400
934.071153	2555.340720
934.374323	2552.527756
934.677455	2554.816440
934.980548	2549.676984
935.283602	2553.563713
935.586617	2552.363919
935.889593	2551.527087
936.192530	2549.361912
936.495428	2553.893909
936.798287	2552.676470
937.101108	2553.886347
937.403890	2558.675443
937.706632	2563.487225
938.009336	2564.316494
938.312002	2568.467885
938.614628	2573.619944
938.917216	2576.861406
939.219765	2575.885943
939.522275	2576.029615
939.824747	2577.778896
940.127179	2572.072310
940.429573	2569.400498
940.731929	2569.574418
941.034246	2564.560990
941.336524	2567.820096
941.638763	2568.772874
941.940964	2566.700960
942.243126	2562.899930
942.545250	2564.918912
942.847335	2562.763819
943.149381	2559.920608
943.451389	2557.957079
943.753359	2559.093859
944.055290	2557.798283
944.357182	2556.341389
944.659036	2557.826009
944.960851	2556.250648
945.262628	2555.562531
945.564367	2559.557645
945.866067	2556.820299
946.167729	2557.458005
946.469352	2556.817778
946.770937	2556.507747
947.072484	2556.606050
947.373992	2556.976574
947.675462	2556.691749
947.976893	2556.069167
948.278286	2553.546069
948.579641	2556.467418
948.880958	2553.883827
949.182236	2553.588919
949.483476	2551.353167
949.784678	2553.692263
950.085841	2551.398538
950.386967	2554.957592
950.688054	2552.709238
950.989103	2554.370298
951.290114	2553.982129
951.591087	2557.926832
951.892021	2558.665361
952.192917	2558.977912
952.493776	2558.965310
952.794596	2560.250804
953.095378	2560.959086
953.396122	2561.238870
953.696828	2560.487738
953.997496	2558.347768
954.298126	2556.845504
954.598718	2556.235525
954.899272	2554.103117
955.199788	2554.360216
955.500266	2549.752601
955.800706	2551.915256
956.101108	2545.195398
956.401472	2543.897301
956.701798	2542.624409
957.002087	2542.994934
957.302337	2546.130532
957.602550	2545.482744
957.902724	2541.253216
958.202861	2543.468803
958.502960	2540.408822
958.803022	2545.097095
959.103045	2539.728267
959.403031	2540.093750
959.702979	2539.672814
960.002889	2539.592155
960.302762	2534.792977
960.602596	2541.215407
960.902393	2538.440252
961.202153	2537.376568
961.501875	2537.908410
961.801559	2537.777340
962.101205	2538.876312
962.400814	2537.646270
962.700385	2539.803884
962.999918	2537.810107
963.299414	2536.648122
963.598873	2538.651980
963.898293	2539.203987
964.197677	2535.715508
964.497022	2538.057124
964.796331	2535.972607
965.095601	2537.053934
965.394835	2536.448996
965.694030	2537.994110
965.993189	2536.509490
966.292309	2535.050076
966.591393	2539.037628
966.890439	2539.267001
967.189447	2535.634850
967.488419	2537.124511
967.787353	2537.467309
968.086249	2536.093595
968.385108	2535.692823
968.683930	2536.297761
968.982714	2535.715508
969.281462	2535.281969
969.580172	2537.311033
969.878844	2533.814993
970.177480	2540.739018
970.476078	2538.969573
970.774639	2538.573842
971.073162	2540.524769
971.371649	2536.638039
971.670098	2533.757020
971.968510	2534.354397
972.266885	2536.310364
972.565223	2537.096784
972.863524	2537.411856
973.161788	2537.817669
973.460014	2536.159130
973.758204	2536.053265
974.056356	2538.767927
974.354471	2542.178267
974.652550	2538.846065
974.950591	2538.674665
975.248595	2537.817669
975.546563	2539.173740
975.844493	2536.827082
976.142386	2537.696682
976.440243	2536.209541
976.738062	2539.529141
977.035845	2536.501928
977.333590	2539.819007
977.631299	2534.709798
977.928971	2534.755168
978.226606	2537.275745
978.524204	2538.074768
978.821765	2536.955632
979.119290	2533.121834
979.416777	2536.020498
979.714228	2537.999151
980.011642	2535.483615
980.309020	2537.396733
980.606360	2535.929757
980.903664	2538.306661
981.200931	2537.520241
981.498162	2538.878832
981.795356	2539.193904
982.092513	2545.621375
982.389633	2546.410316
982.686717	2551.448949
982.983764	2550.208825
983.280775	2553.097407
983.577749	2551.181768
983.874686	2550.173537
984.171587	2547.975594
984.468451	2544.232538
984.765279	2544.766900
985.062070	2540.693648
985.358824	2539.876981
985.655543	2536.728780
985.952224	2538.430169
986.248869	2537.389171
986.545478	2532.330373
986.842050	2535.246681
987.138586	2529.139323
987.435086	2533.588141
987.731549	2528.937677
988.027975	2533.784746
988.324366	2533.139478
988.620719	2531.722914
988.917037	2533.870446
989.213318	2533.068902
989.509563	2532.201824
989.805772	2536.973276
990.101944	2534.404808
990.398080	2533.573018
990.694180	2532.438758
990.990244	2535.561753
991.286271	2535.077802
991.582262	2534.573687
991.878217	2533.396577
992.174136	2532.184180
992.470019	2533.058820
992.765865	2532.809283
993.061676	2532.582431
993.357450	2533.227699
993.653188	2533.353728
993.948890	2533.535209
994.244556	2534.951773
994.540186	2534.578728
994.835780	2533.613347
995.131337	2535.223996
995.426859	2535.987730
995.722345	2534.561084
996.017795	2539.370345
996.313208	2537.361445
996.608586	2541.180119
996.903928	2536.975797
997.199234	2538.263811
997.494504	2540.325643
997.789738	2536.151568
998.084936	2536.872453
998.380099	2538.601569
998.675225	2535.171063
998.970316	2535.344983
999.265371	2533.852802
999.560390	2534.031763
999.855373	2533.610826
1000.150320	2532.710980
1000.445232	2534.535878
1000.740108	2534.021680
1001.034948	2531.158305
1001.329752	2532.184180
1001.624521	2532.539581
1001.919254	2527.465660
1002.213951	2530.235774
1002.508613	2529.628315
1002.803239	2530.646628
1003.097829	2527.291740
1003.392384	2532.746268
1003.686903	2531.460774
1003.981386	2532.400949
1004.275834	2532.113604
1004.570246	2532.106042
1004.864623	2533.799870
1005.158964	2530.782739
1005.453270	2533.860363
1005.747540	2532.186700
1006.041775	2531.813655
1006.335974	2531.586803
1006.630138	2528.675537
1006.924266	2533.406660
1007.218359	2530.737369
1007.512416	2532.650487
1007.806438	2530.848274
1008.100425	2532.605116
1008.394376	2532.879859
1008.688292	2529.270393
1008.982172	2529.270393
1009.276017	2530.099663
1009.569827	2529.444313
1009.863602	2532.526978
1010.157341	2531.100332
1010.451045	2533.116793
1010.744714	2534.049407
1011.038347	2530.765095
1011.331945	2530.419776
1011.625508	2532.186700
1011.919036	2532.630322
1012.212528	2532.322812
1012.505986	2530.722245
1012.799408	2531.415404
1013.092795	2529.860208
1013.386147	2532.968079
1013.679464	2530.228212
1013.972745	2529.673685
1014.265992	2530.076977
1014.559204	2533.005888
1014.852380	2531.029756
1015.145521	2530.447502
1015.438628	2532.526978
1015.731699	2531.453212
1016.024736	2532.824406
1016.317737	2532.625281
1016.610703	2530.323994
1016.903635	2529.028417
1017.196531	2527.241328
1017.489393	2525.348375
1017.782219	2527.760567
1018.075011	2530.691998
1018.367768	2530.941535
1018.660490	2531.044879
1018.953177	2531.044879
1019.245829	2531.044879
