Dividing Wavelength (nm)	Counts (n)	Blue Motor Position (mm): 29.800000	Red Motor Position (mm): 0.000000	
326.493990	2055.167518
326.888308	2055.167518
327.282561	2055.167518
327.676750	2029.603827
328.070874	2033.304033
328.464933	2037.699920
328.858929	2047.278112
329.252859	2055.059133
329.646726	2069.323078
330.040528	2087.287229
330.434265	2104.470002
330.827938	2124.690070
331.221547	2145.444501
331.615091	2163.176759
332.008571	2186.686180
332.401986	2205.976156
332.795338	2225.906357
333.188625	2244.704820
333.581847	2266.835485
333.975006	2283.254523
334.368100	2298.612399
334.761129	2315.525470
335.154095	2332.937615
335.546996	2382.971067
335.939833	2489.848570
336.332606	2498.849550
336.725315	2511.049142
337.117960	2516.924607
337.510540	2531.717873
337.903056	2536.282638
338.295508	2546.634647
338.687896	2552.560524
339.080220	2558.176369
339.472480	2561.233829
339.864676	2566.181721
340.256807	2567.855384
340.648875	2571.301013
341.040879	2571.621126
341.432818	2571.893349
341.824694	2574.592887
342.216506	2573.118349
342.608253	2572.863771
342.999937	2570.280179
343.391557	2572.815880
343.783113	2568.838409
344.174605	2566.915209
344.566033	2565.423028
344.957397	2566.922771
345.348697	2562.224416
345.739934	2561.289282
346.131106	2558.778787
346.522215	2559.794579
346.913260	2557.687377
347.304241	2555.560010
347.695159	2557.004301
348.086012	2554.256872
348.476802	2551.277550
348.867528	2548.267981
349.258191	2545.107178
349.648789	2546.680018
350.039324	2540.434028
350.429796	2544.769420
350.820203	2544.179605
351.210548	2543.577188
351.600828	2543.935109
351.991045	2542.495860
352.381198	2540.582742
352.771288	2543.647764
353.161314	2538.964532
353.551276	2539.546785
353.941175	2539.645088
354.331010	2538.578883
354.720782	2544.363608
355.110490	2543.468803
355.500135	2541.177598
355.889717	2541.338915
356.279235	2540.527289
356.668689	2542.533669
357.058080	2543.062990
357.447408	2542.183308
357.836672	2544.966025
358.225873	2543.418391
358.615010	2542.823535
359.004084	2543.453679
359.393095	2547.209339
359.782043	2545.628937
360.170927	2548.240255
360.559748	2547.209339
360.948505	2548.308310
361.337199	2549.820657
361.725830	2547.549617
362.114398	2551.864844
362.502903	2547.738660
362.891344	2552.812581
363.279722	2550.806202
363.668037	2551.300235
364.056289	2551.799309
364.444478	2554.302242
364.832603	2553.130174
365.220665	2552.789896
365.608665	2555.098745
365.996601	2554.289639
366.384474	2555.645710
366.772284	2551.017931
367.160031	2556.842984
367.547715	2553.959444
367.935336	2551.726213
368.322893	2552.384083
368.710388	2553.956923
369.097820	2552.462221
369.485189	2553.498178
369.872495	2556.931204
370.259738	2558.196534
370.646918	2557.737789
371.034035	2559.015721
371.421090	2556.868190
371.808081	2558.803993
372.195010	2560.495300
372.581875	2561.717780
372.968678	2559.355999
373.355418	2557.498334
373.742096	2560.424724
374.128710	2558.743499
374.515262	2561.102759
374.901751	2562.365568
375.288177	2561.004456
375.674540	2562.486556
376.060841	2563.177194
376.447079	2561.685012
376.833254	2565.097873
377.219367	2562.496638
377.605417	2562.655434
377.991404	2563.895558
378.377329	2564.213151
378.763191	2564.810527
379.148991	2563.346072
379.534727	2568.631722
379.920402	2565.097873
380.306013	2564.351782
380.691563	2567.270611
381.077049	2563.013356
381.462474	2566.847154
381.847835	2566.539643
382.233134	2565.949828
382.618371	2568.974521
383.003545	2570.801939
383.388657	2567.520148
383.773706	2564.513099
384.158693	2568.682134
384.543618	2570.938050
384.928480	2568.886300
385.313280	2570.010478
385.698017	2568.987123
386.082692	2568.188101
386.467305	2573.496436
386.851856	2570.955694
387.236344	2569.771023
387.620770	2568.246074
388.005133	2568.137689
388.389435	2569.642473
388.773674	2565.828841
389.157851	2573.962742
389.541965	2570.809501
389.926018	2573.045252
390.310008	2573.267063
390.693936	2573.950139
391.077802	2574.285376
391.461606	2574.136662
391.845348	2573.188925
392.229027	2575.732187
392.612645	2572.962073
392.996200	2573.312433
393.379694	2577.786458
393.763125	2578.048597
394.146494	2576.856365
394.529801	2579.772672
394.913047	2578.008268
395.296230	2578.199832
395.679351	2578.283011
396.062410	2578.552713
396.445408	2579.971798
396.828343	2577.216807
397.211217	2579.510532
397.594028	2580.181006
397.976778	2576.994996
398.359466	2580.886767
398.742092	2579.019020
399.124656	2579.044225
399.507158	2580.722930
399.889598	2582.167220
400.271977	2582.734350
400.654294	2584.710482
401.036549	2581.186716
401.418742	2584.526480
401.800874	2584.854155
402.182944	2582.199988
402.564952	2584.685277
402.946898	2582.593198
403.328783	2587.281471
403.710606	2584.072776
404.092367	2584.249217
404.474067	2584.927252
404.855705	2585.081007
405.237282	2586.210226
405.618797	2584.377766
406.000250	2586.003538
406.381642	2586.752150
406.762972	2586.434557
407.144240	2585.398600
407.525447	2587.440267
407.906593	2583.664443
408.287677	2589.229877
408.668700	2586.374063
409.049661	2593.073757
409.430560	2589.809609
409.811399	2591.468149
410.192176	2592.642738
410.572891	2591.168200
410.953545	2593.918150
411.334138	2591.977306
411.714669	2591.571493
412.095139	2592.178952
412.475547	2593.514857
412.855894	2593.693818
413.236180	2596.032914
413.616405	2596.466453
413.996568	2597.454519
414.376670	2595.075095
414.756711	2593.787080
415.136691	2597.147009
415.516609	2596.925198
415.896466	2599.997781
416.276262	2597.714139
416.655997	2597.288161
417.035670	2598.016608
417.415283	2600.794284
417.794834	2599.702874
418.174324	2599.382761
418.553753	2600.577514
418.933121	2601.913420
419.312428	2603.191352
419.691674	2602.470467
420.070859	2604.123966
420.449983	2605.172526
420.829045	2605.091867
421.208047	2606.014398
421.586988	2607.146137
421.965867	2607.781323
422.344686	2607.496498
422.723444	2609.507918
423.102141	2609.117229
423.480777	2605.722012
423.859352	2613.046808
424.237866	2611.867178
424.616319	2612.646036
424.994712	2617.230966
425.373044	2614.549072
425.751314	2616.636110
426.129524	2612.860285
426.507673	2617.921604
426.885762	2616.404217
427.263789	2621.513426
427.641756	2621.704990
428.019662	2628.071967
428.397508	2628.087091
428.775292	2628.392080
429.153016	2635.716877
429.530679	2637.204017
429.908282	2640.810963
430.285824	2643.865902
430.663305	2648.526449
431.040726	2652.042654
431.418086	2655.861328
431.795385	2661.860301
432.172624	2666.886331
432.549802	2673.185253
432.926920	2680.016016
433.303977	2688.275947
433.680974	2696.316587
434.057910	2708.286807
434.434786	2721.502192
434.811601	2728.312791
435.188355	2746.516397
435.565050	2754.403282
435.941683	2768.256373
436.318257	2788.647841
436.694770	2803.098308
437.071222	2827.444561
437.447614	2835.666682
437.823946	2854.192923
438.200218	2876.520193
438.576429	2887.918242
438.952580	2917.497212
439.328670	2938.876746
439.704700	2967.255921
440.080670	2980.773775
440.456580	3023.066536
440.832429	3047.899259
441.208218	3058.601629
441.583947	3091.694283
441.959616	3126.425313
442.335224	3159.064263
442.710773	3195.521888
443.086261	3247.753283
443.461689	3255.680498
443.837057	3303.571459
444.212365	3364.831561
444.587612	3405.861512
444.962800	3427.619132
445.337927	3487.898729
445.712995	3466.357878
446.088002	3603.247891
446.462949	3661.848783
446.837837	3710.122873
447.212664	3773.855660
447.587431	3992.102334
447.962139	4233.409765
448.336786	4432.429478
448.711374	4424.542593
449.085901	4265.199282
449.460369	4329.103468
449.834776	4387.318713
450.209124	4678.432745
450.583412	4707.527764
450.957640	4834.723637
451.331808	4808.618022
451.705917	4766.191671
452.079965	4829.211136
452.453954	4962.282474
452.827883	5037.287281
453.201752	5108.901913
453.575562	5194.992218
453.949311	5402.481069
454.323001	5526.349780
454.696632	5595.181695
455.070202	5899.148148
455.443713	6022.837899
455.817164	6186.657755
456.190556	6411.949441
456.563888	6460.594055
456.937160	6649.191182
457.310373	6542.752260
457.683526	6667.362021
458.056619	6800.340098
458.429653	6942.626665
458.802628	7140.098744
459.175542	7280.845239
459.548398	7676.842997
459.921194	8087.255934
460.293930	8378.652271
460.666607	8943.727808
461.039224	9464.486562
461.411782	9754.186550
461.784280	9662.878651
462.156719	9756.702086
462.529099	9835.356689
462.901419	9629.710379
463.273680	9538.047079
463.645882	9813.427670
464.018024	9921.285677
464.390106	10315.849227
464.762130	11204.874351
465.134094	12444.594905
465.505999	14105.980252
465.877845	15616.224245
466.249631	16419.627892
466.621358	16166.869479
466.993026	15743.606641
467.364634	15423.090079
467.736184	15070.168981
468.107674	14816.268747
468.479105	14843.183467
468.850477	14783.342450
469.221790	14608.711840
469.593043	14242.943361
469.964238	14090.947531
470.335373	14293.732986
470.706449	15093.333082
471.077467	16123.306348
471.448425	18183.754475
471.819324	19541.785868
472.190164	19212.810250
472.560945	17906.301970
472.931667	16821.531362
473.302330	16705.063064
473.672934	16423.227276
474.043479	16881.329529
474.413965	16809.261193
474.784393	16751.320692
475.154761	17392.810039
475.525070	17591.376048
475.895321	17534.259775
476.265513	18079.798321
476.635645	18685.462708
477.005719	18821.778029
477.375734	19242.661443
477.745691	19859.050885
478.115588	20534.376458
478.485427	21769.827154
478.855207	23575.099634
479.224928	25241.947071
479.594591	26384.970733
479.964194	25955.769415
480.333739	26374.230554
480.703226	26706.009054
481.072653	27255.419206
481.442022	27775.552857
481.811333	28118.343756
482.180584	27687.100771
482.549777	27546.540799
482.918912	27401.272389
483.287988	27409.776816
483.657005	27286.939020
484.025964	27008.125404
484.394864	27227.463487
484.763706	27204.410290
485.132489	26775.163602
485.501213	26883.319037
485.869879	27104.119055
486.238487	27097.066481
486.607036	27383.124235
486.975527	27147.624213
487.343959	27487.632396
487.712333	27831.355909
488.080648	27837.160798
488.448905	28268.295398
488.817104	28223.124139
489.185244	29117.739903
489.553326	30308.120164
489.921350	32221.159911
490.289315	34590.363587
490.657222	35251.238691
491.025070	35649.993961
491.392861	35272.439264
491.760593	34486.823328
492.128267	33499.538553
492.495883	32578.456731
492.863440	31780.900822
493.230939	30921.353844
493.598380	30452.002257
493.965763	30342.132829
494.333088	29907.401365
494.700354	29740.186292
495.067563	29743.266437
495.434713	29666.396403
495.801805	29966.879419
496.168839	29833.087196
496.535815	29714.259638
496.902733	29863.195487
497.269593	29699.710868
497.636395	29862.129283
498.003139	30170.466417
498.369825	29940.892271
498.736453	30336.141418
499.103023	30198.565809
499.469535	30305.594546
499.835989	30451.634252
500.202385	30317.983182
500.568723	30397.320861
500.935003	30734.778220
501.301226	30641.269857
501.667390	31336.240806
502.033497	31534.300179
502.399546	31329.611688
502.765537	30950.446343
503.131470	31409.123288
503.497345	31851.081245
503.863163	30868.842665
504.228923	31616.854114
504.594625	32015.624507
504.960269	31535.676414
505.325856	32192.810982
505.691385	31892.141443
506.056856	32210.218086
506.422270	32700.777808
506.787625	32257.136105
507.152924	32712.964798
507.518164	32909.549633
507.883347	32494.682836
508.248472	32659.883968
508.613540	33341.886549
508.978550	33587.239506
509.343503	33450.205821
509.708398	33798.123575
510.073236	34398.656068
510.438016	34507.164384
510.802738	34218.051690
511.167403	34777.276968
511.532010	35043.749840
511.896561	35508.357702
512.261053	36263.247805
512.625488	36051.050517
512.989866	36009.909660
513.354186	36056.308440
513.718449	36019.956680
514.082655	36906.796464
514.446803	36628.539895
514.810894	37238.852227
515.174927	37248.851356
515.538904	37266.661752
515.902822	37896.856394
516.266684	37609.041798
516.630488	37986.588933
516.994235	38000.053855
517.357925	38575.509128
517.721558	38832.766771
518.085133	39213.227692
518.448651	39408.862270
518.812112	39308.850819
519.175516	39462.384201
519.538863	39898.484338
519.902152	39981.701185
520.265385	40514.367144
520.628560	40547.212782
520.991678	40505.482111
521.354739	40733.485937
521.717743	41106.934614
522.080690	41010.381395
522.443580	41688.386340
522.806413	41719.863305
523.169189	41862.873278
523.531908	42087.013060
523.894569	41953.089767
524.257174	42150.982782
524.619722	42505.774148
524.982213	42631.419867
525.344647	42669.967049
525.707025	42798.070330
526.069345	43253.493210
526.431608	43146.116633
526.793815	43537.458886
527.155964	43108.507105
527.518057	43359.992626
527.880093	43207.414543
528.242072	43830.009646
528.603995	43592.286475
528.965860	43513.762942
529.327669	43744.274743
529.689421	43795.581086
530.051117	43743.647119
530.412755	44019.874623
530.774337	44094.428248
531.135862	44040.293817
531.497331	44201.847674
531.858743	44191.518350
532.220098	44610.216424
532.581396	44315.636599
532.942638	44087.993215
533.303824	44341.744735
533.664953	44402.140278
534.026025	44090.228967
534.387040	44655.380121
534.747999	44734.410290
535.108902	45036.330035
535.469748	44378.870312
535.830537	44638.020908
536.191270	44876.394388
536.551947	44608.885559
536.912567	44908.067958
537.273131	45070.632567
537.633638	44677.402402
537.994089	44888.412499
538.354483	44623.199916
538.714821	45278.038239
539.075103	45555.072328
539.435328	45404.913999
539.795497	45183.289752
540.155609	45315.062993
540.515665	45875.941770
540.875665	45189.563468
541.235609	45469.740717
541.595496	45580.593169
541.955328	46178.191711
542.315102	45603.104442
542.674821	45495.685015
543.034483	45386.901956
543.394090	45397.412762
543.753640	45382.012037
544.113134	46434.990608
544.472571	45546.177212
544.831953	46677.291147
545.191278	45931.523012
545.550548	45626.477751
545.909761	46270.679240
546.268918	46427.383507
546.628019	46835.906012
546.987064	46252.024450
547.346053	45563.639769
547.704986	46458.774772
548.063863	46101.553569
548.422684	46317.665314
548.781449	45905.888744
549.140158	46441.695343
549.498811	46210.757564
549.857408	45604.306757
550.215949	46440.480425
550.574434	46265.123888
550.932864	46209.555249
551.291237	46926.510670
551.649555	46688.626182
552.007817	46855.823611
552.366022	46534.029117
552.724173	46586.941067
553.082267	46992.191863
553.440305	47339.938217
553.798288	46599.450691
554.156215	46991.904518
554.514086	47175.571396
554.871902	46816.885738
555.229661	46984.544433
555.587365	46666.548448
555.945014	46791.317006
556.302606	46807.219326
556.660143	46917.003054
557.017625	47114.563352
557.375050	46825.548961
557.732421	47233.670694
558.089735	47292.344684
558.446994	47165.889860
558.804197	47646.034558
559.161345	47503.753032
559.518437	46848.516458
559.875474	47104.982639
560.232455	47331.864809
560.589381	47367.961992
560.946251	47168.382711
561.303065	47847.340434
561.659825	47527.416208
562.016528	47342.529370
562.373177	46912.604647
562.729770	47538.867189
563.086307	47060.013027
563.442789	47602.715923
563.799216	47470.473855
564.155587	47326.445569
564.511904	47311.843867
564.868164	47363.351856
565.224370	47681.935135
565.580520	47399.819563
565.936615	47615.023900
566.292654	47262.574150
566.648638	47612.843601
567.004567	47561.716219
567.360441	47651.544539
567.716260	47369.418885
568.072023	47732.417250
568.427732	47673.284515
568.783385	47217.859115
569.138982	47615.666648
569.494525	47734.078310
569.850013	47346.143878
570.205445	47455.506669
570.560823	47243.105214
570.916145	47108.861807
571.271412	47351.444651
571.626625	47004.439347
571.981782	47082.736027
572.336884	46676.812237
572.691931	47003.872217
573.046923	46665.751946
573.401860	46506.622884
573.756743	46510.620519
574.111570	46660.080648
574.466342	46575.986640
574.821059	46705.773666
575.175722	46218.100005
575.530330	46333.469331
575.884882	45965.046685
576.239380	45877.239867
576.593823	45950.976824
576.948211	45865.887189
577.302544	45428.632627
577.656823	45432.252176
578.011047	45681.265011
578.365216	45515.136307
578.719330	45234.974182
579.073389	45218.068672
579.427394	45256.436894
579.781344	45193.740064
580.135239	44970.762268
580.489080	45019.356470
580.842866	44518.812743
581.196597	45005.102608
581.550273	44991.224311
581.903895	44934.138285
582.257463	45362.044026
582.610975	44801.374457
582.964434	45146.232230
583.317837	44649.234955
583.671186	44603.977996
584.024481	44861.281009
584.377721	44418.024954
584.730906	44623.159587
585.084037	44740.784829
585.437113	44455.495851
585.790135	44582.225417
586.143103	44140.033046
586.496016	44290.440912
586.848874	44399.080298
587.201679	44434.229743
587.554428	43937.645843
587.907124	44207.287079
588.259765	43969.538702
588.612352	44135.213703
588.964884	43592.646917
589.317362	43890.143050
589.669786	43909.911935
590.022155	43755.992905
590.374470	44197.449268
590.726731	43787.364005
591.078937	43113.006335
591.431090	43450.385556
591.783188	42983.655368
592.135232	42770.538069
592.487222	43044.849935
592.839157	43198.148903
593.191038	42827.344311
593.542866	42650.258658
593.894639	42053.766650
594.246358	42340.961185
594.598022	42332.902900
594.949633	41922.784870
595.301190	41902.171592
595.652692	41834.436129
596.004141	42319.637104
596.355535	41234.657288
596.706876	41242.539132
597.058162	40960.703344
597.409395	41460.261526
597.760573	41668.380521
598.111698	41268.576692
598.462768	41207.392208
598.813785	41219.027191
599.164748	40813.468884
599.515657	41092.766451
599.866511	40589.407240
600.217312	41296.108953
600.568060	40228.924411
600.918753	41063.447101
601.269392	40979.458957
601.619978	40707.977699
601.970510	40905.361557
602.320988	41038.193440
602.671412	41303.758904
603.021783	41165.656495
603.372100	40742.320559
603.722363	40854.516479
604.072572	40886.550492
604.422728	40874.073636
604.772830	40655.660604
605.122878	40825.096306
605.472872	40677.035097
605.822813	40941.236928
606.172701	40684.566580
606.522534	41014.444565
606.872314	41230.389951
607.222041	41056.623899
607.571714	41394.204766
607.921333	40891.712633
608.270899	41092.945412
608.620411	41488.529796
608.969870	41212.093083
609.319276	41241.510737
609.668627	41263.553182
610.017926	41671.049812
610.367171	41806.286326
610.716362	41840.377128
611.065500	41741.381470
611.414585	41958.249388
611.763616	42135.256902
612.112594	42036.198229
612.461518	42161.506190
612.810389	42549.624625
613.159207	42341.230887
613.507971	42316.151146
613.856682	42820.647138
614.205340	42631.903817
614.553945	43308.091427
614.902496	42649.255469
615.250994	43076.548710
615.599439	43137.826456
615.947830	43259.875311
616.296169	43238.606683
616.644454	43298.152792
616.992686	43460.293944
617.340864	43915.406792
617.688990	43439.375676
618.037063	44115.258295
618.385082	43941.086430
618.733048	44287.880006
619.080961	44149.525539
619.428821	44156.341179
619.776628	44190.220253
620.124382	43988.672402
620.472083	44109.415598
620.819731	44204.816914
621.167326	43750.881175
621.514868	43739.475564
621.862357	43205.602248
622.209793	43277.894915
622.557176	42846.886344
622.904506	42619.578196
623.251783	42234.822211
623.599007	41926.994234
623.946179	41850.015815
624.293297	41596.256733
624.640363	41040.308204
624.987376	40905.530436
625.334336	40702.518129
625.681243	40297.700872
626.028097	40201.850894
626.374899	40014.519096
626.721647	39989.802319
627.068343	39783.215834
627.414987	39504.641673
627.761577	39248.044422
628.108115	39563.663502
628.454600	38832.933129
628.801032	39038.634891
629.147412	38951.493505
629.493739	38853.732929
629.840014	38431.604350
630.186236	38842.314716
630.532405	38300.065523
630.878521	38535.041266
631.224585	38315.332658
631.570597	37978.253385
631.916556	38147.013572
632.262462	38033.819503
632.608316	37961.254614
632.954117	37829.350303
633.299866	37776.022457
633.645562	37695.928605
633.991206	37151.597416
634.336797	36772.116998
634.682336	36652.871024
635.027823	36415.672133
635.373257	36281.348068
635.718639	35964.846786
636.063968	35851.158684
636.409245	35198.818253
636.754470	35163.477244
637.099642	34939.067760
637.444762	34372.134557
637.789829	34509.720249
638.134845	34126.264881
638.479808	34051.686051
638.824719	34011.031666
639.169577	33487.780062
639.514383	33590.644806
639.859137	33208.984089
640.203839	33377.887949
640.548489	33083.373659
640.893086	33069.543253
641.237632	32808.681186
641.582125	32910.724222
641.926566	32716.065107
642.270955	32744.716505
642.615292	32675.814014
642.959576	32564.142374
643.303809	32578.781885
643.647990	32662.346572
643.992118	32617.422329
644.336195	32461.075984
644.680219	32558.271951
645.024192	32759.726541
645.368112	33285.967550
645.711981	33310.253308
646.055797	34035.191396
646.399562	33854.355125
646.743274	34729.186881
647.086935	35111.407166
647.430544	35071.937452
647.774101	35110.673678
648.117606	35387.967387
648.461059	35518.278693
648.804460	35102.254951
649.147810	34601.537304
649.491108	34236.706480
649.834354	34082.628654
650.177548	33258.566358
650.520690	32767.885648
650.863781	32763.497324
651.206820	32583.283636
651.549807	32182.055680
651.892742	31603.956322
652.235626	31516.114216
652.578458	31378.911653
652.921238	30708.433150
653.263967	31006.476247
653.606644	30721.404039
653.949269	30629.539092
654.291843	30235.041077
654.634365	30605.515473
654.976836	30153.583593
655.319255	30224.719315
655.661622	30103.010738
656.003938	29960.104108
656.346203	29775.877662
656.688416	30029.286383
657.030577	29800.806167
657.372687	29634.838780
657.714746	29793.418356
658.056753	29968.691714
658.398708	29365.298366
658.740612	29435.201526
659.082465	29641.765325
659.424266	29539.946620
659.766016	29546.230419
660.107715	29395.988911
660.449362	29496.222173
660.790958	29483.800769
661.132503	29427.145762
661.473996	29490.664300
661.815438	29578.070346
662.156829	29680.572127
662.498168	29498.387348
662.839456	29474.792228
663.180693	29598.350908
663.521879	29686.245946
663.863013	29651.978703
664.204097	29622.669434
664.545129	30032.051456
664.886110	29971.345881
665.227040	30073.222559
665.567918	30071.445553
665.908746	30158.632308
666.249522	30235.078886
666.590248	30252.662431
666.930922	30346.246411
667.271545	30357.946929
667.612118	30408.718910
667.952639	30215.519209
668.293109	30240.223383
668.633528	30115.275865
668.973896	30069.648381
669.314213	30053.504086
669.654480	29851.154691
669.994695	29848.324083
670.334859	29762.316958
670.674973	29601.705796
671.015035	29783.540215
671.355047	29730.567771
671.695008	29663.323820
672.034918	29572.635982
672.374777	29676.939976
672.714585	29544.700428
673.054342	29687.297027
673.394049	29524.911379
673.733705	29752.693395
674.073310	29470.658481
674.412864	29535.028975
674.752368	29208.420179
675.091820	29433.696741
675.431223	29035.286791
675.770574	28833.784310
676.109875	28679.943418
676.449125	28475.083529
676.788324	28372.329690
677.127473	27904.440037
677.466571	27784.130380
677.805619	27510.211724
678.144616	27458.416389
678.483562	27408.788750
678.822458	27092.123630
679.161303	27037.674127
679.500098	26958.248227
679.838842	26895.760605
680.177535	26986.748391
680.516179	27225.774700
680.854771	27365.008849
681.193314	28144.358631
681.531805	29161.391255
681.870247	29926.527503
682.208638	30647.120116
682.546978	30904.259292
682.885268	31033.028005
683.223508	30585.660889
683.561697	30303.036160
683.899836	30143.438271
684.237925	29738.847866
684.575963	29589.392778
684.913951	29231.546472
685.251889	29406.643389
685.589776	29441.470201
685.927614	29451.023187
686.265401	29644.394287
686.603137	29762.924417
686.940824	30272.111202
687.278460	30610.561668
687.616046	30783.926949
687.953582	31448.988732
688.291068	31365.981093
688.628504	31685.128981
688.965889	31681.363239
689.303224	31391.272562
689.640510	31094.199886
689.977745	30451.246083
690.314930	29700.247751
690.652065	29264.414795
690.989150	28596.287991
691.326185	27737.287978
691.663170	27112.404192
692.000105	26374.679217
692.336990	25770.965756
692.673825	25356.542581
693.010610	24861.281983
693.347345	24382.629466
693.684030	23765.950157
694.020665	23551.267580
694.357251	22900.111820
694.693786	22898.140728
695.030272	22676.342562
695.366707	22176.151716
695.703093	21910.944174
696.039429	21982.848672
696.375716	21755.152355
696.711952	21759.112182
697.048139	21623.122015
697.384276	21469.699539
697.720363	21593.283426
698.056400	21475.882514
698.392388	21319.533648
698.728326	21318.938792
699.064214	21154.866879
699.400053	21151.645581
699.735842	20771.202303
700.071581	20566.120603
700.407270	20320.939045
700.742910	20146.862961
701.078501	19892.814013
701.414042	19694.673982
701.749533	19389.946314
702.084974	19082.355271
702.420366	19311.458069
702.755709	18909.932686
703.091002	18612.839846
703.426246	18678.485751
703.761440	18619.267317
704.096584	18369.089975
704.431679	18309.420358
704.766725	18254.761647
705.101721	18191.200259
705.436668	18309.538825
705.771565	18041.432619
706.106413	18365.987145
706.441212	18430.796219
706.775961	18544.315442
707.110661	18628.893400
707.445311	18992.829420
707.779913	18863.735552
708.114465	19176.345064
708.448967	19481.770932
708.783421	20118.345154
709.117825	20465.781477
709.452180	20722.532484
709.786485	21172.400012
710.120742	21939.560283
710.454949	22059.804406
710.789107	22551.692472
711.123216	23273.094190
711.457275	23477.026507
711.791286	24046.613877
712.125247	24189.195352
712.459159	23905.995932
712.793023	24639.851821
713.126837	23610.246559
713.460602	23847.470656
713.794318	23504.301670
714.127985	23220.646025
714.461602	22337.982837
714.795171	22306.329432
715.128691	21328.983291
715.462162	20817.089406
715.795584	20381.465658
716.128957	20122.398242
716.462281	19740.684593
716.795556	19466.221492
717.128782	18984.032607
717.461960	18398.928565
717.795088	18348.771605
718.128167	18009.418772
718.461198	17567.556596
718.794180	17440.222091
719.127113	17108.625073
719.459997	16923.287052
719.792833	16556.588480
720.125619	16595.554079
720.458357	16276.149092
720.791046	16132.370343
721.123686	15988.826008
721.456278	15771.411125
721.788821	15779.159378
722.121315	15498.888868
722.453761	15610.230313
722.786158	15504.252656
723.118506	15574.170939
723.450805	15457.831191
723.783056	15640.409180
724.115259	15542.136927
724.447412	15535.432192
724.779518	15744.836682
725.111574	15806.439582
725.443582	16068.599747
725.775542	16031.161618
726.107453	16544.691357
726.439315	16473.139740
726.771129	16901.426088
727.102895	17317.124676
727.434612	17594.274711
727.766281	17756.919978
728.097901	18069.426147
728.429473	18157.616092
728.760996	18158.798242
729.092471	18280.758878
729.423897	18165.160179
729.755276	18028.618006
730.086606	18158.173139
730.417887	18744.736595
730.749120	19298.363672
731.080305	19511.181023
731.411442	19899.987575
731.742530	20003.532875
732.073570	20171.546971
732.404562	20484.204374
732.735506	20318.158848
733.066401	20098.412432
733.397249	19609.594428
733.728048	18984.317432
734.058798	18123.391698
734.389501	17364.856841
734.720156	16849.781988
735.050762	16277.326201
735.381320	15903.943059
735.711831	15633.628828
736.042293	15281.615138
736.372707	15315.627803
736.703073	15109.293376
737.033391	15314.231403
737.363661	15319.315407
737.693883	15445.298882
738.024056	15648.321271
738.354182	15872.413163
738.684260	16240.671972
739.014290	16524.178902
739.344272	16752.349087
739.674207	17093.098319
740.004093	17267.885206
740.333931	17311.158470
740.663722	17387.796612
740.993464	17417.103359
741.323159	17264.915966
741.652806	16951.320909
741.982405	16786.381917
742.311956	16427.103923
742.641460	16309.425748
742.970915	15980.845861
743.300323	15634.863911
743.629683	15419.571354
743.958996	15105.515031
744.288260	14789.913594
744.617477	14488.742461
744.946647	14457.164673
745.275768	14151.685873
745.604842	13948.885295
745.933869	13771.156896
746.262847	13746.351898
746.591778	13664.962469
746.920662	13552.993401
747.249498	13562.165781
747.578286	13722.199730
747.907027	13898.277152
748.235720	14167.724304
748.564365	14237.962701
748.892963	14163.240198
749.221514	14262.107307
749.550017	14118.610863
749.878473	14100.293830
750.206881	13877.726888
750.535242	13796.440803
750.863555	13719.651427
751.191821	13619.791210
751.520039	13646.199295
751.848210	13575.605497
752.176334	13625.611223
752.504411	13544.015106
752.832440	13363.624978
753.160421	13476.403151
753.488356	13380.180127
753.816243	13280.153552
754.144082	13116.454684
754.471875	13068.719998
754.799620	13026.850695
755.127318	13004.866223
755.454969	12999.426818
755.782572	12975.156183
756.110129	12978.490906
756.437638	12884.964899
756.765100	12893.746589
757.092515	12921.578800
757.419882	12961.908031
757.747203	12977.039054
758.074477	13075.880957
758.401703	13053.306670
758.728882	13259.308381
759.056014	13295.498825
759.383099	13469.355618
759.710138	13587.805089
760.037129	13716.969533
760.364073	13770.602369
760.690970	13800.327533
761.017820	13814.389831
761.344623	14047.528073
761.671379	14420.893571
761.998088	15128.971520
762.324751	16901.786531
762.651366	20347.989876
762.977935	24817.703728
763.304456	27770.184028
763.630931	28764.140770
763.957359	27518.564916
764.283740	25249.407979
764.610074	22970.617397
764.936362	20340.821356
765.262602	18477.726841
765.588796	16565.798668
765.914943	15288.019923
766.241044	14194.301267
766.567097	13416.438626
766.893104	12702.568392
767.219064	12245.688618
767.544978	11773.743357
767.870845	11392.112887
768.196665	11171.978302
768.522438	10942.222674
768.848165	10740.999977
769.173846	10534.625221
769.499479	10403.678729
769.825066	10236.980375
770.150607	10009.768009
770.476101	9931.100803
770.801548	9803.027769
771.126949	9650.903390
771.452303	9539.075474
771.777611	9343.327471
772.102872	9333.845060
772.428087	9196.224081
772.753256	9033.624184
773.078378	8938.321171
773.403453	8770.339842
773.728482	8657.244076
774.053465	8583.003003
774.378401	8480.884350
774.703291	8358.812810
775.028135	8237.409222
775.352932	8200.581073
775.677683	8099.710105
776.002388	7984.817167
776.327046	8007.767020
776.651658	7906.780106
776.976224	7804.341339
777.300743	7803.093654
777.625216	7718.798000
777.949643	7672.585742
778.274024	7687.840274
778.598359	7603.083354
778.922647	7622.554811
779.246889	7575.266267
779.571086	7587.876714
779.895236	7591.529030
780.219339	7601.737366
780.543397	7607.189374
780.867409	7687.449584
781.191374	7699.931481
781.515294	7663.988054
781.839167	7754.872497
782.162995	7727.652786
782.486776	7669.409815
782.810511	7625.811396
783.134201	7535.269753
783.457844	7530.697426
783.781441	7474.049980
784.104993	7410.302069
784.428498	7388.494038
784.751958	7381.249900
785.075372	7343.131215
785.398739	7289.657176
785.722061	7334.052097
786.045337	7340.552665
786.368568	7494.759040
786.691752	7522.659306
787.014891	7868.754682
787.337983	8230.475115
787.661030	8828.471908
787.984031	9457.796951
788.306987	9861.895843
788.629897	10061.906143
788.952760	9996.973561
789.275579	9773.844530
789.598351	9375.560608
789.921078	9013.071400
790.243759	8602.368596
790.566395	8314.057446
790.888984	8061.412459
791.211529	7859.131120
791.534027	7634.966132
791.856480	7434.459279
792.178888	7364.367076
792.501249	7265.618433
792.823566	7104.974504
793.145836	7114.794672
793.468062	7088.520178
793.790241	7036.883639
794.112375	7111.591019
794.434464	7266.934175
794.756507	7305.662839
795.078505	7472.295659
795.400457	7785.575644
795.722364	8138.015312
796.044226	8420.965195
796.366042	8697.011218
796.687812	8650.315010
797.009538	8719.053663
797.331218	8609.325388
797.652852	8525.188531
797.974442	8371.450982
798.295986	8286.361347
798.617484	8094.870597
798.938938	7945.342412
799.260346	7838.863161
799.581709	7641.812019
799.903026	7563.031387
800.224299	7457.136909
800.545526	7288.679192
800.866708	7192.420880
801.187845	7126.525437
801.508936	7024.870570
801.829983	6983.460012
802.150984	6833.536096
802.471940	6793.819366
802.792851	6774.768845
803.113717	6742.991932
803.434538	6708.969185
803.755314	6652.591441
804.076045	6654.998592
804.396731	6606.921107
804.717372	6641.936962
805.037967	6646.761346
805.358518	6688.272728
805.679024	6770.607373
805.999485	6781.889475
806.319901	6822.339693
806.640272	6845.080338
806.960598	6929.217196
807.280879	6929.776764
807.601115	7008.247365
807.921306	6951.821730
808.241453	6963.111394
808.561554	6981.327603
808.881611	6946.377284
809.201623	6952.459436
809.521590	6895.895169
809.841513	6881.812706
810.161390	6916.755464
810.481223	6784.341996
810.801011	6766.690396
811.120755	6740.874647
811.440453	6666.452093
811.760107	6635.426312
812.079716	6597.473985
812.399281	6532.833790
812.718801	6527.044025
813.038276	6476.294729
813.357707	6416.241984
813.677093	6462.078675
813.996434	6365.767431
814.315731	6408.007259
814.634983	6399.885960
814.954191	6410.875675
815.273354	6515.799731
815.592473	6583.015956
815.911547	6706.806530
816.230577	6791.881042
816.549562	6931.904131
816.868502	7036.813063
817.187399	7127.982331
817.506250	7286.471166
817.825058	7315.356978
818.143821	7584.310097
818.462539	7859.569700
818.781213	8229.464364
819.099843	8776.129607
819.418429	9781.696127
819.736970	10752.355176
820.055466	11934.740167
820.373919	13466.262870
820.692327	15796.178313
821.010691	19945.849472
821.329011	28950.008112
821.647286	41989.479336
821.965517	55438.314937
822.283704	60806.642188
822.601847	62752.963633
822.919945	59992.876449
823.237999	55716.977319
823.556010	49490.474283
823.873976	42741.193512
824.191897	36239.566985
824.509775	31410.489440
824.827609	26914.806084
825.145398	24352.168294
825.463144	23006.616277
825.780845	23335.092820
826.098502	25126.955832
826.416116	28943.779767
826.733685	32633.536378
827.051210	33800.250942
827.368692	32004.710409
827.686129	27998.903698
828.003522	23876.240521
828.320872	20152.766152
828.638177	17321.344122
828.955439	15176.988510
829.272656	13357.908309
829.589830	11888.245605
829.906960	10627.805909
830.224046	9682.594604
830.541088	8940.501470
830.858086	8490.712079
831.175041	8115.204091
831.491952	8006.378182
831.808819	8051.793938
832.125642	8453.853683
832.442421	9344.129014
832.759157	11149.555250
833.075849	14094.912399
833.392497	17326.838979
833.709101	19508.231948
834.025662	19317.167176
834.342179	17606.998584
834.658653	15406.166926
834.975083	13469.262357
835.291469	11852.781088
835.607811	10541.488752
835.924110	9635.611050
836.240366	8769.024101
836.556578	7970.286042
836.872746	7323.344686
837.188871	6826.155847
837.504952	6411.601602
837.820990	6103.423264
838.136984	5887.845882
838.452935	5793.881294
838.768842	5832.458724
839.084706	6251.791983
839.400526	7470.284238
839.716303	9052.452894
840.032037	10149.201283
840.347727	10066.788500
840.663373	9078.926513
840.978977	8033.444138
841.294537	7222.171249
841.610054	6628.898018
841.925527	6196.112439
842.240957	5839.715465
842.556344	5512.622718
842.871687	5227.968925
843.186987	4945.460143
843.502244	4726.684149
843.817458	4560.883119
844.132629	4430.586936
844.447756	4334.454653
844.762840	4258.970936
845.077881	4182.408412
845.392879	4118.741159
845.707833	4077.504521
846.022745	4028.996018
846.337613	4001.650279
846.652438	3959.929690
846.967221	3946.212710
847.281960	3911.196856
847.596656	3890.971746
847.911309	3869.801421
848.225919	3850.085468
848.540485	3832.806913
848.855009	3822.800223
849.169490	3800.616625
849.483928	3787.179430
849.798323	3782.836476
850.112675	3765.600771
850.426984	3770.881379
850.741251	3753.381014
851.055474	3747.755086
851.369654	3752.208946
851.683792	3749.693410
851.997887	3755.828494
852.311938	3757.139194
852.625947	3761.703959
852.939914	3749.685848
853.253837	3762.681943
853.567718	3760.756222
853.881555	3750.126949
854.195350	3767.042541
854.509103	3760.594905
854.822812	3757.033330
855.136479	3752.294645
855.450103	3762.445008
855.763685	3744.929519
856.077224	3750.532762
856.390720	3767.103035
856.704173	3788.117084
857.017584	3798.423723
857.330953	3809.660455
857.644278	3834.684743
857.957561	3835.703056
858.270802	3835.667768
858.584000	3842.496011
858.897155	3833.270699
859.210268	3815.614058
859.523339	3796.046819
859.836367	3792.795275
860.149352	3787.678504
860.462295	3780.280611
860.775195	3765.482304
861.088054	3766.266203
861.400869	3761.431737
861.713642	3766.145215
862.026373	3776.179632
862.339062	3781.248512
862.651708	3801.796255
862.964312	3835.740865
863.276873	3849.198225
863.589392	3901.606060
863.901869	3952.395685
864.214303	3998.587778
864.526696	4030.314280
864.839045	4073.317843
865.151353	4099.355402
865.463619	4109.273873
865.775842	4115.978607
866.088023	4132.853870
866.400162	4121.007158
866.712258	4132.248931
867.024313	4134.036020
867.336325	4129.478817
867.648296	4137.320332
867.960224	4132.090135
868.272110	4143.984737
868.583954	4146.296106
868.895755	4161.001152
869.207515	4156.587622
869.519233	4201.211916
869.830909	4215.397723
870.142542	4236.484869
870.454134	4255.968929
870.765684	4282.235861
871.077191	4320.006706
871.388657	4343.390098
871.700081	4380.873598
872.011463	4421.228034
872.322803	4461.280002
872.634101	4487.985514
872.945357	4532.899674
873.256571	4583.989248
873.567744	4613.873208
873.878874	4631.320641
874.189963	4667.274151
874.501010	4681.225544
874.812015	4678.614226
875.122979	4720.826328
875.433900	4717.065627
875.744780	4730.533070
876.055618	4756.605917
876.366415	4756.840331
876.677169	4775.245584
876.987882	4819.327953
877.298554	4876.419021
877.609183	4952.210248
877.919771	5063.854162
878.230317	5206.304567
878.540822	5422.983441
878.851285	5743.588223
879.161707	6203.454880
879.472087	6956.159643
879.782425	8194.133437
880.092722	10376.431293
880.402977	13689.928784
880.713191	17447.859439
881.023363	21174.958397
881.333494	23387.528382
881.643583	24607.875782
881.953631	24586.523975
882.263637	23712.879410
882.573602	22229.920663
882.883526	20662.910757
883.193408	18986.961517
883.503248	17281.173687
883.813048	15728.450412
884.122806	14305.718329
884.432522	12831.632012
884.742197	11578.149108
885.051831	10500.226908
885.361424	9500.326645
885.670975	8687.395217
885.980485	8001.964652
886.289954	7436.816018
886.599382	6962.418235
886.908768	6593.219251
887.218113	6227.808694
887.527417	5944.863852
887.836680	5676.689591
888.145901	5460.852589
888.455082	5301.448784
888.764221	5150.456144
889.073319	5015.625443
889.382376	4945.515596
889.691392	4886.468561
890.000366	4865.769583
890.309300	4845.781408
890.618193	4848.942212
890.927044	4840.291592
891.235855	4855.657029
891.544625	4887.338160
891.853353	4946.349907
892.162041	5071.118465
892.470687	5255.609572
892.779293	5506.364126
893.087858	5874.391042
893.396381	6453.952335
893.704864	7255.692402
894.013306	8414.278105
894.321707	9595.909443
894.630068	10417.839331
894.938387	10621.267532
895.246665	10384.890349
895.554903	9770.620712
895.863100	9069.693640
896.171256	8504.434100
896.479371	7993.452664
896.787446	7498.809608
897.095480	7072.764052
897.403473	6758.185970
897.711425	6437.346774
898.019336	6172.736609
898.327207	5896.030195
898.635038	5670.413354
898.942827	5421.576959
899.250576	5228.664605
899.558284	5037.269637
899.865952	4915.119959
900.173579	4763.265282
900.481165	4655.588756
900.788711	4566.693049
901.096216	4492.835104
901.403681	4432.563069
901.711105	4408.410901
902.018489	4393.431112
902.325832	4458.794713
902.633135	4584.397581
902.940397	4934.311632
903.247619	5729.135235
903.554800	7173.662746
903.861941	9096.386549
904.169041	10611.671696
904.476101	11239.406255
904.783121	10867.422033
905.090100	10118.853537
905.397039	9281.457389
905.703938	8524.669292
906.010796	7831.525761
906.317614	7284.381608
906.624391	6750.813282
906.931129	6326.945505
907.237826	5929.208549
907.544483	5553.836672
907.851099	5181.446637
908.157675	4827.227442
908.464211	4505.591744
908.770707	4273.101290
909.077163	4069.373140
909.383578	3925.420471
909.689954	3813.915189
909.996289	3746.998913
910.302584	3680.170857
910.608839	3652.973832
910.915054	3617.877319
911.221229	3607.134620
911.527363	3620.110550
911.833458	3630.437354
912.139513	3661.490862
912.445527	3690.676622
912.751502	3771.468674
913.057436	3872.566494
913.363331	4007.167822
913.669186	4211.276579
913.975000	4468.554387
914.280775	4884.605855
914.586510	5471.978416
914.892205	6263.235403
915.197859	7311.394631
915.503475	8530.907720
915.809050	9598.818189
916.114585	10249.351366
916.420081	10512.950780
916.725536	10466.763729
917.030952	10025.783755
917.336328	9603.476215
917.641665	9195.233494
917.946961	8707.121252
918.252218	8286.124412
918.557435	7774.535517
918.862612	7343.042995
919.167750	6971.699000
919.472848	6544.713269
919.777906	6172.829870
920.082925	5812.962062
920.387904	5446.545794
920.692843	5184.506617
920.997743	4936.998567
921.302603	4706.799317
921.607423	4548.895255
921.912204	4381.586921
922.216946	4262.645937
922.521647	4141.990961
922.826310	4037.497924
923.130932	3943.818162
923.435516	3850.826518
923.740059	3775.443624
924.044564	3702.314125
924.349028	3641.235505
924.653454	3579.902307
924.957840	3507.344980
925.262186	3462.703042
925.566493	3402.186511
925.870761	3346.464117
926.174989	3310.518169
926.479178	3273.432921
926.783328	3230.046230
927.087438	3201.180583
927.391509	3169.691016
927.695541	3140.056593
927.999533	3111.785802
928.303486	3093.924994
928.607400	3078.983014
928.911275	3066.107907
929.215110	3050.097203
929.518906	3039.478012
929.822663	3037.658155
930.126381	3037.887528
930.430060	3045.673590
930.733699	3046.276008
931.037299	3055.508881
931.340861	3054.611556
931.644383	3064.867783
931.947866	3062.067422
932.251309	3056.925445
932.554714	3052.280022
932.858080	3049.830021
933.161407	3041.744011
933.464694	3033.990716
933.767943	3028.195910
934.071153	3023.134591
934.374323	3012.901049
934.677455	3007.219668
934.980548	2999.615088
935.283602	2998.034686
935.586617	2991.188799
935.889593	3000.802280
936.192530	3004.827641
936.495428	3019.825074
936.798287	3042.164947
937.101108	3075.124011
937.403890	3126.062350
937.706632	3189.132226
938.009336	3272.550719
938.312002	3345.738190
938.614628	3409.337387
938.917216	3460.071560
939.219765	3489.779079
939.522275	3524.328627
939.824747	3528.411962
940.127179	3523.993390
940.429573	3517.407123
940.731929	3514.947040
941.034246	3500.892303
941.336524	3488.654902
941.638763	3471.633446
941.940964	3458.967547
942.243126	3412.704878
942.545250	3388.963564
942.847335	3354.164479
943.149381	3318.014365
943.451389	3285.501443
943.753359	3249.752101
944.055290	3229.443812
944.357182	3200.474822
944.659036	3185.913449
944.960851	3178.253416
945.262628	3161.335303
945.564367	3168.692867
945.866067	3161.423523
946.167729	3158.839932
946.469352	3155.981598
946.770937	3149.748211
947.072484	3137.331849
947.373992	3137.533495
947.675462	3130.639717
947.976893	3112.909979
948.278286	3105.209617
948.579641	3097.731065
948.880958	3091.447267
949.182236	3095.570931
949.483476	3088.404931
949.784678	3088.415013
950.085841	3091.137236
950.386967	3098.237701
950.688054	3119.161010
950.989103	3136.689102
951.290114	3158.366064
951.591087	3186.767924
951.892021	3216.513253
952.192917	3243.710278
952.493776	3267.880090
952.794596	3277.516255
953.095378	3281.672687
953.396122	3278.403498
953.696828	3270.259514
953.997496	3259.622680
954.298126	3235.984709
954.598718	3214.801781
954.899272	3185.681556
955.199788	3159.028975
955.500266	3127.453708
955.800706	3091.250662
956.101108	3053.018551
956.401472	3017.954806
956.701798	2991.680312
957.002087	2950.927624
957.302337	2920.582398
957.602550	2896.384860
957.902724	2863.105683
958.202861	2838.809842
958.502960	2817.664722
958.803022	2797.958852
959.103045	2778.018568
959.403031	2762.184303
959.702979	2744.109246
960.002889	2735.509038
960.302762	2723.465721
960.602596	2711.692107
960.902393	2703.205324
961.202153	2691.966072
961.501875	2686.498940
961.801559	2679.663136
962.101205	2671.100736
962.400814	2669.608554
962.700385	2660.035403
962.999918	2653.572644
963.299414	2648.297076
963.598873	2648.105512
963.898293	2641.577218
964.197677	2642.217445
964.497022	2639.139820
964.796331	2638.176960
965.095601	2635.416928
965.394835	2630.907616
965.694030	2630.237143
965.993189	2628.283696
966.292309	2628.336628
966.591393	2625.102727
966.890439	2626.776391
967.189447	2626.852008
967.488419	2626.647841
967.787353	2627.472070
968.086249	2628.303860
968.385108	2630.242184
968.683930	2634.088584
968.982714	2635.991620
969.281462	2640.377424
969.580172	2645.642909
969.878844	2653.171872
970.177480	2663.435661
970.476078	2668.249963
970.774639	2676.020902
971.073162	2682.849145
971.371649	2690.819209
971.670098	2697.319777
971.968510	2702.849923
972.266885	2701.095601
972.565223	2708.697661
972.863524	2710.749411
973.161788	2714.875595
973.460014	2716.360215
973.758204	2722.487737
974.056356	2722.260886
974.354471	2723.750547
974.652550	2724.168962
974.950591	2722.112172
975.248595	2721.454301
975.546563	2717.106306
975.844493	2713.040615
976.142386	2708.783361
976.440243	2703.969059
976.738062	2703.056610
977.035845	2692.412214
977.333590	2688.863241
977.631299	2683.683456
977.928971	2675.819256
978.226606	2668.575118
978.524204	2665.411794
978.821765	2662.296361
979.119290	2664.113697
979.416777	2663.322235
979.714228	2665.094201
980.011642	2670.359686
980.309020	2675.725994
980.606360	2691.129240
980.903664	2717.222252
981.200931	2751.101327
981.498162	2801.003709
981.795356	2874.584390
982.092513	2966.396405
982.389633	3070.846592
982.686717	3163.533246
982.983764	3239.914289
983.280775	3285.514046
983.577749	3295.818164
983.874686	3278.995834
984.171587	3246.321595
984.468451	3206.317519
984.765279	3165.267403
985.062070	3118.218314
985.358824	3072.449679
985.655543	3015.809795
985.952224	2965.436065
986.248869	2899.384347
986.545478	2839.495439
986.842050	2787.054836
987.138586	2742.279308
987.435086	2700.667103
987.731549	2674.150634
988.027975	2647.843372
988.324366	2630.007770
988.620719	2616.235338
988.917037	2606.659666
989.213318	2597.353696
989.509563	2592.710793
989.805772	2586.444639
990.101944	2579.810481
990.398080	2576.213617
990.694180	2578.260326
990.990244	2577.436097
991.286271	2576.962229
991.582262	2577.438618
991.878217	2579.714699
992.174136	2587.420102
992.470019	2588.204002
992.765865	2591.760536
993.061676	2593.028386
993.357450	2604.365941
993.653188	2608.658484
993.948890	2626.794035
994.244556	2649.058291
994.540186	2669.951353
994.835780	2701.904706
995.131337	2740.151941
995.426859	2780.667694
995.722345	2827.580672
996.017795	2879.378527
996.313208	2913.938158
996.608586	2944.769855
996.903928	2955.303346
997.199234	2955.716720
997.494504	2954.121195
997.789738	2937.129986
998.084936	2915.097623
998.380099	2882.199053
998.675225	2852.181502
998.970316	2822.968016
999.265371	2785.723971
999.560390	2751.812129
999.855373	2719.263920
1000.150320	2694.118644
1000.445232	2666.457833
1000.740108	2646.411685
1001.034948	2627.930815
1001.329752	2612.031016
1001.624521	2601.255549
1001.919254	2589.784404
1002.213951	2580.344843
1002.508613	2576.589183
1002.803239	2567.996537
1003.097829	2558.856925
1003.392384	2556.485062
1003.686903	2551.733774
1003.981386	2551.514484
1004.275834	2542.803370
1004.570246	2541.414533
1004.864623	2540.565098
1005.158964	2536.915303
1005.453270	2533.212575
1005.747540	2534.135106
1006.041775	2534.051927
1006.335974	2532.375744
1006.630138	2529.945908
1006.924266	2529.779549
1007.218359	2530.903727
1007.512416	2526.533046
1007.806438	2523.997346
1008.100425	2523.155473
1008.394376	2521.630524
1008.688292	2526.059178
1008.982172	2523.883920
1009.276017	2526.318797
1009.569827	2524.854342
1009.863602	2523.863755
1010.157341	2522.573220
1010.451045	2522.742099
1010.744714	2520.415606
1011.038347	2520.617252
1011.331945	2516.609535
1011.625508	2517.940400
1011.919036	2517.713548
1012.212528	2518.280677
1012.505986	2513.872188
1012.799408	2515.334123
1013.092795	2512.879081
1013.386147	2513.300018
1013.679464	2515.656757
1013.972745	2512.581653
1014.265992	2512.359842
1014.559204	2516.649864
1014.852380	2511.969153
1015.145521	2514.149452
1015.438628	2513.042919
1015.731699	2511.880933
1016.024736	2512.697600
1016.317737	2515.490399
1016.610703	2515.198012
1016.903635	2519.190606
1017.196531	2516.942251
1017.489393	2522.820237
1017.782219	2521.234794
1018.075011	2522.149763
1018.367768	2522.517767
1018.660490	2524.481297
1018.953177	2524.481297
1019.245829	2524.481297
