Dividing Wavelength (nm)	Counts (n)	Blue Motor Position (mm): 33.200000	Red Motor Position (mm): 0.000000	
326.493990	2054.476880
326.888308	2054.476880
327.282561	2054.476880
327.676750	2027.622653
328.070874	2028.257838
328.464933	2037.399971
328.858929	2043.903059
329.252859	2056.309339
329.646726	2067.727553
330.040528	2084.935531
330.434265	2099.640577
330.827938	2126.411624
331.221547	2143.254119
331.615091	2164.570638
332.008571	2183.046467
332.401986	2206.482792
332.795338	2226.614639
333.188625	2243.888153
333.581847	2263.914137
333.975006	2281.177568
334.368100	2299.015691
334.761129	2315.633855
335.154095	2333.141782
335.546996	2382.736653
335.939833	2488.792448
336.332606	2496.833088
336.725315	2513.179030
337.117960	2522.916018
337.510540	2531.564118
337.903056	2542.085006
338.295508	2547.204298
338.687896	2555.746533
339.080220	2559.149312
339.472480	2566.970662
339.864676	2567.613409
340.256807	2570.892680
340.648875	2573.188925
341.040879	2571.963925
341.432818	2576.969791
341.824694	2577.920048
342.216506	2577.690676
342.608253	2577.494071
342.999937	2573.627506
343.391557	2571.510221
343.783113	2576.095150
344.174605	2570.053328
344.566033	2565.851526
344.957397	2567.994016
345.348697	2565.183573
345.739934	2564.777760
346.131106	2562.990671
346.522215	2558.289795
346.913260	2560.891030
347.304241	2559.096380
347.695159	2556.096893
348.086012	2559.534960
348.476802	2553.596481
348.867528	2552.736964
349.258191	2545.588608
349.648789	2547.390820
350.039324	2542.775644
350.429796	2548.673794
350.820203	2547.955430
351.210548	2547.632796
351.600828	2546.954761
351.991045	2545.520552
352.381198	2541.676673
352.771288	2541.285983
353.161314	2543.400747
353.551276	2544.345963
353.941175	2540.292876
354.331010	2540.892773
354.720782	2544.923176
355.110490	2548.129349
355.500135	2542.107691
355.889717	2545.255892
356.279235	2546.332178
356.668689	2546.372507
357.058080	2548.333516
357.447408	2546.546427
357.836672	2549.082128
358.225873	2544.356046
358.615010	2548.641027
359.004084	2546.236396
359.393095	2544.719009
359.782043	2548.699000
360.170927	2549.709751
360.559748	2549.871068
360.948505	2552.182437
361.337199	2553.402396
361.725830	2552.333672
362.114398	2552.893240
362.502903	2550.365101
362.891344	2555.524722
363.279722	2551.874927
363.668037	2555.403734
364.056289	2556.485062
364.444478	2555.234856
364.832603	2556.971533
365.220665	2556.868190
365.608665	2557.047151
365.996601	2554.340051
366.384474	2558.549414
366.772284	2556.343910
367.160031	2558.826678
367.547715	2558.463715
367.935336	2557.619322
368.322893	2555.358364
368.710388	2554.322407
369.097820	2557.130330
369.485189	2554.009855
369.872495	2561.649724
370.259738	2557.445402
370.646918	2563.371278
371.034035	2559.376164
371.421090	2559.605536
371.808081	2560.644014
372.195010	2560.787687
372.581875	2564.094684
372.968678	2560.923798
373.355418	2564.082081
373.742096	2561.193500
374.128710	2563.817420
374.515262	2565.191135
374.901751	2564.472770
375.288177	2565.612071
375.674540	2567.147102
376.060841	2567.237843
376.447079	2564.334138
376.833254	2564.717266
377.219367	2568.702298
377.605417	2564.908830
377.991404	2567.588203
378.377329	2567.583162
378.763191	2568.203224
379.148991	2566.012843
379.534727	2566.955538
379.920402	2569.251784
380.306013	2568.271280
380.691563	2571.265725
381.077049	2568.218347
381.462474	2568.329253
381.847835	2569.075344
382.233134	2571.822772
382.618371	2571.406877
383.003545	2572.808318
383.388657	2572.785633
383.773706	2573.685479
384.158693	2572.999882
384.543618	2571.076682
384.928480	2572.861250
385.313280	2571.563153
385.698017	2570.869994
386.082692	2573.307392
386.467305	2575.084399
386.851856	2576.463155
387.236344	2575.220510
387.620770	2572.135324
388.005133	2571.580797
388.389435	2572.399985
388.773674	2573.806467
389.157851	2574.577763
389.541965	2576.246385
389.926018	2577.589853
390.310008	2576.581622
390.693936	2581.690831
391.077802	2578.653536
391.461606	2579.969277
391.845348	2579.467682
392.229027	2580.259143
392.612645	2579.235789
392.996200	2578.530028
393.379694	2583.074628
393.763125	2583.031778
394.146494	2580.647312
394.529801	2582.424319
394.913047	2583.916501
395.296230	2581.446335
395.679351	2583.790472
396.062410	2583.465317
396.445408	2583.573702
396.828343	2586.794999
397.211217	2583.251068
397.594028	2585.751481
397.976778	2585.456573
398.359466	2582.832652
398.742092	2587.641913
399.124656	2585.416244
399.507158	2588.476224
399.889598	2586.868096
400.271977	2587.336923
400.654294	2590.898499
401.036549	2587.783066
401.418742	2588.219125
401.800874	2589.764239
402.182944	2592.045361
402.564952	2591.576534
402.946898	2591.117789
403.328783	2593.605598
403.710606	2594.049220
404.092367	2594.576020
404.474067	2595.087697
404.855705	2596.879828
405.237282	2596.330342
405.618797	2599.559201
406.000250	2598.775302
406.381642	2597.315887
406.762972	2595.327152
407.144240	2597.646083
407.525447	2595.337235
407.906593	2595.324632
408.287677	2601.797473
408.668700	2601.023656
409.049661	2606.243771
409.430560	2602.155395
409.811399	2606.211003
410.192176	2605.711929
410.572891	2606.773092
410.953545	2608.958432
411.334138	2610.367435
411.714669	2610.831221
412.095139	2613.916407
412.475547	2613.606376
412.855894	2613.651747
413.236180	2615.090996
413.616405	2620.321193
413.996568	2622.080556
414.376670	2623.809672
414.756711	2627.880403
415.136691	2631.943573
415.516609	2638.963380
415.896466	2640.780716
416.276262	2648.392858
416.655997	2657.855104
417.035670	2663.922133
417.415283	2675.763803
417.794834	2682.624813
418.174324	2689.642100
418.553753	2699.651311
418.933121	2713.895091
419.312428	2728.363202
419.691674	2733.588358
420.070859	2758.413520
420.449983	2770.580345
420.829045	2792.191772
421.208047	2807.950419
421.586988	2836.022084
421.965867	2861.006042
422.344686	2887.078890
422.723444	2921.613314
423.102141	2913.955802
423.480777	2972.937302
423.859352	2978.414515
424.237866	3037.491797
424.616319	3069.951787
424.994712	3116.973149
425.373044	3140.601038
425.751314	3207.839947
426.129524	3205.072354
426.507673	3276.770165
426.885762	3316.255002
427.263789	3365.297867
427.641756	3420.533790
428.019662	3472.795432
428.397508	3520.736805
428.775292	3559.984708
429.153016	3637.883138
429.530679	3672.694826
429.908282	3729.564083
430.285824	3761.177158
430.663305	3871.623798
431.040726	3895.100451
431.418086	3943.520734
431.795385	4036.121689
432.172624	4136.365033
432.549802	4156.272550
432.926920	4246.398298
433.303977	4292.575268
433.680974	4365.384652
434.057910	4489.381914
434.434786	4559.799271
434.811601	4606.724852
435.188355	4789.968273
435.565050	4810.906706
435.941683	4878.833733
436.318257	5067.995470
436.694770	5116.040187
437.071222	5269.127426
437.447614	5234.280450
437.823946	5287.477226
438.200218	5421.529068
438.576429	5435.036840
438.952580	5574.518005
439.328670	5651.335108
439.704700	5761.176809
440.080670	5763.591522
440.456580	5967.435618
440.832429	6032.290063
441.208218	5959.304237
441.583947	6081.471560
441.959616	6211.936621
442.335224	6301.260826
442.710773	6417.169556
443.086261	6590.945691
443.461689	6486.646738
443.837057	6641.395038
444.212365	6840.324010
444.587612	6906.025368
444.962800	6901.316930
445.337927	7055.263686
445.712995	6811.917108
446.088002	7322.293606
446.462949	7431.268228
446.837837	7505.383272
447.212664	7617.306970
447.587431	8355.420113
447.962139	9140.345411
448.336786	9767.553170
448.711374	9543.015136
449.085901	8739.243485
449.460369	8798.189697
449.834776	8801.970562
450.209124	9599.748282
450.583412	9483.963060
450.957640	9708.881701
451.331808	9438.355741
451.705917	9102.768650
452.079965	9092.729192
452.453954	9321.095982
452.827883	9335.087705
453.201752	9348.875260
453.575562	9416.976208
453.949311	9778.769737
454.323001	9898.295495
454.696632	9870.382626
455.070202	10433.837432
455.443713	10532.008862
455.817164	10714.551564
456.190556	11046.322501
456.563888	10932.228587
456.937160	11179.908037
457.310373	10754.911041
457.683526	10831.967598
458.056619	10912.913406
458.429653	11022.412308
458.802628	11224.083668
459.175542	11305.284054
459.548398	11859.455575
459.921194	12419.963828
460.293930	12761.370931
460.666607	13587.868104
461.039224	14309.978104
461.411782	14585.908180
461.784280	14249.025513
462.156719	14189.769270
462.529099	14129.320794
462.901419	13596.843878
463.273680	13281.731433
463.645882	13535.614023
464.018024	13518.189275
464.390106	13932.015074
464.762130	15096.463639
465.134094	16762.181858
465.505999	19012.300877
465.877845	20990.081642
466.249631	21881.859237
466.621358	21261.663723
466.993026	20453.392842
467.364634	19773.505025
467.736184	19102.308158
468.107674	18578.852387
468.479105	18455.558367
468.850477	18201.859779
469.221790	17790.998178
469.593043	17179.407914
469.964238	16846.124631
470.335373	16972.488714
470.706449	17836.595415
471.077467	18990.220623
471.448425	21331.849187
471.819324	22805.635555
472.190164	22295.120426
472.560945	20617.573140
472.931667	19233.012674
473.302330	18988.352875
473.672934	18550.823571
474.043479	18995.486108
474.413965	18807.176327
474.784393	18658.106887
475.154761	19281.054871
475.525070	19426.466953
475.895321	19263.511655
476.265513	19782.947106
476.635645	20363.874552
477.005719	20427.458626
477.375734	20826.087866
477.745691	21431.908529
478.115588	22102.664296
478.485427	23367.504919
478.855207	25246.907567
479.224928	26971.768602
479.594591	28135.191293
479.964194	27594.041071
480.333739	27971.462177
480.703226	28251.573891
481.072653	28766.338713
481.442022	29269.410579
481.811333	29576.724358
482.180584	29071.867924
482.549777	28865.709937
482.918912	28670.198868
483.287988	28618.118707
483.657005	28452.463872
484.025964	28112.294372
484.394864	28290.305076
484.763706	28241.421007
485.132489	27748.839782
485.501213	27848.140431
485.869879	28032.853349
486.238487	27986.268046
486.607036	28260.158976
486.975527	27993.930600
487.343959	28322.457555
487.712333	28648.262287
488.080648	28612.492780
488.448905	29044.464212
488.817104	28979.166146
489.185244	29888.917975
489.553326	31055.783773
489.921350	32989.651047
490.289315	35385.910596
490.657222	36069.909473
491.025070	36462.207024
491.392861	36062.892187
491.760593	35267.138491
492.128267	34257.286990
492.495883	33302.913388
492.863440	32465.635708
493.230939	31601.130755
493.598380	31078.032906
493.965763	30974.921145
494.333088	30521.897855
494.700354	30359.804594
495.067563	30337.058908
495.434713	30255.578738
495.801805	30563.164740
496.168839	30410.541287
496.535815	30281.719641
496.902733	30445.123602
497.269593	30262.520407
497.636395	30418.806258
498.003139	30718.144933
498.369825	30491.345942
498.736453	30902.472202
499.103023	30762.247467
499.469535	30858.556191
499.835989	30999.902583
500.202385	30878.514119
500.568723	30946.476434
500.935003	31273.380138
501.301226	31186.808403
501.667390	31883.490823
502.033497	32084.216967
502.399546	31877.743908
502.765537	31498.132420
503.131470	31957.946145
503.497345	32400.982910
503.863163	31387.998332
504.228923	32172.137210
504.594625	32566.123548
504.960269	32078.926276
505.325856	32744.414036
505.691385	32436.127314
506.056856	32758.448608
506.422270	33259.251955
506.787625	32794.704587
507.152924	33246.412136
507.518164	33466.660147
507.883347	33020.404606
508.248472	33206.385374
508.613540	33873.067888
508.978550	34116.921103
509.343503	33991.721526
509.708398	34358.896487
510.073236	34975.250642
510.438016	35069.517698
510.802738	34768.618787
511.167403	35331.894632
511.532010	35581.121717
511.896561	36074.083548
512.261053	36818.064595
512.625488	36606.275639
512.989866	36556.423669
513.354186	36615.231249
513.718449	36573.298932
514.082655	37471.531724
514.446803	37178.428957
514.810894	37794.120200
515.174927	37821.589447
515.538904	37817.904363
515.902822	38483.505550
516.266684	38186.589150
516.630488	38533.395329
516.994235	38551.346878
517.357925	39156.411368
517.721558	39409.636087
518.085133	39789.068614
518.448651	39988.506742
518.812112	39877.964321
519.175516	40027.505109
519.538863	40482.323050
519.902152	40539.923274
520.265385	41104.935797
520.628560	41120.303754
520.991678	41077.285068
521.354739	41303.794192
521.717743	41679.511389
522.080690	41599.997269
522.443580	42262.709874
522.806413	42281.967082
523.169189	42426.733897
523.531908	42670.730784
523.894569	42517.351158
524.257174	42734.183788
524.619722	43079.386880
524.982213	43201.622257
525.344647	43242.140532
525.707025	43382.962644
526.069345	43830.672558
526.431608	43724.727669
526.793815	44118.025889
527.155964	43686.563613
527.518057	43951.244355
527.880093	43790.098831
528.242072	44428.450060
528.603995	44161.205892
528.965860	44084.845014
529.327669	44311.127287
529.689421	44369.894538
530.051117	44318.225232
530.412755	44615.933092
530.774337	44672.630950
531.135862	44622.511798
531.497331	44755.822591
531.858743	44759.293426
532.220098	45170.165108
532.581396	44903.593934
532.942638	44663.377912
533.303824	44906.699285
533.664953	44983.483619
534.026025	44651.395089
534.387040	45230.868162
534.747999	45309.706767
535.108902	45607.270955
535.469748	44939.595334
535.830537	45194.186206
536.191270	45441.031345
536.551947	45184.308065
536.912567	45461.906763
537.273131	45610.953518
537.633638	45243.695378
537.994089	45453.256143
538.354483	45188.804774
538.714821	45847.302975
539.075103	46121.720705
539.435328	45979.353479
539.795497	45732.278968
540.155609	45859.318565
540.515665	46444.820858
540.875665	45753.842503
541.235609	46031.859617
541.595496	46151.816394
541.955328	46725.950885
542.315102	46158.707651
542.674821	46058.597897
543.034483	45950.674355
543.394090	45964.827395
543.753640	45954.510673
544.113134	47010.324894
544.472571	46108.167563
544.831953	47252.378416
545.191278	46505.778490
545.550548	46219.640078
545.909761	46842.275510
546.268918	46986.258425
546.628019	47394.987617
546.987064	46821.120308
547.346053	46116.853471
547.704986	47046.643887
548.063863	46686.065275
548.422684	46886.912406
548.781449	46492.462282
549.140158	47032.405148
549.498811	46782.293341
549.857408	46153.414439
550.215949	47021.506173
550.574434	46842.726693
550.932864	46782.373999
551.291237	47512.025566
551.649555	47251.508817
552.007817	47443.675081
552.366022	47108.045140
552.724173	47175.654575
553.082267	47593.183101
553.440305	47945.383315
553.798288	47190.397430
554.156215	47575.544104
554.514086	47787.176784
554.871902	47420.140454
555.229661	47586.584231
555.587365	47253.744569
555.945014	47402.960202
556.302606	47419.399405
556.660143	47515.871966
557.017625	47731.824914
557.375050	47441.497303
557.732421	47850.854118
558.089735	47907.123478
558.446994	47788.747103
558.804197	48262.630688
559.161345	48134.585380
559.518437	47459.675703
559.875474	47734.567302
560.232455	47957.996282
560.589381	48014.469808
560.946251	47826.185232
561.303065	48476.201691
561.659825	48173.278757
562.016528	47969.699320
562.373177	47549.004950
562.729770	48185.170839
563.086307	47698.913742
563.442789	48249.339686
563.799216	48102.054815
564.155587	47987.706322
564.511904	47970.856265
564.868164	48012.110548
565.224370	48329.741049
565.580520	48081.050847
565.936615	48255.626005
566.292654	47914.145805
566.648638	48281.192217
567.004567	48209.144046
567.360441	48328.553857
567.716260	48039.431081
568.072023	48387.623577
568.427732	48326.239967
568.783385	47864.661839
569.138982	48261.047766
569.494525	48407.752904
569.850013	48015.047020
570.205445	48129.496336
570.560823	47908.131708
570.916145	47791.212227
571.271412	48009.027882
571.626625	47662.357814
571.981782	47741.566944
572.336884	47322.768047
572.691931	47648.592944
573.046923	47337.752877
573.401860	47165.983122
573.756743	47193.434725
574.111570	47317.910896
574.466342	47245.025893
574.821059	47386.808345
575.175722	46890.937768
575.530330	46991.511307
575.884882	46623.431459
576.239380	46520.266767
576.593823	46612.416538
576.948211	46544.975982
577.302544	46105.518437
577.656823	46109.274096
578.011047	46362.355143
578.365216	46181.796136
578.719330	45901.709628
579.073389	45867.981788
579.427394	45917.836279
579.781344	45852.560898
580.135239	45616.415608
580.489080	45669.393094
580.842866	45160.745712
581.196597	45660.931517
581.550273	45654.194015
581.903895	45579.098467
582.257463	46025.444749
582.610975	45458.569520
582.964434	45795.699204
583.317837	45297.565148
583.671186	45256.268016
584.024481	45529.942176
584.377721	45058.271657
584.730906	45276.745183
585.084037	45400.099697
585.437113	45105.567763
585.790135	45227.009159
586.143103	44782.197908
586.496016	44941.412670
586.848874	45044.108536
587.201679	45052.645730
587.554428	44571.132358
587.907124	44856.023086
588.259765	44608.459582
588.612352	44783.974915
588.964884	44220.232763
589.317362	44547.522114
589.669786	44535.723294
590.022155	44389.736519
590.374470	44850.266088
590.726731	44407.481381
591.078937	43755.599695
591.431090	44078.099950
591.783188	43625.215292
592.135232	43408.135645
592.487222	43678.850648
592.839157	43831.953011
593.191038	43466.023215
593.542866	43265.541568
593.894639	42668.978983
594.246358	42963.999909
594.598022	42964.274652
594.949633	42531.484033
595.301190	42507.142821
595.652692	42451.949748
596.004141	42937.332205
596.355535	41839.005935
596.706876	41852.803573
597.058162	41579.502458
597.409395	42075.526791
597.760573	42298.159268
598.111698	41898.922569
598.462768	41810.079794
598.813785	41832.906138
599.164748	41427.962853
599.515657	41695.474202
599.866511	41210.114431
600.217312	41891.600293
600.568060	40830.533190
600.918753	41662.701661
601.269392	41589.388161
601.619978	41299.778913
601.970510	41510.978054
602.320988	41648.135247
602.671412	41908.934300
603.021783	41770.226952
603.372100	41340.816426
603.722363	41450.020422
604.072572	41482.084681
604.422728	41474.041520
604.772830	41254.877356
605.122878	41416.612695
605.472872	41285.320884
605.822813	41520.246215
606.172701	41284.342900
606.522534	41611.463373
606.872314	41828.853051
607.222041	41640.621407
607.571714	41992.289779
607.921333	41477.981181
608.270899	41700.757332
608.620411	42089.079933
608.969870	41809.978971
609.319276	41844.097500
609.668627	41873.210163
610.017926	42267.461162
610.367171	42413.362236
610.716362	42460.048362
611.065500	42331.204032
611.414585	42564.702716
611.763616	42741.064963
612.112594	42644.846980
612.461518	42762.878035
612.810389	43149.461439
613.159207	42943.603401
613.507971	42936.462606
613.856682	43415.979681
614.205340	43248.522632
614.553945	43948.282677
614.902496	43256.548149
615.250994	43673.116336
615.599439	43747.443108
615.947830	43851.142163
616.296169	43850.199467
616.644454	43903.330708
616.992686	44068.521758
617.340864	44524.799113
617.688990	44034.234350
618.037063	44719.533845
618.385082	44551.340788
618.733048	44881.627106
619.080961	44752.732364
619.428821	44774.880673
619.776628	44782.986849
620.124382	44590.651706
620.472083	44703.639087
620.819731	44799.577286
621.167326	44349.109861
621.514868	44336.562429
621.862357	43800.826407
622.209793	43880.214497
622.557176	43447.481851
622.904506	43215.954258
623.251783	42835.803367
623.599007	42528.877756
623.946179	42432.921913
624.293297	42183.891434
624.640363	41622.609365
624.987376	41490.352173
625.334336	41280.304936
625.681243	40858.579649
626.028097	40789.089864
626.374899	40589.147620
626.721647	40562.260626
627.068343	40358.973577
627.414987	40061.464842
627.761577	39812.252881
628.108115	40124.580088
628.454600	39385.299917
628.801032	39615.100915
629.147412	39506.640490
629.493739	39435.426631
629.840014	38990.348199
630.186236	39402.185262
630.532405	38853.354843
630.878521	39096.703942
631.224585	38865.148622
631.570597	38524.018783
631.916556	38689.247641
632.262462	38557.436592
632.608316	38506.752831
632.954117	38368.962973
633.299866	38326.115686
633.645562	38228.423165
633.991206	37696.432720
634.336797	37282.659854
634.682336	37172.697165
635.027823	36947.871786
635.373257	36801.663201
635.718639	36476.539025
636.063968	36364.615327
636.409245	35714.399742
636.754470	35674.098238
637.099642	35459.403057
637.444762	34887.343001
637.789829	35037.705497
638.134845	34642.930218
638.479808	34552.791867
638.824719	34515.653687
639.169577	34000.866179
639.514383	34088.065538
639.859137	33722.743201
640.203839	33886.495002
640.548489	33578.021757
640.893086	33583.751028
641.237632	33309.144254
641.582125	33409.753082
641.926566	33201.082081
642.270955	33244.042794
642.615292	33159.444670
642.959576	33060.224680
643.303809	33052.980542
643.647990	33148.701972
643.992118	33103.939046
644.336195	32955.257775
644.680219	33035.928839
645.024192	33241.620519
645.368112	33778.823517
645.711981	33797.072494
646.055797	34530.124319
646.399562	34337.017880
646.743274	35222.060493
647.086935	35615.825020
647.430544	35572.637455
647.774101	35606.413186
648.117606	35899.498308
648.461059	36040.355709
648.804460	35610.657837
649.147810	35112.271724
649.491108	34755.131180
649.834354	34606.487717
650.177548	33759.931793
650.520690	33276.250726
650.863781	33259.463683
651.206820	33087.981273
651.549807	32677.195291
651.892742	32094.561414
652.235626	31999.946518
652.578458	31869.012629
652.921238	31181.086693
653.263967	31490.313591
653.606644	31197.115042
653.949269	31097.060741
654.291843	30706.983818
654.634365	31073.115260
654.976836	30606.990011
655.319255	30683.693687
655.661622	30561.987631
656.003938	30419.920353
656.346203	30241.100544
656.688416	30487.426445
657.030577	30253.559756
657.372687	30078.097355
657.714746	30233.831200
658.056753	30430.448803
658.398708	29811.909309
658.740612	29881.943538
659.082465	30097.523442
659.424266	29977.969958
659.766016	29990.557719
660.107715	29841.594143
660.449362	29955.955239
660.790958	29936.380438
661.132503	29860.591731
661.473996	29937.139132
661.815438	30020.318170
662.156829	30144.615380
662.498168	29936.211560
662.839456	29920.972152
663.180693	30051.376719
663.521879	30145.890792
663.863013	30091.463975
664.204097	30061.083461
664.545129	30486.637504
664.886110	30418.435734
665.227040	30538.024506
665.567918	30520.914830
665.908746	30598.231006
666.249522	30690.045541
666.590248	30709.562368
666.930922	30804.081482
667.271545	30793.815172
667.612118	30852.738699
667.952639	30673.908808
668.293109	30705.703365
668.633528	30556.291127
668.973896	30519.510868
669.314213	30501.655101
669.654480	30321.764047
669.994695	30307.432047
670.334859	30217.649097
670.674973	30050.244980
671.015035	30240.422509
671.355047	30186.862770
671.695008	30108.122467
672.034918	30017.419507
672.374777	30119.066813
672.714585	29978.015328
673.054342	30119.575969
673.394049	29970.998042
673.733705	30183.369250
674.073310	29899.857279
674.412864	29965.979573
674.752368	29653.188580
675.091820	29875.629493
675.431223	29476.811210
675.770574	29262.645350
676.109875	29113.356620
676.449125	28911.584438
676.788324	28791.025243
677.127473	28328.191868
677.466571	28211.796666
677.805619	27937.406662
678.144616	27866.568369
678.483562	27832.071753
678.822458	27492.522315
679.161303	27451.220142
679.500098	27369.228295
679.838842	27307.418708
680.177535	27396.911791
680.516179	27644.107291
680.854771	27767.708821
681.193314	28548.686896
681.531805	29578.985316
681.870247	30329.096405
682.208638	31073.034602
682.546978	31323.169094
682.885268	31445.507815
683.223508	31012.381959
683.561697	30725.913351
683.899836	30576.748129
684.237925	30158.939819
684.575963	30007.841315
684.913951	29630.662184
685.251889	29804.829008
685.589776	29842.123464
685.927614	29852.891369
686.265401	30033.977177
686.603137	30140.426181
686.940824	30643.440074
687.278460	30985.192496
687.616046	31154.870173
687.953582	31811.122539
688.291068	31727.956104
688.628504	32052.445094
688.965889	32032.865253
689.303224	31768.562598
689.640510	31470.456486
689.977745	30839.087255
690.314930	30083.743448
690.652065	29637.611414
690.989150	28973.401587
691.326185	28107.394370
691.663170	27475.654614
692.000105	26735.567859
692.336990	26127.491279
692.673825	25700.452617
693.010610	25216.330448
693.347345	24704.587798
693.684030	24082.990843
694.020665	23891.991606
694.357251	23208.791752
694.693786	23210.173028
695.030272	22975.736689
695.366707	22481.701092
695.703093	22204.624153
696.039429	22279.855812
696.375716	22046.682282
696.711952	22040.393443
697.048139	21908.388309
697.384276	21742.967886
697.720363	21857.565916
698.056400	21752.898959
698.392388	21583.392682
698.728326	21590.667067
699.064214	21420.848238
699.400053	21423.068866
699.735842	21025.634379
700.071581	20826.216415
700.407270	20581.251627
700.742910	20411.629402
701.078501	20151.707510
701.414042	19963.818665
701.749533	19647.604728
702.084974	19324.353341
702.420366	19569.391227
702.755709	19164.566408
703.091002	18860.942753
703.426246	18923.705118
703.761440	18843.805351
704.096584	18610.412530
704.431679	18549.822902
704.766725	18497.228544
705.101721	18429.455272
705.436668	18544.166728
705.771565	18278.495399
706.106413	18590.061392
706.441212	18664.720881
706.775961	18772.767931
707.110661	18847.492955
707.445311	19216.911229
707.779913	19091.993957
708.114465	19391.073012
708.448967	19715.340192
708.783421	20348.811584
709.117825	20709.491019
709.452180	20943.231678
709.786485	21406.531361
710.120742	22165.429182
710.454949	22275.500255
710.789107	22787.648718
711.123216	23501.866792
711.457275	23717.045924
711.791286	24271.915645
712.125247	24424.251753
712.459159	24138.435974
712.793023	24894.392281
713.126837	23868.651064
713.460602	24104.191416
713.794318	23760.440176
714.127985	23485.513289
714.461602	22572.255338
714.795171	22557.310837
715.128691	21577.665931
715.462162	21055.788041
715.795584	20628.104110
716.128957	20358.026814
716.462281	19985.336830
716.795556	19687.623928
717.128782	19216.490293
717.461960	18609.240462
717.795088	18575.711748
718.128167	18239.582733
718.461198	17780.303371
718.794180	17651.239750
719.127113	17326.723033
719.459997	17125.883463
719.792833	16754.794047
720.125619	16806.178528
720.458357	16464.262268
720.791046	16329.749160
721.123686	16177.985223
721.456278	15949.888135
721.788821	15948.486695
722.121315	15680.516600
722.453761	15789.960050
722.786158	15673.030487
723.118506	15750.916314
723.450805	15631.733354
723.783056	15814.944009
724.115259	15705.177925
724.447412	15701.941504
724.779518	15914.163999
725.111574	15972.235570
725.443582	16237.992598
725.775542	16201.154367
726.107453	16715.452882
726.439315	16638.209802
726.771129	17061.308803
727.102895	17478.917988
727.434612	17757.202283
727.766281	17914.319925
728.097901	18235.673318
728.429473	18328.354932
728.760996	18337.912959
729.092471	18461.728739
729.423897	18353.427110
729.755276	18219.287047
730.086606	18334.679059
730.417887	18923.195962
730.749120	19482.748915
731.080305	19692.370175
731.411442	20101.147258
731.742530	20217.441636
732.073570	20374.957529
732.404562	20699.232271
732.735506	20531.359327
733.066401	20321.886782
733.397249	19816.090172
733.728048	19186.586168
734.058798	18317.856729
734.389501	17552.710398
734.720156	17045.479580
735.050762	16468.307794
735.381320	16080.678351
735.711831	15812.798998
736.042293	15439.168839
736.372707	15473.771319
736.703073	15277.521721
737.033391	15470.965917
737.363661	15477.559746
737.693883	15599.943838
738.024056	15800.803572
738.354182	16026.148190
738.684260	16394.180147
739.014290	16668.116447
739.344272	16894.489461
739.674207	17248.355776
740.004093	17424.425635
740.333931	17467.348540
740.663722	17548.853915
740.993464	17582.269203
741.323159	17422.741890
741.652806	17123.708206
741.982405	16949.163295
742.311956	16589.953357
742.641460	16469.676467
742.970915	16136.862011
743.300323	15794.975998
743.629683	15578.211424
743.958996	15268.094763
744.288260	14946.207007
744.617477	14638.525224
744.946647	14607.433907
745.275768	14296.500579
745.604842	14089.727572
745.933869	13917.831787
746.262847	13887.791552
746.591778	13805.756855
746.920662	13687.914843
747.249498	13698.367675
747.578286	13861.436399
747.907027	14033.690106
748.235720	14305.302434
748.564365	14380.135842
748.892963	14297.700374
749.221514	14404.202311
749.550017	14256.004990
749.878473	14233.539088
750.206881	14000.539478
750.535242	13932.869549
750.863555	13849.756046
751.191821	13756.492179
751.520039	13773.783337
751.848210	13693.976830
752.176334	13747.097989
752.504411	13670.235516
752.832440	13494.909227
753.160421	13609.313172
753.488356	13496.033404
753.816243	13400.266604
754.144082	13241.825660
754.471875	13194.078371
754.799620	13159.967403
755.127318	13132.949339
755.454969	13120.424593
755.782572	13087.536105
756.110129	13106.682407
756.437638	13005.650123
756.765100	13008.972243
757.092515	13036.733877
757.419882	13076.256523
757.747203	13093.033483
758.074477	13183.403728
758.401703	13171.007530
758.728882	13366.279145
759.056014	13406.174837
759.383099	13577.780755
759.710138	13703.083675
760.037129	13822.967354
760.364073	13891.721131
760.690970	13912.238627
761.017820	13931.480712
761.344623	14154.720648
761.671379	14539.423701
761.998088	15252.215128
762.324751	17038.850463
762.651366	20481.207408
762.977935	24988.571117
763.304456	27963.509757
763.630931	29001.846297
763.957359	27778.635522
764.283740	25490.435627
764.610074	23211.519016
764.936362	20553.681556
765.262602	18672.663219
765.588796	16736.023310
765.914943	15446.281907
766.241044	14333.807638
766.567097	13553.462229
766.893104	12826.308554
767.219064	12359.265815
767.544978	11882.365099
767.870845	11492.452014
768.196665	11273.262644
768.522438	11040.638600
768.848165	10833.732002
769.173846	10629.915632
769.499479	10497.083748
769.825066	10330.098048
770.150607	10095.185320
770.476101	10014.751190
770.801548	9888.772755
771.126949	9729.777283
771.452303	9627.172158
771.777611	9423.587681
772.102872	9415.829345
772.428087	9275.803735
772.753256	9116.571329
773.078378	9024.038430
773.403453	8840.076644
773.728482	8733.199141
774.053465	8653.296853
774.378401	8557.235146
774.703291	8429.046165
775.028135	8308.585273
775.352932	8271.527751
775.677683	8171.034870
776.002388	8061.538488
776.327046	8074.758914
776.651658	7977.562947
776.976224	7865.609002
777.300743	7875.880353
777.625216	7786.329297
777.949643	7744.016372
778.274024	7755.205213
778.598359	7665.679362
778.922647	7687.172321
779.246889	7638.346225
779.571086	7645.257647
779.895236	7654.850963
780.219339	7669.704723
780.543397	7663.461254
780.867409	7749.284378
781.191374	7757.226715
781.515294	7722.813279
781.839167	7820.851118
782.162995	7789.729555
782.486776	7735.645536
782.810511	7688.551077
783.134201	7598.747962
783.457844	7585.784635
783.781441	7536.537603
784.104993	7469.336502
784.428498	7449.126516
784.751958	7427.668844
785.075372	7408.641009
785.398739	7350.355188
785.722061	7395.750779
786.045337	7403.559526
786.368568	7555.610808
786.691752	7586.931497
787.014891	7928.789784
787.337983	8288.259341
787.661030	8881.056183
787.984031	9519.944296
788.306987	9928.852449
788.629897	10133.982040
788.952760	10078.136137
789.275579	9858.840904
789.598351	9450.855282
789.921078	9094.443185
790.243759	8679.115122
790.566395	8382.609576
790.888984	8132.966597
791.211529	7924.678723
791.534027	7700.470885
791.856480	7497.934967
792.178888	7428.679596
792.501249	7325.043555
792.823566	7173.619896
793.145836	7170.244844
793.468062	7144.474465
793.790241	7100.167764
794.112375	7164.757548
794.434464	7321.053482
794.756507	7360.644183
795.078505	7527.924792
795.400457	7840.032708
795.722364	8196.086884
796.044226	8482.668918
796.366042	8759.811392
796.687812	8704.625881
797.009538	8784.197974
797.331218	8673.093464
797.652852	8586.330165
797.974442	8438.258874
798.295986	8343.969132
798.617484	8154.681367
798.938938	8007.043615
799.260346	7908.804129
799.581709	7708.995476
799.903026	7629.672920
800.224299	7522.364399
800.545526	7346.609611
800.866708	7250.144612
801.187845	7180.183479
801.508936	7078.407624
801.829983	7041.498816
802.150984	6884.907974
802.471940	6841.317117
802.792851	6825.029149
803.113717	6797.577546
803.434538	6763.322905
803.755314	6703.744029
804.076045	6702.866868
804.396731	6654.882645
804.717372	6687.287182
805.037967	6691.047883
805.358518	6732.518935
805.679024	6813.482386
805.999485	6822.047307
806.319901	6867.954574
806.640272	6888.335959
806.960598	6971.749411
807.280879	6973.876778
807.601115	7050.409055
807.921306	6997.066086
808.241453	7010.962026
808.561554	7031.776951
808.881611	6997.602969
809.201623	7003.367528
809.521590	6949.069260
809.841513	6927.636794
810.161390	6971.172199
810.481223	6832.293452
810.801011	6816.244938
811.120755	6795.563605
811.440453	6715.442026
811.760107	6686.548653
812.079716	6654.466750
812.399281	6586.350679
812.718801	6569.495581
813.038276	6533.809253
813.357707	6469.393389
813.677093	6511.403845
813.996434	6411.914153
814.315731	6459.878211
814.634983	6451.875380
814.954191	6462.834848
815.273354	6571.196971
815.592473	6633.719881
815.911547	6764.187463
816.230577	6847.341296
816.549562	6992.072823
816.868502	7088.532781
817.187399	7187.170518
817.506250	7349.485589
817.825058	7378.235290
818.143821	7648.549521
818.462539	7922.715193
818.781213	8296.743603
819.099843	8853.148356
819.418429	9860.277633
819.736970	10843.312715
820.055466	12031.023685
820.373919	13583.376436
820.692327	15955.551872
821.010691	20134.076075
821.329011	29206.108810
821.647286	42337.623941
821.965517	55800.990668
822.283704	61113.318262
822.601847	63077.200566
822.919945	60387.697098
823.237999	56212.701703
823.556010	50055.882537
823.873976	43293.149447
824.191897	36713.846301
824.509775	31842.085306
824.827609	27286.765100
825.145398	24658.917464
825.463144	23287.922744
825.780845	23603.367905
826.098502	25397.207048
826.416116	29227.944568
826.733685	32941.187915
827.051210	34132.238649
827.368692	32320.798317
827.686129	28325.900663
828.003522	24153.153622
828.320872	20396.195910
828.638177	17525.294083
828.955439	15347.828173
829.272656	13517.715407
829.589830	12034.315558
829.906960	10756.231824
830.224046	9798.273961
830.541088	9044.901245
830.858086	8584.006193
831.175041	8205.813790
831.491952	8086.492199
831.808819	8130.367882
832.125642	8534.015591
832.442421	9435.134444
832.759157	11252.916547
833.075849	14211.998238
833.392497	17472.982029
833.709101	19684.057312
834.025662	19514.364512
834.342179	17794.834497
834.658653	15569.593572
834.975083	13615.415489
835.291469	11987.037097
835.607811	10656.797585
835.924110	9736.315660
836.240366	8856.714972
836.556578	8049.938793
836.872746	7397.366469
837.188871	6894.541619
837.504952	6476.582075
837.820990	6158.008878
838.136984	5940.999808
838.452935	5844.824675
838.768842	5877.335076
839.084706	6299.428367
839.400526	7526.717435
839.716303	9126.779666
840.032037	10233.809489
840.347727	10156.705041
840.663373	9172.371861
840.978977	8110.112526
841.294537	7293.233874
841.610054	6695.065682
841.925527	6255.227530
842.240957	5886.625922
842.556344	5557.514193
842.871687	5271.416110
843.186987	4984.937419
843.502244	4764.079428
843.817458	4594.558027
844.132629	4455.467551
844.447756	4365.702245
844.762840	4283.937250
845.077881	4209.517217
845.392879	4147.463133
845.707833	4095.153601
846.022745	4051.678690
846.337613	4028.428888
846.652438	3979.968276
846.967221	3963.755926
847.281960	3932.062191
847.596656	3914.279521
847.911309	3894.387128
848.225919	3869.292264
848.540485	3854.337681
848.855009	3838.720187
849.169490	3818.079182
849.483928	3806.262718
849.798323	3799.794917
850.112675	3776.421608
850.426984	3786.261940
850.741251	3773.759878
851.055474	3765.951131
851.369654	3773.182666
851.683792	3770.878859
851.997887	3774.984879
852.311938	3775.413377
852.625947	3780.081485
852.939914	3769.679064
853.253837	3780.449489
853.567718	3781.389665
853.881555	3767.097993
854.195350	3781.581228
854.509103	3778.125518
854.822812	3779.481588
855.136479	3768.159156
855.450103	3778.972431
855.763685	3763.738064
856.077224	3770.299126
856.390720	3787.386117
856.704173	3805.519148
857.017584	3820.425839
857.330953	3829.152077
857.644278	3853.883977
857.957561	3860.495451
858.270802	3854.236858
858.584000	3861.712889
858.897155	3851.376003
859.210268	3838.730269
859.523339	3815.546003
859.836367	3813.998368
860.149352	3806.131648
860.462295	3799.958755
860.775195	3787.439049
861.088054	3780.661218
861.400869	3781.099798
861.713642	3780.041156
862.026373	3790.683032
862.339062	3798.640493
862.651708	3817.237310
862.964312	3850.022454
863.276873	3864.639279
863.589392	3925.259154
863.901869	3970.616936
864.214303	4014.966487
864.526696	4048.953946
864.839045	4097.291050
865.151353	4122.630410
865.463619	4131.457470
865.775842	4141.196979
866.088023	4160.534845
866.400162	4146.011281
866.712258	4156.025533
867.024313	4157.154752
867.336325	4153.240296
867.648296	4159.982839
867.960224	4158.616686
868.272110	4172.643697
868.583954	4173.215868
868.895755	4187.646171
869.207515	4185.632230
869.519233	4225.956419
869.830909	4242.519130
870.142542	4268.183645
870.454134	4283.554123
870.765684	4310.131086
871.077191	4345.509903
871.388657	4366.592009
871.700081	4406.275972
872.011463	4454.892860
872.322803	4489.535669
872.634101	4516.331922
872.945357	4560.147111
873.256571	4615.700626
873.567744	4642.133916
873.878874	4663.770549
874.189963	4704.445098
874.501010	4711.462385
874.812015	4712.521027
875.122979	4750.087705
875.433900	4752.033591
875.744780	4764.684366
876.055618	4792.506494
876.366415	4793.547493
876.677169	4813.087005
876.987882	4861.040981
877.298554	4913.862191
877.609183	4995.057535
877.919771	5106.880410
878.230317	5249.973562
878.540822	5468.063960
878.851285	5796.429598
879.161707	6263.744559
879.472087	7029.458020
879.782425	8285.005276
880.092722	10503.617084
880.402977	13845.730685
880.713191	17668.495619
881.023363	21446.933688
881.333494	23681.972096
881.643583	24922.665593
881.953631	24917.853811
882.263637	24049.026069
882.573602	22537.993136
882.883526	20968.127417
883.193408	19266.256563
883.503248	17534.809261
883.813048	15969.251207
884.122806	14516.292366
884.432522	13032.068289
884.742197	11745.220509
885.051831	10641.863166
885.361424	9634.028128
885.670975	8803.775295
885.980485	8099.037111
886.289954	7522.074533
886.599382	7043.918570
886.908768	6662.081413
887.218113	6299.856865
887.527417	6005.060270
887.836680	5732.558178
888.145901	5514.369478
888.455082	5345.261452
888.764221	5195.498853
889.073319	5058.613883
889.382376	4989.315661
889.691392	4929.439356
890.000366	4902.501951
890.309300	4885.351945
890.618193	4889.468047
890.927044	4875.488928
891.235855	4896.192947
891.544625	4928.693266
891.853353	4990.762472
892.162041	5108.801090
892.470687	5300.800996
892.779293	5547.862904
893.087858	5928.207880
893.396381	6513.800913
893.704864	7326.061868
894.013306	8501.331270
894.321707	9697.624804
894.630068	10530.637668
894.938387	10745.446275
895.246665	10504.975675
895.554903	9884.588597
895.863100	9175.696502
896.171256	8606.086447
896.479371	8084.233762
896.787446	7588.496776
897.095480	7149.858418
897.403473	6826.791032
897.711425	6504.845304
898.019336	6235.854376
898.327207	5957.363393
898.635038	5724.958639
898.942827	5471.716276
899.250576	5278.274600
899.558284	5078.965021
899.865952	4955.486998
900.173579	4807.599709
900.481165	4698.917473
900.788711	4604.894913
901.096216	4523.692007
901.403681	4464.586998
901.711105	4441.115386
902.018489	4427.393365
902.325832	4496.951206
902.633135	4621.422336
902.940397	4972.778156
903.247619	5776.181803
903.554800	7243.928869
903.861941	9186.338378
904.169041	10726.433563
904.476101	11365.528363
904.783121	11005.819351
905.090100	10253.863199
905.397039	9405.341225
905.703938	8634.321950
906.010796	7933.909075
906.317614	7367.787498
906.624391	6829.004099
906.931129	6394.726339
907.237826	5996.155072
907.544483	5614.484273
907.851099	5231.583433
908.157675	4878.649731
908.464211	4549.129669
908.770707	4308.480108
909.077163	4106.559211
909.383578	3960.083445
909.689954	3843.695806
909.996289	3773.321298
910.302584	3707.594734
910.608839	3674.106349
910.915054	3641.971514
911.221229	3631.337200
911.527363	3641.853047
911.833458	3654.213956
912.139513	3681.010209
912.445527	3712.222513
912.751502	3796.019093
913.057436	3902.573962
913.363331	4036.401473
913.669186	4240.469901
913.975000	4504.109645
914.280775	4930.772742
914.586510	5522.853740
914.892205	6325.808725
915.197859	7383.170579
915.503475	8625.250393
915.809050	9709.184170
916.114585	10365.754129
916.420081	10630.729778
916.725536	10604.145253
917.030952	10147.497373
917.336328	9727.158404
917.641665	9304.434969
917.946961	8818.233324
918.252218	8395.346052
918.557435	7872.727112
918.862612	7436.823580
919.167750	7048.979888
919.472848	6620.993488
919.777906	6246.362661
920.082925	5878.426486
920.387904	5506.414537
920.692843	5233.478907
920.997743	4983.432635
921.302603	4748.131738
921.607423	4584.291717
921.912204	4419.728291
922.216946	4298.002070
922.521647	4173.717463
922.826310	4067.218047
923.130932	3973.192966
923.435516	3877.645456
923.740059	3800.152839
924.044564	3723.502095
924.349028	3666.436233
924.653454	3599.270420
924.957840	3525.651930
925.262186	3479.530413
925.566493	3418.303079
925.870761	3362.091693
926.174989	3326.491065
926.479178	3290.494706
926.783328	3244.065679
927.087438	3216.609035
927.391509	3180.741225
927.695541	3153.067811
927.999533	3125.114613
928.303486	3105.610389
928.607400	3089.196392
928.911275	3079.005699
929.215110	3059.312432
929.518906	3048.791544
929.822663	3050.409754
930.126381	3048.516801
930.430060	3057.772359
930.733699	3052.370763
931.037299	3068.389029
931.340861	3065.497928
931.644383	3075.849937
931.947866	3072.376582
932.251309	3066.327197
932.554714	3067.038000
932.858080	3060.464335
933.161407	3050.926472
933.464694	3041.870039
933.767943	3036.246632
934.071153	3030.144316
934.374323	3019.726771
934.677455	3018.292563
934.980548	3008.744618
935.283602	3006.655059
935.586617	2998.511075
935.889593	3011.413908
936.192530	3016.586132
936.495428	3027.991743
936.798287	3049.895556
937.101108	3086.857296
937.403890	3138.869401
937.706632	3202.408104
938.009336	3280.059517
938.312002	3355.298739
938.614628	3421.350457
938.917216	3473.927171
939.219765	3505.270545
939.522275	3538.048127
939.824747	3546.214797
940.127179	3541.372768
940.429573	3535.779608
940.731929	3534.879762
941.034246	3518.964839
941.336524	3505.943539
941.638763	3487.288749
941.940964	3478.108808
942.243126	3430.994184
942.545250	3407.968714
942.847335	3371.342211
943.149381	3337.122858
943.451389	3300.143474
943.753359	3264.885644
944.055290	3242.513004
944.357182	3215.401678
944.659036	3200.084132
944.960851	3191.451156
945.262628	3177.454393
945.564367	3178.881039
945.866067	3170.772343
946.167729	3167.457785
946.469352	3168.967610
946.770937	3166.487362
947.072484	3148.361894
947.373992	3149.382727
947.675462	3142.327633
947.976893	3125.719551
948.278286	3121.086731
948.579641	3111.100205
948.880958	3104.556788
949.182236	3105.857405
949.483476	3101.529575
949.784678	3101.534616
950.085841	3102.356324
950.386967	3110.439814
950.688054	3130.054944
950.989103	3151.910866
951.290114	3173.429031
951.591087	3201.475491
951.892021	3228.861559
952.192917	3255.365425
952.493776	3281.579425
952.794596	3290.572844
953.095378	3294.567958
953.396122	3292.211219
953.696828	3281.821401
953.997496	3270.761109
954.298126	3247.090371
954.598718	3225.438616
954.899272	3198.440716
955.199788	3171.452899
955.500266	3137.306643
955.800706	3106.772375
956.101108	3065.860891
956.401472	3030.643390
956.701798	2999.826816
957.002087	2957.788634
957.302337	2931.307453
957.602550	2902.822413
957.902724	2873.583721
958.202861	2847.951974
958.502960	2824.520691
958.803022	2804.159471
959.103045	2784.582150
959.403031	2765.917278
959.702979	2756.757501
960.002889	2741.152610
960.302762	2724.496637
960.602596	2713.161603
960.902393	2704.768082
961.202153	2697.695343
961.501875	2686.713189
961.801559	2682.569361
962.101205	2676.038546
962.400814	2672.219872
962.700385	2665.268121
962.999918	2657.139260
963.299414	2652.385452
963.598873	2650.936120
963.898293	2642.310706
964.197677	2643.971766
964.497022	2640.236271
964.796331	2637.592186
965.095601	2635.880714
965.394835	2636.127731
965.694030	2633.244191
965.993189	2632.596403
966.292309	2631.648666
966.591393	2629.400311
966.890439	2629.372585
967.189447	2629.793521
967.488419	2628.560959
967.787353	2630.027935
968.086249	2632.432565
968.385108	2634.575056
968.683930	2631.678913
968.982714	2639.533030
969.281462	2644.271715
969.580172	2649.242293
969.878844	2654.699342
970.177480	2664.572442
970.476078	2672.766837
970.774639	2679.096006
971.073162	2686.967767
971.371649	2692.782738
971.670098	2696.987061
971.968510	2705.209183
972.266885	2708.841334
972.565223	2711.160265
972.863524	2711.835779
973.161788	2715.934237
973.460014	2720.587222
973.758204	2724.426061
974.056356	2727.196175
974.354471	2730.188100
974.652550	2729.358830
974.950591	2724.153839
975.248595	2724.574775
975.546563	2722.396997
975.844493	2717.764176
976.142386	2713.421222
976.440243	2707.888556
976.738062	2702.315560
977.035845	2696.132585
977.333590	2692.487831
977.631299	2684.568178
977.928971	2676.492250
978.226606	2673.102074
978.524204	2669.868174
978.821765	2666.036897
979.119290	2669.021260
979.416777	2665.956238
979.714228	2670.485715
980.011642	2672.119049
980.309020	2681.997190
980.606360	2697.274407
980.903664	2718.500185
981.200931	2757.493510
981.498162	2805.258442
981.795356	2882.599825
982.092513	2974.598362
982.389633	3080.162644
982.686717	3179.095288
982.983764	3255.541866
983.280775	3303.425266
983.577749	3314.782985
983.874686	3296.546611
984.171587	3264.013525
984.468451	3222.461814
984.765279	3178.631502
985.062070	3130.133082
985.358824	3084.631627
985.655543	3026.953265
985.952224	2974.386633
986.248869	2910.784916
986.545478	2848.970287
986.842050	2792.274951
987.138586	2746.899525
987.435086	2707.570963
987.731549	2675.617610
988.027975	2652.239259
988.324366	2633.907103
988.620719	2619.799434
988.917037	2608.540017
989.213318	2599.344952
989.509563	2591.470670
989.805772	2588.582088
990.101944	2580.914493
990.398080	2579.528176
990.694180	2578.656057
990.990244	2578.446849
991.286271	2580.054977
991.582262	2579.616396
991.878217	2581.363156
992.174136	2584.287025
992.470019	2589.313056
992.765865	2594.689446
993.061676	2596.970568
993.357450	2606.810901
993.653188	2613.513115
993.948890	2632.470374
994.244556	2650.663898
994.540186	2672.938236
994.835780	2703.044007
995.131337	2743.272415
995.426859	2785.003086
995.722345	2832.946980
996.017795	2886.511760
996.313208	2927.554314
996.608586	2951.787141
996.903928	2966.522433
997.199234	2965.564614
997.494504	2963.631332
997.789738	2948.759928
998.084936	2922.379570
998.380099	2892.178017
998.675225	2864.330683
998.970316	2830.081084
999.265371	2789.736730
999.560390	2755.313211
999.855373	2725.656103
1000.150320	2697.783563
1000.445232	2671.438493
1000.740108	2651.450318
1001.034948	2629.289406
1001.329752	2615.474124
1001.624521	2606.974738
1001.919254	2592.262131
1002.213951	2583.639237
1002.508613	2575.555747
1002.803239	2569.024932
1003.097829	2561.490928
1003.392384	2555.912891
1003.686903	2553.001625
1003.981386	2550.846531
1004.275834	2547.645399
1004.570246	2541.913607
1004.864623	2541.593493
1005.158964	2539.123328
1005.453270	2536.723739
1005.747540	2529.555218
1006.041775	2535.491177
1006.335974	2531.236443
1006.630138	2530.298788
1006.924266	2527.901720
1007.218359	2526.676719
1007.512416	2523.490710
1007.806438	2521.602798
1008.100425	2525.640762
1008.394376	2521.040709
1008.688292	2525.194620
1008.982172	2525.202182
1009.276017	2523.291584
1009.569827	2521.950638
1009.863602	2523.110103
1010.157341	2521.673374
1010.451045	2521.058353
1010.744714	2520.581964
1011.038347	2522.026255
1011.331945	2518.068949
1011.625508	2515.442508
1011.919036	2515.991994
1012.212528	2516.044926
1012.505986	2511.591066
1012.799408	2513.980573
1013.092795	2513.405882
1013.386147	2513.652898
1013.679464	2514.797240
1013.972745	2513.073166
1014.265992	2514.464524
1014.559204	2513.259688
1014.852380	2512.259019
1015.145521	2511.833042
1015.438628	2513.393279
1015.731699	2513.824298
1016.024736	2514.852693
1016.317737	2515.334123
1016.610703	2515.026613
1016.903635	2517.567354
1017.196531	2521.507016
1017.489393	2522.144722
1017.782219	2521.756553
1018.075011	2526.028931
1018.367768	2524.337624
1018.660490	2521.940555
1018.953177	2521.940555
1019.245829	2521.940555
