Dividing Wavelength (nm)	Counts (n)	Blue Motor Position (mm): 38.000000	Red Motor Position (mm): 0.000000	
326.493990	2096.477253
326.888308	2096.477253
327.282561	2096.477253
327.676750	2075.470765
328.070874	2076.466393
328.464933	2083.786148
328.858929	2092.139340
329.252859	2106.022678
329.646726	2119.250665
330.040528	2135.704992
330.434265	2156.938332
330.827938	2173.223779
331.221547	2194.552901
331.615091	2215.791282
332.008571	2235.930692
332.401986	2257.000194
332.795338	2274.971908
333.188625	2297.044600
333.581847	2313.687969
333.975006	2334.079437
334.368100	2352.663650
334.761129	2368.218130
335.154095	2381.312528
335.546996	2429.722728
335.939833	2516.657426
336.332606	2528.521782
336.725315	2537.351363
337.117960	2547.547096
337.510540	2555.484393
337.903056	2562.373130
338.295508	2570.801939
338.687896	2578.842579
339.080220	2582.149576
339.472480	2588.332551
339.864676	2593.146853
340.256807	2597.910744
340.648875	2598.699684
341.040879	2599.871752
341.432818	2601.394181
341.824694	2601.255549
342.216506	2601.053903
342.608253	2599.818820
342.999937	2597.499890
343.391557	2595.710280
343.783113	2596.070722
344.174605	2594.031576
344.566033	2592.063005
344.957397	2595.017121
345.348697	2591.581575
345.739934	2587.631831
346.131106	2588.483786
346.522215	2587.208374
346.913260	2584.604618
347.304241	2582.908270
347.695159	2584.569330
348.086012	2581.481623
348.476802	2578.582960
348.867528	2576.828638
349.258191	2574.313102
349.648789	2574.860068
350.039324	2575.601117
350.429796	2575.722105
350.820203	2572.578946
351.210548	2571.273287
351.600828	2572.994841
351.991045	2571.422001
352.381198	2570.280179
352.771288	2569.960066
353.161314	2570.975859
353.551276	2571.986610
353.941175	2570.721280
354.331010	2568.997206
354.720782	2572.848647
355.110490	2574.434090
355.500135	2572.316806
355.889717	2572.178174
356.279235	2570.764130
356.668689	2571.106929
357.058080	2573.372927
357.447408	2569.589541
357.836672	2570.020560
358.225873	2572.059707
358.615010	2568.626681
359.004084	2574.625654
359.393095	2576.879050
359.782043	2578.290573
360.170927	2578.106571
360.559748	2579.621438
360.948505	2579.865933
361.337199	2581.952971
361.725830	2578.900552
362.114398	2577.771334
362.502903	2581.670667
362.891344	2585.081007
363.279722	2580.370049
363.668037	2582.837694
364.056289	2583.225862
364.444478	2585.229721
364.832603	2584.281984
365.220665	2581.796695
365.608665	2583.092272
365.996601	2586.056470
366.384474	2587.430185
366.772284	2584.985225
367.160031	2588.163673
367.547715	2591.604260
367.935336	2588.193920
368.322893	2587.326841
368.710388	2589.406317
369.097820	2590.255752
369.485189	2592.264651
369.872495	2594.560897
370.259738	2592.615012
370.646918	2592.113417
371.034035	2592.781370
371.421090	2596.814293
371.808081	2591.947059
372.195010	2592.980495
372.581875	2593.880341
372.968678	2596.950404
373.355418	2595.591813
373.742096	2597.467122
374.128710	2597.620877
374.515262	2596.950404
374.901751	2597.820003
375.288177	2600.002822
375.674540	2599.032400
376.060841	2601.391660
376.447079	2601.555498
376.833254	2601.220261
377.219367	2602.253698
377.605417	2602.389809
377.991404	2599.639859
378.377329	2600.078440
378.763191	2600.408635
379.148991	2607.415839
379.534727	2608.842486
379.920402	2609.276025
380.306013	2606.911724
380.691563	2611.133690
381.077049	2611.393310
381.462474	2610.226282
381.847835	2610.501025
382.233134	2614.692745
382.618371	2614.090327
383.003545	2614.032354
383.388657	2616.595780
383.773706	2620.807664
384.158693	2618.329937
384.543618	2617.672067
384.928480	2619.539814
385.313280	2620.321193
385.698017	2621.626852
386.082692	2621.352109
386.467305	2623.197171
386.851856	2622.693056
387.236344	2622.458642
387.620770	2623.665999
388.005133	2627.038531
388.389435	2628.412245
388.773674	2630.534571
389.157851	2629.528861
389.541965	2629.733027
389.926018	2632.004067
390.310008	2635.064048
390.693936	2633.496249
391.077802	2632.619088
391.461606	2639.036477
391.845348	2640.316930
392.229027	2640.488329
392.612645	2641.491519
392.996200	2644.828762
393.379694	2648.428146
393.763125	2649.605256
394.146494	2652.496357
394.529801	2654.573313
394.913047	2658.414672
395.296230	2659.866524
395.679351	2660.945331
396.062410	2667.576969
396.445408	2672.340860
396.828343	2673.858247
397.211217	2675.368073
397.594028	2680.220183
397.976778	2690.761236
398.359466	2698.012936
398.742092	2704.518545
399.124656	2717.144114
399.507158	2734.004253
399.889598	2745.130080
400.271977	2764.735127
400.654294	2785.267747
401.036549	2807.499235
401.418742	2831.419510
401.800874	2860.829602
402.182944	2895.243039
402.564952	2940.560491
402.946898	2970.499904
403.328783	3007.212107
403.710606	3064.396435
404.092367	3121.376597
404.474067	3197.167825
404.855705	3242.926378
405.237282	3300.980306
405.618797	3400.412024
406.000250	3491.286384
406.381642	3604.581276
406.762972	3681.781506
407.144240	3737.909713
407.525447	3857.513608
407.906593	3936.962193
408.287677	4064.021955
408.668700	4188.092313
409.049661	4286.256181
409.430560	4424.882871
409.811399	4528.987739
410.192176	4670.729862
410.572891	4809.434689
410.953545	5040.130492
411.334138	5035.386766
411.714669	5312.367923
412.095139	5267.390748
412.475547	5527.726015
412.855894	5619.716991
413.236180	5852.630901
413.616405	5894.996758
413.996568	6129.775896
414.376670	6263.016112
414.756711	6360.537234
415.136691	6612.670543
415.516609	6825.782802
415.896466	7006.712334
416.276262	7287.358409
416.655997	7642.737070
417.035670	7822.166859
417.415283	8282.245244
417.794834	8492.847008
418.174324	8534.812093
418.553753	8650.226790
418.933121	9073.776974
419.312428	9154.397627
419.691674	9269.240153
420.070859	9696.188075
420.449983	9662.233383
420.829045	10159.891050
421.208047	10177.172125
421.586988	10617.978179
421.965867	10948.667789
422.344686	11110.365320
422.723444	11662.946357
423.102141	10933.128433
423.480777	11904.233624
423.859352	11709.498892
424.237866	12666.498936
424.616319	12614.277623
424.994712	13270.903035
425.373044	13273.511832
425.751314	13947.254482
426.129524	13420.842074
426.507673	14417.410134
426.885762	14332.073481
427.263789	14616.853303
427.641756	14907.248971
428.019662	15085.209263
428.397508	15254.143370
428.775292	15619.748011
429.153016	15728.268930
429.530679	15918.741366
429.908282	16051.399330
430.285824	15920.470482
430.663305	16650.255639
431.040726	16406.891417
431.418086	16360.124632
431.795385	17015.338521
432.172624	17498.069331
432.549802	17184.996033
432.926920	17462.877036
433.303977	17425.471675
433.680974	17752.314884
434.057910	18114.519268
434.434786	18225.429693
434.811601	18210.381849
435.188355	19270.745711
435.565050	19022.690695
435.941683	19037.110915
436.318257	19946.598084
436.694770	19809.337547
437.071222	20427.635066
437.447614	19559.273631
437.823946	19628.556729
438.200218	19843.592187
438.576429	19650.314349
438.952580	19988.676595
439.328670	19979.620162
439.704700	20431.373082
440.080670	20021.696153
440.456580	20647.532717
440.832429	20835.973569
441.208218	19869.838955
441.583947	20333.115952
441.959616	20467.450099
442.335224	20722.688759
442.710773	20879.014940
443.086261	21438.996392
443.461689	20799.964607
443.837057	20951.345416
444.212365	21619.971294
444.587612	21624.750308
444.962800	21242.424159
445.337927	21674.574552
445.712995	20389.786083
446.088002	22298.545890
446.462949	22505.177745
446.837837	22707.688457
447.212664	22735.719793
447.587431	25715.870986
447.962139	28682.343008
448.336786	30966.522583
448.711374	29272.089952
449.085901	25564.364148
449.460369	25596.350269
449.834776	25608.144048
450.209124	28183.432614
450.583412	27633.919119
450.957640	28105.367826
451.331808	26758.409327
451.705917	25406.659212
452.079965	25459.767767
452.453954	25853.590268
452.827883	25749.918939
453.201752	25552.285543
453.575562	25725.716359
453.949311	26872.331842
454.323001	26944.120394
454.696632	26734.985606
455.070202	28338.901799
455.443713	28504.337345
455.817164	29098.076883
456.190556	29659.638736
456.563888	29069.491020
456.937160	29499.070424
457.310373	27783.946378
457.683526	28243.550894
458.056619	28246.749507
458.429653	28218.420742
458.802628	28842.901237
459.175542	28981.424583
459.548398	30360.424656
459.921194	31994.819665
460.293930	32744.464448
460.666607	34826.047611
461.039224	36617.144367
461.411782	36963.476677
461.784280	35664.162123
462.156719	35128.831914
462.529099	34564.683949
462.901419	33223.457242
463.273680	32171.754083
463.645882	32320.011897
464.018024	32322.955930
464.390106	33277.085037
464.762130	36202.143980
465.134094	40555.139997
465.505999	46022.104985
465.877845	50538.830117
466.249631	51514.217769
466.621358	49675.214928
466.993026	47435.909184
467.364634	45329.765518
467.736184	43349.927963
468.107674	42095.245264
468.479105	41291.249281
468.850477	40566.868241
469.221790	39109.130386
469.593043	37332.189190
469.964238	36444.474766
470.335373	36383.819603
470.706449	38291.656878
471.077467	41088.287386
471.448425	45744.128200
471.819324	48415.082742
472.190164	46379.139665
472.560945	42759.291254
472.931667	39631.958534
473.302330	38531.131851
473.672934	37708.072745
474.043479	38248.592822
474.413965	37449.191851
474.784393	37080.058401
475.154761	37998.019749
475.525070	38044.554640
475.895321	37567.066630
476.265513	38193.097280
476.635645	39197.045589
477.005719	39030.286740
477.375734	39549.921317
477.745691	40282.978183
478.115588	41651.379230
478.485427	43774.866985
478.855207	47269.553627
479.224928	49911.236710
479.594591	51433.773556
479.964194	50330.917809
480.333739	50480.718216
480.703226	50567.592420
481.072653	51222.334961
481.442022	51688.256043
481.811333	51882.947926
482.180584	50608.171188
482.549777	50088.004769
482.918912	49558.860056
483.287988	49236.246374
483.657005	48402.782327
484.025964	47746.797141
484.394864	47741.309845
484.763706	47300.957495
485.132489	46427.998528
485.501213	46265.358302
485.869879	46415.947649
486.238487	46014.613830
486.607036	46216.270066
486.975527	45651.207132
487.343959	45877.764147
487.712333	45934.653568
488.080648	45832.101376
488.448905	46289.157589
488.817104	46098.806140
489.185244	47138.589492
489.553326	48931.107853
489.921350	51675.373375
490.289315	54463.481812
490.657222	54967.196425
491.025070	55186.847060
491.392861	54275.008193
491.760593	53008.332590
492.128267	51341.555729
492.495883	49795.703546
492.863440	48387.353875
493.230939	46997.989190
493.598380	45913.516010
493.965763	45587.466782
494.333088	44756.195637
494.700354	44273.124549
495.067563	43962.065192
495.434713	43821.593440
495.801805	43900.507662
496.168839	43498.475643
496.535815	43158.084332
496.902733	43174.894060
497.269593	42748.155346
497.636395	42677.024665
498.003139	43079.772528
498.369825	42527.531768
498.736453	42839.687576
499.103023	42346.884541
499.469535	42224.346693
499.835989	42326.089781
500.202385	41978.373674
500.568723	41996.478978
500.935003	42199.211500
501.301226	41980.337203
501.667390	42606.002369
502.033497	42862.450906
502.399546	42278.047585
502.765537	41559.534448
503.131470	41955.726290
503.497345	42296.856130
503.863163	40952.045162
504.228923	41587.099477
504.594625	42015.589992
504.960269	41262.469334
505.325856	41974.718837
505.691385	41333.436177
506.056856	41464.901908
506.422270	41896.810325
506.787625	41462.593059
507.152924	41677.815040
507.518164	41773.082766
507.883347	40960.489095
508.248472	41196.251257
508.613540	41702.105840
508.978550	42000.421160
509.343503	41746.357089
509.708398	41953.397277
510.073236	42495.207890
510.438016	42495.510359
510.802738	41940.368415
511.167403	42576.196547
511.532010	42801.876402
511.896561	43098.296248
512.261053	43967.040811
512.625488	43497.061599
512.989866	43378.105492
513.354186	43212.685070
513.718449	43205.294738
514.082655	43892.867793
514.446803	43540.523907
514.810894	44094.390439
515.174927	43988.513605
515.538904	43888.136671
515.902822	44574.406588
516.266684	44007.274259
516.630488	44449.050736
516.994235	44277.591011
517.357925	44859.413262
517.721558	45044.388320
518.085133	45361.363471
518.448651	45458.113295
518.812112	45229.542339
519.175516	45335.976220
519.538863	45671.674216
519.902152	45627.790972
520.265385	46088.113853
520.628560	46114.101001
520.991678	45900.572848
521.354739	46142.212996
521.717743	46460.498847
522.080690	46346.251177
522.443580	46892.296359
522.806413	46935.655323
523.169189	46890.660504
523.531908	47068.104078
523.894569	46903.386897
524.257174	47085.186028
524.619722	47368.808905
524.982213	47342.632714
525.344647	47275.161911
525.707025	47316.690936
526.069345	47711.330103
526.431608	47626.802556
526.793815	47950.237946
527.155964	47475.928383
527.518057	47647.204106
527.880093	47414.232222
528.242072	47935.306048
528.603995	47636.887385
528.965860	47635.324627
529.327669	47741.302284
529.689421	47635.899318
530.051117	47592.419367
530.412755	47748.064992
530.774337	47804.911563
531.135862	47602.516798
531.497331	47797.274215
531.858743	47692.329995
532.220098	48027.135707
532.581396	47730.108402
532.942638	47383.261893
533.303824	47717.908809
533.664953	47674.880041
534.026025	47383.118221
534.387040	47854.261938
534.747999	47811.412131
535.108902	47976.242738
535.469748	47477.682705
535.830537	47592.615972
536.191270	47773.268240
536.551947	47435.601673
536.912567	47739.230369
537.273131	47863.572950
537.633638	47344.686984
537.994089	47675.905915
538.354483	47278.620143
538.714821	47848.406638
539.075103	48187.436837
539.435328	47946.658727
539.795497	47816.092842
540.155609	47822.374120
540.515665	48281.058626
540.875665	47712.388746
541.235609	48040.691369
541.595496	48031.214000
541.955328	48704.243327
542.315102	48053.195952
542.674821	47813.789035
543.034483	47850.065178
543.394090	47828.662959
543.753640	47771.067777
544.113134	48788.203744
544.472571	47765.247764
544.831953	49028.036638
545.191278	48205.249754
545.550548	47932.518290
545.909761	48411.049819
546.268918	48592.052448
546.628019	48899.598121
546.987064	48449.259245
547.346053	47709.308601
547.704986	48584.639431
548.063863	48141.085948
548.422684	48315.144388
548.781449	48146.742123
549.140158	48547.108041
549.498811	48378.224346
549.857408	47799.547775
550.215949	48661.459054
550.574434	48562.412984
550.932864	48325.241819
551.291237	49037.627433
551.649555	48640.850817
552.007817	48884.603208
552.366022	48515.336169
552.724173	48683.745995
553.082267	49076.651005
553.440305	49339.511890
553.798288	48628.915885
554.156215	48953.626687
554.514086	49155.827368
554.871902	48892.137213
555.229661	48911.868289
555.587365	48731.561339
555.945014	48824.716821
556.302606	48742.084748
556.660143	48970.441456
557.017625	49032.901352
557.375050	48811.138473
557.732421	49149.914094
558.089735	49121.086256
558.446994	49032.898831
558.804197	49491.933698
559.161345	49412.343961
559.518437	48640.210591
559.875474	48952.124423
560.232455	49147.577519
560.589381	49295.830292
560.946251	48982.204988
561.303065	49642.543210
561.659825	49434.772054
562.016528	49105.652763
562.373177	48818.780863
562.729770	49293.075302
563.086307	48805.474737
563.442789	49246.852962
563.799216	49283.378642
564.155587	49070.054656
564.511904	49083.905226
564.868164	49161.533954
565.224370	49395.761085
565.580520	49128.763933
565.936615	49336.053659
566.292654	49028.412204
566.648638	49281.576430
567.004567	49236.435418
567.360441	49278.148445
567.716260	49132.605293
568.072023	49407.406150
568.427732	49394.382329
568.783385	48912.500954
569.138982	49303.568463
569.494525	49264.996075
569.850013	49005.364049
570.205445	48976.258947
570.560823	48919.508158
570.916145	48782.955903
571.271412	48819.569803
571.626625	48544.232063
571.981782	48577.843956
572.336884	48259.497611
572.691931	48585.672868
573.046923	48173.056946
573.401860	48006.774486
573.756743	47958.760017
574.111570	48076.445753
574.466342	47921.349614
574.821059	48006.035957
575.175722	47537.927014
575.530330	47534.078093
575.884882	47231.810508
576.239380	47199.456383
576.593823	47167.790375
576.948211	47082.557067
577.302544	46581.662979
577.656823	46594.316275
578.011047	46812.822568
578.365216	46536.653037
578.719330	46301.246276
579.073389	46149.590724
579.427394	46236.785042
579.781344	46208.539457
580.135239	45830.188258
580.489080	45901.578558
580.842866	45373.860491
581.196597	45808.662531
581.550273	45749.973418
581.903895	45637.321273
582.257463	46018.951743
582.610975	45389.369601
582.964434	45675.699578
583.317837	45298.785107
583.671186	45126.569210
584.024481	45336.737434
584.377721	44836.533985
584.730906	45119.355318
585.084037	45161.222101
585.437113	44863.257141
585.790135	44883.860337
586.143103	44467.113190
586.496016	44581.567547
586.848874	44616.291014
587.201679	44607.763903
587.554428	44090.092855
587.907124	44272.950629
588.259765	44009.832645
588.612352	44248.470786
588.964884	43611.299187
589.317362	43908.714661
589.669786	43837.163043
590.022155	43604.107981
590.374470	44011.904559
590.726731	43537.859657
591.078937	43039.251733
591.431090	43128.583500
591.783188	42785.497693
592.135232	42439.203191
592.487222	42715.823905
592.839157	42773.008234
593.191038	42417.957248
593.542866	42173.972964
593.894639	41581.803745
594.246358	41856.876825
594.598022	41835.870337
594.949633	41420.426328
595.301190	41383.797304
595.652692	41209.262476
596.004141	41514.315298
596.355535	40525.835769
596.706876	40483.686682
597.058162	40320.920427
597.409395	40759.543662
597.760573	40840.239932
598.111698	40430.474783
598.462768	40444.315270
598.813785	40455.834307
599.164748	39920.801526
599.515657	40282.731166
599.866511	39778.706522
600.217312	40384.139017
600.568060	39365.571362
600.918753	40102.008321
601.269392	40064.880223
601.619978	39694.100837
601.970510	39914.051421
602.320988	40076.812634
602.671412	40385.540458
603.021783	40159.537969
603.372100	39771.550604
603.722363	39885.455476
604.072572	39946.579466
604.422728	39973.423610
604.772830	39781.965628
605.122878	39867.284637
605.472872	39803.622425
605.822813	40076.038817
606.172701	39898.317980
606.522534	40155.968832
606.872314	40412.074571
607.222041	40155.023616
607.571714	40535.973530
607.921333	39975.654321
608.270899	40267.932859
608.620411	40618.887908
608.969870	40392.570347
609.319276	40424.591756
609.668627	40456.260284
610.017926	40925.931985
610.367171	41074.494789
610.716362	41170.465756
611.065500	41104.948400
611.414585	41280.725873
611.763616	41595.235899
612.112594	41507.081242
612.461518	41742.850966
612.810389	42035.184957
613.159207	41895.476940
613.507971	41979.379384
613.856682	42440.208901
614.205340	42334.022037
614.553945	43049.213053
614.902496	42469.997079
615.250994	42961.103766
615.599439	43012.760470
615.947830	43209.279770
616.296169	43274.895429
616.644454	43397.405549
616.992686	43576.474896
617.340864	44061.353237
617.688990	43787.444664
618.037063	44388.960182
618.385082	44355.141601
618.733048	44656.486655
619.080961	44672.716649
619.428821	44694.489393
619.776628	44783.191015
620.124382	44622.582374
620.472083	44744.124594
620.819731	44867.398449
621.167326	44527.707859
621.514868	44521.955902
621.862357	44082.379890
622.209793	44101.697592
622.557176	43755.602215
622.904506	43496.423893
623.251783	43159.097604
623.599007	42924.474743
623.946179	42712.007752
624.293297	42651.468535
624.640363	42067.559247
624.987376	42046.663664
625.334336	41812.766729
625.681243	41452.840947
626.028097	41416.305185
626.374899	41276.395521
626.721647	41249.548857
627.068343	41145.380974
627.414987	40902.127657
627.761577	40679.651455
628.108115	41008.410303
628.454600	40453.228030
628.801032	40665.863900
629.147412	40609.004725
629.493739	40598.403179
629.840014	40245.046021
630.186236	40610.247370
630.532405	40173.784270
630.878521	40396.978836
631.224585	40262.019586
631.570597	39971.114762
631.916556	40142.032562
632.262462	40079.925547
632.608316	40107.140216
632.954117	39995.279533
633.299866	39976.496193
633.645562	39895.356302
633.991206	39420.817367
634.336797	38967.108479
634.682336	38963.912388
635.027823	38723.005728
635.373257	38533.027325
635.718639	38295.657034
636.063968	38167.528547
636.409245	37569.521672
636.754470	37613.515822
637.099642	37384.198775
637.444762	36907.262771
637.789829	37050.860038
638.134845	36703.867337
638.479808	36637.314024
638.824719	36554.308905
639.169577	36166.966808
639.514383	36229.603145
639.859137	35914.957007
640.203839	36170.394793
640.548489	35789.701978
640.893086	35869.679883
641.237632	35608.638855
641.582125	35729.447586
641.926566	35653.179970
642.270955	35621.463550
642.615292	35636.642465
642.959576	35611.575327
643.303809	35614.663034
643.647990	35755.777533
643.992118	35718.314198
644.336195	35707.216098
644.680219	35791.143748
645.024192	36094.391837
645.368112	36619.554039
645.711981	36626.344473
646.055797	37496.314036
646.399562	37414.912004
646.743274	38379.441011
647.086935	38802.091349
647.430544	38697.961276
647.774101	38805.950353
648.117606	39042.783760
648.461059	39340.174029
648.804460	38945.832290
649.147810	38319.234511
649.491108	38063.889986
649.834354	37708.808753
650.177548	36876.743626
650.520690	36428.330470
650.863781	36459.000850
651.206820	36287.432741
651.549807	35856.540116
651.892742	35366.837390
652.235626	35170.681053
652.578458	35045.554573
652.921238	34444.964107
653.263967	34765.548724
653.606644	34456.238648
653.949269	34385.786002
654.291843	33969.043896
654.634365	34379.940784
654.976836	33975.612519
655.319255	33978.896831
655.661622	33970.372240
656.003938	33758.984056
656.346203	33630.338851
656.688416	33833.706559
657.030577	33655.569826
657.372687	33471.829851
657.714746	33725.909046
658.056753	33866.695870
658.398708	33314.389575
658.740612	33370.416959
659.082465	33632.262051
659.424266	33465.445229
659.766016	33590.549024
660.107715	33453.868220
660.449362	33583.584670
660.790958	33556.284301
661.132503	33554.923190
661.473996	33601.695015
661.815438	33717.029053
662.156829	33903.579472
662.498168	33672.866025
662.839456	33704.279975
663.180693	33837.283258
663.521879	34019.042060
663.863013	33964.791683
664.204097	33950.023622
664.545129	34428.172023
664.886110	34362.425295
665.227040	34458.602949
665.567918	34559.990635
665.908746	34623.395747
666.249522	34784.879028
666.590248	34786.119152
666.930922	34881.162546
667.271545	34844.470508
667.612118	34912.493318
667.952639	34702.607398
668.293109	34767.245072
668.633528	34648.107483
668.973896	34566.523970
669.314213	34615.034994
669.654480	34355.700396
669.994695	34371.383425
670.334859	34253.445631
670.674973	34153.993748
671.015035	34310.546781
671.355047	34251.378758
671.695008	34188.137483
672.034918	34102.780666
672.374777	34186.859551
672.714585	34022.815363
673.054342	34249.107718
673.394049	33988.830425
673.733705	34267.830564
674.073310	33934.338072
674.412864	34004.677292
674.752368	33617.488950
675.091820	33927.598049
675.431223	33495.137626
675.770574	33198.352296
676.109875	33050.472568
676.449125	32787.833494
676.788324	32698.095914
677.127473	32160.640859
677.466571	32088.781731
677.805619	31742.278022
678.144616	31741.287435
678.483562	31657.725269
678.822458	31333.679900
679.161303	31269.168254
679.500098	31190.722859
679.838842	31053.026262
680.177535	31214.232280
680.516179	31510.132887
680.854771	31755.914343
681.193314	32618.322175
681.531805	33735.729213
681.870247	34483.788553
682.208638	35187.644536
682.546978	35401.119757
682.885268	35479.202189
683.223508	34971.437009
683.561697	34633.654495
683.899836	34442.423365
684.237925	33953.292811
684.575963	33789.903973
684.913951	33325.646472
685.251889	33473.735407
685.589776	33478.625326
685.927614	33466.171156
686.265401	33611.447127
686.603137	33693.368398
686.940824	34199.202816
687.278460	34583.472329
687.616046	34702.201585
687.953582	35304.236342
688.291068	35161.564126
688.628504	35439.898833
688.965889	35364.452924
689.303224	34982.129296
689.640510	34641.309487
689.977745	33900.000253
690.314930	33094.703652
690.652065	32590.487444
690.989150	31850.181399
691.326185	30946.922577
691.663170	30240.694731
692.000105	29501.439767
692.336990	28817.186311
692.673825	28362.219656
693.010610	27858.487399
693.347345	27266.550073
693.684030	26603.668589
694.020665	26326.886558
694.357251	25664.990620
694.693786	25614.798372
695.030272	25373.732915
695.366707	24840.721637
695.703093	24545.400762
696.039429	24540.886409
696.375716	24270.468834
696.711952	24239.707713
697.048139	24080.724845
697.384276	23900.349839
697.720363	24024.508418
698.056400	23819.683816
698.392388	23597.878088
698.728326	23568.813316
699.064214	23359.164330
699.400053	23303.003356
699.735842	22938.928704
700.071581	22664.473165
700.407270	22371.259493
700.742910	22176.068537
701.078501	21910.003998
701.414042	21622.827108
701.749533	21325.920790
702.084974	20974.423818
702.420366	21186.187568
702.755709	20744.872357
703.091002	20440.353897
703.426246	20460.689912
703.761440	20362.972186
704.096584	20081.741336
704.431679	20044.590553
704.766725	19941.627506
705.101721	19885.559793
705.436668	19974.654625
705.771565	19649.558176
706.106413	20002.023050
706.441212	19992.535598
706.775961	20125.251535
707.110661	20187.902995
707.445311	20542.273425
707.779913	20372.817559
708.114465	20611.506111
708.448967	20903.371275
708.783421	21596.320721
709.117825	21857.956606
709.452180	22073.259245
709.786485	22487.276608
710.120742	23273.404221
710.454949	23280.204737
710.789107	23749.546243
711.123216	24447.839312
711.457275	24555.717483
711.791286	25098.359886
712.125247	25162.763147
712.459159	24857.884245
712.793023	25511.505129
713.126837	24406.307766
713.460602	24677.776421
713.794318	24303.140552
714.127985	23907.480552
714.461602	23016.060879
714.795171	22980.251042
715.128691	21971.959779
715.462162	21424.571130
715.795584	21004.935402
716.128957	20742.301368
716.462281	20347.221100
716.795556	20108.076324
717.128782	19605.246433
717.461960	19053.109017
717.795088	18980.546649
718.128167	18580.347089
718.461198	18114.930122
718.794180	17981.024473
719.127113	17611.097042
719.459997	17412.228564
719.792833	17052.065848
720.125619	17034.419289
720.458357	16714.333746
720.791046	16534.099893
721.123686	16374.423865
721.456278	16138.205478
721.788821	16107.383864
722.121315	15844.205386
722.453761	15924.783189
722.786158	15837.548542
723.118506	15861.224322
723.450805	15715.998762
723.783056	15878.495315
724.115259	15771.448933
724.447412	15710.158585
724.779518	15943.261539
725.111574	15960.590505
725.443582	16171.136816
725.775542	16153.212993
726.107453	16613.493025
726.439315	16497.480951
726.771129	16900.891726
727.102895	17264.489988
727.434612	17469.579250
727.766281	17586.299606
728.097901	17834.369746
728.429473	17876.075211
728.760996	17860.097274
729.092471	17942.794882
729.423897	17828.217017
729.755276	17687.498249
730.086606	17815.218402
730.417887	18348.272530
730.749120	18852.236680
731.080305	19019.781949
731.411442	19350.703452
731.742530	19415.089069
732.073570	19502.855557
732.404562	19793.755340
732.735506	19602.733418
733.066401	19303.336771
733.397249	18774.272716
733.728048	18142.810223
734.058798	17314.377247
734.389501	16637.231818
734.720156	16180.397416
735.050762	15659.086655
735.381320	15306.155474
735.711831	15067.527416
736.042293	14727.788935
736.372707	14734.833947
736.703073	14532.696281
737.033391	14716.862234
737.363661	14683.555330
737.693883	14778.197953
738.024056	14952.062308
738.354182	15130.705677
738.684260	15404.977213
739.014290	15629.817716
739.344272	15795.593540
739.674207	16083.720688
740.004093	16189.481575
740.333931	16184.654670
740.663722	16225.372070
740.993464	16224.978860
741.323159	16040.943977
741.652806	15775.131496
741.982405	15545.580035
742.311956	15219.230859
742.641460	15108.695999
742.970915	14801.236026
743.300323	14472.840141
743.629683	14264.643008
743.958996	13985.683198
744.288260	13710.383266
744.617477	13422.374585
744.946647	13349.754243
745.275768	13074.116553
745.604842	12894.717012
745.933869	12715.435937
746.262847	12670.509174
746.591778	12599.199532
746.920662	12490.726504
747.249498	12497.852175
747.578286	12611.792334
747.907027	12757.259870
748.235720	12976.718941
748.564365	12998.537054
748.892963	12898.659194
749.221514	12955.525930
749.550017	12809.758446
749.878473	12769.993824
750.206881	12541.223742
750.535242	12453.714352
750.863555	12378.404555
751.191821	12266.846341
751.520039	12281.180862
751.848210	12198.606762
752.176334	12227.916031
752.504411	12140.900674
752.832440	11977.559728
753.160421	12034.413861
753.488356	11917.622929
753.816243	11835.752070
754.144082	11686.196159
754.471875	11625.079730
754.799620	11574.620301
755.127318	11536.274764
755.454969	11512.808193
755.782572	11460.748197
756.110129	11471.926956
756.437638	11386.363452
756.765100	11376.782739
757.092515	11383.737010
757.419882	11393.889894
757.747203	11400.733261
758.074477	11476.431227
758.401703	11428.610841
758.728882	11587.611354
759.056014	11630.592232
759.383099	11741.157339
759.710138	11842.129130
760.037129	11924.302458
760.364073	11943.529419
760.690970	11928.776482
761.017820	11931.221442
761.344623	12122.482818
761.671379	12453.585803
761.998088	13114.163480
762.324751	14718.669488
762.651366	17625.487015
762.977935	21199.239115
763.304456	23298.546976
763.630931	23667.745960
763.957359	22469.536787
764.283740	20581.423026
764.610074	18730.356704
764.936362	16626.874768
765.262602	15137.826306
765.588796	13695.915154
765.914943	12683.253211
766.241044	11855.203362
766.567097	11225.732125
766.893104	10688.274549
767.219064	10326.770886
767.544978	9960.770514
767.870845	9646.928440
768.196665	9457.832239
768.522438	9274.460268
768.848165	9106.073127
769.173846	8940.330070
769.499479	8819.138211
769.825066	8666.706322
770.150607	8481.401068
770.476101	8415.424967
770.801548	8307.723236
771.126949	8168.899941
771.452303	8083.860717
771.777611	7923.607478
772.102872	7905.164416
772.428087	7782.399717
772.753256	7657.419431
773.078378	7575.520846
773.403453	7433.660256
773.728482	7320.342679
774.053465	7258.336487
774.378401	7172.503281
774.703291	7080.638334
775.028135	6985.002605
775.352932	6943.352592
775.677683	6867.127825
776.002388	6776.959227
776.327046	6781.997860
776.651658	6690.291710
776.976224	6616.544670
777.300743	6602.729388
777.625216	6539.714965
777.949643	6492.766699
778.274024	6496.343398
778.598359	6431.753614
778.922647	6435.305107
779.246889	6393.531586
779.571086	6402.930817
779.895236	6410.306025
780.219339	6406.341157
780.543397	6403.629017
780.867409	6455.424352
781.191374	6451.310770
781.515294	6416.355410
781.839167	6466.421629
782.162995	6436.280570
782.486776	6391.623509
782.810511	6353.590524
783.134201	6274.275530
783.457844	6267.558192
783.781441	6214.424431
784.104993	6172.373646
784.428498	6148.539070
784.751958	6130.660618
785.075372	6102.737667
785.398739	6065.629734
785.722061	6090.596048
786.045337	6090.205359
786.368568	6203.817843
786.691752	6222.490277
787.014891	6480.559545
787.337983	6757.455002
787.661030	7195.528751
787.984031	7608.643747
788.306987	7855.128444
788.629897	7937.208511
788.952760	7839.445414
789.275579	7664.618199
789.598351	7370.368569
789.921078	7106.927952
790.243759	6829.263718
790.566395	6628.892976
790.888984	6445.367250
791.211529	6306.841383
791.534027	6144.619573
791.856480	6012.185941
792.178888	5952.995233
792.501249	5888.443258
792.823566	5786.652280
793.145836	5776.375888
793.468062	5760.612200
793.790241	5722.261622
794.112375	5763.326861
794.434464	5859.386048
794.756507	5892.791253
795.078505	6012.916908
795.400457	6228.151492
795.722364	6460.284024
796.044226	6651.870556
796.366042	6805.073742
796.687812	6750.606595
797.009538	6778.519464
797.331218	6679.695204
797.652852	6616.406038
797.974442	6496.802143
798.295986	6425.260608
798.617484	6302.763090
798.938938	6189.881573
799.260346	6124.893538
799.581709	5990.423280
799.903026	5937.039981
800.224299	5863.081213
800.545526	5757.534575
800.866708	5684.339542
801.187845	5640.252131
801.508936	5564.715482
801.829983	5535.023086
802.150984	5430.217497
802.471940	5403.128857
802.792851	5391.100664
803.113717	5362.948340
803.434538	5340.868086
803.755314	5304.798631
804.076045	5297.647754
804.396731	5260.933030
804.717372	5275.663282
805.037967	5280.752327
805.358518	5304.602026
805.679024	5365.529411
805.999485	5371.692222
806.319901	5391.761055
806.640272	5404.121964
806.960598	5452.670796
807.280879	5445.378767
807.601115	5478.652903
807.921306	5441.429023
808.241453	5436.435760
808.561554	5449.840188
808.881611	5411.182100
809.201623	5415.867853
809.521590	5362.640830
809.841513	5348.823027
810.161390	5366.646027
810.481223	5281.140496
810.801011	5261.595942
811.120755	5246.790073
811.440453	5192.174213
811.760107	5163.328730
812.079716	5133.520388
812.399281	5081.011729
812.718801	5075.370678
813.038276	5047.054517
813.357707	5009.724772
813.677093	5034.446591
813.996434	4969.103155
814.315731	4993.484695
814.634983	4995.619624
814.954191	5001.192620
815.273354	5058.087082
815.592473	5097.728195
815.911547	5173.227036
816.230577	5226.985900
816.549562	5315.047296
816.868502	5366.202405
817.187399	5417.975055
817.506250	5501.910267
817.825058	5530.251633
818.143821	5685.955232
818.462539	5852.542681
818.781213	6087.924237
819.099843	6450.635256
819.418429	7078.420227
819.736970	7695.099535
820.055466	8399.116835
820.373919	9320.231424
820.692327	10815.447737
821.010691	13633.977017
821.329011	20021.539877
821.647286	29522.448775
821.965517	39529.575220
822.283704	44498.869938
822.601847	45635.498896
822.919945	41029.260516
823.237999	36038.245986
823.556010	30989.747178
823.873976	26426.187207
824.191897	22341.869566
824.509775	19343.948306
824.827609	16662.913977
825.145398	15174.450289
825.463144	14479.161748
825.780845	14834.658876
826.098502	16139.201106
826.416116	18549.439775
826.733685	20679.402892
827.051210	21045.274715
827.368692	19550.194513
827.686129	17025.156168
828.003522	14633.718483
828.320872	12485.448416
828.638177	10894.049408
828.955439	9688.318834
829.272656	8653.213674
829.589830	7825.761202
829.906960	7116.775846
830.224046	6596.097750
830.541088	6200.195774
830.858086	5949.761333
831.175041	5752.011991
831.491952	5699.243713
831.808819	5742.640486
832.125642	5995.678683
832.442421	6566.251599
832.759157	7705.519600
833.075849	9468.930339
833.392497	11247.404046
833.709101	12266.352308
834.025662	11939.567072
834.342179	10885.126566
834.658653	9614.271846
834.975083	8546.454638
835.291469	7674.065321
835.607811	6954.619570
835.924110	6447.401356
836.240366	5966.538293
836.556578	5519.110683
836.872746	5177.537222
837.188871	4915.918982
837.504952	4695.975960
837.820990	4532.161145
838.136984	4420.018157
838.452935	4380.049369
838.768842	4418.052107
839.084706	4724.561823
839.400526	5481.488552
839.716303	6355.145720
840.032037	6874.997066
840.347727	6683.367685
840.663373	6089.466830
840.978977	5524.648391
841.294537	5104.309422
841.610054	4783.460144
841.925527	4547.274524
842.240957	4347.271787
842.556344	4166.155732
842.871687	4008.748224
843.186987	3861.803630
843.502244	3744.937081
843.817458	3663.535049
844.132629	3591.895212
844.447756	3541.995351
844.762840	3499.455574
845.077881	3458.894450
845.392879	3423.782814
845.707833	3402.801531
846.022745	3376.174157
846.337613	3363.334338
846.652438	3340.495390
846.967221	3330.453412
847.281960	3312.459013
847.596656	3301.255049
847.911309	3290.587967
848.225919	3277.780916
848.540485	3269.515944
848.855009	3261.087135
849.169490	3245.083992
849.483928	3242.984352
849.798323	3237.030749
850.112675	3228.601940
850.426984	3227.150087
850.741251	3219.537945
851.055474	3216.296483
851.369654	3217.884447
851.683792	3214.022923
851.997887	3215.666339
852.311938	3219.066597
852.625947	3214.562326
852.939914	3210.756255
853.253837	3216.911504
853.567718	3215.154662
853.881555	3207.290462
854.195350	3216.069631
854.509103	3211.245247
854.822812	3208.568394
855.136479	3202.377857
855.450103	3206.809032
855.763685	3202.387940
856.077224	3203.008002
856.390720	3210.478992
856.704173	3221.413254
857.017584	3227.843246
857.330953	3230.850294
857.644278	3239.137951
857.957561	3244.048035
858.270802	3241.668610
858.584000	3238.996799
858.897155	3232.851632
859.210268	3223.437277
859.523339	3212.520659
859.836367	3207.343394
860.149352	3204.613609
860.462295	3201.311653
860.775195	3190.029551
861.088054	3187.587112
861.400869	3187.282122
861.713642	3187.100641
862.026373	3195.128678
862.339062	3202.266952
862.651708	3205.442879
862.964312	3222.179510
863.276873	3235.946901
863.589392	3262.019748
863.901869	3285.660239
864.214303	3308.700833
864.526696	3326.465859
864.839045	3344.581246
865.151353	3355.432329
865.463619	3354.882843
865.775842	3358.572968
866.088023	3363.319214
866.400162	3357.640355
866.712258	3354.454345
867.024313	3355.044160
867.336325	3357.254706
867.648296	3357.597505
867.960224	3353.872092
868.272110	3356.788400
868.583954	3357.685725
868.895755	3367.268958
869.207515	3362.411807
869.519233	3377.147099
869.830909	3386.616907
870.142542	3396.915984
870.454134	3405.269176
870.765684	3416.211001
871.077191	3440.048097
871.388657	3449.475054
871.700081	3466.549442
872.011463	3486.779593
872.322803	3505.915813
872.634101	3525.553628
872.945357	3544.215979
873.256571	3572.045669
873.567744	3584.784665
873.878874	3588.300869
874.189963	3602.567335
874.501010	3608.137810
874.812015	3603.348714
875.122979	3617.781537
875.433900	3618.996455
875.744780	3618.260447
876.055618	3629.527426
876.366415	3626.023824
876.677169	3632.413486
876.987882	3652.071466
877.298554	3673.637522
877.609183	3711.486505
877.919771	3761.063732
878.230317	3829.285667
878.540822	3932.399949
878.851285	4088.572374
879.161707	4314.955470
879.472087	4701.780849
879.782425	5346.176421
880.092722	6558.707512
880.402977	8504.676076
880.713191	10845.649290
881.023363	13130.428762
881.333494	14352.429661
881.643583	14747.366256
881.953631	14301.224140
882.263637	13479.203512
882.573602	12486.035710
882.883526	11556.981303
883.193408	10628.315065
883.503248	9740.903110
883.813048	8926.078728
884.122806	8179.564502
884.432522	7424.558452
884.742197	6772.495285
885.051831	6229.804991
885.361424	5740.886165
885.670975	5361.277198
885.980485	5041.007653
886.289954	4771.139564
886.599382	4559.832039
886.908768	4386.998600
887.218113	4223.085482
887.527417	4091.221501
887.836680	3971.262204
888.145901	3874.257801
888.455082	3797.773415
888.764221	3728.394535
889.073319	3673.687933
889.382376	3640.696102
889.691392	3616.014613
890.000366	3610.302985
890.309300	3604.740072
890.618193	3605.776029
890.927044	3600.649176
891.235855	3607.127058
891.544625	3621.532156
891.853353	3654.390396
892.162041	3717.999676
892.470687	3808.216165
892.779293	3930.706121
893.087858	4108.847895
893.396381	4388.407602
893.704864	4811.171367
894.013306	5373.743971
894.321707	5927.333240
894.630068	6253.316932
894.938387	6268.372338
895.246665	6081.554739
895.554903	5772.428664
895.863100	5448.965548
896.171256	5184.100805
896.479371	4949.845947
896.787446	4730.283532
897.095480	4538.805386
897.403473	4396.032347
897.711425	4251.799895
898.019336	4129.660299
898.327207	4012.604706
898.635038	3908.585538
898.942827	3804.647028
899.250576	3720.885736
899.558284	3637.177377
899.865952	3579.579673
900.173579	3520.514994
900.481165	3476.820793
900.788711	3435.248918
901.096216	3405.175915
901.403681	3375.125597
901.711105	3369.608054
902.018489	3364.977754
902.325832	3399.897827
902.633135	3461.742702
902.940397	3641.938746
903.247619	4069.519333
903.554800	4829.193492
903.861941	5771.206184
904.169041	6427.357728
904.476101	6595.767554
904.783121	6313.904040
905.090100	5923.549854
905.397039	5520.186970
905.703938	5171.019010
906.010796	4860.627606
906.317614	4609.230305
906.624391	4375.857650
906.931129	4185.176005
907.237826	4004.256556
907.544483	3838.357224
907.851099	3665.032272
908.157675	3507.448323
908.464211	3372.410935
908.770707	3270.418311
909.077163	3193.843184
909.383578	3132.172228
909.689954	3093.065477
909.996289	3062.939542
910.302584	3042.480019
910.608839	3031.044162
910.915054	3018.910104
911.221229	3014.647809
911.527363	3015.983714
911.833458	3024.243645
912.139513	3041.005482
912.445527	3051.128118
912.751502	3087.011052
913.057436	3132.068885
913.363331	3187.350178
913.669186	3277.962398
913.975000	3399.058475
914.280775	3595.005604
914.586510	3864.949310
914.892205	4246.781426
915.197859	4740.416252
915.503475	5311.457995
915.809050	5779.682885
916.114585	6046.750613
916.420081	6095.566626
916.725536	6026.109608
917.030952	5793.288959
917.336328	5591.708340
917.641665	5391.191405
917.946961	5168.024565
918.252218	4969.284636
918.557435	4749.805401
918.862612	4553.974218
919.167750	4386.769227
919.472848	4197.899878
919.777906	4032.020710
920.082925	3876.208727
920.387904	3725.536201
920.692843	3617.209366
920.997743	3517.281094
921.302603	3427.692228
921.607423	3359.412320
921.912204	3296.607105
922.216946	3245.066348
922.521647	3196.991384
922.826310	3159.986795
923.130932	3120.567492
923.435516	3083.018458
923.740059	3055.455949
924.044564	3024.621732
924.349028	2999.400839
924.653454	2970.993937
924.957840	2945.402519
925.262186	2929.001125
925.566493	2903.626478
925.870761	2876.497508
926.174989	2867.554501
926.479178	2854.041688
926.783328	2835.807835
927.087438	2823.381391
927.391509	2810.760862
927.695541	2800.943215
927.999533	2791.733027
928.303486	2779.704834
928.607400	2776.523866
928.911275	2774.822476
929.215110	2763.903337
929.518906	2760.792945
929.822663	2761.259252
930.126381	2763.205137
930.430060	2765.090529
930.733699	2765.549274
931.037299	2770.900458
931.340861	2767.787546
931.644383	2771.008843
931.947866	2770.648401
932.251309	2766.648245
932.554714	2765.226640
932.858080	2766.872577
933.161407	2763.172370
933.464694	2757.170876
933.767943	2753.717686
934.071153	2750.284660
934.374323	2747.917838
934.677455	2745.951788
934.980548	2742.067579
935.283602	2742.619585
935.586617	2736.441651
935.889593	2741.119842
936.192530	2742.874164
936.495428	2749.720051
936.798287	2757.206164
937.101108	2772.702671
937.403890	2790.797893
937.706632	2817.886533
938.009336	2849.663446
938.312002	2877.989690
938.614628	2902.222516
938.917216	2920.642892
939.219765	2929.691763
939.522275	2943.580142
939.824747	2939.650563
940.127179	2933.074378
940.429573	2926.044489
940.731929	2927.304777
941.034246	2920.952923
941.336524	2915.952099
941.638763	2910.484967
941.940964	2905.544637
942.243126	2886.970505
942.545250	2877.979607
942.847335	2863.317411
943.149381	2847.904083
943.451389	2836.858915
943.753359	2824.835763
944.055290	2817.251347
944.357182	2808.804894
944.659036	2802.490849
944.960851	2799.146043
945.262628	2793.774694
945.564367	2796.867442
945.866067	2796.020528
946.167729	2791.957358
946.469352	2792.216977
946.770937	2789.472069
947.072484	2779.619134
947.373992	2782.727005
947.675462	2777.229627
947.976893	2774.454472
948.278286	2768.780653
948.579641	2764.672113
948.880958	2763.051382
949.182236	2761.604571
949.483476	2761.198758
949.784678	2760.109869
950.085841	2759.688932
950.386967	2764.364602
950.688054	2769.168822
950.989103	2775.220727
951.290114	2782.936213
951.591087	2797.384160
951.892021	2807.345480
952.192917	2822.423571
952.493776	2829.292143
952.794596	2834.855057
953.095378	2834.996209
953.396122	2833.940087
953.696828	2830.418841
953.997496	2828.256186
954.298126	2817.205977
954.598718	2810.102991
954.899272	2798.261321
955.199788	2788.610032
955.500266	2774.635953
955.800706	2761.123141
956.101108	2744.550347
956.401472	2734.001733
956.701798	2722.228118
957.002087	2705.214224
957.302337	2698.690971
957.602550	2688.830474
957.902724	2679.015347
958.202861	2670.289110
958.502960	2663.133192
958.803022	2653.502068
959.103045	2645.327837
959.403031	2643.434883
959.702979	2636.241157
960.002889	2631.265538
960.302762	2626.541977
960.602596	2624.021400
960.902393	2619.880092
961.202153	2617.351953
961.501875	2613.087137
961.801559	2613.321551
962.101205	2606.475664
962.400814	2607.657815
962.700385	2604.108842
962.999918	2603.889552
963.299414	2602.462906
963.598873	2600.186825
963.898293	2596.423603
964.197677	2597.368820
964.497022	2594.767584
964.796331	2597.464602
965.095601	2591.659713
965.394835	2593.930753
965.694030	2592.431009
965.993189	2591.644589
966.292309	2592.589806
966.591393	2587.561255
966.890439	2592.186513
967.189447	2592.045361
967.488419	2591.805906
967.787353	2590.376739
968.086249	2591.052254
968.385108	2593.043510
968.683930	2595.279261
968.982714	2598.482915
969.281462	2598.238419
969.580172	2597.232708
969.878844	2600.033069
970.177480	2604.683534
970.476078	2604.875098
970.774639	2608.401385
971.073162	2608.776951
971.371649	2610.977414
971.670098	2612.323402
971.968510	2610.768207
972.266885	2612.479678
972.565223	2619.065946
972.863524	2618.077880
973.161788	2616.615945
973.460014	2622.506533
973.758204	2619.771707
974.056356	2618.859258
974.354471	2621.919239
974.652550	2622.458642
974.950591	2623.045937
975.248595	2624.800258
975.546563	2621.339506
975.844493	2623.323200
976.142386	2614.405399
976.440243	2614.531428
976.738062	2615.247272
977.035845	2610.561519
977.333590	2609.538165
977.631299	2603.987855
977.928971	2604.973400
978.226606	2602.475508
978.524204	2601.331167
978.821765	2598.966865
979.119290	2602.679675
979.416777	2600.408635
979.714228	2600.567432
980.011642	2603.183791
980.309020	2606.105139
980.606360	2610.914400
980.903664	2615.771552
981.200931	2632.157822
981.498162	2650.066521
981.795356	2679.668177
982.092513	2716.617314
982.389633	2758.836977
982.686717	2800.935653
982.983764	2827.873059
983.280775	2846.553054
983.577749	2843.092302
983.874686	2837.516786
984.171587	2819.832418
984.468451	2805.712146
984.765279	2786.275978
985.062070	2768.087495
985.358824	2749.276429
985.655543	2730.074674
985.952224	2708.092723
986.248869	2682.072807
986.545478	2657.166987
986.842050	2637.526651
987.138586	2618.529063
987.435086	2608.933227
987.731549	2594.313880
988.027975	2591.508478
988.324366	2584.917170
988.620719	2581.932807
988.917037	2576.253947
989.213318	2574.030798
989.509563	2574.822259
989.805772	2570.948132
990.101944	2569.498801
990.398080	2567.555436
990.694180	2568.651887
990.990244	2568.750189
991.286271	2567.205076
991.582262	2569.206414
991.878217	2568.286403
992.174136	2570.905282
992.470019	2571.830334
992.765865	2575.147413
993.061676	2576.168247
993.357450	2576.780747
993.653188	2578.943402
993.948890	2587.427664
994.244556	2593.063674
994.540186	2602.525920
994.835780	2613.742487
995.131337	2631.845271
995.426859	2643.757517
995.722345	2658.984323
996.017795	2680.797395
996.313208	2693.974971
996.608586	2702.779347
996.903928	2702.131558
997.199234	2702.817155
997.494504	2699.918492
997.789738	2693.596885
998.084936	2681.979546
998.380099	2670.631908
998.675225	2660.489107
998.970316	2648.231541
999.265371	2637.022536
999.560390	2623.108951
999.855373	2612.668722
1000.150320	2601.840323
1000.445232	2595.662389
1000.740108	2588.592171
1001.034948	2581.912642
1001.329752	2576.448031
1001.624521	2571.744635
1001.919254	2564.873542
1002.213951	2563.918243
1002.508613	2558.347768
1002.803239	2560.036555
1003.097829	2556.774928
1003.392384	2559.721483
1003.686903	2556.106975
1003.981386	2556.462377
1004.275834	2555.189485
1004.570246	2555.585216
1004.864623	2554.138405
1005.158964	2550.332334
1005.453270	2551.028013
1005.747540	2551.549772
1006.041775	2548.348640
1006.335974	2548.351160
1006.630138	2549.548434
1006.924266	2551.602704
1007.218359	2550.022303
1007.512416	2548.101623
1007.806438	2549.888712
1008.100425	2548.202446
1008.394376	2546.700182
1008.688292	2547.393341
1008.982172	2547.025337
1009.276017	2545.659184
1009.569827	2546.150697
1009.863602	2549.389638
1010.157341	2545.533155
1010.451045	2548.101623
1010.744714	2542.304296
1011.038347	2547.075748
1011.331945	2546.387631
1011.625508	2543.955274
1011.919036	2543.262115
1012.212528	2545.507949
1012.505986	2544.182126
1012.799408	2543.710778
1013.092795	2542.142979
1013.386147	2543.436035
1013.679464	2542.019471
1013.972745	2541.941333
1014.265992	2540.897814
1014.559204	2542.611807
1014.852380	2541.865716
1015.145521	2545.127342
1015.438628	2542.906714
1015.731699	2544.005686
1016.024736	2543.259595
1016.317737	2546.135573
1016.610703	2544.814791
1016.903635	2540.192053
1017.196531	2542.095088
1017.489393	2541.981662
1017.782219	2539.566950
1018.075011	2544.645912
1018.367768	2542.463093
1018.660490	2545.296221
1018.953177	2545.296221
1019.245829	2545.296221
