Dividing Wavelength (nm)	Counts (n)	Blue Motor Position (mm): 31.400000	Red Motor Position (mm): 0.000000	
326.493990	2052.757846
326.888308	2052.757846
327.282561	2052.757846
327.676750	2028.766995
328.070874	2030.299506
328.464933	2035.537265
328.858929	2046.952957
329.252859	2056.085008
329.646726	2068.491287
330.040528	2085.490058
330.434265	2103.113932
330.827938	2125.695781
331.221547	2146.939203
331.615091	2163.418735
332.008571	2187.848166
332.401986	2204.846937
332.795338	2224.948538
333.188625	2248.344533
333.581847	2264.892121
333.975006	2284.368618
334.368100	2301.195990
334.761129	2316.044709
335.154095	2333.361072
335.546996	2383.717158
335.939833	2488.474855
336.332606	2496.626401
336.725315	2512.253978
337.117960	2521.617921
337.510540	2531.977492
337.903056	2538.271373
338.295508	2545.434853
338.687896	2554.027499
339.080220	2557.589075
339.472480	2564.326577
339.864676	2566.978224
340.256807	2568.218347
340.648875	2575.369224
341.040879	2571.759758
341.432818	2575.714543
341.824694	2576.158165
342.216506	2574.875191
342.608253	2573.645150
342.999937	2572.843606
343.391557	2571.321178
343.783113	2572.457958
344.174605	2568.954356
344.566033	2566.650549
344.957397	2567.497462
345.348697	2563.605692
345.739934	2563.666186
346.131106	2561.463201
346.522215	2559.590413
346.913260	2561.513613
347.304241	2555.340720
347.695159	2555.169321
348.086012	2553.926676
348.476802	2550.118085
348.867528	2547.489123
349.258191	2546.758156
349.648789	2545.109698
350.039324	2543.070552
350.429796	2543.899821
350.820203	2544.466951
351.210548	2546.324616
351.600828	2544.116591
351.991045	2541.507794
352.381198	2542.851261
352.771288	2540.648277
353.161314	2540.365972
353.551276	2537.863040
353.941175	2538.709953
354.331010	2540.776827
354.720782	2544.955943
355.110490	2547.267312
355.500135	2542.526107
355.889717	2541.656508
356.279235	2541.003678
356.668689	2544.204811
357.058080	2543.761190
357.447408	2541.898483
357.836672	2547.758825
358.225873	2543.647764
358.615010	2546.228834
359.004084	2547.481561
359.393095	2547.141283
359.782043	2547.297559
360.170927	2546.916952
360.559748	2547.773948
360.948505	2548.061294
361.337199	2553.173024
361.725830	2549.601366
362.114398	2553.200750
362.502903	2551.310318
362.891344	2551.960626
363.279722	2550.975081
363.668037	2552.862993
364.056289	2552.376522
364.444478	2551.597663
364.832603	2552.973898
365.220665	2555.507078
365.608665	2555.751574
365.996601	2554.566903
366.384474	2555.738971
366.772284	2556.674105
367.160031	2555.764177
367.547715	2557.291647
367.935336	2556.333827
368.322893	2555.703683
368.710388	2553.440205
369.097820	2555.882644
369.485189	2553.604042
369.872495	2559.605536
370.259738	2558.428427
370.646918	2558.302398
371.034035	2560.596123
371.421090	2560.381874
371.808081	2560.888510
372.195010	2559.434137
372.581875	2562.612584
372.968678	2559.608057
373.355418	2559.746688
373.742096	2560.896072
374.128710	2564.102245
374.515262	2564.555949
374.901751	2565.004612
375.288177	2564.692060
375.674540	2561.125444
376.060841	2563.845147
376.447079	2564.508058
376.833254	2564.273645
377.219367	2566.648028
377.605417	2565.612071
377.991404	2565.934705
378.377329	2564.979406
378.763191	2564.939077
379.148991	2565.785991
379.534727	2567.290775
379.920402	2566.655590
380.306013	2565.770867
380.691563	2567.910837
381.077049	2564.064437
381.462474	2567.676423
381.847835	2565.034859
382.233134	2567.880590
382.618371	2564.568552
383.003545	2568.619119
383.388657	2568.966959
383.773706	2570.423852
384.158693	2568.561146
384.543618	2569.955025
384.928480	2571.288410
385.313280	2568.465364
385.698017	2571.800087
386.082692	2573.882084
386.467305	2572.432752
386.851856	2572.541137
387.236344	2568.757751
387.620770	2572.321847
388.005133	2567.184911
388.389435	2571.994172
388.773674	2567.217678
389.157851	2575.591035
389.541965	2576.967270
389.926018	2574.683627
390.310008	2575.215469
390.693936	2580.521283
391.077802	2573.405695
391.461606	2577.355439
391.845348	2573.496436
392.229027	2577.897363
392.612645	2575.492733
392.996200	2575.217990
393.379694	2578.905594
393.763125	2579.961715
394.146494	2576.206056
394.529801	2577.766293
394.913047	2579.961715
395.296230	2582.366346
395.679351	2580.453228
396.062410	2579.487847
396.445408	2577.967939
396.828343	2582.189905
397.211217	2581.743763
397.594028	2583.276274
397.976778	2582.847776
398.359466	2581.327868
398.742092	2581.889957
399.124656	2580.344843
399.507158	2582.172261
399.889598	2583.291397
400.271977	2583.785431
400.654294	2584.125708
401.036549	2585.141501
401.418742	2585.111254
401.800874	2584.972622
402.182944	2585.171748
402.564952	2587.649475
402.946898	2584.670153
403.328783	2589.544949
403.710606	2586.691656
404.092367	2589.131574
404.474067	2590.679208
404.855705	2588.549321
405.237282	2588.065370
405.618797	2588.377922
406.000250	2592.136102
406.381642	2592.138622
406.762972	2588.735844
407.144240	2588.077973
407.525447	2592.330186
407.906593	2588.317428
408.287677	2592.045361
408.668700	2590.636359
409.049661	2595.828747
409.430560	2595.927050
409.811399	2596.647935
410.192176	2597.570466
410.572891	2595.760692
410.953545	2595.334714
411.334138	2595.513675
411.714669	2596.781525
412.095139	2598.004005
412.475547	2598.573655
412.855894	2601.089191
413.236180	2600.169181
413.616405	2601.258070
413.996568	2599.604571
414.376670	2602.125148
414.756711	2600.978286
415.136691	2602.515838
415.516609	2602.702360
415.896466	2602.515838
416.276262	2605.903493
416.655997	2609.008844
417.035670	2604.668410
417.415283	2609.568412
417.794834	2609.155037
418.174324	2608.845006
418.553753	2610.937085
418.933121	2613.187960
419.312428	2614.627210
419.691674	2616.661315
420.070859	2616.563013
420.449983	2616.910852
420.829045	2622.201543
421.208047	2623.555093
421.586988	2628.374436
421.965867	2634.998512
422.344686	2637.912299
422.723444	2640.899183
423.102141	2641.647794
423.480777	2651.775472
423.859352	2652.829074
424.237866	2665.767195
424.616319	2674.211128
424.994712	2685.604135
425.373044	2689.526153
425.751314	2703.107022
426.129524	2704.357228
426.507673	2724.539487
426.885762	2736.058524
427.263789	2754.718355
427.641756	2772.750562
428.019662	2791.269241
428.397508	2805.424801
428.775292	2824.397183
429.153016	2852.516739
429.530679	2867.761188
429.908282	2893.682802
430.285824	2908.657549
430.663305	2951.575412
431.040726	2967.477732
431.418086	2995.332628
431.795385	3031.699512
432.172624	3071.355748
432.549802	3088.656988
432.926920	3131.693319
433.303977	3158.436640
433.680974	3198.803679
434.057910	3248.973242
434.434786	3290.219963
434.811601	3321.215498
435.188355	3401.022004
435.565050	3421.199222
435.941683	3461.692291
436.318257	3551.452555
436.694770	3583.627720
437.071222	3659.252589
437.447614	3663.222498
437.823946	3700.930329
438.200218	3777.966721
438.576429	3803.669044
438.952580	3879.752658
439.328670	3933.514044
439.704700	4002.129189
440.080670	4024.645502
440.456580	4133.993170
440.832429	4182.073175
441.208218	4173.533461
441.583947	4257.385493
441.959616	4340.073019
442.335224	4403.450405
442.710773	4487.602386
443.086261	4599.163121
443.461689	4578.196962
443.837057	4684.628323
444.212365	4807.425789
444.587612	4873.684195
444.962800	4898.930293
445.337927	5013.087222
445.712995	4908.866407
446.088002	5214.609868
446.462949	5312.035207
446.837837	5385.298296
447.212664	5485.397967
447.587431	5944.395025
447.962139	6444.051509
448.336786	6853.378078
448.711374	6761.545899
449.085901	6325.171019
449.460369	6406.068935
449.834776	6455.182377
450.209124	7000.171437
450.583412	6974.945503
450.957640	7161.087588
451.331808	7044.215998
451.705917	6874.082097
452.079965	6916.213540
452.453954	7111.371729
452.827883	7175.134763
453.201752	7236.210863
453.575562	7325.192269
453.949311	7631.833055
454.323001	7766.711646
454.696632	7803.733880
455.070202	8260.422089
455.443713	8384.278198
455.817164	8574.612003
456.190556	8873.595276
456.563888	8849.712809
456.937160	9084.466741
457.310373	8832.550201
457.683526	8944.143703
458.056619	9059.475221
458.429653	9204.123569
458.802628	9418.480992
459.175542	9550.423112
459.548398	10037.396053
459.921194	10543.301047
460.293930	10875.417303
460.666607	11583.389388
461.039224	12239.291394
461.411782	12538.186447
461.784280	12315.538846
462.156719	12344.263341
462.529099	12357.254394
462.901419	11980.528967
463.273680	11774.912905
463.645882	12042.434337
464.018024	12093.980135
464.390106	12530.244109
464.762130	13622.422693
465.134094	15118.700169
465.505999	17135.103734
465.877845	18997.124483
466.249631	19871.948678
466.621358	19403.557430
466.993026	18770.333054
467.364634	18225.217965
467.736184	17653.611613
468.107674	17241.101555
468.479105	17179.080239
468.850477	17014.405908
469.221790	16686.708223
469.593043	16183.711974
469.964238	15919.810091
470.335373	16071.092597
470.706449	16921.862926
471.077467	18066.401454
471.448425	20323.449539
471.819324	21767.974530
472.190164	21321.282929
472.560945	19761.479353
472.931667	18472.758783
473.302330	18275.420296
473.672934	17881.660810
474.043479	18340.791458
474.413965	18180.754988
474.784393	18061.304848
475.154761	18700.261015
475.525070	18869.590853
475.895321	18747.340351
476.265513	19252.274923
476.635645	19847.176448
477.005719	19933.385219
477.375734	20328.924233
477.745691	20937.331008
478.115588	21604.071495
478.485427	22862.862734
478.855207	24718.677823
479.224928	26428.160818
479.594591	27577.710253
479.964194	27046.430611
480.333739	27418.276201
480.703226	27725.617707
481.072653	28250.817718
481.442022	28747.973789
481.811333	29055.448886
482.180584	28565.284895
482.549777	28377.554846
482.918912	28197.933493
483.287988	28160.606270
483.657005	27995.011928
484.025964	27662.817533
484.394864	27859.838428
484.763706	27801.877762
485.132489	27332.069950
485.501213	27407.473008
485.869879	27605.156815
486.238487	27572.437206
486.607036	27849.564557
486.975527	27568.258090
487.343959	27897.420230
487.712333	28239.593589
488.080648	28218.277070
488.448905	28632.959864
488.817104	28567.669360
489.185244	29481.444030
489.553326	30630.315430
489.921350	32552.041085
490.289315	34928.400678
490.657222	35576.899750
491.025070	35972.484134
491.392861	35582.782777
491.760593	34773.637255
492.128267	33774.684730
492.495883	32838.103880
492.863440	32019.047450
493.230939	31142.516825
493.598380	30656.075726
493.965763	30547.254858
494.333088	30100.059142
494.700354	29922.834858
495.067563	29917.249259
495.434713	29834.410499
495.801805	30123.762647
496.168839	29991.490332
496.535815	29875.793331
496.902733	30008.332827
497.269593	29846.105976
497.636395	29995.535858
498.003139	30298.433587
498.369825	30069.948330
498.736453	30484.706742
499.103023	30331.145634
499.469535	30421.009243
499.835989	30574.053632
500.202385	30435.933579
500.568723	30512.075166
500.935003	30841.832163
501.301226	30753.165828
501.667390	31438.152772
502.033497	31641.691879
502.399546	31433.174633
502.765537	31053.467363
503.131470	31522.483714
503.497345	31956.025465
503.863163	30952.999687
504.228923	31710.768290
504.594625	32118.401031
504.960269	31623.427779
505.325856	32279.735598
505.691385	31977.026912
506.056856	32293.669347
506.422270	32769.425721
506.787625	32341.025946
507.152924	32781.726136
507.518164	32999.892151
507.883347	32580.909252
508.248472	32726.346541
508.613540	33404.028852
508.978550	33646.321829
509.343503	33509.822507
509.708398	33870.718711
510.073236	34478.699508
510.438016	34587.772434
510.802738	34286.520642
511.167403	34851.059296
511.532010	35103.603460
511.896561	35601.356908
512.261053	36329.349935
512.625488	36116.998891
512.989866	36060.800108
513.354186	36110.931862
513.718449	36091.495694
514.082655	36974.433625
514.446803	36694.188321
514.810894	37303.643657
515.174927	37312.974832
515.538904	37326.659045
515.902822	37970.999165
516.266684	37677.969494
516.630488	38037.706233
516.994235	38065.702281
517.357925	38651.912856
517.721558	38906.460878
518.085133	39286.289135
518.448651	39473.091612
518.812112	39381.294721
519.175516	39533.262824
519.538863	39983.412657
519.902152	40051.490919
520.265385	40583.509090
520.628560	40599.363519
520.991678	40567.694990
521.354739	40790.188836
521.717743	41166.571464
522.080690	41090.364342
522.443580	41759.643050
522.806413	41787.155147
523.169189	41941.666512
523.531908	42155.945797
523.894569	42029.982486
524.257174	42219.154305
524.619722	42561.320102
524.982213	42693.859598
525.344647	42738.370466
525.707025	42862.080381
526.069345	43325.211185
526.431608	43215.004000
526.793815	43608.377838
527.155964	43176.325748
527.518057	43437.636478
527.880093	43279.676963
528.242072	43920.813430
528.603995	43665.534440
528.965860	43594.441568
529.327669	43807.216069
529.689421	43866.253022
530.051117	43817.036237
530.412755	44110.549858
530.774337	44173.813818
531.135862	44115.830466
531.497331	44268.874856
531.858743	44270.515752
532.220098	44663.390515
532.581396	44409.122277
532.942638	44170.829455
533.303824	44415.879943
533.664953	44477.853368
534.026025	44178.698696
534.387040	44733.986833
534.747999	44813.206045
535.108902	45105.058606
535.469748	44452.017455
535.830537	44717.809771
536.191270	44955.296008
536.551947	44691.152149
536.912567	44980.768958
537.273131	45134.302340
537.633638	44747.756745
537.994089	44954.023116
538.354483	44715.395058
538.714821	45362.661568
539.075103	45641.084495
539.435328	45484.977604
539.795497	45249.545637
540.155609	45374.644390
540.515665	45945.607996
540.875665	45266.226815
541.235609	45538.441561
541.595496	45668.437795
541.955328	46243.502379
542.315102	45673.771336
542.674821	45562.840746
543.034483	45460.926259
543.394090	45469.486138
543.753640	45456.081710
544.113134	46523.906480
544.472571	45624.466331
544.831953	46757.132942
545.191278	46019.675148
545.550548	45703.945162
545.909761	46343.919643
546.268918	46481.134810
546.628019	46892.747542
546.987064	46342.704725
547.346053	45627.745602
547.704986	46541.270734
548.063863	46181.864191
548.422684	46378.388533
548.781449	45988.223390
549.140158	46510.330652
549.498811	46286.047197
549.857408	45668.420151
550.215949	46518.537651
550.574434	46354.886673
550.932864	46276.025383
551.291237	46995.786206
551.649555	46756.618744
552.007817	46922.084537
552.366022	46583.714729
552.724173	46659.599218
553.082267	47062.664673
553.440305	47415.323632
553.798288	46659.332037
554.156215	47062.823470
554.514086	47258.405116
554.871902	46881.657003
555.229661	47053.643529
555.587365	46728.166472
555.945014	46863.748304
556.302606	46880.290851
556.660143	46994.934251
557.017625	47189.616051
557.375050	46904.541321
557.732421	47294.666135
558.089735	47359.326495
558.446994	47232.503667
558.804197	47694.890901
559.161345	47554.945949
559.518437	46909.219512
559.875474	47159.167482
560.232455	47398.740756
560.589381	47446.268755
560.946251	47242.893485
561.303065	47906.311852
561.659825	47592.762165
562.016528	47406.640244
562.373177	46981.156778
562.729770	47603.943444
563.086307	47110.661499
563.442789	47667.956016
563.799216	47517.596041
564.155587	47405.621931
564.511904	47394.932165
564.868164	47433.459183
565.224370	47738.312879
565.580520	47477.602047
565.936615	47681.683078
566.292654	47322.173191
566.648638	47681.952779
567.004567	47626.938667
567.360441	47726.771158
567.716260	47449.003581
568.072023	47786.952452
568.427732	47733.768279
568.783385	47276.391953
569.138982	47677.415741
569.494525	47808.702511
569.850013	47391.947802
570.205445	47523.973100
570.560823	47324.219900
570.916145	47181.809824
571.271412	47420.175742
571.626625	47073.500634
571.981782	47137.356929
572.336884	46735.624859
572.691931	47055.113025
573.046923	46724.559526
573.401860	46577.478822
573.756743	46587.120028
574.111570	46735.541680
574.466342	46623.310472
574.821059	46785.025646
575.175722	46285.797660
575.530330	46396.211532
575.884882	46024.507094
576.239380	45935.689525
576.593823	46020.363266
576.948211	45952.927751
577.302544	45492.856927
577.656823	45498.992012
578.011047	45755.075065
578.365216	45582.110556
578.719330	45301.313246
579.073389	45264.681702
579.427394	45328.454818
579.781344	45268.109686
580.135239	45023.031471
580.489080	45078.216982
580.842866	44575.336681
581.196597	45057.671760
581.550273	45043.589297
581.903895	44994.649775
582.257463	45426.540549
582.610975	44853.873033
582.964434	45199.547473
583.317837	44707.427514
583.671186	44659.501265
584.024481	44930.503613
584.377721	44479.335467
584.730906	44684.177713
585.084037	44799.748685
585.437113	44502.983520
585.790135	44634.101411
586.143103	44192.917270
586.496016	44363.686357
586.848874	44467.851719
587.201679	44484.200181
587.554428	43986.620652
587.907124	44257.784318
588.259765	44030.234195
588.612352	44198.328949
588.964884	43647.966019
589.317362	43946.298983
589.669786	43962.723062
590.022155	43813.240248
590.374470	44268.466522
590.726731	43833.634236
591.078937	43167.312164
591.431090	43504.290614
591.783188	43061.689909
592.135232	42845.759646
592.487222	43101.935961
592.839157	43249.533384
593.191038	42905.900611
593.542866	42700.728170
593.894639	42104.445370
594.246358	42416.631425
594.598022	42413.155549
594.949633	41967.126860
595.301190	41963.872795
595.652692	41902.300142
596.004141	42378.338820
596.355535	41300.590539
596.706876	41307.890130
597.058162	41028.484178
597.409395	41528.488502
597.760573	41745.643765
598.111698	41341.718793
598.462768	41265.695672
598.813785	41274.295881
599.164748	40884.334904
599.515657	41163.514004
599.866511	40659.126397
600.217312	41354.949301
600.568060	40315.322226
600.918753	41126.932872
601.269392	41039.718389
601.619978	40760.698086
601.970510	40975.915026
602.320988	41111.562393
602.671412	41380.051727
603.021783	41250.604978
603.372100	40809.899747
603.722363	40912.668710
604.072572	40947.964348
604.422728	40944.173401
604.772830	40730.325134
605.122878	40895.793447
605.472872	40736.561041
605.822813	41002.358398
606.172701	40759.571388
606.522534	41083.624319
606.872314	41299.970477
607.222041	41130.479323
607.571714	41457.756072
607.921333	40951.614144
608.270899	41154.127376
608.620411	41548.663199
608.969870	41284.990689
609.319276	41305.435088
609.668627	41341.081087
610.017926	41748.600402
610.367171	41871.458363
610.716362	41906.822057
611.065500	41806.646768
611.414585	42016.668799
611.763616	42199.266953
612.112594	42119.120169
612.461518	42231.842889
612.810389	42622.174390
613.159207	42413.921804
613.507971	42387.627146
613.856682	42886.764391
614.205340	42710.475241
614.553945	43391.678799
614.902496	42727.292530
615.250994	43151.079649
615.599439	43216.594484
615.947830	43315.348168
616.296169	43322.945187
616.644454	43363.748286
616.992686	43532.054769
617.340864	43989.257176
617.688990	43495.050179
618.037063	44180.589129
618.385082	43997.373433
618.733048	44339.824055
619.080961	44201.209968
619.428821	44226.463629
619.776628	44247.238224
620.124382	44064.985389
620.472083	44168.981872
620.819731	44264.768836
621.167326	43819.355167
621.514868	43815.223942
621.862357	43286.278354
622.209793	43353.721431
622.557176	42925.924074
622.904506	42685.826519
623.251783	42313.559993
623.599007	42001.522652
623.946179	41915.069384
624.293297	41667.528566
624.640363	41115.476849
624.987376	40957.764351
625.334336	40760.088106
625.681243	40355.656498
626.028097	40273.097521
626.374899	40069.639073
626.721647	40077.478067
627.068343	39842.366213
627.414987	39571.202548
627.761577	39307.593051
628.108115	39616.646029
628.454600	38889.429340
628.801032	39122.524732
629.147412	39013.444245
629.493739	38923.845297
629.840014	38491.914194
630.186236	38920.918907
630.532405	38371.034887
630.878521	38607.444838
631.224585	38368.584886
631.570597	38046.016575
631.916556	38220.286743
632.262462	38089.413348
632.608316	38036.766058
632.954117	37899.845799
633.299866	37847.236317
633.645562	37746.972808
633.991206	37219.158959
634.336797	36819.319842
634.682336	36711.018213
635.027823	36478.583213
635.373257	36334.423857
635.718639	36021.658069
636.063968	35908.640441
636.409245	35262.752687
636.754470	35214.937343
637.099642	34995.543807
637.444762	34427.262095
637.789829	34579.462092
638.134845	34197.365315
638.479808	34116.611072
638.824719	34051.406267
639.169577	33554.076276
639.514383	33643.755882
639.859137	33269.117493
640.203839	33427.422327
640.548489	33150.511746
640.893086	33142.854233
641.237632	32878.523852
641.582125	32975.518172
641.926566	32758.622528
642.270955	32797.749444
642.615292	32731.365009
642.959576	32622.100520
643.303809	32635.550319
643.647990	32719.614080
643.992118	32677.114632
644.336195	32518.714017
644.680219	32602.419856
645.024192	32819.529749
645.368112	33349.297045
645.711981	33368.453429
646.055797	34085.272739
646.399562	33912.734207
646.743274	34779.180004
647.086935	35162.224517
647.430544	35128.632789
647.774101	35164.614024
648.117606	35452.526923
648.461059	35568.251651
648.804460	35176.251528
649.147810	34655.704502
649.491108	34296.890295
649.834354	34147.026873
650.177548	33326.367357
650.520690	32831.948631
650.863781	32813.369459
651.206820	32646.693789
651.549807	32241.778230
651.892742	31677.383248
652.235626	31572.945664
652.578458	31441.638730
652.921238	30767.444897
653.263967	31069.099981
653.606644	30775.699786
653.949269	30691.575531
654.291843	30299.285542
654.634365	30663.201397
654.976836	30215.483921
655.319255	30278.941966
655.661622	30154.491001
656.003938	30023.589879
656.346203	29838.965181
656.688416	30081.101883
657.030577	29855.449754
657.372687	29682.311326
657.714746	29849.468425
658.056753	30030.004748
658.398708	29421.005637
658.740612	29478.459667
659.082465	29692.625526
659.424266	29588.470247
659.766016	29592.825804
660.107715	29463.742018
660.449362	29557.207531
660.790958	29546.013649
661.132503	29467.744694
661.473996	29548.753516
661.815438	29615.271541
662.156829	29734.429295
662.498168	29554.414732
662.839456	29527.048828
663.180693	29643.454112
663.521879	29734.809902
663.863013	29701.969305
664.204097	29669.489151
664.545129	30083.819065
664.886110	30034.277125
665.227040	30134.275974
665.567918	30122.043614
665.908746	30194.300993
666.249522	30286.445723
666.590248	30311.409517
666.930922	30410.884085
667.271545	30411.176472
667.612118	30460.037856
667.952639	30266.661715
668.293109	30311.596040
668.633528	30167.655974
668.973896	30125.401022
669.314213	30105.743043
669.654480	29918.529713
669.994695	29908.202909
670.334859	29841.425264
670.674973	29662.242492
671.015035	29833.631641
671.355047	29786.506934
671.695008	29730.681197
672.034918	29636.363729
672.374777	29735.860982
672.714585	29601.189078
673.054342	29726.875126
673.394049	29581.276520
673.733705	29815.226388
674.073310	29519.812252
674.412864	29585.841285
674.752368	29271.961402
675.091820	29509.528298
675.431223	29084.690099
675.770574	28909.018490
676.109875	28739.905423
676.449125	28535.106027
676.788324	28438.008363
677.127473	27952.762017
677.466571	27856.649898
677.805619	27576.588597
678.144616	27532.982616
678.483562	27459.706924
678.822458	27148.544223
679.161303	27096.297705
679.500098	27020.864399
679.838842	26960.607488
680.177535	27036.917954
680.516179	27282.344008
680.854771	27423.168641
681.193314	28187.601648
681.531805	29222.653877
681.870247	29977.329731
682.208638	30703.228158
682.546978	30953.133278
682.885268	31083.356364
683.223508	30644.513840
683.561697	30348.996360
683.899836	30197.739059
684.237925	29790.602872
684.575963	29647.174483
684.913951	29293.285483
685.251889	29468.253851
685.589776	29503.088224
685.927614	29503.763739
686.265401	29683.090184
686.603137	29812.209257
686.940824	30318.744396
687.278460	30652.899799
687.616046	30825.753403
687.953582	31489.678405
688.291068	31400.777657
688.628504	31716.610987
688.965889	31714.266850
689.303224	31444.570161
689.640510	31141.616979
689.977745	30506.393786
690.314930	29765.011454
690.652065	29320.853033
690.989150	28636.657551
691.326185	27803.397670
691.663170	27158.087128
692.000105	26429.456395
692.336990	25832.440107
692.673825	25403.667287
693.010610	24921.911940
693.347345	24421.995837
693.684030	23806.604542
694.020665	23608.204892
694.357251	22938.185134
694.693786	22942.636473
695.030272	22721.866702
695.366707	22240.058423
695.703093	21958.507460
696.039429	22031.052185
696.375716	21793.896143
696.711952	21805.505920
697.048139	21661.974188
697.384276	21506.527689
697.720363	21632.642234
698.056400	21520.685769
698.392388	21364.770443
698.728326	21351.277794
699.064214	21196.484124
699.400053	21189.756704
699.735842	20814.594035
700.071581	20609.156934
700.407270	20362.820951
700.742910	20189.685043
701.078501	19943.278484
701.414042	19734.249560
701.749533	19432.607079
702.084974	19125.522672
702.420366	19358.532364
702.755709	18951.605384
703.091002	18656.670158
703.426246	18725.149192
703.761440	18642.388569
704.096584	18415.554290
704.431679	18348.025514
704.766725	18298.609603
705.101721	18219.085401
705.436668	18354.745372
705.771565	18079.337055
706.106413	18398.772289
706.441212	18474.245924
706.775961	18578.668385
707.110661	18662.908586
707.445311	19024.445016
707.779913	18906.187109
708.114465	19213.079952
708.448967	19514.117495
708.783421	20149.854886
709.117825	20520.467914
709.452180	20743.637274
709.786485	21212.353677
710.120742	21971.213688
710.454949	22083.434814
710.789107	22594.383483
711.123216	23305.665085
711.457275	23516.304657
711.791286	24082.025462
712.125247	24213.546646
712.459159	23938.947434
712.793023	24675.863303
713.126837	23653.424042
713.460602	23887.472212
713.794318	23543.922618
714.127985	23272.078397
714.461602	22383.569991
714.795171	22334.935459
715.128691	21362.247345
715.462162	20852.097699
715.795584	20414.172665
716.128957	20154.548200
716.462281	19781.185223
716.795556	19505.003089
717.128782	19029.282003
717.461960	18432.462320
717.795088	18404.047857
718.128167	18055.479794
718.461198	17603.464735
718.794180	17479.699367
719.127113	17146.579921
719.459997	16957.720653
719.792833	16596.867299
720.125619	16632.203267
720.458357	16305.748227
720.791046	16169.264027
721.123686	16023.741039
721.456278	15807.967052
721.788821	15802.101669
722.121315	15538.729107
722.453761	15643.345652
722.786158	15521.183371
723.118506	15607.414828
723.450805	15499.743344
723.783056	15667.754919
724.115259	15571.239508
724.447412	15576.308388
724.779518	15784.334122
725.111574	15824.623024
725.443582	16094.657471
725.775542	16066.832822
726.107453	16569.912250
726.439315	16494.489027
726.771129	16913.819765
727.102895	17348.742793
727.434612	17607.936238
727.766281	17779.222043
728.097901	18100.426722
728.429473	18169.896343
728.760996	18186.907716
729.092471	18308.951530
729.423897	18196.536320
729.755276	18059.568170
730.086606	18185.478549
730.417887	18766.542106
730.749120	19330.501028
731.080305	19543.504902
731.411442	19934.406053
731.742530	20054.350227
732.073570	20208.722960
732.404562	20522.139057
732.735506	20364.610561
733.066401	20143.772734
733.397249	19638.273553
733.728048	19010.602008
734.058798	18150.208116
734.389501	17403.996359
734.720156	16885.347328
735.050762	16313.226778
735.381320	15939.480673
735.711831	15669.229457
736.042293	15306.594055
736.372707	15335.459702
736.703073	15143.074148
737.033391	15342.161916
737.363661	15341.047821
737.693883	15471.147399
738.024056	15680.723287
738.354182	15899.481638
738.684260	16261.668377
739.014290	16540.570214
739.344272	16769.844411
739.674207	17119.430787
740.004093	17293.307744
740.333931	17338.000094
740.663722	17418.315757
740.993464	17439.347451
741.323159	17290.870347
741.652806	16979.551370
741.982405	16818.388202
742.311956	16457.562575
742.641460	16340.330542
742.970915	16010.896179
743.300323	15659.628579
743.629683	15452.507732
743.958996	15132.888496
744.288260	14826.429192
744.617477	14520.627759
744.946647	14482.100740
745.275768	14171.850489
745.604842	13973.216424
745.933869	13798.558087
746.262847	13770.897276
746.591778	13685.328731
746.920662	13579.582967
747.249498	13589.955141
747.578286	13748.433895
747.907027	13924.231532
748.235720	14192.594837
748.564365	14265.310960
748.892963	14180.551520
749.221514	14286.856852
749.550017	14155.882634
749.878473	14122.512716
750.206881	13900.442327
750.535242	13825.712263
750.863555	13745.522628
751.191821	13649.690294
751.520039	13669.318026
751.848210	13595.218106
752.176334	13643.489675
752.504411	13564.454465
752.832440	13390.199420
753.160421	13499.476512
753.488356	13393.413156
753.816243	13298.934371
754.144082	13131.356335
754.471875	13088.987957
754.799620	13054.435889
755.127318	13030.813042
755.454969	13014.157070
755.782572	12987.935508
756.110129	13009.930062
756.437638	12912.207295
756.765100	12911.746029
757.092515	12945.375567
757.419882	12976.817243
757.747203	12996.356755
758.074477	13096.365686
758.401703	13066.721181
758.728882	13267.003702
759.056014	13313.175631
759.383099	13479.833656
759.710138	13607.447945
760.037129	13730.444537
760.364073	13781.085448
760.690970	13821.512982
761.017820	13831.247450
761.344623	14062.777563
761.671379	14441.832003
761.998088	15142.559950
762.324751	16932.346006
762.651366	20351.576657
762.977935	24833.472457
763.304456	27781.377910
763.630931	28781.764644
763.957359	27562.672491
764.283740	25282.276302
764.610074	23010.681968
764.936362	20385.080166
765.262602	18508.452673
765.588796	16589.897904
765.914943	15313.908769
766.241044	14215.000245
766.567097	13436.767079
766.893104	12723.746279
767.219064	12262.362235
767.544978	11791.891511
767.870845	11411.395301
768.196665	11189.995386
768.522438	10952.473861
768.848165	10751.793088
769.173846	10553.521986
769.499479	10419.225648
769.825066	10256.126677
770.150607	10025.887098
770.476101	9944.573287
770.801548	9819.519904
771.126949	9664.320421
771.452303	9552.794975
771.777611	9348.477009
772.102872	9350.470786
772.428087	9209.638591
772.753256	9049.201349
773.078378	8962.433009
773.403453	8777.039536
773.728482	8667.210437
774.053465	8594.287626
774.378401	8494.044282
774.703291	8371.806384
775.028135	8254.448322
775.352932	8214.870223
775.677683	8116.040923
776.002388	8004.966659
776.327046	8015.306066
776.651658	7921.351561
776.976224	7816.475397
777.300743	7814.854666
777.625216	7726.861325
777.949643	7688.447733
778.274024	7703.331740
778.598359	7612.147349
778.922647	7632.329608
779.246889	7582.941424
779.571086	7596.671007
779.895236	7603.655525
780.219339	7610.307328
780.543397	7617.221270
780.867409	7694.113990
781.191374	7707.954478
781.515294	7672.973911
781.839167	7764.322139
782.162995	7739.451607
782.486776	7678.297370
782.810511	7632.652242
783.134201	7537.497943
783.457844	7538.027264
783.781441	7485.115313
784.104993	7419.350941
784.428498	7396.264977
784.751958	7384.047740
785.075372	7360.031683
785.398739	7295.983824
785.722061	7348.789910
786.045337	7352.764860
786.368568	7506.426791
786.691752	7530.510903
787.014891	7869.160495
787.337983	8237.000889
787.661030	8832.018359
787.984031	9460.632600
788.306987	9859.392910
788.629897	10066.581813
788.952760	10005.152833
789.275579	9785.686200
789.598351	9387.414882
789.921078	9030.607053
790.243759	8613.018033
790.566395	8328.520516
790.888984	8075.764624
791.211529	7861.187911
791.534027	7644.466186
791.856480	7450.938811
792.178888	7371.553240
792.501249	7272.103878
792.823566	7120.473532
793.145836	7119.805579
793.468062	7096.195335
793.790241	7049.088273
794.112375	7113.133612
794.434464	7271.365349
794.756507	7313.804303
795.078505	7475.164075
795.400457	7793.510420
795.722364	8143.565623
796.044226	8427.301926
796.366042	8706.682672
796.687812	8653.430443
797.009538	8726.721258
797.331218	8622.021534
797.652852	8533.922330
797.974442	8379.635296
798.295986	8291.294116
798.617484	8096.168694
798.938938	7954.456818
799.260346	7851.902105
799.581709	7650.966754
799.903026	7576.574447
800.224299	7466.440359
800.545526	7297.738145
800.866708	7201.058897
801.187845	7132.509287
801.508936	7027.166815
801.829983	6988.838923
802.150984	6837.185892
802.471940	6798.048894
802.792851	6783.742099
803.113717	6752.645742
803.434538	6711.154525
803.755314	6658.439179
804.076045	6666.573081
804.396731	6610.797755
804.717372	6650.272510
805.037967	6645.866541
805.358518	6692.219951
805.679024	6771.212311
805.999485	6791.223171
806.319901	6826.503687
806.640272	6850.481935
806.960598	6935.319513
807.280879	6931.576456
807.601115	7014.538725
807.921306	6957.467822
808.241453	6970.801674
808.561554	6992.708008
808.881611	6948.396266
809.201623	6954.954807
809.521590	6901.871457
809.841513	6882.231122
810.161390	6923.495487
810.481223	6792.117976
810.801011	6779.812520
811.120755	6750.054588
811.440453	6670.941241
811.760107	6638.574512
812.079716	6603.551096
812.399281	6542.306118
812.718801	6529.557040
813.038276	6486.195555
813.357707	6424.680875
813.677093	6468.216280
813.996434	6372.184820
814.315731	6414.207878
814.634983	6408.024903
814.954191	6420.542088
815.273354	6524.624271
815.592473	6592.384940
815.911547	6714.643003
816.230577	6796.239119
816.549562	6941.593229
816.868502	7045.632562
817.187399	7142.102602
817.506250	7288.553163
817.825058	7324.617578
818.143821	7593.953825
818.462539	7859.922581
818.781213	8227.026966
819.099843	8789.970095
819.418429	9793.308425
819.736970	10761.308266
820.055466	11946.922115
820.373919	13473.607831
820.692327	15813.005685
821.010691	19959.274065
821.329011	28944.397308
821.647286	41961.344656
821.965517	55414.795434
822.283704	60783.893982
822.601847	62746.309310
822.919945	59994.489618
823.237999	55745.449756
823.556010	49518.611484
823.873976	42796.585711
824.191897	36276.344723
824.509775	31457.321759
824.827609	26956.307383
825.145398	24381.008735
825.463144	23043.769581
825.780845	23353.999668
826.098502	25142.202801
826.416116	28942.300188
826.733685	32616.973667
827.051210	33797.543842
827.368692	32006.860461
827.686129	28019.370783
828.003522	23888.840885
828.320872	20184.827891
828.638177	17336.523036
828.955439	15193.541139
829.272656	13383.812278
829.589830	11908.894171
829.906960	10643.138578
830.224046	9705.872132
830.541088	8958.072411
830.858086	8504.439141
831.175041	8129.427707
831.491952	8014.179368
831.808819	8057.195534
832.125642	8468.833472
832.442421	9360.038896
832.759157	11161.669142
833.075849	14093.679837
833.392497	17318.821024
833.709101	19505.676083
834.025662	19329.540688
834.342179	17619.621633
834.658653	15416.720581
834.975083	13480.678049
835.291469	11865.114271
835.607811	10551.928982
835.924110	9651.016816
836.240366	8782.743601
836.556578	7976.491702
836.872746	7335.544278
837.188871	6833.026940
837.504952	6422.906389
837.820990	6115.373319
838.136984	5895.004320
838.452935	5796.900946
838.768842	5835.904353
839.084706	6260.866060
839.400526	7472.988818
839.716303	9062.139471
840.032037	10148.480398
840.347727	10072.971475
840.663373	9088.550076
840.978977	8034.739714
841.294537	7232.573670
841.610054	6636.356405
841.925527	6201.859355
842.240957	5847.824161
842.556344	5512.569786
842.871687	5235.139967
843.186987	4955.078665
843.502244	4732.894850
843.817458	4565.621804
844.132629	4432.827729
844.447756	4343.803473
844.762840	4260.616873
845.077881	4187.278167
845.392879	4123.114360
845.707833	4077.630550
846.022745	4034.082542
846.337613	4002.958458
846.652438	3961.557982
846.967221	3946.832772
847.281960	3915.698606
847.596656	3896.413672
847.911309	3876.480950
848.225919	3853.190819
848.540485	3836.383612
848.855009	3823.621931
849.169490	3807.275990
849.483928	3787.834780
849.798323	3780.857823
850.112675	3764.509361
850.426984	3770.929270
850.741251	3756.579626
851.055474	3751.815736
851.369654	3754.444697
851.683792	3750.638626
851.997887	3759.823608
852.311938	3757.986108
852.625947	3763.969957
852.939914	3753.260026
853.253837	3762.167745
853.567718	3763.856532
853.881555	3750.273143
854.195350	3765.633538
854.509103	3763.879217
854.822812	3759.337137
855.136479	3752.390427
855.450103	3763.881737
855.763685	3746.593100
856.077224	3753.078545
856.390720	3769.656379
856.704173	3790.216725
857.017584	3801.224084
857.330953	3812.929644
857.644278	3833.061492
857.957561	3837.618695
858.270802	3838.581555
858.584000	3844.890559
858.897155	3834.379753
859.210268	3818.580777
859.523339	3796.298877
859.836367	3794.310142
860.149352	3788.495171
860.462295	3779.592493
860.775195	3771.501441
861.088054	3764.398456
861.400869	3764.443826
861.713642	3764.476593
862.026373	3776.161988
862.339062	3780.424284
862.651708	3800.213333
862.964312	3835.730783
863.276873	3847.370807
863.589392	3906.866504
863.901869	3953.043474
864.214303	3998.865042
864.526696	4028.386038
864.839045	4074.520158
865.151353	4101.298767
865.463619	4112.001137
865.775842	4115.429121
866.088023	4135.497955
866.400162	4122.741315
866.712258	4132.075011
867.024313	4133.978047
867.336325	4129.420844
867.648296	4138.361330
867.960224	4137.642966
868.272110	4148.239471
868.583954	4148.670490
868.895755	4165.336544
869.207515	4157.762211
869.519233	4206.212740
869.830909	4218.707240
870.142542	4241.883945
870.454134	4254.499432
870.765684	4284.310296
871.077191	4321.264474
871.388657	4346.384544
871.700081	4382.617837
872.011463	4426.659877
872.322803	4460.193633
872.634101	4490.826204
872.945357	4531.165517
873.256571	4586.272891
873.567744	4619.204228
873.878874	4636.734841
874.189963	4669.736754
874.501010	4683.085730
874.812015	4677.888300
875.122979	4722.537800
875.433900	4720.254157
875.744780	4733.635900
876.055618	4758.324951
876.366415	4757.868726
876.677169	4776.326911
876.987882	4825.095033
877.298554	4873.835429
877.609183	4954.700578
877.919771	5065.611004
878.230317	5210.118200
878.540822	5421.468575
878.851285	5744.808182
879.161707	6203.018820
879.472087	6964.419573
879.782425	8195.829785
880.092722	10375.082784
880.402977	13681.338658
880.713191	17432.816636
881.023363	21153.702372
881.333494	23360.989228
881.643583	24579.907460
881.953631	24558.606065
882.263637	23705.123595
882.573602	22218.172254
882.883526	20654.892802
883.193408	18979.205702
883.503248	17277.654962
883.813048	15744.748462
884.122806	14315.228466
884.432522	12847.045340
884.742197	11591.021695
885.051831	10509.028762
885.361424	9515.044294
885.670975	8697.822844
885.980485	8002.050352
886.289954	7436.785771
886.599382	6970.310162
886.908768	6589.025011
887.218113	6230.765331
887.527417	5950.724193
887.836680	5679.870559
888.145901	5462.977435
888.455082	5303.339217
888.764221	5148.759796
889.073319	5017.394888
889.382376	4946.637253
889.691392	4888.341350
890.000366	4863.808574
890.309300	4850.401626
890.618193	4851.712326
890.927044	4835.729347
891.235855	4860.282287
891.544625	4887.194487
891.853353	4948.827634
892.162041	5070.427827
892.470687	5259.632413
892.779293	5504.196430
893.087858	5874.514550
893.396381	6450.710873
893.704864	7253.242401
894.013306	8409.799040
894.321707	9593.640924
894.630068	10416.377396
894.938387	10624.327513
895.246665	10379.524041
895.554903	9768.203478
895.863100	9070.386798
896.171256	8502.289089
896.479371	7996.275710
896.787446	7503.729774
897.095480	7072.385965
897.403473	6751.677840
897.711425	6437.245951
898.019336	6171.309962
898.327207	5897.164454
898.635038	5673.470814
898.942827	5424.493267
899.250576	5230.340788
899.558284	5039.127302
899.865952	4915.339249
900.173579	4770.116210
900.481165	4661.935569
900.788711	4568.522988
901.096216	4494.710413
901.403681	4432.341258
901.711105	4408.121034
902.018489	4393.640320
902.325832	4467.452894
902.633135	4584.354732
902.940397	4927.264098
903.247619	5729.399896
903.554800	7170.075965
903.861941	9088.822298
904.169041	10599.265416
904.476101	11227.680531
904.783121	10860.394665
905.090100	10124.131625
905.397039	9276.217110
905.703938	8524.732306
906.010796	7835.868715
906.317614	7281.180475
906.624391	6752.290340
906.931129	6331.273336
907.237826	5929.397592
907.544483	5549.609664
907.851099	5183.967214
908.157675	4829.858924
908.464211	4505.276672
908.770707	4271.455353
909.077163	4077.275148
909.383578	3933.415741
909.689954	3819.422650
909.996289	3750.628544
910.302584	3685.247299
910.608839	3651.963081
910.915054	3621.065849
911.221229	3608.089919
911.527363	3620.445787
911.833458	3635.418014
912.139513	3662.279802
912.445527	3690.815253
912.751502	3771.370371
913.057436	3872.770660
913.363331	4008.667565
913.669186	4210.560736
913.975000	4470.099500
914.280775	4888.253129
914.586510	5468.119412
914.892205	6262.844713
915.197859	7298.695964
915.503475	8526.312708
915.809050	9588.587167
916.114585	10235.798224
916.420081	10499.995015
916.725536	10461.941865
917.030952	10013.135500
917.336328	9603.466132
917.641665	9185.204118
917.946961	8709.730049
918.252218	8282.399000
918.557435	7770.046370
918.862612	7346.334868
919.167750	6970.292518
919.472848	6542.296036
919.777906	6173.938924
920.082925	5815.724614
920.387904	5451.075271
920.692843	5184.118449
920.997743	4939.468732
921.302603	4706.065829
921.607423	4544.252353
921.912204	4380.188001
922.216946	4264.052419
922.521647	4142.953821
922.826310	4040.666289
923.130932	3947.263791
923.435516	3847.645550
923.740059	3779.252215
924.044564	3700.711038
924.349028	3640.464209
924.653454	3580.182091
924.957840	3512.118952
925.262186	3461.054585
925.566493	3401.574010
925.870761	3346.247347
926.174989	3307.957263
926.479178	3272.333949
926.783328	3233.065881
927.087438	3206.050338
927.391509	3171.384843
927.695541	3139.890235
927.999533	3116.655557
928.303486	3091.217894
928.607400	3079.771955
928.911275	3065.419790
929.215110	3047.188457
929.518906	3040.022457
929.822663	3040.478681
930.126381	3037.741334
930.430060	3047.901780
930.733699	3044.307437
931.037299	3058.195816
931.340861	3055.841597
931.644383	3065.296281
931.947866	3062.243863
932.251309	3057.691701
932.554714	3056.060888
932.858080	3050.969322
933.161407	3041.428938
933.464694	3032.861498
933.767943	3026.542411
934.071153	3022.030578
934.374323	3015.638395
934.677455	3006.271932
934.980548	2997.815396
935.283602	2995.874552
935.586617	2991.060250
935.889593	3003.085922
936.192530	3007.708660
936.495428	3018.589991
936.798287	3040.012374
937.101108	3078.264650
937.403890	3129.984368
937.706632	3186.168027
938.009336	3269.737755
938.312002	3345.115608
938.614628	3405.843868
938.917216	3459.103658
939.219765	3489.597598
939.522275	3519.847041
939.824747	3527.108823
940.127179	3522.435674
940.429573	3514.931916
940.731929	3512.635671
941.034246	3499.011952
941.336524	3485.458810
941.638763	3472.223261
941.940964	3457.790438
942.243126	3415.963984
942.545250	3389.830643
942.847335	3354.713965
943.149381	3316.489416
943.451389	3285.057822
943.753359	3249.981473
944.055290	3224.589181
944.357182	3203.862477
944.659036	3190.037113
944.960851	3179.491019
945.262628	3162.363699
945.564367	3165.012825
945.866067	3156.939417
946.167729	3155.275836
946.469352	3156.256341
946.770937	3149.032367
947.072484	3135.879997
947.373992	3137.851088
947.675462	3132.303298
947.976893	3108.251953
948.278286	3104.219030
948.579641	3098.031014
948.880958	3092.669747
949.182236	3092.238728
949.483476	3088.689756
949.784678	3089.529108
950.085841	3090.965837
950.386967	3100.559153
950.688054	3116.320320
950.989103	3137.707415
951.290114	3157.022596
951.591087	3189.517874
951.892021	3215.580639
952.192917	3243.322109
952.493776	3267.214657
952.794596	3274.214300
953.095378	3280.425001
953.396122	3275.189763
953.696828	3268.081736
953.997496	3255.894747
954.298126	3235.425141
954.598718	3213.067624
954.899272	3185.058973
955.199788	3159.359171
955.500266	3124.814664
955.800706	3089.720672
956.101108	3056.441495
956.401472	3021.591998
956.701798	2989.356340
957.002087	2948.936368
957.302337	2919.884199
957.602550	2890.900085
957.902724	2865.011239
958.202861	2839.762620
958.502960	2818.985504
958.803022	2799.040179
959.103045	2776.352466
959.403031	2763.374016
959.702979	2747.736357
960.002889	2735.199007
960.302762	2720.909856
960.602596	2713.038095
960.902393	2702.930581
961.202153	2694.582430
961.501875	2685.863755
961.801559	2677.674400
962.101205	2673.341529
962.400814	2667.728204
962.700385	2659.700166
962.999918	2654.837973
963.299414	2649.035605
963.598873	2648.478558
963.898293	2638.814666
964.197677	2642.474544
964.497022	2641.236940
964.796331	2634.721249
965.095601	2633.254273
965.394835	2630.723614
965.694030	2630.295116
965.993189	2627.986268
966.292309	2627.343520
966.591393	2627.461987
966.890439	2627.295629
967.189447	2623.567696
967.488419	2626.173973
967.787353	2626.761267
968.086249	2627.053654
968.385108	2630.388377
968.683930	2634.005405
968.982714	2636.949439
969.281462	2641.708288
969.580172	2646.220121
969.878844	2654.414517
970.177480	2659.697646
970.476078	2665.321053
970.774639	2675.690706
971.073162	2683.917869
971.371649	2686.808971
971.670098	2693.947245
971.968510	2700.936805
972.266885	2702.038297
972.565223	2708.743032
972.863524	2712.148331
973.161788	2713.133877
973.460014	2716.188816
973.758204	2718.008672
974.056356	2720.481358
974.354471	2720.987994
974.652550	2721.373642
974.950591	2720.332644
975.248595	2719.687377
975.546563	2718.406923
975.844493	2714.694114
976.142386	2708.465768
976.440243	2703.527958
976.738062	2700.745241
977.035845	2694.562266
977.333590	2687.139167
977.631299	2681.603980
977.928971	2675.544513
978.226606	2669.878256
978.524204	2666.367092
978.821765	2660.373160
979.119290	2665.474808
979.416777	2664.285096
979.714228	2668.343225
980.011642	2668.786846
980.309020	2679.209432
980.606360	2692.291226
980.903664	2716.355174
981.200931	2748.928589
981.498162	2798.730148
981.795356	2876.119422
982.092513	2961.967751
982.389633	3069.298958
982.686717	3163.959224
982.983764	3237.038311
983.280775	3287.200312
983.577749	3291.883544
983.874686	3279.860392
984.171587	3246.245978
984.468451	3206.393136
984.765279	3162.739265
985.062070	3115.339816
985.358824	3070.055131
985.655543	3015.610669
985.952224	2962.282823
986.248869	2898.416445
986.545478	2841.844617
986.842050	2785.396296
987.138586	2740.998854
987.435086	2703.399408
987.731549	2672.325736
988.027975	2649.514515
988.324366	2629.677575
988.620719	2616.116871
988.917037	2606.931888
989.213318	2594.944025
989.509563	2586.369022
989.805772	2582.928434
990.101944	2578.393917
990.398080	2579.742425
990.694180	2577.426015
990.990244	2578.628330
991.286271	2578.046077
991.582262	2579.021540
991.878217	2579.245872
992.174136	2584.581933
992.470019	2585.368353
992.765865	2591.014445
993.061676	2595.007039
993.357450	2603.098091
993.653188	2609.056735
993.948890	2626.521812
994.244556	2647.651809
994.540186	2667.564366
994.835780	2701.221630
995.131337	2740.124214
995.426859	2779.031840
995.722345	2826.690908
996.017795	2877.152858
996.313208	2914.510329
996.608586	2943.151644
996.903928	2955.187399
997.199234	2953.352419
997.494504	2952.787810
997.789738	2938.143258
998.084936	2914.228024
998.380099	2883.088817
998.675225	2852.211749
998.970316	2822.153870
999.265371	2786.268416
999.560390	2749.939341
999.855373	2721.920608
1000.150320	2691.850125
1000.445232	2663.642349
1000.740108	2646.792292
1001.034948	2626.642800
1001.329752	2607.259563
1001.624521	2601.716815
1001.919254	2585.948086
1002.213951	2583.051943
1002.508613	2573.811508
1002.803239	2565.728017
1003.097829	2559.076215
1003.392384	2554.929866
1003.686903	2549.281253
1003.981386	2550.307128
1004.275834	2540.796991
1004.570246	2543.362938
1004.864623	2538.508307
1005.158964	2536.769109
1005.453270	2534.104859
1005.747540	2535.292051
1006.041775	2530.016484
1006.335974	2532.413552
1006.630138	2526.154960
1006.924266	2528.831813
1007.218359	2528.930115
1007.512416	2524.408200
1007.806438	2522.137160
1008.100425	2526.931298
1008.394376	2521.471728
1008.688292	2527.085053
1008.982172	2524.345186
1009.276017	2525.592871
1009.569827	2522.401821
1009.863602	2524.577079
1010.157341	2522.227901
1010.451045	2519.435102
1010.744714	2518.946110
1011.038347	2518.469721
1011.331945	2516.929648
1011.625508	2517.461490
1011.919036	2515.583660
1012.212528	2517.098527
1012.505986	2516.168434
1012.799408	2513.390758
1013.092795	2515.180368
1013.386147	2511.553258
1013.679464	2514.330933
1013.972745	2511.762466
1014.265992	2512.248937
1014.559204	2510.925634
1014.852380	2509.221724
1015.145521	2511.893536
1015.438628	2512.682476
1015.731699	2513.355470
1016.024736	2515.591222
1016.317737	2514.003258
1016.610703	2514.847652
1016.903635	2518.981398
1017.196531	2520.370236
1017.489393	2520.932324
1017.782219	2521.217150
1018.075011	2523.755371
1018.367768	2522.696728
1018.660490	2522.903416
1018.953177	2522.903416
1019.245829	2522.903416
