Dividing Wavelength (nm)	Counts (n)	Blue Motor Position (mm): 46.500000	Red Motor Position (mm): 0.000000	
326.493990	2154.087559
326.888308	2154.087559
327.282561	2154.087559
327.676750	2127.281223
328.070874	2126.656120
328.464933	2133.461678
328.858929	2143.987607
329.252859	2153.969092
329.646726	2169.377379
330.040528	2185.582168
330.434265	2204.330219
330.827938	2220.739175
331.221547	2241.044942
331.615091	2263.576379
332.008571	2280.862496
332.401986	2303.192287
332.795338	2323.366985
333.188625	2342.243585
333.581847	2360.207737
333.975006	2379.396889
334.368100	2400.773902
334.761129	2416.953485
335.154095	2434.131217
335.546996	2457.819599
335.939833	2488.167345
336.332606	2503.116887
336.725315	2515.671880
337.117960	2520.365195
337.510540	2532.383305
337.903056	2540.474357
338.295508	2547.055584
338.687896	2549.296377
339.080220	2561.889179
339.472480	2566.196845
339.864676	2568.921588
340.256807	2575.331416
340.648875	2576.727815
341.040879	2577.889801
341.432818	2580.085224
341.824694	2581.272415
342.216506	2578.494740
342.608253	2580.150759
342.999937	2577.690676
343.391557	2580.957343
343.783113	2575.759914
344.174605	2577.229410
344.566033	2573.808987
344.957397	2573.708164
345.348697	2571.008626
345.739934	2570.575087
346.131106	2566.685837
346.522215	2564.611402
346.913260	2564.256001
347.304241	2561.621998
347.695159	2559.897923
348.086012	2559.242573
348.476802	2557.200906
348.867528	2557.717624
349.258191	2554.776111
349.648789	2553.596481
350.039324	2554.680329
350.429796	2551.275029
350.820203	2548.787220
351.210548	2552.507592
351.600828	2546.551468
351.991045	2548.038609
352.381198	2548.303269
352.771288	2550.044988
353.161314	2547.017775
353.551276	2547.274874
353.941175	2549.603887
354.331010	2547.998279
354.720782	2548.126829
355.110490	2548.756973
355.500135	2548.653629
355.889717	2548.421736
356.279235	2547.300080
356.668689	2552.167314
357.058080	2550.506253
357.447408	2547.211859
357.836672	2546.180943
358.225873	2548.106664
358.615010	2547.458876
359.004084	2551.174206
359.393095	2552.850390
359.782043	2551.050698
360.170927	2554.513971
360.559748	2553.301573
360.948505	2556.515309
361.337199	2555.698642
361.725830	2556.099414
362.114398	2552.447098
362.502903	2554.314845
362.891344	2558.040258
363.279722	2554.942469
363.668037	2556.590926
364.056289	2559.161915
364.444478	2556.537994
364.832603	2557.644527
365.220665	2556.963972
365.608665	2560.701987
365.996601	2560.752399
366.384474	2560.989333
366.772284	2563.487225
367.160031	2560.114693
367.547715	2560.414641
367.935336	2560.986812
368.322893	2562.410938
368.710388	2559.875238
369.097820	2566.055692
369.485189	2559.081256
369.872495	2563.189797
370.259738	2563.290620
370.646918	2563.451937
371.034035	2562.874724
371.421090	2563.456978
371.808081	2564.581155
372.195010	2566.867318
372.581875	2565.944787
372.968678	2565.354972
373.355418	2564.172822
373.742096	2566.254818
374.128710	2568.064592
374.515262	2567.447051
374.901751	2567.774726
375.288177	2566.711042
375.674540	2569.816393
376.060841	2571.386713
376.447079	2569.153482
376.833254	2569.755899
377.219367	2569.259346
377.605417	2569.397977
377.991404	2568.762792
378.377329	2568.762792
378.763191	2570.149109
379.148991	2577.496591
379.534727	2575.724626
379.920402	2576.674883
380.306013	2581.035481
380.691563	2583.283836
381.077049	2583.583784
381.462474	2587.934300
381.847835	2590.152408
382.233134	2592.486462
382.618371	2594.311360
383.003545	2600.199427
383.388657	2602.084819
383.773706	2605.255705
384.158693	2611.045470
384.543618	2613.654267
384.928480	2618.191306
385.313280	2623.345885
385.698017	2628.049282
386.082692	2635.482463
386.467305	2639.775006
386.851856	2645.700882
387.236344	2654.767397
387.620770	2659.075063
388.005133	2665.671413
388.389435	2677.550892
388.773674	2682.987777
389.157851	2687.663447
389.541965	2699.096784
389.926018	2704.848740
390.310008	2715.636809
390.693936	2723.740464
391.077802	2733.858060
391.461606	2744.293248
391.845348	2751.875144
392.229027	2762.038110
392.612645	2776.352466
392.996200	2786.447377
393.379694	2802.417752
393.763125	2818.977943
394.146494	2824.913901
394.529801	2843.225893
394.913047	2858.087214
395.296230	2865.112062
395.679351	2872.431818
396.062410	2893.312277
396.445408	2891.699108
396.828343	2909.338105
397.211217	2917.913108
397.594028	2918.850762
397.976778	2935.610078
398.359466	2953.634724
398.742092	2951.837552
399.124656	2968.112918
399.507158	2985.197388
399.889598	2993.968996
400.271977	3008.847961
400.654294	3021.052595
401.036549	3031.812938
401.418742	3040.622354
401.800874	3063.957855
402.182944	3073.664597
402.564952	3104.314812
402.946898	3096.286775
403.328783	3108.405708
403.710606	3122.667133
404.092367	3149.392810
404.474067	3178.001358
404.855705	3166.494924
405.237282	3165.179183
405.618797	3199.544729
406.000250	3224.301835
406.381642	3252.433994
406.762972	3259.635283
407.144240	3249.943664
407.525447	3273.364865
407.906593	3271.638270
408.287677	3292.818678
408.668700	3314.223417
409.049661	3313.920948
409.430560	3328.895695
409.811399	3332.747137
410.192176	3352.241279
410.572891	3359.762680
410.953545	3401.984864
411.334138	3368.115872
411.714669	3419.210487
412.095139	3364.125799
412.475547	3418.161927
412.855894	3414.068510
413.236180	3440.612706
413.616405	3419.896084
413.996568	3445.671504
414.376670	3446.657049
414.756711	3439.672531
415.136691	3470.335349
415.516609	3491.107423
415.896466	3497.008094
416.276262	3523.368287
416.655997	3554.094120
417.035670	3560.813978
417.415283	3629.401397
417.794834	3650.115498
418.174324	3633.651089
418.553753	3632.254690
418.933121	3676.800846
419.312428	3665.329700
419.691674	3663.703928
420.070859	3697.870348
420.449983	3682.386444
420.829045	3730.219433
421.208047	3713.903738
421.586988	3759.231273
421.965867	3791.416520
422.344686	3800.838436
422.723444	3839.957790
423.102141	3739.921133
423.480777	3845.132534
423.859352	3814.058862
424.237866	3910.531423
424.616319	3897.961306
424.994712	3957.832570
425.373044	3947.052062
425.751314	4011.974562
426.129524	3946.479891
426.507673	4048.255746
426.885762	4019.236344
427.263789	4046.128379
427.641756	4049.634502
428.019662	4079.470571
428.397508	4082.611210
428.775292	4118.176550
429.153016	4125.077890
429.530679	4137.020383
429.908282	4145.590345
430.285824	4125.834063
430.663305	4197.849466
431.040726	4153.762055
431.418086	4147.321981
431.795385	4216.554668
432.172624	4254.217128
432.549802	4225.825349
432.926920	4243.519799
433.303977	4234.559148
433.680974	4275.016929
434.057910	4297.308911
434.434786	4304.863080
434.811601	4299.159014
435.188355	4407.347217
435.565050	4376.850757
435.941683	4370.486300
436.318257	4464.760918
436.694770	4467.893995
437.071222	4525.451369
437.447614	4459.576092
437.823946	4457.499136
438.200218	4474.467660
438.576429	4460.105413
438.952580	4486.916789
439.328670	4487.796471
439.704700	4534.575858
440.080670	4497.402389
440.456580	4560.363880
440.832429	4593.955609
441.208218	4496.174868
441.583947	4552.310637
441.959616	4566.080549
442.335224	4591.266153
442.710773	4610.170480
443.086261	4662.296011
443.461689	4619.541985
443.837057	4629.886433
444.212365	4706.945511
444.587612	4712.213517
444.962800	4674.742620
445.337927	4720.349939
445.712995	4608.297692
446.088002	4796.562103
446.462949	4817.409794
446.837837	4840.112631
447.212664	4824.043953
447.587431	5052.380496
447.962139	5356.561198
448.336786	5688.987486
448.711374	5676.591288
449.085901	5317.903110
449.460369	5254.976907
449.834776	5192.431311
450.209124	5428.649698
450.583412	5437.232263
450.957640	5563.263629
451.331808	5415.429272
451.705917	5273.218322
452.079965	5261.754738
452.453954	5304.115554
452.827883	5266.271612
453.201752	5272.331079
453.575562	5304.710410
453.949311	5438.384166
454.323001	5446.447492
454.696632	5434.189926
455.070202	5591.932671
455.443713	5620.904182
455.817164	5713.676537
456.190556	5790.226458
456.563888	5759.737559
456.937160	5837.504919
457.310373	5677.818809
457.683526	5735.983643
458.056619	5732.772428
458.429653	5712.829623
458.802628	5761.945585
459.175542	5791.106139
459.548398	5928.122180
459.921194	6115.771570
460.293930	6179.509399
460.666607	6433.626403
461.039224	6649.654968
461.411782	6774.378156
461.784280	6691.017636
462.156719	6692.310692
462.529099	6653.012377
462.901419	6508.011148
463.273680	6379.615480
463.645882	6371.330344
464.018024	6373.077104
464.390106	6442.912208
464.762130	6698.997782
465.134094	7095.754234
465.505999	7732.585555
465.877845	8439.430942
466.249631	8792.823388
466.621358	8714.708189
466.993026	8510.919545
467.364634	8294.263355
467.736184	8015.727002
468.107674	7859.599947
468.479105	7769.690968
468.850477	7710.739715
469.221790	7534.150617
469.593043	7313.814385
469.964238	7215.358130
470.335373	7189.837288
470.706449	7351.756629
471.077467	7537.324023
471.448425	8202.080816
471.819324	8783.260319
472.190164	8812.186460
472.560945	8327.930701
472.931667	7855.062909
473.302330	7667.733632
473.672934	7542.231586
474.043479	7619.956096
474.413965	7520.292485
474.784393	7478.481155
475.154761	7633.647870
475.525070	7644.088100
475.895321	7597.008764
476.265513	7694.950821
476.635645	7857.500307
477.005719	7847.002104
477.375734	7937.773120
477.745691	8047.002321
478.115588	8252.124350
478.485427	8492.436154
478.855207	8963.884862
479.224928	9400.030369
479.594591	9781.728894
479.964194	9786.449935
480.333739	9871.284992
480.703226	9867.284837
481.072653	9973.963214
481.442022	10086.537220
481.811333	10248.242312
482.180584	10080.964225
482.549777	10018.741263
482.918912	9959.958888
483.287988	9952.003948
483.657005	9855.319658
484.025964	9770.159446
484.394864	9827.363939
484.763706	9789.709041
485.132489	9702.827275
485.501213	9689.495943
485.869879	9758.393393
486.238487	9686.940078
486.607036	9764.750288
486.975527	9713.640550
487.343959	9765.113251
487.712333	9806.755703
488.080648	9842.318522
488.448905	9952.994534
488.817104	9963.243200
489.185244	10128.391400
489.553326	10346.166726
489.921350	10821.666001
490.289315	11454.119080
490.657222	11749.601271
491.025070	11922.374217
491.392861	11829.523724
491.760593	11674.573779
492.128267	11413.187431
492.495883	11176.033910
492.863440	10941.930287
493.230939	10716.810001
493.598380	10535.570438
493.965763	10509.953814
494.333088	10381.326253
494.700354	10305.499738
495.067563	10275.053689
495.434713	10285.350246
495.801805	10324.023457
496.168839	10289.209249
496.535815	10260.696483
496.902733	10302.470004
497.269593	10257.208004
497.636395	10270.894737
498.003139	10381.908507
498.369825	10313.842847
498.736453	10398.965251
499.103023	10346.764102
499.469535	10345.042548
499.835989	10400.384335
500.202385	10371.705211
500.568723	10388.094002
500.935003	10453.087078
501.301226	10422.199929
501.667390	10593.596639
502.033497	10692.312513
502.399546	10613.030287
502.765537	10521.142655
503.131470	10627.263985
503.497345	10715.015350
503.863163	10490.018571
504.228923	10617.688313
504.594625	10742.519885
504.960269	10645.951542
505.325856	10800.198247
505.691385	10681.791625
506.056856	10741.655327
506.422270	10846.382778
506.787625	10785.387337
507.152924	10840.187200
507.518164	10899.796323
507.883347	10761.086455
508.248472	10834.435243
508.613540	10938.688825
508.978550	11014.495176
509.343503	10998.812147
509.708398	11049.740403
510.073236	11175.953252
510.438016	11195.316324
510.802738	11112.575866
511.167403	11239.159239
511.532010	11296.058742
511.896561	11396.702858
512.261053	11588.294431
512.625488	11506.988181
512.989866	11499.108857
513.354186	11472.002573
513.718449	11479.123203
514.082655	11623.950512
514.446803	11576.679612
514.810894	11689.518279
515.174927	11682.140551
515.538904	11672.587564
515.902822	11829.503560
516.266684	11701.153262
516.630488	11796.985597
516.994235	11785.199379
517.357925	11913.471539
517.721558	11961.150772
518.085133	12026.736183
518.448651	12067.519118
518.812112	12019.429031
519.175516	12029.120649
519.538863	12115.652055
519.902152	12126.392233
520.265385	12236.417937
520.628560	12259.125814
520.991678	12198.437883
521.354739	12259.171184
521.717743	12328.824807
522.080690	12299.339098
522.443580	12439.367229
522.806413	12449.167232
523.169189	12457.916154
523.531908	12512.063188
523.894569	12465.898821
524.257174	12480.896254
524.619722	12589.134868
524.982213	12570.749780
525.344647	12556.042214
525.707025	12563.558574
526.069345	12676.112416
526.431608	12658.191114
526.793815	12733.427815
527.155964	12629.940488
527.518057	12654.017039
527.880093	12608.596243
528.242072	12728.610992
528.603995	12655.501659
528.965860	12665.634378
529.327669	12703.805995
529.689421	12639.538845
530.051117	12667.776868
530.412755	12695.233513
530.774337	12696.095550
531.135862	12659.464006
531.497331	12719.509189
531.858743	12680.699866
532.220098	12764.662804
532.581396	12687.573479
532.942638	12614.373405
533.303824	12674.713496
533.664953	12661.500632
534.026025	12611.386521
534.387040	12725.092267
534.747999	12691.460209
535.108902	12739.903177
535.469748	12612.694701
535.830537	12633.996096
536.191270	12685.201617
536.551947	12606.874689
536.912567	12672.616376
537.273131	12709.210112
537.633638	12580.217067
537.994089	12645.996563
538.354483	12552.672203
538.714821	12689.305116
539.075103	12762.089295
539.435328	12700.125952
539.795497	12674.494206
540.155609	12674.867251
540.515665	12777.973971
540.875665	12632.052732
541.235609	12738.567271
541.595496	12688.533819
541.955328	12864.094522
542.315102	12727.998492
542.674821	12659.688337
543.034483	12670.720902
543.394090	12668.802743
543.753640	12638.853248
544.113134	12884.942214
544.472571	12635.483237
544.831953	12925.241198
545.191278	12740.888722
545.550548	12674.539576
545.909761	12791.940488
546.268918	12829.217300
546.628019	12895.284141
546.987064	12789.669448
547.346053	12630.202628
547.704986	12840.146521
548.063863	12716.169425
548.422684	12761.522165
548.781449	12728.545457
549.140158	12821.458964
549.498811	12770.780244
549.857408	12639.642189
550.215949	12841.318589
550.574434	12819.583655
550.932864	12756.740631
551.291237	12958.192700
551.649555	12851.746216
552.007817	12901.867888
552.366022	12825.529696
552.724173	12867.746838
553.082267	12945.549486
553.440305	13044.492213
553.798288	12866.252136
554.156215	12939.918517
554.514086	12979.773880
554.871902	12924.956373
555.229661	12954.731948
555.587365	12906.541038
555.945014	12913.828026
556.302606	12895.153071
556.660143	12958.099439
557.017625	12991.371054
557.375050	12956.715642
557.732421	13056.656517
558.089735	13045.732337
558.446994	13030.596272
558.804197	13149.756546
559.161345	13136.510915
559.518437	12961.623205
559.875474	13041.049105
560.232455	13056.386815
560.589381	13103.728291
560.946251	13043.879713
561.303065	13222.457547
561.659825	13175.032892
562.016528	13083.437647
562.373177	13029.930840
562.729770	13167.014937
563.086307	13045.369374
563.442789	13149.779232
563.799216	13189.616950
564.155587	13139.704486
564.511904	13158.760047
564.868164	13168.194567
565.224370	13222.119789
565.580520	13173.344105
565.936615	13242.412954
566.292654	13176.232686
566.648638	13252.608688
567.004567	13260.147733
567.360441	13252.991815
567.716260	13219.074932
568.072023	13302.536275
568.427732	13281.832257
568.783385	13180.593284
569.138982	13290.210654
569.494525	13294.296509
569.850013	13243.756422
570.205445	13235.625040
570.560823	13246.955034
570.916145	13192.727342
571.271412	13207.495402
571.626625	13165.268177
571.981782	13165.840348
572.336884	13115.113737
572.691931	13205.153786
573.046923	13088.728338
573.401860	13072.478178
573.756743	13067.913414
574.111570	13090.341507
574.466342	13066.789236
574.821059	13119.330662
575.175722	12985.268737
575.530330	13006.176923
575.884882	12938.764093
576.239380	12941.478755
576.593823	12922.531578
576.948211	12919.610229
577.302544	12796.417032
577.656823	12815.064260
578.011047	12883.369374
578.365216	12817.879745
578.719330	12755.296340
579.073389	12724.623440
579.427394	12742.126326
579.781344	12735.051066
580.135239	12664.520283
580.489080	12671.136797
580.842866	12551.986606
581.196597	12651.650217
581.550273	12645.759629
581.903895	12602.839245
582.257463	12713.323693
582.610975	12554.970969
582.964434	12615.169907
583.317837	12539.232486
583.671186	12508.476407
584.024481	12553.004919
584.377721	12444.040378
584.730906	12519.773632
585.084037	12536.293494
585.437113	12457.124693
585.790135	12475.257723
586.143103	12382.326573
586.496016	12405.099985
586.848874	12419.991554
587.201679	12411.386304
587.554428	12282.670523
587.907124	12325.850526
588.259765	12267.632761
588.612352	12335.738750
588.964884	12202.254037
589.317362	12246.681726
589.669786	12243.825912
590.022155	12195.952595
590.374470	12308.952579
590.726731	12188.496728
591.078937	12077.001528
591.431090	12097.312337
591.783188	12023.618230
592.135232	11940.890375
592.487222	12006.858914
592.839157	12012.263031
593.191038	11947.522012
593.542866	11901.702965
593.894639	11750.717887
594.246358	11818.551653
594.598022	11823.330667
594.949633	11730.021430
595.301190	11713.226826
595.652692	11666.336533
596.004141	11755.355748
596.355535	11536.065556
596.706876	11519.840602
597.058162	11488.517393
597.409395	11578.302864
597.760573	11608.758995
598.111698	11498.329999
598.462768	11503.950886
598.813785	11514.176866
599.164748	11386.224820
599.515657	11470.961575
599.866511	11341.608088
600.217312	11471.412758
600.568060	11233.336706
600.918753	11392.652291
601.269392	11393.952909
601.619978	11290.400047
601.970510	11335.299084
602.320988	11382.096115
602.671412	11448.851074
603.021783	11378.937832
603.372100	11300.031171
603.722363	11313.808645
604.072572	11320.737711
604.422728	11324.659728
604.772830	11277.771957
605.122878	11281.449478
605.472872	11257.473751
605.822813	11313.491052
606.172701	11270.522777
606.522534	11313.866618
606.872314	11372.863242
607.222041	11298.249123
607.571714	11381.367668
607.921333	11249.987637
608.270899	11296.479678
608.620411	11355.756086
608.969870	11310.335290
609.319276	11286.783019
609.668627	11300.063939
610.017926	11382.355734
610.367171	11410.437482
610.716362	11399.951882
611.065500	11374.234435
611.414585	11389.660366
611.763616	11451.202772
612.112594	11412.075857
612.461518	11440.931421
612.810389	11484.275262
613.159207	11427.501787
613.507971	11422.158164
613.856682	11526.499967
614.205340	11488.046045
614.553945	11624.263063
614.902496	11503.419044
615.250994	11563.691079
615.599439	11552.880325
615.947830	11590.777199
616.296169	11558.077754
616.644454	11574.237173
616.992686	11585.728483
617.340864	11680.623163
617.688990	11561.520863
618.037063	11697.674866
618.385082	11674.669561
618.733048	11712.500900
619.080961	11692.364011
619.428821	11670.550938
619.776628	11683.597444
620.124382	11623.522014
620.472083	11649.821713
620.819731	11670.840804
621.167326	11600.667943
621.514868	11580.084912
621.862357	11481.842905
622.209793	11480.743934
622.557176	11391.573484
622.904506	11332.405461
623.251783	11248.835733
623.599007	11190.933040
623.946179	11140.670216
624.293297	11120.193049
624.640363	10983.038376
624.987376	10969.928856
625.334336	10903.998125
625.681243	10825.119191
626.028097	10788.880857
626.374899	10761.343554
626.721647	10722.980373
627.068343	10684.871770
627.414987	10623.084868
627.761577	10554.129445
628.108115	10605.392939
628.454600	10481.564556
628.801032	10491.374642
629.147412	10472.077105
629.493739	10443.486201
629.840014	10380.794412
630.186236	10421.912583
630.532405	10316.214710
630.878521	10357.080824
631.224585	10304.856991
631.570597	10222.623168
631.916556	10234.719417
632.262462	10220.452952
632.608316	10203.181959
632.954117	10171.556280
633.299866	10157.728395
633.645562	10134.155960
633.991206	10033.297595
634.336797	9931.375546
634.682336	9927.897150
635.027823	9868.199806
635.373257	9831.790073
635.718639	9764.987222
636.063968	9726.810564
636.409245	9613.039284
636.754470	9602.437737
637.099642	9546.571670
637.444762	9446.605589
637.789829	9456.403072
638.134845	9376.528510
638.479808	9359.486889
638.824719	9338.525772
639.169577	9243.991534
639.514383	9245.957584
639.859137	9175.580556
640.203839	9210.367038
640.548489	9138.086974
640.893086	9142.906317
641.237632	9071.856295
641.582125	9075.780833
641.926566	9061.479080
642.270955	9040.623826
642.615292	9041.808497
642.959576	9020.083645
643.303809	9006.434721
643.647990	9021.270837
643.992118	9008.325153
644.336195	8982.375814
644.680219	8979.885484
645.024192	9022.793265
645.368112	9093.487886
645.711981	9068.440913
646.055797	9207.110453
646.399562	9158.586826
646.743274	9321.673194
647.086935	9390.926045
647.430544	9368.384526
647.774101	9387.641733
648.117606	9416.189788
648.461059	9485.084717
648.804460	9418.352443
649.147810	9297.367271
649.491108	9264.226726
649.834354	9202.356644
650.177548	9053.357781
650.520690	8960.114079
650.863781	8956.300446
651.206820	8936.196324
651.549807	8836.036159
651.892742	8743.349504
652.235626	8702.198566
652.578458	8665.466198
652.921238	8566.715035
653.263967	8599.893389
653.606644	8535.538019
653.949269	8512.111778
654.291843	8435.700488
654.634365	8505.591045
654.976836	8433.129500
655.319255	8427.135568
655.661622	8413.602590
656.003938	8374.321919
656.346203	8331.998912
656.688416	8363.206175
657.030577	8323.560021
657.372687	8288.607181
657.714746	8319.368301
658.056753	8334.181732
658.398708	8235.498625
658.740612	8228.720793
659.082465	8265.455682
659.424266	8232.171463
659.766016	8240.091116
660.107715	8216.453146
660.449362	8236.552226
660.790958	8229.421514
661.132503	8221.564876
661.473996	8220.591933
661.815438	8241.522804
662.156829	8269.299561
662.498168	8211.785037
662.839456	8207.739511
663.180693	8230.699446
663.521879	8247.763752
663.863013	8235.223882
664.204097	8235.435610
664.545129	8298.598748
664.886110	8291.112634
665.227040	8300.864746
665.567918	8310.649626
665.908746	8323.776790
666.249522	8346.030964
666.590248	8339.580808
666.930922	8354.865586
667.271545	8352.639917
667.612118	8364.753809
667.952639	8328.691915
668.293109	8330.368099
668.633528	8307.151065
668.973896	8296.121020
669.314213	8299.238974
669.654480	8256.416893
669.994695	8245.275943
670.334859	8229.363541
670.674973	8209.019964
671.015035	8231.150630
671.355047	8220.685194
671.695008	8210.741518
672.034918	8180.844955
672.374777	8189.709824
672.714585	8163.437851
673.054342	8196.137296
673.394049	8160.788725
673.733705	8198.506638
674.073310	8151.349164
674.412864	8164.188983
674.752368	8096.198941
675.091820	8152.627097
675.431223	8084.402641
675.770574	8036.587297
676.109875	8011.358842
676.449125	7967.644477
676.788324	7947.041281
677.127473	7863.796708
677.466571	7848.254830
677.805619	7793.739793
678.144616	7783.743185
678.483562	7765.912623
678.822458	7718.341775
679.161303	7699.301337
679.500098	7676.467431
679.838842	7661.089391
680.177535	7675.401227
680.516179	7706.948768
680.854771	7729.848209
681.193314	7841.421546
681.531805	7996.663879
681.870247	8121.165256
682.208638	8272.667052
682.546978	8344.826128
682.885268	8377.903659
683.223508	8312.681211
683.561697	8263.721525
683.899836	8225.650731
684.237925	8141.347515
684.575963	8116.729040
684.913951	8032.685444
685.251889	8047.894605
685.589776	8045.731950
685.927614	8030.064044
686.265401	8048.572640
686.603137	8049.404431
686.940824	8122.544011
687.278460	8175.758431
687.616046	8185.165224
687.953582	8301.401629
688.291068	8279.215511
688.628504	8346.199843
688.965889	8347.530707
689.303224	8308.489491
689.640510	8263.933253
689.977745	8153.708424
690.314930	8025.121192
690.652065	7957.826830
690.989150	7844.950354
691.326185	7694.010646
691.663170	7579.611742
692.000105	7466.037066
692.336990	7347.229673
692.673825	7264.821931
693.010610	7171.497571
693.347345	7080.245124
693.684030	6971.031047
694.020665	6919.122286
694.357251	6809.585574
694.693786	6795.573687
695.030272	6752.633139
695.366707	6657.829199
695.703093	6608.763649
696.039429	6602.288287
696.375716	6553.104269
696.711952	6546.311315
697.048139	6520.046903
697.384276	6485.706563
697.720363	6506.249265
698.056400	6479.841181
698.392388	6444.573268
698.728326	6442.869358
699.064214	6417.955976
699.400053	6414.389360
699.735842	6350.200348
700.071581	6312.603422
700.407270	6270.136742
700.742910	6231.592080
701.078501	6191.673703
701.414042	6152.703063
701.749533	6094.669300
702.084974	6035.244179
702.420366	6078.850160
702.755709	6001.319734
703.091002	5955.825841
703.426246	5957.754083
703.761440	5944.982319
704.096584	5896.826697
704.431679	5884.916971
704.766725	5868.611359
705.101721	5857.820769
705.436668	5869.538931
705.771565	5813.410724
706.106413	5872.694694
706.441212	5874.980857
706.775961	5888.110542
707.110661	5896.972891
707.445311	5954.618485
707.779913	5926.153610
708.114465	5960.685513
708.448967	6011.704511
708.783421	6122.178877
709.117825	6168.073542
709.452180	6198.494384
709.786485	6259.157109
710.120742	6388.954218
710.454949	6396.009313
710.789107	6476.287167
711.123216	6598.353666
711.457275	6626.009436
711.791286	6731.213276
712.125247	6749.179948
712.459159	6719.674075
712.793023	6848.778025
713.126837	6678.772673
713.460602	6732.110601
713.794318	6695.965528
714.127985	6641.160624
714.461602	6497.175188
714.795171	6498.468244
715.128691	6324.019115
715.462162	6239.161372
715.795584	6170.765518
716.128957	6124.583507
716.462281	6063.318365
716.795556	6023.926788
717.128782	5940.394869
717.461960	5837.940979
717.795088	5829.204659
718.128167	5757.216983
718.461198	5674.070712
718.794180	5652.870139
719.127113	5592.131797
719.459997	5557.393206
719.792833	5490.597917
720.125619	5488.702443
720.458357	5430.832518
720.791046	5400.043671
721.123686	5373.501996
721.456278	5329.104554
721.788821	5325.059028
722.121315	5283.678717
722.453761	5283.010764
722.786158	5270.629690
723.118506	5274.743271
723.450805	5254.558491
723.783056	5279.315598
724.115259	5261.850520
724.447412	5242.865535
724.779518	5292.478051
725.111574	5296.455521
725.443582	5332.106561
725.775542	5324.822094
726.107453	5408.951390
726.439315	5380.461309
726.771129	5451.589469
727.102895	5512.312687
727.434612	5557.831786
727.766281	5583.629891
728.097901	5640.173993
728.429473	5662.813815
728.760996	5667.857489
729.092471	5697.081058
729.423897	5674.947872
729.755276	5650.233616
730.086606	5660.701572
730.417887	5750.038379
730.749120	5846.347103
731.080305	5876.362133
731.411442	5954.467250
731.742530	5973.991639
732.073570	6002.900136
732.404562	6062.821811
732.735506	6059.686213
733.066401	6040.507143
733.397249	5970.185568
733.728048	5878.025714
734.058798	5734.188992
734.389501	5607.938335
734.720156	5524.280387
735.050762	5413.682513
735.381320	5343.544939
735.711831	5280.608654
736.042293	5206.659968
736.372707	5203.269792
736.703073	5157.856558
737.033391	5186.197925
737.363661	5169.040358
737.693883	5181.522254
738.024056	5206.728024
738.354182	5234.749277
738.684260	5284.621412
739.014290	5319.448224
739.344272	5356.770406
739.674207	5417.168470
740.004093	5446.770126
740.333931	5449.825065
740.663722	5470.544207
740.993464	5478.844467
741.323159	5460.187157
741.652806	5415.540178
741.982405	5389.737032
742.311956	5339.317932
742.641460	5326.024409
742.970915	5273.029279
743.300323	5211.925453
743.629683	5177.350700
743.958996	5129.172392
744.288260	5080.374023
744.617477	5016.250546
744.946647	5007.027755
745.275768	4948.777222
745.604842	4918.263118
745.933869	4882.667531
746.262847	4872.623032
746.591778	4860.131053
746.920662	4837.471066
747.249498	4832.618956
747.578286	4851.329198
747.907027	4873.419534
748.235720	4917.083488
748.564365	4925.971042
748.892963	4912.125513
749.221514	4929.860293
749.550017	4905.932456
749.878473	4902.007918
750.206881	4864.204305
750.535242	4849.839537
750.863555	4836.593905
751.191821	4812.998785
751.520039	4818.291996
751.848210	4796.194098
752.176334	4805.724400
752.504411	4791.830980
752.832440	4754.072737
753.160421	4770.469090
753.488356	4750.856481
753.816243	4726.048963
754.144082	4698.635169
754.471875	4687.030432
754.799620	4675.327394
755.127318	4668.153832
755.454969	4660.541690
755.782572	4652.564064
756.110129	4655.510618
756.437638	4640.485459
756.765100	4635.361126
757.092515	4639.625942
757.419882	4639.671313
757.747203	4640.815655
758.074477	4652.692613
758.401703	4644.750275
758.728882	4673.084080
759.056014	4689.417419
759.383099	4711.432138
759.710138	4739.607147
760.037129	4757.541051
760.364073	4766.736116
760.690970	4765.725365
761.017820	4768.477835
761.344623	4798.313904
761.671379	4861.421588
761.998088	4952.537923
762.324751	5178.855484
762.651366	5644.592564
762.977935	6339.389593
763.304456	6896.565643
763.630931	7208.106430
763.957359	7145.454970
764.283740	6850.267686
764.610074	6531.785230
764.936362	6125.541327
765.262602	5807.409231
765.588796	5456.194563
765.914943	5208.797417
766.241044	4977.594978
766.567097	4808.194565
766.893104	4658.328623
767.219064	4558.722985
767.544978	4463.117502
767.870845	4380.435017
768.196665	4329.506761
768.522438	4280.408443
768.848165	4239.086105
769.173846	4200.382646
769.499479	4172.210158
769.825066	4136.838902
770.150607	4093.149742
770.476101	4078.900921
770.801548	4057.347467
771.126949	4031.199002
771.452303	4008.291999
771.777611	3971.264724
772.102872	3966.367243
772.428087	3942.555353
772.753256	3914.153492
773.078378	3898.243611
773.403453	3866.529712
773.728482	3841.137420
774.053465	3824.914987
774.378401	3803.684167
774.703291	3785.795633
775.028135	3759.410234
775.352932	3752.856734
775.677683	3731.918301
776.002388	3712.794684
776.327046	3712.789643
776.651658	3694.001263
776.976224	3673.445958
777.300743	3670.123837
777.625216	3658.272085
777.949643	3649.848317
778.274024	3651.857217
778.598359	3629.734113
778.922647	3633.512458
779.246889	3624.536683
779.571086	3619.240951
779.895236	3621.333030
780.219339	3623.110037
780.543397	3626.187661
780.867409	3637.636122
781.191374	3633.204947
781.515294	3628.347796
781.839167	3646.921927
782.162995	3646.316988
782.486776	3636.544712
782.810511	3634.760143
783.134201	3613.766258
783.457844	3610.842389
783.781441	3605.012294
784.104993	3597.677416
784.428498	3591.128957
784.751958	3589.283894
785.075372	3583.983121
785.398739	3570.903848
785.722061	3578.553798
786.045337	3577.175043
786.368568	3604.729990
786.691752	3602.300154
787.014891	3646.271618
787.337983	3692.463711
787.661030	3778.022174
787.984031	3872.629508
788.306987	3949.373514
788.629897	3998.580216
788.952760	4009.012884
789.275579	3990.330368
789.598351	3942.499900
789.921078	3890.800347
790.243759	3827.249041
790.566395	3784.230355
790.888984	3732.530802
791.211529	3697.411603
791.534027	3653.785458
791.856480	3612.324488
792.178888	3595.232456
792.501249	3572.756472
792.823566	3541.715567
793.145836	3536.644166
793.468062	3529.452960
793.790241	3513.298583
794.112375	3519.267309
794.434464	3541.181204
794.756507	3539.477294
795.078505	3556.897002
795.400457	3595.469390
795.722364	3646.385044
796.044226	3695.564020
796.366042	3741.088160
796.687812	3739.298551
797.009538	3759.407713
797.331218	3751.934203
797.652852	3741.909868
797.974442	3721.226014
798.295986	3714.208728
798.617484	3684.397865
798.938938	3661.647137
799.260346	3644.613078
799.581709	3610.512193
799.903026	3598.998198
800.224299	3578.533634
800.545526	3544.813356
800.866708	3528.520347
801.187845	3514.848737
801.508936	3494.651354
801.829983	3482.938233
802.150984	3452.774489
802.471940	3445.053962
802.792851	3439.070113
803.113717	3434.709515
803.434538	3425.035540
803.755314	3415.406937
804.076045	3411.290834
804.396731	3398.471180
804.717372	3399.668454
805.037967	3397.460429
805.358518	3399.257600
805.679024	3413.206473
805.999485	3410.741349
806.319901	3412.470464
806.640272	3417.491454
806.960598	3428.687856
807.280879	3429.809513
807.601115	3440.564815
807.921306	3430.215326
808.241453	3431.059719
808.561554	3441.401646
808.881611	3435.808486
809.201623	3435.160698
809.521590	3427.498144
809.841513	3426.512598
810.161390	3435.896706
810.481223	3414.524735
810.801011	3412.699837
811.120755	3410.776637
811.440453	3394.866755
811.760107	3392.313411
812.079716	3383.967781
812.399281	3371.175853
812.718801	3371.460678
813.038276	3362.401724
813.357707	3357.090869
813.677093	3366.961448
813.996434	3350.406299
814.315731	3360.198740
814.634983	3356.203626
814.954191	3359.253524
815.273354	3372.456306
815.592473	3381.938716
815.911547	3403.038466
816.230577	3419.336516
816.549562	3443.597069
816.868502	3462.682877
817.187399	3482.575270
817.506250	3512.396216
817.825058	3520.978780
818.143821	3565.214905
818.462539	3608.319291
818.781213	3666.153929
819.099843	3750.578132
819.418429	3906.160743
819.736970	4054.930234
820.055466	4242.493925
820.373919	4481.303465
820.692327	4815.065658
821.010691	5337.455225
821.329011	6421.651142
821.647286	8163.624374
821.965517	10337.218678
822.283704	11975.394552
822.601847	13068.430132
822.919945	12658.687668
823.237999	11978.373874
823.556010	11076.256873
823.873976	10122.679773
824.191897	9145.285742
824.509775	8375.955253
824.827609	7564.891573
825.145398	7014.155597
825.463144	6628.149406
825.780845	6494.412636
826.098502	6559.317492
826.416116	6932.937568
826.733685	7445.166689
827.051210	7738.403047
827.368692	7639.785475
827.686129	7197.809873
828.003522	6648.069526
828.320872	6074.729016
828.638177	5612.344303
828.955439	5246.815279
829.272656	4908.243825
829.589830	4624.053818
829.906960	4354.581460
830.224046	4142.668996
830.541088	3978.443327
830.858086	3857.183413
831.175041	3761.703959
831.491952	3715.867268
831.808819	3698.490410
832.125642	3736.631780
832.442421	3836.522244
832.759157	4049.533679
833.075849	4430.014765
833.392497	4893.609355
833.709101	5284.966731
834.025662	5397.361777
834.342179	5271.602632
834.658653	5001.855531
834.975083	4731.508533
835.291469	4482.155420
835.607811	4256.667129
835.924110	4101.608798
836.240366	3941.499231
836.556578	3774.722739
836.872746	3642.430259
837.188871	3524.406765
837.504952	3428.024945
837.820990	3351.774972
838.136984	3296.299595
838.452935	3266.816406
838.768842	3253.850559
839.084706	3285.685445
839.400526	3422.288112
839.716303	3649.591218
840.032037	3861.889330
840.347727	3926.627827
840.663373	3838.432841
840.978977	3686.989018
841.294537	3556.309707
841.610054	3449.626289
841.925527	3373.240205
842.240957	3306.419711
842.556344	3241.497211
842.871687	3182.619055
843.186987	3123.904736
843.502244	3071.312898
843.817458	3030.625746
844.132629	2995.758605
844.447756	2974.348825
844.762840	2952.757563
845.077881	2937.041766
845.392879	2920.524425
845.707833	2910.046387
846.022745	2900.838719
846.337613	2899.482649
846.652438	2886.075700
846.967221	2882.239382
847.281960	2875.063300
847.596656	2875.121273
847.911309	2865.580889
848.225919	2859.302132
848.540485	2855.589322
848.855009	2855.054960
849.169490	2851.957171
849.483928	2845.343177
849.798323	2844.289576
850.112675	2839.324040
850.426984	2842.464678
850.741251	2840.843947
851.055474	2835.956549
851.369654	2836.659790
851.683792	2834.229954
851.997887	2836.896724
852.311938	2834.812207
852.625947	2836.080057
852.939914	2832.460509
853.253837	2835.386898
853.567718	2835.880932
853.881555	2834.446723
854.195350	2834.388750
854.509103	2833.057885
854.822812	2829.576969
855.136479	2834.557629
855.450103	2830.776763
855.763685	2830.718790
856.077224	2831.485045
856.390720	2834.270283
856.704173	2837.683144
857.017584	2839.621468
857.330953	2838.835048
857.644278	2842.381499
857.957561	2844.103053
858.270802	2841.705985
858.584000	2844.365193
858.897155	2843.994669
859.210268	2840.027281
859.523339	2836.304388
859.836367	2839.898731
860.149352	2836.213648
860.462295	2836.422856
860.775195	2830.502020
861.088054	2833.012515
861.400869	2828.793069
861.713642	2827.966320
862.026373	2831.296002
862.339062	2834.492094
862.651708	2835.288596
862.964312	2838.948474
863.276873	2841.753876
863.589392	2850.442304
863.901869	2858.409848
864.214303	2863.660210
864.526696	2870.009543
864.839045	2877.213352
865.151353	2884.636451
865.463619	2886.390773
865.775842	2890.065774
866.088023	2891.394118
866.400162	2893.612225
866.712258	2891.643655
867.024313	2896.871331
867.336325	2900.566497
867.648296	2900.120355
867.960224	2899.288565
868.272110	2899.321332
868.583954	2902.383833
868.895755	2906.671334
869.207515	2904.165881
869.519233	2910.366500
869.830909	2913.691141
870.142542	2917.635844
870.454134	2916.972932
870.765684	2921.880496
871.077191	2930.384922
871.388657	2935.305088
871.700081	2943.111315
872.011463	2949.745473
872.322803	2954.153963
872.634101	2958.222174
872.945357	2961.503965
873.256571	2978.648929
873.567744	2979.029536
873.878874	2985.192347
874.189963	2994.160559
874.501010	2992.481855
874.812015	2996.177021
875.122979	3006.408043
875.433900	3006.171108
875.744780	3014.355422
876.055618	3017.806092
876.366415	3015.545134
876.677169	3024.336906
876.987882	3026.834798
877.298554	3038.184956
877.609183	3053.051319
877.919771	3069.109914
878.230317	3095.361723
878.540822	3133.755151
878.851285	3182.261133
879.161707	3247.929723
879.472087	3356.231352
879.782425	3518.087679
880.092722	3797.586892
880.402977	4221.817632
880.713191	4771.502527
881.023363	5373.401173
881.333494	5818.194779
881.643583	6104.660867
881.953631	6180.028638
882.263637	6127.852696
882.573602	5987.564946
882.883526	5820.743083
883.193408	5617.067864
883.503248	5396.555192
883.813048	5179.367161
884.122806	4958.241989
884.432522	4710.605388
884.742197	4486.818487
885.051831	4278.502887
885.361424	4074.936053
885.670975	3907.794077
885.980485	3758.318824
886.289954	3635.912047
886.599382	3530.183927
886.908768	3445.563119
887.218113	3364.854246
887.527417	3299.916623
887.836680	3243.554002
888.145901	3195.920139
888.455082	3157.098213
888.764221	3121.580764
889.073319	3096.009511
889.382376	3071.983372
889.691392	3061.621280
890.000366	3049.842624
890.309300	3041.378527
890.618193	3035.682023
890.927044	3034.242774
891.235855	3034.356200
891.544625	3035.641694
891.853353	3042.729556
892.162041	3057.469890
892.470687	3083.953592
892.779293	3119.040023
893.087858	3166.530212
893.396381	3241.247674
893.704864	3347.812625
894.013306	3506.540916
894.321707	3694.764998
894.630068	3844.817462
894.938387	3924.134977
895.246665	3934.623097
895.554903	3878.489849
895.863100	3791.361067
896.171256	3712.688820
896.479371	3639.738283
896.787446	3563.768094
897.095480	3491.523318
897.403473	3435.180863
897.711425	3377.207593
898.019336	3329.919050
898.327207	3271.396295
898.635038	3226.986250
898.942827	3175.745442
899.250576	3134.627270
899.558284	3092.568924
899.865952	3065.908782
900.173579	3039.140255
900.481165	3016.203005
900.788711	2994.581496
901.096216	2982.225628
901.403681	2967.613843
901.711105	2960.281485
902.018489	2950.113478
902.325832	2960.737709
902.633135	2970.131900
902.940397	3007.393588
903.247619	3098.668720
903.554800	3275.328395
903.861941	3555.188050
904.169041	3822.976663
904.476101	3990.237107
904.783121	4010.288296
905.090100	3946.328657
905.397039	3840.078778
905.703938	3733.070205
906.010796	3627.410141
906.317614	3544.621792
906.624391	3456.749439
906.931129	3387.486506
907.237826	3314.364569
907.544483	3251.519025
907.851099	3179.980011
908.157675	3107.692385
908.464211	3031.553318
908.770707	2975.949391
909.077163	2926.193203
909.383578	2889.538973
909.689954	2864.507124
909.996289	2840.523834
910.302584	2828.253666
910.608839	2820.160093
910.915054	2812.953764
911.221229	2805.157619
911.527363	2806.314564
911.833458	2806.904379
912.139513	2810.687765
912.445527	2811.930410
912.751502	2824.588747
913.057436	2836.803463
913.363331	2857.951103
913.669186	2886.554610
913.975000	2927.118254
914.280775	2985.336020
914.586510	3064.777043
914.892205	3178.054290
915.197859	3327.070798
915.503475	3507.932274
915.809050	3683.452648
916.114585	3818.038853
916.420081	3895.115575
916.725536	3926.267385
917.030952	3890.344123
917.336328	3851.945654
917.641665	3806.096360
917.946961	3744.324581
918.252218	3684.949871
918.557435	3614.038480
918.862612	3544.712533
919.167750	3482.267760
919.472848	3408.702202
919.777906	3340.457582
920.082925	3271.350924
920.387904	3196.928370
920.692843	3139.713794
920.997743	3090.096238
921.302603	3037.459030
921.607423	3002.397805
921.912204	2967.828092
922.216946	2943.789350
922.521647	2920.363108
922.826310	2894.968296
923.130932	2877.588918
923.435516	2853.083869
923.740059	2841.642970
924.044564	2825.135712
924.349028	2816.457366
924.653454	2799.501445
924.957840	2786.091976
925.262186	2777.932868
925.566493	2767.348966
925.870761	2752.729619
926.174989	2748.598394
926.479178	2740.101529
926.783328	2736.151785
927.087438	2726.170300
927.391509	2721.103941
927.695541	2715.427602
927.999533	2707.581046
928.303486	2708.425439
928.607400	2702.209696
928.911275	2697.627287
929.215110	2693.866587
929.518906	2692.419775
929.822663	2688.709486
930.126381	2689.929445
930.430060	2689.248890
930.733699	2686.627490
931.037299	2687.366019
931.340861	2689.024558
931.644383	2692.797862
931.947866	2689.274095
932.251309	2689.314425
932.554714	2689.183355
932.858080	2689.011955
933.161407	2687.151770
933.464694	2688.525484
933.767943	2684.868127
934.071153	2684.447191
934.374323	2683.018023
934.677455	2683.020544
934.980548	2681.298990
935.283602	2677.422343
935.586617	2677.233299
935.889593	2681.122550
936.192530	2681.924093
936.495428	2682.735719
936.798287	2685.311748
937.101108	2686.768642
937.403890	2696.397246
937.706632	2705.236909
938.009336	2716.539176
938.312002	2727.526371
938.614628	2739.042887
938.917216	2748.726943
939.219765	2757.647265
939.522275	2765.592123
939.824747	2769.625047
940.127179	2761.138264
940.429573	2765.758482
940.731929	2767.021291
941.034246	2765.372833
941.336524	2764.853594
941.638763	2762.887544
941.940964	2765.385436
942.243126	2757.914446
942.545250	2754.920001
942.847335	2749.082345
943.149381	2742.657394
943.451389	2735.834192
943.753359	2729.058882
944.055290	2727.400342
944.357182	2722.916236
944.659036	2719.125288
944.960851	2713.436346
945.262628	2713.002807
945.564367	2710.744370
945.866067	2708.753114
946.167729	2707.964173
946.469352	2709.179091
946.770937	2704.263966
947.072484	2704.735314
947.373992	2704.838658
947.675462	2702.466795
947.976893	2700.982175
948.278286	2699.900848
948.579641	2695.996474
948.880958	2695.326001
949.182236	2697.947401
949.483476	2696.614015
949.784678	2696.556042
950.085841	2694.002698
950.386967	2694.083356
950.688054	2698.890096
950.989103	2701.355221
951.290114	2703.492670
951.591087	2707.059286
951.892021	2712.758311
952.192917	2714.396686
952.493776	2718.840463
952.794596	2724.035372
953.095378	2724.902450
953.396122	2725.335989
953.696828	2725.794734
953.997496	2723.548900
954.298126	2721.217367
954.598718	2717.184444
954.899272	2713.640512
955.199788	2708.559029
955.500266	2703.923688
955.800706	2698.159129
956.101108	2687.517253
956.401472	2682.004752
956.701798	2677.238341
957.002087	2671.967814
957.302337	2664.769047
957.602550	2661.852739
957.902724	2656.665392
958.202861	2651.815802
958.502960	2647.235913
958.803022	2642.179636
959.103045	2636.588997
959.403031	2636.362145
959.702979	2629.642287
960.002889	2632.104890
960.302762	2627.000722
960.602596	2626.342851
960.902393	2622.811523
961.202153	2620.139712
961.501875	2617.273816
961.801559	2617.740122
962.101205	2614.546551
962.400814	2612.462034
962.700385	2611.413474
962.999918	2614.538990
963.299414	2608.902980
963.598873	2610.614451
963.898293	2607.501539
964.197677	2607.108329
964.497022	2608.018257
964.796331	2610.185953
965.095601	2606.914244
965.394835	2607.070520
965.694030	2605.124635
965.993189	2605.248143
966.292309	2603.191352
966.591393	2608.356014
966.890439	2604.134048
967.189447	2604.812083
967.488419	2602.377206
967.787353	2601.870570
968.086249	2602.662031
968.385108	2604.350818
968.683930	2603.405601
968.982714	2606.158071
969.281462	2607.975407
969.580172	2606.490787
969.878844	2607.204111
970.177480	2612.217538
970.476078	2609.190325
970.774639	2613.147631
971.073162	2613.167796
971.371649	2611.501694
971.670098	2611.748711
971.968510	2613.903804
972.266885	2613.077055
972.565223	2617.162910
972.863524	2621.407562
973.161788	2619.323045
973.460014	2620.069135
973.758204	2620.913529
974.056356	2622.080556
974.354471	2623.113992
974.652550	2621.563837
974.950591	2621.987294
975.248595	2621.760442
975.546563	2622.375463
975.844493	2619.796913
976.142386	2621.505864
976.440243	2620.414454
976.738062	2622.657768
977.035845	2619.365894
977.333590	2615.058228
977.631299	2614.067642
977.928971	2612.333485
978.226606	2613.689555
978.524204	2611.085799
978.821765	2613.069493
979.119290	2611.741149
979.416777	2612.691407
979.714228	2610.798453
980.011642	2609.923813
980.309020	2615.607714
980.606360	2616.716768
980.903664	2620.265740
981.200931	2628.003912
981.498162	2632.523306
981.795356	2641.431025
982.092513	2660.035403
982.389633	2677.409740
982.686717	2693.738037
982.983764	2712.150852
983.280775	2726.092162
983.577749	2729.126937
983.874686	2730.185579
984.171587	2730.450240
984.468451	2723.024620
984.765279	2717.219732
985.062070	2708.690099
985.358824	2702.108873
985.655543	2690.431040
985.952224	2681.261181
986.248869	2671.330108
986.545478	2654.069197
986.842050	2640.498411
987.138586	2629.062554
987.435086	2622.118364
987.731549	2612.809874
988.027975	2613.114864
988.324366	2607.110849
988.620719	2603.796291
988.917037	2600.942998
989.213318	2600.343100
989.509563	2597.605754
989.805772	2597.257914
990.101944	2593.119127
990.398080	2593.827409
990.694180	2594.064343
990.990244	2594.538212
991.286271	2594.374374
991.582262	2593.575351
991.878217	2591.505958
992.174136	2594.697008
992.470019	2596.441247
992.765865	2595.460743
993.061676	2597.545260
993.357450	2598.407297
993.653188	2600.088522
993.948890	2602.505755
994.244556	2603.884511
994.540186	2608.703854
994.835780	2614.211315
995.131337	2620.275823
995.426859	2631.106742
995.722345	2636.223513
996.017795	2647.750111
996.313208	2654.197747
996.608586	2661.567914
996.903928	2666.535971
997.199234	2668.486897
997.494504	2670.679799
997.789738	2667.297185
998.084936	2663.725528
998.380099	2657.315701
998.675225	2655.039620
998.970316	2648.796151
999.265371	2638.844913
999.560390	2633.624798
999.855373	2627.867800
1000.150320	2621.838580
1000.445232	2614.569237
1000.740108	2608.502208
1001.034948	2603.367793
1001.329752	2603.508945
1001.624521	2601.777309
1001.919254	2594.399580
1002.213951	2592.597367
1002.508613	2588.970257
1002.803239	2587.979671
1003.097829	2586.139649
1003.392384	2589.219794
1003.686903	2589.895309
1003.981386	2588.750967
1004.275834	2585.633013
1004.570246	2588.493868
1004.864623	2586.903384
1005.158964	2585.262489
1005.453270	2585.096131
1005.747540	2584.453383
1006.041775	2580.919535
1006.335974	2583.548496
1006.630138	2582.888105
1006.924266	2582.875502
1007.218359	2583.130081
1007.512416	2581.458938
1007.806438	2580.042374
1008.100425	2580.385172
1008.394376	2581.746284
1008.688292	2582.202508
1008.982172	2580.438104
1009.276017	2579.757549
1009.569827	2580.833835
1009.863602	2581.854669
1010.157341	2582.164700
1010.451045	2581.968095
1010.744714	2579.117322
1011.038347	2579.795357
1011.331945	2581.839545
1011.625508	2582.404154
1011.919036	2578.887950
1012.212528	2581.746284
1012.505986	2580.120512
1012.799408	2581.721078
1013.092795	2578.794688
1013.386147	2580.854000
1013.679464	2580.430543
1013.972745	2581.804257
1014.265992	2580.606983
1014.559204	2579.359297
1014.852380	2577.279822
1015.145521	2578.673701
1015.438628	2578.275449
1015.731699	2580.801067
1016.024736	2579.762590
1016.317737	2582.457087
1016.610703	2579.939030
1016.903635	2576.140521
1017.196531	2576.306879
1017.489393	2577.909966
1017.782219	2577.146231
1018.075011	2576.402661
1018.367768	2582.174782
1018.660490	2581.965574
1018.953177	2581.965574
1019.245829	2581.965574
