Dividing Wavelength (nm)	Counts (n)	Blue Motor Position (mm): 39.600000	Red Motor Position (mm): 0.000000	
326.493990	2050.968237
326.888308	2050.968237
327.282561	2050.968237
327.676750	2025.817920
328.070874	2028.741789
328.464933	2033.878725
328.858929	2042.869623
329.252859	2052.069729
329.646726	2065.428786
330.040528	2083.529049
330.434265	2098.266863
330.827938	2119.326283
331.221547	2141.701444
331.615091	2161.543426
332.008571	2184.500840
332.401986	2204.867102
332.795338	2224.953579
333.188625	2246.365880
333.581847	2262.764754
333.975006	2279.947527
334.368100	2296.028807
334.761129	2316.127888
335.154095	2331.498366
335.546996	2381.337733
335.939833	2490.009887
336.332606	2495.623212
336.725315	2511.906138
337.117960	2520.075328
337.510540	2530.389529
337.903056	2541.868236
338.295508	2546.879143
338.687896	2553.205791
339.080220	2560.810372
339.472480	2563.111659
339.864676	2566.131310
340.256807	2571.381672
340.648875	2570.688513
341.040879	2574.360993
341.432818	2575.674214
341.824694	2577.557085
342.216506	2572.087433
342.608253	2572.026939
342.999937	2575.664132
343.391557	2573.395612
343.783113	2572.566343
344.174605	2569.080385
344.566033	2567.573080
344.957397	2567.913358
345.348697	2564.356824
345.739934	2565.665003
346.131106	2563.661144
346.522215	2557.762994
346.913260	2560.734755
347.304241	2559.454302
347.695159	2557.319373
348.086012	2554.554300
348.476802	2552.805020
348.867528	2550.899463
349.258191	2543.887218
349.648789	2548.729247
350.039324	2543.869574
350.429796	2546.737991
350.820203	2545.011396
351.210548	2546.763197
351.600828	2545.034081
351.991045	2542.402599
352.381198	2545.691952
352.771288	2542.263967
353.161314	2543.998124
353.551276	2542.389996
353.941175	2542.168185
354.331010	2542.573998
354.720782	2547.186654
355.110490	2548.015923
355.500135	2545.117260
355.889717	2543.718340
356.279235	2544.996272
356.668689	2542.541230
357.058080	2545.071890
357.447408	2543.975439
357.836672	2546.801005
358.225873	2546.294369
358.615010	2547.796633
359.004084	2547.816798
359.393095	2545.760007
359.782043	2551.428785
360.170927	2549.583722
360.559748	2549.056922
360.948505	2550.055070
361.337199	2553.513302
361.725830	2552.873075
362.114398	2551.247303
362.502903	2552.452139
362.891344	2552.116902
363.279722	2556.023796
363.668037	2553.157900
364.056289	2554.627397
364.444478	2554.080432
364.832603	2557.387428
365.220665	2556.585885
365.608665	2556.900957
365.996601	2554.183775
366.384474	2556.152346
366.772284	2554.662685
367.160031	2555.164280
367.547715	2561.049827
367.935336	2558.587223
368.322893	2558.967830
368.710388	2554.869372
369.097820	2556.535473
369.485189	2558.186451
369.872495	2561.332131
370.259738	2553.944320
370.646918	2559.890361
371.034035	2559.320711
371.421090	2560.533108
371.808081	2562.708366
372.195010	2562.937739
372.581875	2563.502348
372.968678	2564.946639
373.355418	2565.281875
373.742096	2563.963614
374.128710	2564.291289
374.515262	2564.014025
374.901751	2566.481670
375.288177	2566.476629
375.674540	2564.871021
376.060841	2566.872359
376.447079	2566.242215
376.833254	2568.283882
377.219367	2568.724983
377.605417	2570.393605
377.991404	2569.128276
378.377329	2572.460478
378.763191	2569.667679
379.148991	2568.654407
379.534727	2569.657597
379.920402	2572.163050
380.306013	2572.047104
380.691563	2573.990469
381.077049	2569.904613
381.462474	2572.566343
381.847835	2570.565005
382.233134	2571.616085
382.618371	2573.584656
383.003545	2574.343349
383.388657	2573.808987
383.773706	2576.919379
384.158693	2573.735890
384.543618	2576.591704
384.928480	2577.715881
385.313280	2575.959039
385.698017	2577.226889
386.082692	2578.708989
386.467305	2579.293763
386.851856	2579.780234
387.236344	2579.442477
387.620770	2577.617579
388.005133	2575.475088
388.389435	2581.025399
388.773674	2577.869637
389.157851	2584.607139
389.541965	2585.063363
389.926018	2584.796182
390.310008	2583.195616
390.693936	2583.246027
391.077802	2586.348857
391.461606	2586.684094
391.845348	2589.000504
392.229027	2590.429671
392.612645	2590.948910
392.996200	2594.172728
393.379694	2592.756164
393.763125	2595.755650
394.146494	2600.075919
394.529801	2600.998450
394.913047	2607.161261
395.296230	2609.001282
395.679351	2614.077724
396.062410	2619.189454
396.445408	2621.389918
396.828343	2625.276647
397.211217	2634.038173
397.594028	2640.705099
397.976778	2647.029226
398.359466	2657.166987
398.742092	2665.762154
399.124656	2674.344718
399.507158	2687.640762
399.889598	2700.546115
400.271977	2714.613455
400.654294	2726.802965
401.036549	2744.378948
401.418742	2756.129878
401.800874	2780.471089
402.182944	2797.227884
402.564952	2825.919612
402.946898	2845.564988
403.328783	2861.759695
403.710606	2887.288098
404.092367	2917.222469
404.474067	2952.356791
404.855705	2971.712301
405.237282	2984.022799
405.618797	3030.905530
406.000250	3074.410687
406.381642	3123.579582
406.762972	3145.720329
407.144240	3158.678615
407.525447	3207.799618
407.906593	3240.423445
408.287677	3292.659882
408.668700	3334.561952
409.049661	3378.941750
409.430560	3421.476486
409.811399	3445.943726
410.192176	3493.564986
410.572891	3558.280798
410.953545	3636.864825
411.334138	3620.725571
411.714669	3710.944581
412.095139	3702.004094
412.475547	3792.260913
412.855894	3824.599915
413.236180	3912.101743
413.616405	3909.687030
413.996568	3998.590299
414.376670	4035.771329
414.756711	4065.809044
415.136691	4139.535919
415.516609	4228.101430
415.896466	4285.169813
416.276262	4372.772463
416.655997	4485.923682
417.035670	4576.946756
417.415283	4701.322104
417.794834	4780.773209
418.174324	4786.119352
418.553753	4822.627389
418.933121	4973.468794
419.312428	5017.457903
419.691674	5007.965410
420.070859	5198.279050
420.449983	5144.610926
420.829045	5328.731508
421.208047	5298.940810
421.586988	5455.453513
421.965867	5545.493562
422.344686	5638.278519
422.723444	5807.106762
423.102141	5524.426580
423.480777	5862.665318
423.859352	5746.128965
424.237866	6080.740592
424.616319	6097.837666
424.994712	6257.899341
425.373044	6211.140119
425.751314	6500.061249
426.129524	6281.915398
426.507673	6539.233535
426.885762	6596.561536
427.263789	6646.002653
427.641756	6748.385967
428.019662	6824.436813
428.397508	6879.980247
428.775292	6898.798874
429.153016	7043.774897
429.530679	7006.735019
429.908282	7067.465799
430.285824	7025.415014
430.663305	7280.588140
431.040726	7200.252312
431.418086	7202.689710
431.795385	7348.429468
432.172624	7532.456789
432.549802	7422.728514
432.926920	7560.135244
433.303977	7518.268461
433.680974	7575.210815
434.057910	7759.848115
434.434786	7813.415416
434.811601	7781.267978
435.188355	8114.087476
435.565050	8016.084924
435.941683	8029.575052
436.318257	8338.295313
436.694770	8291.702449
437.071222	8513.394751
437.447614	8277.879605
437.823946	8265.737986
438.200218	8403.447186
438.576429	8306.531003
438.952580	8459.517419
439.328670	8473.183988
439.704700	8551.820946
440.080670	8451.940565
440.456580	8699.007515
440.832429	8691.254221
441.208218	8434.583873
441.583947	8547.188126
441.959616	8658.411103
442.335224	8695.640024
442.710773	8781.198487
443.086261	8948.405999
443.461689	8689.237759
443.837057	8839.239812
444.212365	9035.849853
444.587612	9036.578300
444.962800	8937.645656
445.337927	9071.702540
445.712995	8620.330227
446.088002	9263.178166
446.462949	9328.524122
446.837837	9333.260286
447.212664	9392.176251
447.587431	10296.624786
447.962139	11257.478792
448.336786	12006.561486
448.711374	11617.071857
449.085901	10473.617177
449.460369	10449.470050
449.834776	10374.185459
450.209124	11295.678135
450.583412	11069.068187
450.957640	11271.667119
451.331808	10861.047494
451.705917	10380.844823
452.079965	10303.642072
452.453954	10496.342699
452.827883	10454.591863
453.201752	10417.108363
453.575562	10441.706673
453.949311	10795.414192
454.323001	10877.579958
454.696632	10791.935796
455.070202	11371.366019
455.443713	11428.804926
455.817164	11580.717576
456.190556	11894.879763
456.563888	11726.900956
456.937160	11942.662340
457.310373	11449.536671
457.683526	11486.102680
458.056619	11526.774710
458.429653	11608.058274
458.802628	11781.171497
459.175542	11837.360198
459.548398	12384.534598
459.921194	12964.466416
460.293930	13289.517496
460.666607	14112.571561
461.039224	14840.990565
461.411782	15099.374905
461.784280	14705.191963
462.156719	14633.400891
462.529099	14540.484864
462.901419	13964.727121
463.273680	13599.898817
463.645882	13844.278832
464.018024	13789.806644
464.390106	14197.971227
464.762130	15356.924935
465.134094	17015.351124
465.505999	19290.547363
465.877845	21291.512395
466.249631	22190.582019
466.621358	21569.945404
466.993026	20740.395812
467.364634	20044.958557
467.736184	19346.010138
468.107674	18796.839441
468.479105	18646.852511
468.850477	18383.237973
469.221790	17963.506463
469.593043	17328.222776
469.964238	16988.766599
470.335373	17096.972446
470.706449	17970.415364
471.077467	19092.709801
471.448425	21430.968354
471.819324	22913.634715
472.190164	22402.648237
472.560945	20728.861652
472.931667	19332.701492
473.302330	19089.677547
473.672934	18642.396131
474.043479	19076.250434
474.413965	18890.753616
474.784393	18723.571311
475.154761	19350.229584
475.525070	19494.159567
475.895321	19331.025308
476.265513	19842.163020
476.635645	20422.316649
477.005719	20492.852473
477.375734	20866.616222
477.745691	21474.029890
478.115588	22134.862145
478.485427	23395.712695
478.855207	25267.810711
479.224928	26971.294734
479.594591	28156.376742
479.964194	27618.470503
480.333739	28020.494960
480.703226	28295.966292
481.072653	28814.509458
481.442022	29298.293870
481.811333	29602.172103
482.180584	29094.366594
482.549777	28899.639423
482.918912	28707.463077
483.287988	28655.075406
483.657005	28481.526123
484.025964	28144.973652
484.394864	28340.270472
484.763706	28280.716801
485.132489	27787.810422
485.501213	27862.169962
485.869879	28048.251553
486.238487	28019.776596
486.607036	28286.509087
486.975527	27998.195416
487.343959	28327.866713
487.712333	28672.666513
488.080648	28648.554674
488.448905	29052.275480
488.817104	29004.626493
489.185244	29890.407636
489.553326	31049.477290
489.921350	32971.467605
490.289315	35341.092217
490.657222	36018.681268
491.025070	36419.054747
491.392861	36038.331685
491.760593	35248.130820
492.128267	34250.569653
492.495883	33316.239678
492.863440	32484.782010
493.230939	31597.354931
493.598380	31091.712077
493.965763	30985.459677
494.333088	30532.365811
494.700354	30353.815703
495.067563	30331.707723
495.434713	30247.250752
495.801805	30541.578519
496.168839	30413.306360
496.535815	30280.421544
496.902733	30429.014595
497.269593	30258.457237
497.636395	30408.030792
498.003139	30703.311338
498.369825	30476.348509
498.736453	30890.685985
499.103023	30742.884395
499.469535	30844.020024
499.835989	30982.452629
500.202385	30852.393380
500.568723	30937.888829
500.935003	31251.110841
501.301226	31161.297644
501.667390	31844.467251
502.033497	32054.597667
502.399546	31856.729858
502.765537	31475.323720
503.131470	31946.059104
503.497345	32374.443755
503.863163	31372.148945
504.228923	32136.581952
504.594625	32547.418347
504.960269	32043.696172
505.325856	32718.010993
505.691385	32410.790474
506.056856	32723.896540
506.422270	33229.957810
506.787625	32765.125617
507.152924	33228.049733
507.518164	33441.043524
507.883347	33021.526263
508.248472	33167.520599
508.613540	33853.760269
508.978550	34106.460708
509.343503	33962.855879
509.708398	34335.684494
510.073236	34935.551555
510.438016	35052.584462
510.802738	34746.077267
511.167403	35311.480480
511.532010	35556.409981
511.896561	36053.412297
512.261053	36797.864691
512.625488	36591.101766
512.989866	36531.704371
513.354186	36595.200224
513.718449	36557.356283
514.082655	37449.907694
514.446803	37158.861718
514.810894	37783.344733
515.174927	37784.252141
515.538904	37795.670354
515.902822	38448.091444
516.266684	38164.629884
516.630488	38521.440232
516.994235	38538.670896
517.357925	39136.965117
517.721558	39396.808872
518.085133	39773.224268
518.448651	39967.021345
518.812112	39846.366369
519.175516	40018.272235
519.538863	40478.733748
519.902152	40530.924814
520.265385	41075.261045
520.628560	41112.857970
520.991678	41055.502242
521.354739	41288.622840
521.717743	41658.714108
522.080690	41584.036976
522.443580	42252.274686
522.806413	42276.981381
523.169189	42430.948302
523.531908	42659.176460
523.894569	42516.849563
524.257174	42714.969430
524.619722	43060.482553
524.982213	43192.243191
525.344647	43230.997061
525.707025	43366.906569
526.069345	43812.158920
526.431608	43724.483173
526.793815	44107.870484
527.155964	43664.924461
527.518057	43911.575515
527.880093	43778.267243
528.242072	44413.568574
528.603995	44130.001150
528.965860	44071.364969
529.327669	44310.723995
529.689421	44365.133168
530.051117	44308.178212
530.412755	44585.910501
530.774337	44671.398388
531.135862	44586.195326
531.497331	44739.080919
531.858743	44737.780302
532.220098	45155.402089
532.581396	44870.529006
532.942638	44634.275331
533.303824	44889.897119
533.664953	44942.594821
534.026025	44633.625022
534.387040	45209.004678
534.747999	45277.526562
535.108902	45598.887516
535.469748	44934.894458
535.830537	45178.036870
536.191270	45427.165652
536.551947	45158.845197
536.912567	45449.928982
537.273131	45594.957937
537.633638	45218.406430
537.994089	45427.455518
538.354483	45162.910888
538.714821	45808.198745
539.075103	46099.428723
539.435328	45960.093751
539.795497	45714.781123
540.155609	45833.732189
540.515665	46423.022909
540.875665	45733.776190
541.235609	46015.745569
541.595496	46129.524411
541.955328	46712.521251
542.315102	46142.414642
542.674821	46022.082299
543.034483	45922.212001
543.394090	45935.767663
543.753640	45925.564368
544.113134	46973.249728
544.472571	46079.506083
544.831953	47216.603868
545.191278	46486.362486
545.550548	46171.176945
545.909761	46815.098649
546.268918	46959.124415
546.628019	47366.658853
546.987064	46807.932649
547.346053	46104.724455
547.704986	46993.762183
548.063863	46640.717576
548.422684	46851.566356
548.781449	46455.659339
549.140158	46984.307499
549.498811	46753.568846
549.857408	46132.259237
550.215949	46975.503123
550.574434	46815.854822
550.932864	46734.982112
551.291237	47461.223338
551.649555	47218.653097
552.007817	47401.830984
552.366022	47055.148313
552.724173	47137.687125
553.082267	47551.679282
553.440305	47896.277435
553.798288	47138.481107
554.156215	47547.742141
554.514086	47732.928927
554.871902	47352.306688
555.229661	47535.403917
555.587365	47212.288640
555.945014	47348.205710
556.302606	47357.667955
556.660143	47463.905232
557.017625	47693.817135
557.375050	47368.090541
557.732421	47779.214281
558.089735	47849.510651
558.446994	47721.036845
558.804197	48216.773832
559.161345	48066.590297
559.518437	47404.238135
559.875474	47660.807660
560.232455	47900.368332
560.589381	47959.193556
560.946251	47748.135568
561.303065	48416.751364
561.659825	48093.300851
562.016528	47919.433975
562.373177	47483.722007
562.729770	48120.152557
563.086307	47634.606262
563.442789	48190.643011
563.799216	48031.390441
564.155587	47912.028520
564.511904	47892.491529
564.868164	47948.319787
565.224370	48250.201723
565.580520	47981.520826
565.936615	48183.507258
566.292654	47835.599587
566.648638	48190.091005
567.004567	48136.175864
567.360441	48234.417871
567.716260	47951.372206
568.072023	48313.959717
568.427732	48240.207636
568.783385	47785.989592
569.138982	48195.802632
569.494525	48324.462961
569.850013	47905.066687
570.205445	48055.346004
570.560823	47836.509515
570.916145	47694.883339
571.271412	47927.580480
571.626625	47595.416333
571.981782	47661.606683
572.336884	47244.612519
572.691931	47584.532481
573.046923	47248.307684
573.401860	47083.472036
573.756743	47093.146010
574.111570	47256.252543
574.466342	47163.349119
574.821059	47309.771953
575.175722	46800.254972
575.530330	46906.615756
575.884882	46547.617547
576.239380	46446.991075
576.593823	46545.797690
576.948211	46463.465566
577.302544	46013.603079
577.656823	45999.308887
578.011047	46269.000535
578.365216	46094.193485
578.719330	45814.119580
579.073389	45784.079344
579.427394	45839.806779
579.781344	45779.176822
580.135239	45534.310336
580.489080	45599.933556
580.842866	45072.709522
581.196597	45554.406895
581.550273	45559.362350
581.903895	45493.908008
582.257463	45926.065963
582.610975	45357.703593
582.964434	45692.842021
583.317837	45211.041304
583.671186	45161.673284
584.024481	45431.387618
584.377721	44977.923227
584.730906	45182.354618
585.084037	45307.556715
585.437113	45028.596905
585.790135	45146.499411
586.143103	44694.948138
586.496016	44863.645310
586.848874	44962.164580
587.201679	44997.440054
587.554428	44486.390562
587.907124	44767.089570
588.259765	44530.281368
588.612352	44690.776583
588.964884	44133.847550
589.317362	44462.130009
589.669786	44447.324140
590.022155	44304.291482
590.374470	44774.225323
590.726731	44341.752297
591.078937	43692.262638
591.431090	44020.822360
591.783188	43557.232812
592.135232	43336.450438
592.487222	43596.465591
592.839157	43780.278663
593.191038	43408.937189
593.542866	43196.187894
593.894639	42607.693676
594.246358	42911.637444
594.598022	42891.629105
594.949633	42477.087462
595.301190	42450.366826
595.652692	42386.608833
596.004141	42864.159857
596.355535	41780.037038
596.706876	41792.352576
597.058162	41507.978567
597.409395	42026.032742
597.760573	42240.007038
598.111698	41833.871519
598.462768	41749.041503
598.813785	41759.272525
599.164748	41378.887220
599.515657	41648.989723
599.866511	41147.407518
600.217312	41838.111130
600.568060	40769.867945
600.918753	41607.737961
601.269392	41523.233099
601.619978	41227.632440
601.970510	41442.614967
602.320988	41581.874321
602.671412	41847.626308
603.021783	41720.332132
603.372100	41283.306943
603.722363	41381.765719
604.072572	41422.160485
604.422728	41424.693665
604.772830	41202.469521
605.122878	41353.575587
605.472872	41212.617363
605.822813	41471.462969
606.172701	41228.043294
606.522534	41555.723335
606.872314	41753.119797
607.222041	41578.716038
607.571714	41920.884355
607.921333	41403.687177
608.270899	41625.911320
608.620411	42009.429702
608.969870	41745.797521
609.319276	41768.548248
609.668627	41781.355299
610.017926	42197.817621
610.367171	42323.055006
610.716362	42367.833055
611.065500	42258.364400
611.414585	42480.757422
611.763616	42653.260666
612.112594	42556.752816
612.461518	42668.691637
612.810389	43056.832757
613.159207	42848.229811
613.507971	42836.546937
613.856682	43317.150380
614.205340	43161.305630
614.553945	43842.317623
614.902496	43154.963858
615.250994	43590.075929
615.599439	43651.925845
615.947830	43750.253551
616.296169	43764.890541
616.644454	43795.117300
616.992686	43938.437304
617.340864	44402.011729
617.688990	43927.550932
618.037063	44601.976658
618.385082	44433.128251
618.733048	44765.821720
619.080961	44631.104445
619.428821	44665.129713
619.776628	44681.271487
620.124382	44495.527653
620.472083	44610.770951
620.819731	44706.134458
621.167326	44263.891675
621.514868	44264.030307
621.862357	43727.563318
622.209793	43814.745032
622.557176	43380.492478
622.904506	43148.722910
623.251783	42777.751960
623.599007	42455.055099
623.946179	42379.047102
624.293297	42106.209774
624.640363	41575.194792
624.987376	41433.036774
625.334336	41219.506100
625.681243	40803.237863
626.028097	40713.520447
626.374899	40538.597450
626.721647	40503.972285
627.068343	40282.874839
627.414987	39999.257003
627.761577	39733.628525
628.108115	40066.047250
628.454600	39309.879215
628.801032	39542.377230
629.147412	39435.141805
629.493739	39344.141417
629.840014	38896.998632
630.186236	39323.576030
630.532405	38772.628326
630.878521	39010.114563
631.224585	38775.025394
631.570597	38431.042262
631.916556	38606.976010
632.262462	38485.506888
632.608316	38431.374978
632.954117	38289.791652
633.299866	38260.482383
633.645562	38167.526027
633.991206	37634.340828
634.336797	37236.127483
634.682336	37109.808771
635.027823	36881.144553
635.373257	36761.212982
635.718639	36444.182379
636.063968	36326.378175
636.409245	35681.619639
636.754470	35619.799970
637.099642	35400.366104
637.444762	34842.449005
637.789829	34975.117051
638.134845	34610.618943
638.479808	34515.018501
638.824719	34471.604084
639.169577	33949.275011
639.514383	34050.627409
639.859137	33654.813653
640.203839	33831.622042
640.548489	33531.290260
640.893086	33524.315824
641.237632	33243.077413
641.582125	33357.234342
641.926566	33154.320338
642.270955	33182.560881
642.615292	33110.704274
642.959576	32986.318844
643.303809	32995.806296
643.647990	33081.989862
643.992118	33043.538461
644.336195	32879.471589
644.680219	32974.517503
645.024192	33154.630368
645.368112	33695.667164
645.711981	33719.315217
646.055797	34454.096157
646.399562	34249.591669
646.743274	35113.325325
647.086935	35501.625241
647.430544	35463.521680
647.774101	35504.148339
648.117606	35805.372404
648.461059	35957.761444
648.804460	35540.038833
649.147810	35043.475097
649.491108	34688.194739
649.834354	34548.789191
650.177548	33707.758371
650.520690	33241.479367
650.863781	33219.283167
651.206820	33041.426218
651.549807	32638.872439
651.892742	32059.767370
652.235626	31945.817129
652.578458	31812.962560
652.921238	31150.108803
653.263967	31432.680599
653.606644	31142.526908
653.949269	31045.746836
654.291843	30659.939770
654.634365	31021.539215
654.976836	30549.548583
655.319255	30630.285183
655.661622	30511.273623
656.003938	30370.819515
656.346203	30185.524344
656.688416	30444.029672
657.030577	30204.731140
657.372687	30031.375941
657.714746	30189.194304
658.056753	30380.019621
658.398708	29759.617420
658.740612	29827.814149
659.082465	30027.711023
659.424266	29923.679251
659.766016	29946.314032
660.107715	29784.636666
660.449362	29895.526927
660.790958	29871.193278
661.132503	29793.514138
661.473996	29872.889626
661.815438	29934.419429
662.156829	30079.803786
662.498168	29873.113957
662.839456	29853.594610
663.180693	29979.631018
663.521879	30073.204915
663.863013	30023.529385
664.204097	30005.608083
664.545129	30415.955486
664.886110	30346.949652
665.227040	30447.142584
665.567918	30444.201071
665.908746	30521.524809
666.249522	30611.645517
666.590248	30630.138989
666.930922	30719.407742
667.271545	30733.336450
667.612118	30772.710382
667.952639	30597.215214
668.293109	30631.399278
668.633528	30491.968524
668.973896	30451.515785
669.314213	30439.263261
669.654480	30242.307901
669.994695	30239.273126
670.334859	30159.786733
670.674973	29999.296559
671.015035	30183.467553
671.355047	30106.947879
671.695008	30047.842870
672.034918	29954.926843
672.374777	30051.880835
672.714585	29916.798076
673.054342	30045.594516
673.394049	29898.528935
673.733705	30117.355341
674.073310	29846.761326
674.412864	29896.086496
674.752368	29590.370762
675.091820	29823.060341
675.431223	29410.010880
675.770574	29215.261025
676.109875	29060.694207
676.449125	28859.688279
676.788324	28748.246012
677.127473	28272.421582
677.466571	28182.016050
677.805619	27892.331185
678.144616	27827.227204
678.483562	27783.497715
678.822458	27461.955279
679.161303	27404.927226
679.500098	27325.846645
679.838842	27244.051404
680.177535	27330.418972
680.516179	27569.296568
680.854771	27700.812710
681.193314	28459.708010
681.531805	29455.124166
681.870247	30196.060355
682.208638	30929.911203
682.546978	31200.142255
682.885268	31348.357219
683.223508	30910.018810
683.561697	30634.297941
683.899836	30484.421917
684.237925	30066.205273
684.575963	29930.063872
684.913951	29558.372038
685.251889	29719.368847
685.589776	29751.735576
685.927614	29745.096376
686.265401	29930.089078
686.603137	30043.484793
686.940824	30530.780368
687.278460	30859.816479
687.616046	31031.089681
687.953582	31688.680474
688.291068	31614.177261
688.628504	31947.803343
688.965889	31942.946192
689.303224	31687.163087
689.640510	31416.841294
689.977745	30784.857042
690.314930	30057.405939
690.652065	29622.591297
690.989150	28962.295925
691.326185	28116.851575
691.663170	27481.623340
692.000105	26745.811484
692.336990	26123.576823
692.673825	25716.821243
693.010610	25222.740275
693.347345	24716.868048
693.684030	24082.887500
694.020665	23889.244177
694.357251	23205.343603
694.693786	23205.663716
695.030272	22982.446465
695.366707	22477.983241
695.703093	22195.955889
696.039429	22268.258638
696.375716	22027.417513
696.711952	22024.075228
697.048139	21879.860419
697.384276	21718.944268
697.720363	21833.880055
698.056400	21725.570864
698.392388	21567.505486
698.728326	21571.235939
699.064214	21402.783263
699.400053	21411.328019
699.735842	21030.355420
700.071581	20829.372178
700.407270	20582.227090
700.742910	20397.708256
701.078501	20157.900568
701.414042	19955.669640
701.749533	19651.965327
702.084974	19336.724332
702.420366	19566.432069
702.755709	19153.876641
703.091002	18852.776084
703.426246	18911.200536
703.761440	18848.302060
704.096584	18602.208052
704.431679	18528.844141
704.766725	18477.704155
705.101721	18413.729392
705.436668	18531.180715
705.771565	18250.834588
706.106413	18566.625068
706.441212	18649.453746
706.775961	18737.300893
707.110661	18816.086566
707.445311	19178.963943
707.779913	19057.182269
708.114465	19346.993163
708.448967	19650.876437
708.783421	20275.407343
709.117825	20639.300513
709.452180	20868.877180
709.786485	21311.901342
710.120742	22085.030339
710.454949	22187.002799
710.789107	22681.998737
711.123216	23403.571854
711.457275	23620.182673
711.791286	24178.578682
712.125247	24340.397200
712.459159	24075.345933
712.793023	24843.171638
713.126837	23820.185411
713.460602	24068.769748
713.794318	23742.546601
714.127985	23486.720646
714.461602	22589.319644
714.795171	22572.459505
715.128691	21592.123960
715.462162	21074.465516
715.795584	20654.302987
716.128957	20382.897346
716.462281	20004.137814
716.795556	19714.992352
717.128782	19235.981914
717.461960	18626.637484
717.795088	18593.575077
718.128167	18247.547756
718.461198	17792.573539
718.794180	17668.402358
719.127113	17320.489646
719.459997	17127.468906
719.792833	16763.870644
720.125619	16807.476625
720.458357	16469.036241
720.791046	16322.573078
721.123686	16172.263514
721.456278	15946.659276
721.788821	15945.272959
722.121315	15676.274469
722.453761	15780.868329
722.786158	15661.728220
723.118506	15749.852630
723.450805	15625.157169
723.783056	15795.064218
724.115259	15691.062694
724.447412	15678.913513
724.779518	15906.468677
725.111574	15948.801767
725.443582	16212.038218
725.775542	16162.927297
726.107453	16683.950712
726.439315	16598.099862
726.771129	17012.976741
727.102895	17431.400072
727.434612	17706.548769
727.766281	17878.263072
728.097901	18199.104788
728.429473	18289.742214
728.760996	18300.106826
729.092471	18428.063913
729.423897	18324.957194
729.755276	18186.549794
730.086606	18303.280232
730.417887	18881.346823
730.749120	19435.155382
731.080305	19646.871241
731.411442	20049.480472
731.742530	20169.139820
732.073570	20337.169040
732.404562	20668.917292
732.735506	20507.673466
733.066401	20312.850513
733.397249	19825.141564
733.728048	19202.536379
734.058798	18342.248352
734.389501	17569.593222
734.720156	17054.299079
735.050762	16477.800287
735.381320	16089.873416
735.711831	15807.291537
736.042293	15440.242605
736.372707	15467.777387
736.703073	15255.305356
737.033391	15456.707013
737.363661	15438.367296
737.693883	15561.429423
738.024056	15754.808084
738.354182	15969.530991
738.684260	16326.847976
739.014290	16610.009587
739.344272	16833.060481
739.674207	17187.793874
740.004093	17353.259667
740.333931	17417.236950
740.663722	17497.776944
740.993464	17552.135706
741.323159	17397.188281
741.652806	17096.165862
741.982405	16944.986699
742.311956	16584.587049
742.641460	16485.475443
742.970915	16142.840819
743.300323	15803.878676
743.629683	15584.366673
743.958996	15273.657676
744.288260	14954.633296
744.617477	14645.328261
744.946647	14618.705927
745.275768	14297.339931
745.604842	14096.812914
745.933869	13917.980502
746.262847	13890.980082
746.591778	13802.275938
746.920662	13680.837063
747.249498	13682.051981
747.578286	13846.761601
747.907027	14012.776879
748.235720	14285.563796
748.564365	14353.642058
748.892963	14267.355148
749.221514	14377.398496
749.550017	14242.451848
749.878473	14215.413620
750.206881	13991.558662
750.535242	13915.994287
750.863555	13838.973018
751.191821	13734.787491
751.520039	13754.800872
751.848210	13672.816587
752.176334	13719.873238
752.504411	13650.207012
752.832440	13474.870640
753.160421	13585.970109
753.488356	13484.670643
753.816243	13382.451167
754.144082	13222.918812
754.471875	13165.883197
754.799620	13137.178868
755.127318	13113.135084
755.454969	13097.663783
755.782572	13069.758476
756.110129	13080.463366
756.437638	12987.403666
756.765100	13001.264319
757.092515	13020.486238
757.419882	13056.447309
757.747203	13069.541706
758.074477	13154.278461
758.401703	13140.841266
758.728882	13328.228516
759.056014	13372.124363
759.383099	13540.077965
759.710138	13662.736800
760.037129	13785.317497
760.364073	13845.801261
760.690970	13875.493657
761.017820	13890.753230
761.344623	14113.181540
761.671379	14500.465664
761.998088	15188.996538
762.324751	16942.977799
762.651366	20322.103551
762.977935	24777.966833
763.304456	27771.439275
763.630931	28865.737664
763.957359	27698.529067
764.283740	25453.070594
764.610074	23203.251524
764.936362	20574.975390
765.262602	18701.138176
765.588796	16758.968122
765.914943	15467.989116
766.241044	14361.755795
766.567097	13571.096185
766.893104	12846.657171
767.219064	12373.199564
767.544978	11895.215000
767.870845	11498.251861
768.196665	11280.322780
768.522438	11041.137674
768.848165	10839.771305
769.173846	10633.779676
769.499479	10500.552062
769.825066	10337.896713
770.150607	10106.767371
770.476101	10027.654023
770.801548	9898.645855
771.126949	9732.149146
771.452303	9625.712744
771.777611	9430.219319
772.102872	9417.324047
772.428087	9276.229713
772.753256	9121.347823
773.078378	9029.271148
773.403453	8852.944189
773.728482	8734.935819
774.053465	8661.415631
774.378401	8555.445536
774.703291	8433.789891
775.028135	8313.802868
775.352932	8280.080069
775.677683	8171.276845
776.002388	8063.456647
776.327046	8069.969818
776.651658	7979.690314
776.976224	7873.715178
777.300743	7875.814818
777.625216	7787.803834
777.949643	7737.717450
778.274024	7755.522805
778.598359	7669.157758
778.922647	7687.832712
779.246889	7632.937067
779.571086	7638.825135
779.895236	7647.385014
780.219339	7658.737693
780.543397	7657.931108
780.867409	7738.506391
781.191374	7743.098882
781.515294	7710.888429
781.839167	7812.767628
782.162995	7783.476003
782.486776	7730.894248
782.810511	7684.281219
783.134201	7591.213957
783.457844	7590.989626
783.781441	7539.441308
784.104993	7469.384393
784.428498	7450.951413
784.751958	7431.099350
785.075372	7407.075731
785.398739	7351.655806
785.722061	7398.808239
786.045337	7397.018629
786.368568	7553.130561
786.691752	7576.934889
787.014891	7914.649347
787.337983	8263.434179
787.661030	8856.904015
787.984031	9480.159509
788.306987	9889.813753
788.629897	10095.888561
788.952760	10048.219410
789.275579	9835.006329
789.598351	9443.066699
789.921078	9085.059077
790.243759	8678.726953
790.566395	8379.988176
790.888984	8127.849826
791.211529	7929.215761
791.534027	7697.957870
791.856480	7501.743559
792.178888	7427.847805
792.501249	7327.543967
792.823566	7166.148906
793.145836	7164.185377
793.468062	7139.423229
793.790241	7088.787359
794.112375	7152.736917
794.434464	7306.693755
794.756507	7348.656320
795.078505	7505.486616
795.400457	7813.377607
795.722364	8160.851739
796.044226	8446.264226
796.366042	8728.556238
796.687812	8677.597735
797.009538	8759.173686
797.331218	8658.353130
797.652852	8571.292403
797.974442	8423.037110
798.295986	8335.131989
798.617484	8150.167014
798.938938	8001.601689
799.260346	7906.379334
799.581709	7699.298817
799.903026	7621.181097
800.224299	7512.624890
800.545526	7343.842018
800.866708	7245.579847
801.187845	7179.888571
801.508936	7075.622386
801.829983	7033.506066
802.150984	6876.542180
802.471940	6835.252609
802.792851	6819.380536
803.113717	6786.640763
803.434538	6751.897130
803.755314	6693.429828
804.076045	6693.245826
804.396731	6643.867724
804.717372	6676.209246
805.037967	6671.697414
805.358518	6714.789197
805.679024	6797.675848
805.999485	6809.903167
806.319901	6843.121850
806.640272	6865.565067
806.960598	6948.887778
807.280879	6949.326359
807.601115	7032.888525
807.921306	6978.514640
808.241453	6987.986968
808.561554	7014.064857
808.881611	6976.450287
809.201623	6989.741289
809.521590	6935.259019
809.841513	6912.296563
810.161390	6955.660569
810.481223	6828.323543
810.801011	6813.434495
811.120755	6791.893645
811.440453	6715.666358
811.760107	6678.853332
812.079716	6649.329814
812.399281	6581.919505
812.718801	6576.407003
813.038276	6525.604775
813.357707	6469.418595
813.677093	6508.588360
813.996434	6417.116624
814.315731	6455.951152
814.634983	6446.882117
814.954191	6459.527851
815.273354	6567.509367
815.592473	6632.454552
815.911547	6759.262256
816.230577	6842.035482
816.549562	6989.315312
816.868502	7087.005312
817.187399	7187.997267
817.506250	7342.019641
817.825058	7380.224025
818.143821	7649.522463
818.462539	7914.079697
818.781213	8284.201212
819.099843	8823.067791
819.418429	9821.760697
819.736970	10787.378593
820.055466	11970.280302
820.373919	13517.544008
820.692327	15863.664240
821.010691	19998.698409
821.329011	28958.643609
821.647286	41944.469394
821.965517	55446.128725
822.283704	60877.339330
822.601847	62909.519186
822.919945	60274.220725
823.237999	56168.470619
823.556010	50077.771227
823.873976	43378.324782
824.191897	36809.131670
824.509775	31933.662907
824.827609	27362.662192
825.145398	24729.579318
825.463144	23333.504857
825.780845	23613.200675
826.098502	25349.835325
826.416116	29110.074829
826.733685	32732.521954
827.051210	33878.807242
827.368692	32138.583290
827.686129	28188.025105
828.003522	24096.304531
828.320872	20377.543641
828.638177	17523.138989
828.955439	15359.647158
829.272656	13534.278118
829.589830	12053.691233
829.906960	10767.287074
830.224046	9828.881327
830.541088	9064.498731
830.858086	8605.990665
831.175041	8221.751398
831.491952	8100.758665
831.808819	8141.768451
832.125642	8532.702370
832.442421	9415.544520
832.759157	11198.653568
833.075849	14112.359832
833.392497	17324.053742
833.709101	19521.439771
834.025662	19387.692918
834.342179	17715.920274
834.658653	15525.112951
834.975083	13597.416049
835.291469	11968.538583
835.607811	10645.850719
835.924110	9737.976720
836.240366	8862.025828
836.556578	8057.112355
836.872746	7405.762510
837.188871	6906.131232
837.504952	6485.615822
837.820990	6169.154869
838.136984	5946.610612
838.452935	5850.337176
838.768842	5876.475559
839.084706	6297.079189
839.400526	7493.612178
839.716303	9074.157582
840.032037	10186.475575
840.347727	10116.912693
840.663373	9156.431733
840.978977	8115.660316
841.294537	7295.973741
841.610054	6698.304624
841.925527	6259.361276
842.240957	5897.567747
842.556344	5561.668104
842.871687	5272.610863
843.186987	4991.001927
843.502244	4764.535652
843.817458	4601.131692
844.132629	4464.135815
844.447756	4367.668295
844.762840	4287.468579
845.077881	4211.296744
845.392879	4149.083864
845.707833	4099.909929
846.022745	4056.155234
846.337613	4028.809495
846.652438	3983.340808
846.967221	3964.766677
847.281960	3928.994649
847.596656	3913.450251
847.911309	3896.378384
848.225919	3869.947614
848.540485	3853.407588
848.855009	3841.243284
849.169490	3820.080520
849.483928	3808.332111
849.798323	3799.346255
850.112675	3779.710960
850.426984	3782.997793
850.741251	3769.994136
851.055474	3766.175462
851.369654	3770.311729
851.683792	3764.675719
851.997887	3770.505813
852.311938	3773.525465
852.625947	3776.976134
852.939914	3764.895009
853.253837	3778.977473
853.567718	3776.789612
853.881555	3763.496089
854.195350	3778.964870
854.509103	3772.421452
854.822812	3774.059827
855.136479	3764.895009
855.450103	3774.596710
855.763685	3762.354268
856.077224	3766.493055
856.390720	3781.719860
856.704173	3802.018066
857.017584	3813.461485
857.330953	3826.132426
857.644278	3847.905169
857.957561	3855.938248
858.270802	3848.928523
858.584000	3852.696786
858.897155	3850.050180
859.210268	3832.544773
859.523339	3808.828665
859.836367	3812.307061
860.149352	3801.798776
860.462295	3794.784010
860.775195	3781.689613
861.088054	3781.210704
861.400869	3774.586628
861.713642	3776.396402
862.026373	3787.186992
862.339062	3795.885503
862.651708	3813.466527
862.964312	3843.229499
863.276873	3857.929503
863.589392	3914.869336
863.901869	3962.296512
864.214303	4006.119262
864.526696	4039.348027
864.839045	4085.724122
865.151353	4112.779995
865.463619	4123.888178
865.775842	4126.809526
866.088023	4147.528668
866.400162	4136.322183
866.712258	4146.162516
867.024313	4145.981034
867.336325	4144.972803
867.648296	4156.080986
867.960224	4151.677538
868.272110	4162.407634
868.583954	4166.458201
868.895755	4184.618958
869.207515	4180.865819
869.519233	4220.895101
869.830909	4231.514292
870.142542	4254.212087
870.454134	4271.964510
870.765684	4300.835198
871.077191	4336.022452
871.388657	4363.146380
871.700081	4399.818254
872.011463	4439.834933
872.322803	4477.547805
872.634101	4512.941746
872.945357	4547.725708
873.256571	4602.349130
873.567744	4634.872134
873.878874	4650.076254
874.189963	4691.958160
874.501010	4695.973439
874.812015	4697.246331
875.122979	4742.165532
875.433900	4741.439606
875.744780	4753.412346
876.055618	4779.787663
876.366415	4779.379330
876.677169	4801.469666
876.987882	4846.472046
877.298554	4901.778545
877.609183	4983.518334
877.919771	5086.965332
878.230317	5240.609619
878.540822	5456.176919
878.851285	5774.646772
879.161707	6241.162711
879.472087	6999.788309
879.782425	8237.804953
880.092722	10419.875957
880.402977	13737.396288
880.713191	17518.448196
881.023363	21261.094072
881.333494	23502.249920
881.643583	24740.753035
881.953631	24759.301961
882.263637	23918.016563
882.573602	22449.142799
882.883526	20898.234339
883.193408	19222.499348
883.503248	17515.181528
883.813048	15950.306551
884.122806	14513.749104
884.432522	13043.015155
884.742197	11747.158832
885.051831	10652.245423
885.361424	9631.220205
885.670975	8800.904358
885.980485	8106.664377
886.289954	7523.004625
886.599382	7040.964453
886.908768	6658.507235
887.218113	6288.748682
887.527417	6000.198077
887.836680	5732.346450
888.145901	5510.724724
888.455082	5343.960834
888.764221	5191.682700
889.073319	5056.778903
889.382376	4980.768385
889.691392	4920.072892
890.000366	4891.970980
890.309300	4877.807859
890.618193	4878.122931
890.927044	4864.083317
891.235855	4888.606010
891.544625	4918.603396
891.853353	4977.458867
892.162041	5098.691056
892.470687	5279.723931
892.779293	5531.970667
893.087858	5912.880252
893.396381	6488.244784
893.704864	7290.491487
894.013306	8437.459851
894.321707	9618.970201
894.630068	10436.141240
894.938387	10650.483539
895.246665	10417.463765
895.554903	9818.282301
895.863100	9118.474365
896.171256	8558.923932
896.479371	8057.802993
896.787446	7558.118783
897.095480	7121.844726
897.403473	6800.130890
897.711425	6484.431151
898.019336	6215.727569
898.327207	5938.484272
898.635038	5711.864242
898.942827	5462.070028
899.250576	5269.374443
899.558284	5073.245832
899.865952	4950.511379
900.173579	4805.464780
900.481165	4694.367832
900.788711	4598.863172
901.096216	4527.493037
901.403681	4459.671873
901.711105	4436.031382
902.018489	4418.404988
902.325832	4491.799147
902.633135	4612.033187
902.940397	4953.072286
903.247619	5746.055868
903.554800	7184.755805
903.861941	9107.774516
904.169041	10642.359720
904.476101	11292.313165
904.783121	10954.734818
905.090100	10215.200069
905.397039	9377.014981
905.703938	8614.056511
906.010796	7916.323010
906.317614	7362.171653
906.624391	6822.851371
906.931129	6393.355145
907.237826	5984.681406
907.544483	5606.098314
907.851099	5233.768773
908.157675	4874.740317
908.464211	4548.313002
908.770707	4311.096467
909.077163	4107.799335
909.383578	3962.709886
909.689954	3840.282944
909.996289	3770.387346
910.302584	3705.384188
910.608839	3670.771626
910.915054	3639.907161
911.221229	3627.689925
911.527363	3636.010349
911.833458	3649.439983
912.139513	3674.696164
912.445527	3709.149930
912.751502	3788.638844
913.057436	3892.597518
913.363331	4028.983415
913.669186	4236.726845
913.975000	4495.010362
914.280775	4917.892593
914.586510	5503.498230
914.892205	6298.296628
915.197859	7335.110739
915.503475	8567.864418
915.809050	9628.129978
916.114585	10276.727352
916.420081	10536.767712
916.725536	10509.366520
917.030952	10068.041227
917.336328	9658.485286
917.641665	9253.103420
917.946961	8771.985779
918.252218	8351.218311
918.557435	7839.563881
918.862612	7404.217397
919.167750	7028.036414
919.472848	6596.493481
919.777906	6225.792232
920.082925	5861.261357
920.387904	5491.016333
920.692843	5225.433225
920.997743	4977.577334
921.302603	4740.267538
921.607423	4578.935491
921.912204	4407.843771
922.216946	4294.342192
922.521647	4171.484232
922.826310	4065.153694
923.130932	3965.991677
923.435516	3868.558776
923.740059	3799.157211
924.044564	3719.350705
924.349028	3664.694515
924.653454	3594.181375
924.957840	3528.137219
925.262186	3480.170640
925.566493	3418.545055
925.870761	3362.706714
926.174989	3323.373111
926.479178	3286.978501
926.783328	3245.116760
927.087438	3213.969991
927.391509	3182.750125
927.695541	3150.262409
927.999533	3125.903553
928.303486	3104.428238
928.607400	3087.739498
928.911275	3073.616706
929.215110	3056.315466
929.518906	3047.732901
929.822663	3050.417316
930.126381	3043.679814
930.430060	3052.761452
930.733699	3051.639796
931.037299	3062.722772
931.340861	3060.608008
931.644383	3068.265521
931.947866	3064.605643
932.251309	3058.687329
932.554714	3061.281002
932.858080	3054.367060
933.161407	3046.523024
933.464694	3038.550440
933.767943	3028.518543
934.071153	3027.830426
934.374323	3017.256606
934.677455	3010.307375
934.980548	3004.903258
935.283602	2998.425376
935.586617	2994.768018
935.889593	3006.614730
936.192530	3010.511542
936.495428	3024.541073
936.798287	3044.093188
937.101108	3075.771799
937.403890	3130.417907
937.706632	3193.190354
938.009336	3271.529885
938.312002	3341.513703
938.614628	3405.740524
938.917216	3453.316413
939.219765	3486.600632
939.522275	3520.590612
939.824747	3524.326107
940.127179	3526.786190
940.429573	3521.127494
940.731929	3519.496681
941.034246	3506.243488
941.336524	3494.510202
941.638763	3474.378354
941.940964	3464.989205
942.243126	3419.623862
942.545250	3396.610994
942.847335	3360.405428
943.149381	3323.199192
943.451389	3293.756333
943.753359	3259.536980
944.055290	3232.481107
944.357182	3210.867160
944.659036	3195.935263
944.960851	3187.579550
945.262628	3167.336797
945.564367	3172.168743
945.866067	3165.282527
946.167729	3161.289933
946.469352	3159.013852
946.770937	3156.843635
947.072484	3139.310502
947.373992	3143.613127
947.675462	3137.946870
947.976893	3121.472379
948.278286	3109.141717
948.579641	3106.336315
948.880958	3094.643358
949.182236	3101.527054
949.483476	3093.004983
949.784678	3092.286619
950.085841	3092.838625
950.386967	3104.408073
950.688054	3121.111937
950.989103	3142.511635
951.290114	3159.565858
951.591087	3189.119623
951.892021	3217.929817
952.192917	3243.012078
952.493776	3270.463681
952.794596	3276.223199
953.095378	3285.685445
953.396122	3280.329219
953.696828	3275.383847
953.997496	3261.233328
954.298126	3238.560739
954.598718	3218.381000
954.899272	3193.182793
955.199788	3164.773370
955.500266	3133.092239
955.800706	3100.055037
956.101108	3060.129099
956.401472	3028.092566
956.701798	2995.446054
957.002087	2953.682615
957.302337	2928.940632
957.602550	2898.781929
957.902724	2870.788401
958.202861	2845.391068
958.502960	2825.206288
958.803022	2803.536888
959.103045	2781.688528
959.403031	2762.806886
959.702979	2751.204670
960.002889	2738.253946
960.302762	2725.593088
960.602596	2713.448949
960.902393	2706.446786
961.202153	2696.848429
961.501875	2690.226873
961.801559	2679.832014
962.101205	2673.462516
962.400814	2668.340704
962.700385	2662.913902
962.999918	2657.698828
963.299414	2649.514515
963.598873	2645.645429
963.898293	2642.741725
964.197677	2641.796508
964.497022	2639.898514
964.796331	2637.947587
965.095601	2634.406177
965.394835	2632.724952
965.694030	2631.741927
965.993189	2630.469036
966.292309	2626.184055
966.591393	2625.185907
966.890439	2624.792697
967.189447	2625.546349
967.488419	2626.867131
967.787353	2627.963582
968.086249	2625.395114
968.385108	2629.624642
968.683930	2628.311422
968.982714	2636.853657
969.281462	2639.704430
969.580172	2646.479740
969.878844	2652.748415
970.177480	2661.797286
970.476078	2665.898265
970.774639	2674.972342
971.073162	2682.045081
971.371649	2691.477080
971.670098	2693.367512
971.968510	2697.218954
972.266885	2702.718853
972.565223	2706.696323
972.863524	2708.049873
973.161788	2711.341746
973.460014	2719.173179
973.758204	2720.940103
974.056356	2721.419013
974.354471	2722.228118
974.652550	2723.695094
974.950591	2722.565875
975.248595	2719.707541
975.546563	2717.887685
975.844493	2715.420040
976.142386	2708.929554
976.440243	2701.226671
976.738062	2700.720035
977.035845	2693.049920
977.333590	2687.754188
977.631299	2680.797395
977.928971	2677.775223
978.226606	2668.812052
978.524204	2666.977072
978.821765	2662.671927
979.119290	2665.948677
979.416777	2662.956752
979.714228	2669.298523
980.011642	2670.384892
980.309020	2679.670697
980.606360	2693.725434
980.903664	2716.526573
981.200931	2752.044022
981.498162	2802.798359
981.795356	2873.563557
982.092513	2962.575210
982.389633	3068.850295
982.686717	3167.664472
982.983764	3243.634660
983.280775	3293.552166
983.577749	3300.166160
983.874686	3292.511168
984.171587	3256.247627
984.468451	3216.770352
984.765279	3173.282838
985.062070	3124.620580
985.358824	3078.980493
985.655543	3022.736340
985.952224	2972.115594
986.248869	2905.668145
986.545478	2843.009123
986.842050	2790.618932
987.138586	2744.794843
987.435086	2708.148175
987.731549	2676.285562
988.027975	2650.021151
988.324366	2630.912657
988.620719	2618.448404
988.917037	2608.923144
989.213318	2594.964189
989.509563	2586.621080
989.805772	2586.845411
990.101944	2580.354925
990.398080	2577.841910
990.694180	2576.407702
990.990244	2577.698237
991.286271	2577.269739
991.582262	2580.372569
991.878217	2580.556572
992.174136	2581.219483
992.470019	2584.196285
992.765865	2591.463108
993.061676	2593.603078
993.357450	2603.272011
993.653188	2608.938268
993.948890	2627.938377
994.244556	2647.190543
994.540186	2670.858760
994.835780	2700.283975
995.131337	2738.400140
995.426859	2782.154834
995.722345	2827.729386
996.017795	2878.829042
996.313208	2918.487799
996.608586	2945.470575
996.903928	2958.383491
997.199234	2957.002214
997.494504	2955.562965
997.789738	2940.830193
998.084936	2914.354053
998.380099	2884.906153
998.675225	2854.087059
998.970316	2825.236535
999.265371	2790.533232
999.560390	2750.798857
999.855373	2720.781307
1000.150320	2693.203675
1000.445232	2669.043945
1000.740108	2649.983342
1001.034948	2628.200517
1001.329752	2613.843310
1001.624521	2600.448965
1001.919254	2587.112592
1002.213951	2582.966243
1002.508613	2571.364028
1002.803239	2563.048644
1003.097829	2562.473953
1003.392384	2554.266954
1003.686903	2548.499874
1003.981386	2547.501726
1004.275834	2541.895963
1004.570246	2541.800181
1004.864623	2537.641229
1005.158964	2533.341125
1005.453270	2536.396064
1005.747540	2532.259797
1006.041775	2531.969931
1006.335974	2528.287368
1006.630138	2528.773839
1006.924266	2528.625125
1007.218359	2527.170752
1007.512416	2523.246214
1007.806438	2522.558097
1008.100425	2522.830319
1008.394376	2517.600122
1008.688292	2526.606143
1008.982172	2519.737571
1009.276017	2521.935514
1009.569827	2520.178672
1009.863602	2520.554238
1010.157341	2520.219001
1010.451045	2519.956861
1010.744714	2517.431243
1011.038347	2516.901922
1011.331945	2515.596263
1011.625508	2514.774555
1011.919036	2512.138032
1012.212528	2514.030985
1012.505986	2514.033505
1012.799408	2512.140552
1013.092795	2511.112157
1013.386147	2511.475120
1013.679464	2511.601149
1013.972745	2512.921931
1014.265992	2509.998062
1014.559204	2513.186592
1014.852380	2508.765500
1015.145521	2511.507887
1015.438628	2513.763804
1015.731699	2510.267763
1016.024736	2512.324554
1016.317737	2513.544513
1016.610703	2512.538803
1016.903635	2513.927641
1017.196531	2515.528207
1017.489393	2518.873013
1017.782219	2518.212622
1018.075011	2518.530215
1018.367768	2521.444002
1018.660490	2521.628004
1018.953177	2521.628004
1019.245829	2521.628004
