Dividing Wavelength (nm)	Counts (n)	Blue Motor Position (mm): 36.500000	Red Motor Position (mm): 0.000000	
326.493990	2128.828858
326.888308	2128.828858
327.282561	2128.828858
327.676750	2094.443147
328.070874	2098.218972
328.464933	2098.849116
328.858929	2104.643922
329.252859	2113.155910
329.646726	2126.653600
330.040528	2139.397637
330.434265	2155.892292
330.827938	2170.584735
331.221547	2190.978723
331.615091	2212.164172
332.008571	2230.418190
332.401986	2251.200347
332.795338	2269.885383
333.188625	2289.276182
333.581847	2306.937864
333.975006	2324.907057
334.368100	2341.749552
334.761129	2359.592716
335.154095	2378.227341
335.546996	2404.121228
335.939833	2424.114444
336.332606	2438.819490
336.725315	2452.158383
337.117960	2462.454940
337.510540	2469.079016
337.903056	2478.090078
338.295508	2488.482417
338.687896	2494.534322
339.080220	2505.758451
339.472480	2511.636437
339.864676	2517.849659
340.256807	2518.154649
340.648875	2522.941224
341.040879	2526.585978
341.432818	2526.338962
341.824694	2531.760723
342.216506	2527.818541
342.608253	2529.124199
342.999937	2529.151926
343.391557	2527.337110
343.783113	2526.021369
344.174605	2529.890455
344.566033	2519.977026
344.957397	2522.056502
345.348697	2523.793179
345.739934	2520.100534
346.131106	2518.144566
346.522215	2516.216325
346.913260	2517.007786
347.304241	2514.197343
347.695159	2510.915552
348.086012	2511.160048
348.476802	2507.227948
348.867528	2507.389265
349.258191	2506.333143
349.648789	2505.645025
350.039324	2503.474809
350.429796	2503.066475
350.820203	2498.836947
351.210548	2497.869046
351.600828	2498.423573
351.991045	2496.190341
352.381198	2500.495487
352.771288	2497.586741
353.161314	2495.905516
353.551276	2498.423573
353.941175	2497.183449
354.331010	2496.911226
354.720782	2495.109014
355.110490	2496.016422
355.500135	2496.699498
355.889717	2495.441730
356.279235	2495.716473
356.668689	2496.197903
357.058080	2497.501041
357.447408	2496.281082
357.836672	2494.204127
358.225873	2492.744713
358.615010	2493.402583
359.004084	2498.501710
359.393095	2499.567914
359.782043	2502.433810
360.170927	2502.232164
360.559748	2502.317864
360.948505	2499.782163
361.337199	2499.298213
361.725830	2501.544047
362.114398	2503.729387
362.502903	2501.889366
362.891344	2503.313492
363.279722	2501.730569
363.668037	2503.258039
364.056289	2504.087309
364.444478	2505.347597
364.832603	2505.995386
365.220665	2505.970180
365.608665	2505.052690
365.996601	2506.859943
366.384474	2506.343225
366.772284	2509.675428
367.160031	2509.279697
367.547715	2507.669049
367.935336	2508.364728
368.322893	2507.719460
368.710388	2510.923113
369.097820	2509.877074
369.485189	2510.570233
369.872495	2510.983607
370.259738	2512.140552
370.646918	2512.344719
371.034035	2511.094513
371.421090	2513.105933
371.808081	2509.297341
372.195010	2513.783968
372.581875	2512.125429
372.968678	2515.044257
373.355418	2512.173320
373.742096	2514.822446
374.128710	2514.867816
374.515262	2514.353619
374.901751	2512.289266
375.288177	2515.979391
375.674540	2514.104082
376.060841	2516.342354
376.447079	2516.448218
376.833254	2517.574916
377.219367	2512.458145
377.605417	2515.122395
377.991404	2515.397137
378.377329	2515.233300
378.763191	2512.788340
379.148991	2515.485358
379.534727	2519.447705
379.920402	2518.245389
380.306013	2517.988291
380.691563	2520.372756
381.077049	2517.196829
381.462474	2519.059536
381.847835	2519.611542
382.233134	2522.210257
382.618371	2519.704803
383.003545	2520.922242
383.388657	2518.436953
383.773706	2523.543642
384.158693	2520.377798
384.543618	2522.910977
384.928480	2522.381656
385.313280	2524.057840
385.698017	2526.391894
386.082692	2526.021369
386.467305	2525.174455
386.851856	2526.336441
387.236344	2523.838550
387.620770	2526.235618
388.005133	2524.176307
388.389435	2526.855680
388.773674	2524.713190
389.157851	2527.324507
389.541965	2527.780732
389.926018	2526.220495
390.310008	2528.375588
390.693936	2529.043541
391.077802	2528.355423
391.461606	2527.710156
391.845348	2528.262162
392.229027	2530.450023
392.612645	2528.904909
392.996200	2527.788294
393.379694	2532.244674
393.763125	2530.507996
394.146494	2529.280475
394.529801	2533.951104
394.913047	2533.071423
395.296230	2532.191742
395.679351	2532.922709
396.062410	2534.800539
396.445408	2535.481094
396.828343	2539.105684
397.211217	2534.016639
397.594028	2537.673996
397.976778	2541.187681
398.359466	2545.923845
398.742092	2542.669780
399.124656	2550.095399
399.507158	2554.672767
399.889598	2564.903789
400.271977	2568.871177
400.654294	2577.554564
401.036549	2585.380956
401.418742	2592.362954
401.800874	2608.499687
402.182944	2619.297839
402.564952	2637.098153
402.946898	2652.632469
403.328783	2664.983296
403.710606	2676.618279
404.092367	2709.715974
404.474067	2723.533777
404.855705	2744.436921
405.237282	2754.862027
405.618797	2789.928294
406.000250	2818.952737
406.381642	2853.020855
406.762972	2876.215203
407.144240	2902.595562
407.525447	2931.536826
407.906593	2969.272383
408.287677	3009.616737
408.668700	3025.244314
409.049661	3069.286355
409.430560	3113.668673
409.811399	3132.396560
410.192176	3212.528221
410.572891	3233.224678
410.953545	3299.707415
411.334138	3299.634318
411.714669	3358.938452
412.095139	3361.196889
412.475547	3455.395889
412.855894	3490.018534
413.236180	3535.235163
413.616405	3557.907753
413.996568	3635.551604
414.376670	3653.427536
414.756711	3671.353879
415.136691	3727.915625
415.516609	3808.833706
415.896466	3867.795042
416.276262	3932.026903
416.655997	3963.372798
417.035670	4113.775623
417.415283	4217.537693
417.794834	4224.464238
418.174324	4230.664857
418.553753	4213.131724
418.933121	4385.990369
419.312428	4474.583607
419.691674	4479.367662
420.070859	4608.781642
420.449983	4581.791305
420.829045	4707.656313
421.208047	4667.690046
421.586988	4765.415334
421.965867	4808.928053
422.344686	4955.464313
422.723444	4860.985528
423.102141	4741.633690
423.480777	5022.310013
423.859352	4853.050752
424.237866	5106.630873
424.616319	5120.562102
424.994712	5245.015587
425.373044	5154.874715
425.751314	5310.890865
426.129524	5154.630219
426.507673	5355.515159
426.885762	5445.918171
427.263789	5399.824381
427.641756	5306.850380
428.019662	5436.397952
428.397508	5454.707422
428.775292	5426.265232
429.153016	5533.503178
429.530679	5469.906501
429.908282	5564.128187
430.285824	5447.042348
430.663305	5722.581735
431.040726	5477.758098
431.418086	5483.515096
431.795385	5588.850006
432.172624	5610.148881
432.549802	5611.880517
432.926920	5625.136231
433.303977	5637.315659
433.680974	5678.138923
434.057910	5701.998704
434.434786	5707.954827
434.811601	5681.513975
435.188355	5916.953504
435.565050	5794.370286
435.941683	5772.844559
436.318257	5987.446479
436.694770	5975.057843
437.071222	6014.121744
437.447614	5943.326300
437.823946	5861.465523
438.200218	6011.820458
438.576429	5878.081167
438.952580	5980.812320
439.328670	6024.793867
439.704700	5932.414723
440.080670	5922.917189
440.456580	6192.361821
440.832429	6078.005766
441.208218	5920.517600
441.583947	6075.260858
441.959616	6081.519451
442.335224	6009.010014
442.710773	6146.010932
443.086261	6170.263923
443.461689	5965.414116
443.837057	6115.282578
444.212365	6271.991887
444.587612	6162.077089
444.962800	6314.324976
445.337927	6295.667666
445.712995	5909.003604
446.088002	6487.849053
446.462949	6309.596374
446.837837	6252.197796
447.212664	6420.244660
447.587431	6562.253964
447.962139	7102.390913
448.336786	8027.082201
448.711374	7769.169209
449.085901	6845.229053
449.460369	6766.428256
449.834776	6699.033070
450.209124	7094.587207
450.583412	7247.934066
450.957640	7388.468832
451.331808	7152.041237
451.705917	6711.514967
452.079965	6622.485670
452.453954	6844.966913
452.827883	6719.427058
453.201752	6809.769576
453.575562	6609.343382
453.949311	6815.829043
454.323001	6710.146294
454.696632	6776.651716
455.070202	6914.827222
455.443713	7071.002169
455.817164	7171.979001
456.190556	7249.736278
456.563888	7328.985737
456.937160	7369.604834
457.310373	7030.158740
457.683526	7053.408542
458.056619	6942.732530
458.429653	6931.049656
458.802628	6866.303596
459.175542	6974.408620
459.548398	7330.064544
459.921194	7489.233936
460.293930	7495.207703
460.666607	8023.220677
461.039224	8334.219541
461.411782	8456.520453
461.784280	8468.437741
462.156719	8360.335238
462.529099	8244.726457
462.901419	7833.370824
463.273680	7722.987198
463.645882	7741.130311
464.018024	7607.328006
464.390106	7767.747603
464.762130	8156.917119
465.134094	8624.902554
465.505999	9649.650663
465.877845	10867.974040
466.249631	11510.353151
466.621358	11136.438167
466.993026	10496.748512
467.364634	10245.961190
467.736184	9884.051714
468.107674	9553.359584
468.479105	9583.135159
468.850477	9345.888377
469.221790	9121.022668
469.593043	8792.039489
469.964238	8653.541349
470.335373	8665.004932
470.706449	8723.131957
471.077467	8708.686531
471.448425	10014.579790
471.819324	11083.576628
472.190164	11102.947262
472.560945	9857.119350
472.931667	9074.664218
473.302330	8939.979710
473.672934	8584.283457
474.043479	8938.308568
474.413965	8881.545175
474.784393	8766.228781
475.154761	8920.644365
475.525070	9003.702415
475.895321	8839.408691
476.265513	9011.347325
476.635645	9183.580867
477.005719	9175.383951
477.375734	9298.688053
477.745691	9534.971975
478.115588	9659.853959
478.485427	9907.949304
478.855207	10439.891858
479.224928	11257.965263
479.594591	11884.810059
479.964194	11688.903258
480.333739	11637.670012
480.703226	11545.598378
481.072653	11638.242183
481.442022	11881.808052
481.811333	12067.705641
482.180584	11874.460570
482.549777	11583.822927
482.918912	11401.184444
483.287988	11430.266860
483.657005	11438.751122
484.025964	11121.896959
484.394864	11253.198852
484.763706	11222.561240
485.132489	10984.772533
485.501213	10944.793663
485.869879	11026.714933
486.238487	10860.908863
486.607036	10972.325924
486.975527	10756.514128
487.343959	10949.144178
487.712333	10991.704120
488.080648	10930.224728
488.448905	10971.829371
488.817104	10911.600185
489.185244	11177.455516
489.553326	11331.112405
489.921350	11868.222142
490.289315	12925.125252
490.657222	13267.674176
491.025070	13179.885002
491.392861	13045.560937
491.760593	12666.597238
492.128267	12314.563383
492.495883	11992.302582
492.863440	11652.738021
493.230939	11317.244191
493.598380	11254.333112
493.965763	11127.452311
494.333088	11026.109995
494.700354	10947.110073
495.067563	11006.492345
495.434713	10827.662453
495.801805	10955.203645
496.168839	10881.328056
496.535815	10823.332102
496.902733	10818.215331
497.269593	10754.280897
497.636395	10856.770075
498.003139	10838.740389
498.369825	10710.846316
498.736453	10872.546366
499.103023	10796.664398
499.469535	10832.499440
499.835989	10812.806173
500.202385	10775.806624
500.568723	10627.715168
500.935003	10849.175577
501.301226	10654.909673
501.667390	10911.839640
502.033497	11010.482418
502.399546	10867.953875
502.765537	10780.159660
503.131470	10849.820845
503.497345	11022.001454
503.863163	10637.709256
504.228923	10949.983531
504.594625	11007.253559
504.960269	10750.643705
505.325856	10982.163736
505.691385	10770.843608
506.056856	10927.288256
506.422270	10947.193252
506.787625	10836.739051
507.152924	10958.296393
507.518164	10935.467528
507.883347	10856.878460
508.248472	10776.356110
508.613540	11013.260094
508.978550	10893.603266
509.343503	10877.453930
509.708398	10992.977011
510.073236	11100.998856
510.438016	11107.769125
510.802738	11060.730119
511.167403	11107.259969
511.532010	11012.864363
511.896561	11240.278375
512.261053	11305.926801
512.625488	11180.424755
512.989866	11164.237610
513.354186	11152.854685
513.718449	11049.090095
514.082655	11237.581357
514.446803	11141.917902
514.810894	11265.161510
515.174927	11126.950716
515.538904	11152.952987
515.902822	11299.907663
516.266684	11188.956908
516.630488	11135.447581
516.994235	11183.149499
517.357925	11248.913871
517.721558	11337.955772
518.085133	11346.989519
518.448651	11364.701613
518.812112	11243.164435
519.175516	11262.819894
519.538863	11380.077133
519.902152	11297.389607
520.265385	11455.432300
520.628560	11367.038188
520.991678	11357.094512
521.354739	11405.658468
521.717743	11347.130672
522.080690	11331.737508
522.443580	11457.622682
522.806413	11414.243553
523.169189	11445.110538
523.531908	11497.369659
523.894569	11324.077475
524.257174	11326.716519
524.619722	11445.050044
524.982213	11399.409958
525.344647	11443.542739
525.707025	11391.011395
526.069345	11491.166519
526.431608	11409.025959
526.793815	11515.943791
527.155964	11305.536111
527.518057	11357.160047
527.880093	11306.256996
528.242072	11369.349557
528.603995	11280.053079
528.965860	11202.832684
529.327669	11249.357493
529.689421	11204.181193
530.051117	11177.417707
530.412755	11280.776484
530.774337	11165.560913
531.135862	11149.502317
531.497331	11164.892960
531.858743	11029.157372
532.220098	11191.101919
532.581396	11057.435725
532.942638	11046.158664
533.303824	11003.359267
533.664953	11022.162771
534.026025	10936.790831
534.387040	11030.115192
534.747999	11033.505367
535.108902	11089.867988
535.469748	10856.051711
535.830537	10960.577515
536.191270	10930.111302
536.551947	10963.957609
536.912567	10954.613830
537.273131	10882.613551
537.633638	10861.970026
537.994089	10855.224962
538.354483	10799.474841
538.714821	10945.055803
539.075103	10953.966042
539.435328	10923.991341
539.795497	10744.775802
540.155609	10908.754454
540.515665	10991.721764
540.875665	10723.242513
541.235609	10793.896805
541.595496	10788.679210
541.955328	10942.318456
542.315102	10827.458286
542.674821	10778.344845
543.034483	10779.960535
543.394090	10782.707964
543.753640	10709.928826
544.113134	10935.021386
544.472571	10788.391865
544.831953	10936.183372
545.191278	10737.052754
545.550548	10766.805644
545.909761	10902.758001
546.268918	10879.616585
546.628019	10959.360077
546.987064	10821.582822
547.346053	10746.756975
547.704986	10847.610299
548.063863	10829.535242
548.422684	10825.527524
548.781449	10738.870090
549.140158	10845.402273
549.498811	10717.064579
549.857408	10575.894627
550.215949	10806.315687
550.574434	10660.815384
550.932864	10758.414643
551.291237	10817.539816
551.649555	10762.256003
552.007817	10779.060689
552.366022	10740.221119
552.724173	10731.268030
553.082267	10717.707326
553.440305	10845.729948
553.798288	10652.878088
554.156215	10808.803497
554.514086	10786.433376
554.871902	10635.697835
555.229661	10671.306025
555.587365	10646.374999
555.945014	10540.213340
556.302606	10667.946096
556.660143	10563.775693
557.017625	10716.477284
557.375050	10614.948446
557.732421	10744.523744
558.089735	10660.505353
558.446994	10654.559312
558.804197	10690.170023
559.161345	10692.768738
559.518437	10550.527541
559.875474	10638.268824
560.232455	10661.463172
560.589381	10615.445000
560.946251	10609.146078
561.303065	10720.106915
561.659825	10660.780096
562.016528	10589.329302
562.373177	10461.319282
562.729770	10584.320916
563.086307	10496.171300
563.442789	10589.740156
563.799216	10467.860180
564.155587	10519.600062
564.511904	10471.993926
564.868164	10465.314397
565.224370	10481.073044
565.580520	10401.314428
565.936615	10405.677547
566.292654	10274.020253
566.648638	10403.570345
567.004567	10364.834118
567.360441	10347.737045
567.716260	10263.035578
568.072023	10352.175781
568.427732	10304.504110
568.783385	10211.658659
569.138982	10287.346543
569.494525	10293.471545
569.850013	10175.241363
570.205445	10256.751780
570.560823	10155.550617
570.916145	10070.040044
571.271412	10145.561570
571.626625	10088.331871
571.981782	10057.512777
572.336884	10036.851608
572.691931	10043.067351
573.046923	9991.987859
573.401860	9947.388771
573.756743	9881.558864
574.111570	9921.280636
574.466342	9903.676926
574.821059	9936.391494
575.175722	9831.963992
575.530330	9833.030196
575.884882	9829.307304
576.239380	9754.400799
576.593823	9739.839426
576.948211	9749.773020
577.302544	9624.054205
577.656823	9647.548502
578.011047	9655.216097
578.365216	9625.488413
578.719330	9546.586794
579.073389	9553.941837
579.427394	9508.936936
579.781344	9479.612544
580.135239	9433.307026
580.489080	9438.612840
580.842866	9341.515176
581.196597	9338.009053
581.550273	9381.637719
581.903895	9353.694603
582.257463	9418.796064
582.610975	9293.205798
582.964434	9326.873144
583.317837	9239.336028
583.671186	9230.060305
584.024481	9227.479235
584.377721	9146.503180
584.730906	9119.573337
585.084037	9152.756732
585.437113	9082.775434
585.790135	9106.693188
586.143103	9006.139813
586.496016	8980.757604
586.848874	9034.203917
587.201679	9026.271661
587.554428	8915.383921
587.907124	8958.135426
588.259765	8930.933360
588.612352	8934.875542
588.964884	8806.880646
589.317362	8829.228081
589.669786	8817.835073
590.022155	8869.963124
590.374470	8885.210094
590.726731	8826.644489
591.078937	8675.845934
591.431090	8785.576730
591.783188	8660.593923
592.135232	8655.257862
592.487222	8655.837594
592.839157	8705.550933
593.191038	8637.208010
593.542866	8587.262778
593.894639	8491.485897
594.246358	8528.750106
594.598022	8553.040906
594.949633	8453.911656
595.301190	8422.044002
595.652692	8456.013818
596.004141	8567.375427
596.355535	8343.641457
596.706876	8322.324938
597.058162	8257.183148
597.409395	8337.125766
597.760573	8396.276144
598.111698	8307.115777
598.462768	8296.647821
598.813785	8259.030731
599.164748	8221.446408
599.515657	8216.672436
599.866511	8125.840926
600.217312	8255.232222
600.568060	8109.134542
600.918753	8217.531953
601.269392	8185.200512
601.619978	8092.440761
601.970510	8155.303949
602.320988	8151.265985
602.671412	8211.180099
603.021783	8148.092579
603.372100	8121.238352
603.722363	8127.930484
604.072572	8102.114735
604.422728	8110.125129
604.772830	8034.994292
605.122878	8045.754635
605.472872	8037.577884
605.822813	8070.070641
606.172701	8015.981581
606.522534	8088.788445
606.872314	8091.752643
607.222041	8056.951038
607.571714	8112.439018
607.921333	8073.236485
608.270899	8083.923732
608.620411	8167.811052
608.969870	8072.747493
609.319276	8064.739621
609.668627	8088.092766
610.017926	8116.396324
610.367171	8160.256883
610.716362	8143.643761
611.065500	8137.034808
611.414585	8159.425093
611.763616	8154.210019
612.112594	8129.856205
612.461518	8143.502608
612.810389	8207.406795
613.159207	8143.832804
613.507971	8091.954290
613.856682	8208.178092
614.205340	8164.801483
614.553945	8248.819874
614.902496	8142.038153
615.250994	8194.907254
615.599439	8183.980553
615.947830	8196.969086
616.296169	8165.615630
616.644454	8178.062238
616.992686	8176.885129
617.340864	8233.144406
617.688990	8135.199828
618.037063	8232.877225
618.385082	8176.033174
618.733048	8270.607741
619.080961	8206.484264
619.428821	8222.893220
619.776628	8224.163590
620.124382	8178.488216
620.472083	8158.757140
620.819731	8185.490379
621.167326	8079.837876
621.514868	8089.479083
621.862357	7973.535065
622.209793	7990.470822
622.557176	7930.551667
622.904506	7896.095380
623.251783	7825.877148
623.599007	7785.268134
623.946179	7787.264431
624.293297	7744.311279
624.640363	7662.009402
624.987376	7650.704614
625.334336	7595.579597
625.681243	7546.466155
626.028097	7531.322529
626.374899	7507.525763
626.721647	7500.921851
627.068343	7432.558764
627.414987	7400.025677
627.761577	7356.477670
628.108115	7396.882518
628.454600	7289.052237
628.801032	7343.937800
629.147412	7300.641850
629.493739	7295.366282
629.840014	7229.334729
630.186236	7281.755167
630.532405	7162.872156
630.878521	7213.543314
631.224585	7179.150042
631.570597	7097.614420
631.916556	7134.906355
632.262462	7131.173381
632.608316	7089.409942
632.954117	7068.209369
633.299866	7055.719911
633.645562	7046.113992
633.991206	6966.234389
634.336797	6911.182468
634.682336	6868.201591
635.027823	6832.681621
635.373257	6828.197514
635.718639	6752.378560
636.063968	6767.736436
636.409245	6668.269429
636.754470	6668.871847
637.099642	6622.863756
637.444762	6564.335960
637.789829	6575.159317
638.134845	6518.471542
638.479808	6504.714234
638.824719	6504.169789
639.169577	6437.745025
639.514383	6454.794208
639.859137	6384.439865
640.203839	6388.792901
640.548489	6379.244956
640.893086	6355.082705
641.237632	6325.481050
641.582125	6350.545667
641.926566	6317.929401
642.270955	6327.711760
642.615292	6327.205124
642.959576	6342.449574
643.303809	6327.799981
643.647990	6336.800961
643.992118	6325.723025
644.336195	6271.785200
644.680219	6299.647657
645.024192	6293.976359
645.368112	6384.306274
645.711981	6410.774852
646.055797	6477.655840
646.399562	6441.057063
646.743274	6563.781433
647.086935	6622.984744
647.430544	6613.265399
647.774101	6634.498739
648.117606	6641.707589
648.461059	6633.646784
648.804460	6593.919972
649.147810	6502.700293
649.491108	6476.813968
649.834354	6448.933866
650.177548	6363.151072
650.520690	6282.336335
650.863781	6260.651811
651.206820	6282.590913
651.549807	6201.682914
651.892742	6145.370705
652.235626	6146.114275
652.578458	6135.520291
652.921238	6042.561414
653.263967	6080.680098
653.606644	6018.895717
653.949269	6023.324371
654.291843	5964.055525
654.634365	6015.308936
654.976836	5969.051308
655.319255	5969.260516
655.661622	5942.360919
656.003938	5936.528304
656.346203	5904.368263
656.688416	5936.041833
657.030577	5884.964862
657.372687	5853.724832
657.714746	5845.273337
658.056753	5889.574997
658.398708	5827.180636
658.740612	5816.682433
659.082465	5860.568198
659.424266	5857.462847
659.766016	5857.430080
660.107715	5834.971739
660.449362	5849.472618
660.790958	5841.835270
661.132503	5826.563095
661.473996	5865.700093
661.815438	5849.656621
662.156829	5852.419173
662.498168	5837.015927
662.839456	5817.418442
663.180693	5848.179563
663.521879	5854.289441
663.863013	5840.723696
664.204097	5860.227920
664.545129	5902.099744
664.886110	5898.119753
665.227040	5930.506646
665.567918	5898.016409
665.908746	5922.924751
666.249522	5927.905411
666.590248	5918.198669
666.930922	5943.747237
667.271545	5959.853723
667.612118	5961.489578
667.952639	5936.457728
668.293109	5953.580007
668.633528	5910.067288
668.973896	5918.102887
669.314213	5905.255506
669.654480	5886.656169
669.994695	5879.941352
670.334859	5874.723758
670.674973	5863.658425
671.015035	5866.418457
671.355047	5866.869640
671.695008	5849.613771
672.034918	5827.730122
672.374777	5836.922666
672.714585	5819.124872
673.054342	5827.654505
673.394049	5820.362476
673.733705	5851.272310
674.073310	5837.215053
674.412864	5794.909690
674.752368	5792.000944
675.091820	5789.581190
675.431223	5727.043156
675.770574	5728.008537
676.109875	5682.355848
676.449125	5683.593451
676.788324	5654.122866
677.127473	5595.494247
677.466571	5584.660807
677.805619	5580.615281
678.144616	5562.504936
678.483562	5542.171442
678.822458	5509.628273
679.161303	5507.299260
679.500098	5493.635212
679.838842	5479.575434
680.177535	5479.633408
680.516179	5501.144011
680.854771	5508.796483
681.193314	5588.678607
681.531805	5701.073652
681.870247	5853.520665
682.208638	5949.804183
682.546978	5965.358663
682.885268	5942.040806
683.223508	5854.947312
683.561697	5805.997708
683.899836	5773.789776
684.237925	5732.369135
684.575963	5690.648546
684.913951	5652.272762
685.251889	5714.538574
685.589776	5679.258059
685.927614	5656.943391
686.265401	5725.215738
686.603137	5709.278130
686.940824	5784.764368
687.278460	5810.431403
687.616046	5822.678886
687.953582	5888.478546
688.291068	5864.659094
688.628504	5932.535710
688.965889	5890.822683
689.303224	5837.031051
689.640510	5792.157220
689.977745	5717.689295
690.314930	5620.238750
690.652065	5557.289862
690.989150	5469.576306
691.326185	5393.235592
691.663170	5341.034444
692.000105	5260.970839
692.336990	5186.611299
692.673825	5160.417464
693.010610	5091.457000
693.347345	5020.341443
693.684030	5010.075133
694.020665	4967.205160
694.357251	4876.083784
694.693786	4887.388572
695.030272	4854.938664
695.366707	4818.372655
695.703093	4781.282365
696.039429	4808.963341
696.375716	4788.813849
696.711952	4763.262761
697.048139	4753.866050
697.384276	4729.676073
697.720363	4738.036827
698.056400	4751.942850
698.392388	4700.581054
698.728326	4680.918033
699.064214	4663.213501
699.400053	4653.320237
699.735842	4616.746666
700.071581	4597.030713
700.407270	4566.408224
700.742910	4551.584711
701.078501	4501.967154
701.414042	4495.088500
701.749533	4467.097493
702.084974	4399.788007
702.420366	4460.236483
702.755709	4399.823295
703.091002	4348.227085
703.426246	4391.893560
703.761440	4345.562836
704.096584	4313.440603
704.431679	4333.741330
704.766725	4314.043021
705.101721	4306.874500
705.436668	4336.030014
705.771565	4279.559008
706.106413	4309.851302
706.441212	4343.715253
706.775961	4352.355790
707.110661	4331.800486
707.445311	4356.774362
707.779913	4381.934761
708.114465	4398.003438
708.448967	4417.782406
708.783421	4478.644256
709.117825	4521.055483
709.452180	4522.852655
709.786485	4569.097679
710.120742	4656.090351
710.454949	4637.730468
710.789107	4705.685222
711.123216	4782.429228
711.457275	4773.158546
711.791286	4846.250236
712.125247	4863.475858
712.459159	4763.010703
712.793023	4839.527857
713.126837	4797.502278
713.460602	4793.993635
713.794318	4710.945666
714.127985	4723.230958
714.461602	4637.957320
714.795171	4605.363740
715.128691	4539.853946
715.462162	4483.544257
715.795584	4434.037606
716.128957	4416.625461
716.462281	4362.753170
716.795556	4345.189790
717.128782	4301.112462
717.461960	4233.639138
717.795088	4241.853698
718.128167	4204.355075
718.461198	4144.249398
718.794180	4139.132627
719.127113	4116.064307
719.459997	4094.470524
719.792833	4054.085841
720.125619	4046.259449
720.458357	4005.872245
720.791046	4011.704860
721.123686	3986.521776
721.456278	3945.862350
721.788821	3960.711069
722.121315	3939.495373
722.453761	3909.984458
722.786158	3923.295625
723.118506	3946.515179
723.450805	3896.683374
723.783056	3922.365532
724.115259	3936.841205
724.447412	3937.867080
724.779518	3934.434054
725.111574	3938.207358
725.443582	3967.370433
725.775542	3954.553299
726.107453	4002.401411
726.439315	4001.778828
726.771129	4013.184439
727.102895	4059.159762
727.434612	4102.738017
727.766281	4114.307465
728.097901	4112.512814
728.429473	4117.624544
728.760996	4129.279692
729.092471	4121.649905
729.423897	4107.423769
729.755276	4111.121455
730.086606	4111.832258
730.417887	4147.939523
730.749120	4212.133576
731.080305	4280.904996
731.411442	4304.691681
731.742530	4272.496352
732.073570	4279.344759
732.404562	4337.665868
732.735506	4322.071059
733.066401	4290.485709
733.397249	4222.213363
733.728048	4145.998678
734.058798	4062.582706
734.389501	3989.659895
734.720156	3928.525822
735.050762	3884.110736
735.381320	3881.519583
735.711831	3828.438753
736.042293	3796.704690
736.372707	3821.529852
736.703073	3789.342085
737.033391	3777.462606
737.363661	3801.758447
737.693883	3826.649144
738.024056	3835.589630
738.354182	3832.272551
738.684260	3895.171027
739.014290	3916.603493
739.344272	3910.682658
739.674207	3953.807208
740.004093	3958.036737
740.333931	3954.286118
740.663722	3952.511632
740.993464	3950.167495
741.323159	3926.007766
741.652806	3897.426944
741.982405	3874.013305
742.311956	3836.963345
742.641460	3829.363805
742.970915	3803.359013
743.300323	3764.998353
743.629683	3731.981316
743.958996	3719.436404
744.288260	3697.938404
744.617477	3661.183351
744.946647	3648.078872
745.275768	3620.387814
745.604842	3619.916466
745.933869	3574.488108
746.262847	3564.698187
746.591778	3599.832509
746.920662	3573.913416
747.249498	3541.395453
747.578286	3586.042432
747.907027	3606.043210
748.235720	3602.766460
748.564365	3627.470635
748.892963	3627.039616
749.221514	3610.734004
749.550017	3589.127619
749.878473	3583.602514
750.206881	3554.182340
750.535242	3551.066907
750.863555	3552.150755
751.191821	3547.371741
751.520039	3529.460522
751.848210	3507.236595
752.176334	3539.106770
752.504411	3546.071124
752.832440	3506.324146
753.160421	3487.908811
753.488356	3500.431037
753.816243	3510.689785
754.144082	3466.735965
754.471875	3454.811116
754.799620	3472.298878
755.127318	3464.701859
755.454969	3466.771253
755.782572	3470.148826
756.110129	3448.587811
756.437638	3435.437961
756.765100	3452.020837
757.092515	3463.638176
757.419882	3467.603043
757.747203	3440.834517
758.074477	3443.249229
758.401703	3458.281950
758.728882	3481.229282
759.056014	3486.388903
759.383099	3491.394769
759.710138	3486.804798
760.037129	3503.037314
760.364073	3537.014691
760.690970	3516.146834
761.017820	3496.877024
761.344623	3513.815301
761.671379	3558.880696
761.998088	3612.962194
762.324751	3740.452975
762.651366	3987.499760
762.977935	4460.168427
763.304456	4906.416407
763.630931	5001.064070
763.957359	4639.061333
764.283740	4294.284219
764.610074	4102.785908
764.936362	3905.921288
765.262602	3746.018409
765.588796	3636.048158
765.914943	3544.405022
766.241044	3456.308338
766.567097	3432.196499
766.893104	3379.251781
767.219064	3350.267667
767.544978	3323.090807
767.870845	3265.924122
768.196665	3250.314189
768.522438	3256.706372
768.848165	3253.565733
769.173846	3216.349415
769.499479	3200.162270
769.825066	3181.910773
770.150607	3163.777742
770.476101	3181.099147
770.801548	3175.483302
771.126949	3130.286837
771.452303	3117.026082
771.777611	3122.858697
772.102872	3126.458080
772.428087	3102.089143
772.753256	3089.604725
773.078378	3082.020309
773.403453	3049.363715
773.728482	3036.702857
774.053465	3060.015673
774.378401	3050.361863
774.703291	3014.423477
775.028135	3017.601925
775.352932	3011.623116
775.677683	2998.722804
776.002388	2997.704491
776.327046	2998.475787
776.651658	2987.395331
776.976224	2974.815132
777.300743	2975.034422
777.625216	2965.380612
777.949643	2961.703090
778.274024	2962.970941
778.598359	2950.385700
778.922647	2956.152780
779.246889	2955.439457
779.571086	2942.778599
779.895236	2934.700150
780.219339	2945.389917
780.543397	2959.600929
780.867409	2963.512865
781.191374	2955.593212
781.515294	2948.969136
781.839167	2952.147583
782.162995	2944.898404
782.486776	2952.485341
782.810511	2950.045422
783.134201	2935.161415
783.457844	2941.351952
783.781441	2934.450613
784.104993	2912.624937
784.428498	2914.951430
784.751958	2927.609767
785.075372	2924.953079
785.398739	2907.752662
785.722061	2922.520722
786.045337	2935.201745
786.368568	2918.233221
786.691752	2912.204001
787.014891	2959.981536
787.337983	2988.383397
787.661030	3019.076462
787.984031	3082.224476
788.306987	3131.761374
788.629897	3122.036988
788.952760	3105.529730
789.275579	3094.459356
789.598351	3034.343597
789.921078	2987.917090
790.243759	2980.226810
790.566395	2961.856846
790.888984	2936.278031
791.211529	2919.264137
791.534027	2912.083013
791.856480	2902.222516
792.178888	2886.849518
792.501249	2876.220245
792.823566	2876.666387
793.145836	2873.215717
793.468062	2869.651621
793.790241	2866.543750
794.112375	2871.917620
794.434464	2884.933879
794.756507	2888.535783
795.078505	2893.768501
795.400457	2909.348187
795.722364	2945.778085
796.044226	2969.335397
796.366042	2971.404791
796.687812	2961.982874
797.009538	2980.342757
797.331218	2967.606282
797.652852	2954.368212
797.974442	2937.235850
798.295986	2932.403904
798.617484	2927.990374
798.938938	2912.574526
799.260346	2897.534243
799.581709	2889.649878
799.903026	2885.674929
800.224299	2877.926675
800.545526	2869.611292
800.866708	2853.882892
801.187845	2844.755883
801.508936	2845.481809
801.829983	2852.433560
802.150984	2837.884790
802.471940	2826.257369
802.792851	2827.356340
803.113717	2827.573110
803.434538	2831.646362
803.755314	2824.727379
804.076045	2816.595997
804.396731	2817.407623
804.717372	2816.797644
805.037967	2816.447283
805.358518	2818.917449
805.679024	2835.036538
805.999485	2826.368274
806.319901	2831.278358
806.640272	2823.209991
806.960598	2828.435147
807.280879	2836.342197
807.601115	2848.362828
807.921306	2831.759788
808.241453	2829.433296
808.561554	2835.444872
808.881611	2837.562156
809.201623	2834.353462
809.521590	2833.090653
809.841513	2826.522029
810.161390	2827.812565
810.481223	2821.110351
810.801011	2814.367807
811.120755	2812.179947
811.440453	2814.080462
811.760107	2814.995431
812.079716	2812.628609
812.399281	2802.450520
812.718801	2795.118162
813.038276	2790.243366
813.357707	2797.527833
813.677093	2800.794501
813.996434	2796.615384
814.315731	2794.702266
814.634983	2789.918211
814.954191	2787.745474
815.273354	2804.280459
815.592473	2812.285811
815.911547	2816.164979
816.230577	2820.792758
816.549562	2832.125272
816.868502	2829.115703
817.187399	2841.247240
817.506250	2857.343644
817.825058	2849.925586
818.143821	2862.276413
818.462539	2877.760317
818.781213	2903.954153
819.099843	2944.043928
819.418429	2997.717093
819.736970	3063.453740
820.055466	3137.480563
820.373919	3237.451685
820.692327	3382.619272
821.010691	3551.074469
821.329011	3997.188858
821.647286	4905.100666
821.965517	6291.947294
822.283704	7047.744805
822.601847	7029.243771
822.919945	6391.857922
823.237999	5876.460436
823.556010	5286.206855
823.873976	4732.065580
824.191897	4321.491326
824.509775	4020.398330
824.827609	3750.487392
825.145398	3626.185141
825.463144	3614.774489
825.780845	3702.180535
826.098502	3809.882266
826.416116	4097.417079
826.733685	4418.422632
827.051210	4478.866067
827.368692	4363.559755
827.686129	4094.369701
828.003522	3768.259979
828.320872	3507.438241
828.638177	3310.765186
828.955439	3173.045904
829.272656	3088.490630
829.589830	3021.891947
829.906960	2973.443938
830.224046	2926.770415
830.541088	2893.957544
830.858086	2876.479864
831.175041	2859.428161
831.491952	2861.379088
831.808819	2874.087837
832.125642	2896.158008
832.442421	2943.547375
832.759157	3022.970754
833.075849	3204.613609
833.392497	3483.903614
833.709101	3688.849203
834.025662	3642.841113
834.342179	3481.693068
834.658653	3304.080616
834.975083	3152.364570
835.291469	3055.022410
835.607811	2969.468988
835.924110	2907.339287
836.240366	2855.891792
836.556578	2816.371666
836.872746	2791.768315
837.188871	2771.712084
837.504952	2752.328848
837.820990	2746.392889
838.136984	2733.038872
838.452935	2723.122923
838.768842	2721.696276
839.084706	2742.286869
839.400526	2819.378714
839.716303	2953.291925
840.032037	3036.682692
840.347727	3018.048067
840.663373	2956.977009
840.978977	2883.393807
841.294537	2811.191881
841.610054	2762.403594
841.925527	2737.475088
842.240957	2716.634958
842.556344	2695.288192
842.871687	2678.274298
843.186987	2671.100736
843.502244	2667.771054
843.817458	2663.425579
844.132629	2649.799340
844.447756	2642.048566
844.762840	2635.333749
845.077881	2633.536578
845.392879	2637.125879
845.707833	2631.764612
846.022745	2626.448716
846.337613	2628.054323
846.652438	2626.385701
846.967221	2625.480814
847.281960	2625.390073
847.596656	2620.457304
847.911309	2621.851183
848.225919	2618.690380
848.540485	2613.661829
848.855009	2614.269288
849.169490	2614.987652
849.483928	2616.331120
849.798323	2615.096037
850.112675	2612.953547
850.426984	2612.671242
850.741251	2612.101592
851.055474	2612.005810
851.369654	2617.707355
851.683792	2617.692231
851.997887	2611.368104
852.311938	2613.770214
852.625947	2614.443208
852.939914	2616.086624
853.253837	2614.657457
853.567718	2612.678804
853.881555	2614.836418
854.195350	2612.646036
854.509103	2615.658126
854.822812	2609.240737
855.136479	2608.817280
855.450103	2615.416150
855.763685	2616.575616
856.077224	2611.612600
856.390720	2608.744183
856.704173	2615.123763
857.017584	2615.090996
857.330953	2620.109465
857.644278	2621.621811
857.957561	2620.573251
858.270802	2614.952364
858.584000	2614.201232
858.897155	2620.328755
859.210268	2619.015534
859.523339	2612.746859
859.836367	2611.650408
860.149352	2609.976745
860.462295	2612.951026
860.775195	2608.494646
861.088054	2607.032712
861.400869	2608.413988
861.713642	2604.401229
862.026373	2607.065479
862.339062	2609.790223
862.651708	2615.446397
862.964312	2616.603342
863.276873	2614.576798
863.589392	2616.479834
863.901869	2622.221708
864.214303	2627.663634
864.526696	2627.086422
864.839045	2631.288223
865.151353	2635.424490
865.463619	2634.184366
865.775842	2632.477936
866.088023	2631.472225
866.400162	2633.405508
866.712258	2631.429376
867.024313	2631.568007
867.336325	2628.818058
867.648296	2628.341669
867.960224	2634.491877
868.272110	2632.525827
868.583954	2625.881586
868.895755	2628.656741
869.207515	2633.695374
869.519233	2638.978503
869.830909	2640.057310
870.142542	2629.549025
870.454134	2633.750827
870.765684	2638.517238
871.077191	2638.741569
871.388657	2645.068217
871.700081	2641.441107
872.011463	2642.771972
872.322803	2643.379431
872.634101	2646.676345
872.945357	2657.398880
873.256571	2661.257883
873.567744	2654.933755
873.878874	2658.054230
874.189963	2655.014414
874.501010	2662.825682
874.812015	2669.422032
875.122979	2667.755930
875.433900	2658.316370
875.744780	2654.941317
876.055618	2660.952893
876.366415	2667.093018
876.677169	2667.952535
876.987882	2660.582368
877.298554	2661.406597
877.609183	2671.456137
877.919771	2676.512414
878.230317	2688.381811
878.540822	2698.333049
878.851285	2712.677652
879.161707	2733.106928
879.472087	2774.668721
879.782425	2823.915753
880.092722	2941.233485
880.402977	3127.310035
880.713191	3392.898185
881.023363	3687.299049
881.333494	3889.419071
881.643583	4059.071542
881.953631	4056.860996
882.263637	3878.751989
882.573602	3655.539779
882.883526	3523.537166
883.193408	3405.611975
883.503248	3305.282931
883.813048	3186.394879
884.122806	3069.614030
884.432522	2984.968015
884.742197	2917.804723
885.051831	2876.593290
885.361424	2843.455265
885.670975	2808.860347
885.980485	2777.312806
886.289954	2759.212543
886.599382	2742.962384
886.908768	2731.481156
887.218113	2713.736294
887.527417	2700.316743
887.836680	2691.925742
888.145901	2683.998528
888.455082	2677.266067
888.764221	2665.414314
889.073319	2658.951555
889.382376	2659.064981
889.691392	2658.563386
890.000366	2656.378046
890.309300	2656.685556
890.618193	2659.828716
890.927044	2659.445588
891.235855	2661.472132
891.544625	2660.899961
891.853353	2659.828716
892.162041	2669.787515
892.470687	2687.872655
892.779293	2701.418235
893.087858	2711.102292
893.396381	2735.561970
893.704864	2776.322219
894.013306	2849.376100
894.321707	2941.314144
894.630068	2993.449757
894.938387	3014.161337
895.246665	3007.922909
895.554903	2960.276444
895.863100	2918.462593
896.171256	2858.477904
896.479371	2795.314767
896.787446	2757.251534
897.095480	2739.247053
897.403473	2731.075343
897.711425	2718.353991
898.019336	2696.823223
898.327207	2685.586491
898.635038	2682.266892
898.942827	2680.247909
899.250576	2674.269101
899.558284	2660.468942
899.865952	2655.631955
900.173579	2651.525935
900.481165	2649.759011
900.788711	2643.223155
901.096216	2635.442134
901.403681	2629.818727
901.711105	2634.244860
902.018489	2630.837040
902.325832	2634.585138
902.633135	2637.065386
902.940397	2651.087355
903.247619	2688.865762
903.554800	2759.290681
903.861941	2889.460835
904.169041	3017.614528
904.476101	3082.539548
904.783121	3076.331367
905.090100	3017.218797
905.397039	2937.195521
905.703938	2862.906557
906.010796	2801.681744
906.317614	2748.527818
906.624391	2710.245295
906.931129	2682.657581
907.237826	2661.535146
907.544483	2640.609317
907.851099	2629.291926
908.157675	2616.754577
908.464211	2612.588063
908.770707	2600.874942
909.077163	2595.541401
909.383578	2591.392532
909.689954	2592.811617
909.996289	2592.672985
910.302584	2587.878847
910.608839	2586.008579
910.915054	2587.407500
911.221229	2588.934969
911.527363	2591.178283
911.833458	2589.572675
912.139513	2587.515884
912.445527	2594.397059
912.751502	2599.428131
913.057436	2605.406939
913.363331	2609.558330
913.669186	2622.264558
913.975000	2633.092956
914.280775	2650.101809
914.586510	2671.231806
914.892205	2707.855788
915.197859	2776.554112
915.503475	2864.358410
915.809050	2927.403080
916.114585	2944.222889
916.420081	2959.401804
916.725536	2970.575521
917.030952	2942.213990
917.336328	2894.023079
917.641665	2843.798064
917.946961	2791.803603
918.252218	2757.705238
918.557435	2727.982595
918.862612	2708.488453
919.167750	2690.173941
919.472848	2676.474606
919.777906	2658.336534
920.082925	2647.913949
920.387904	2634.365848
920.692843	2628.870990
920.997743	2622.970319
921.302603	2619.174331
921.607423	2611.012702
921.912204	2608.141765
922.216946	2603.317381
922.521647	2601.018615
922.826310	2596.829416
923.130932	2592.163828
923.435516	2586.237952
923.740059	2584.536562
924.044564	2583.046902
924.349028	2581.249730
924.653454	2570.824624
924.957840	2572.510890
925.262186	2566.824468
925.566493	2568.730025
925.870761	2565.730538
926.174989	2566.993347
926.479178	2564.563511
926.783328	2565.332287
927.087438	2561.279199
927.391509	2561.788356
927.695541	2558.511606
927.999533	2559.890361
928.303486	2556.648899
928.607400	2554.541697
928.911275	2554.082952
929.215110	2555.882644
929.518906	2554.730740
929.822663	2556.840463
930.126381	2557.710062
930.430060	2556.250648
930.733699	2555.615463
931.037299	2557.334496
931.340861	2555.602860
931.644383	2556.212840
931.947866	2556.497665
932.251309	2553.528425
932.554714	2556.908519
932.858080	2558.932542
933.161407	2558.685526
933.464694	2554.377860
933.767943	2555.091183
934.071153	2550.171017
934.374323	2552.200081
934.677455	2553.583878
934.980548	2552.106820
935.283602	2555.232335
935.586617	2549.578681
935.889593	2553.203271
936.192530	2550.236552
936.495428	2553.989691
936.798287	2553.094886
937.101108	2555.660833
937.403890	2556.817778
937.706632	2559.986143
938.009336	2565.208779
938.312002	2568.818245
938.614628	2571.633729
938.917216	2572.946950
939.219765	2577.370562
939.522275	2576.523648
939.824747	2575.858216
940.127179	2570.630540
940.429573	2568.044428
940.731929	2569.612227
941.034246	2565.533933
941.336524	2564.692060
941.638763	2568.946794
941.940964	2563.383881
942.243126	2565.995199
942.545250	2563.711556
942.847335	2561.420352
943.149381	2560.749878
943.451389	2560.288613
943.753359	2558.143602
944.055290	2556.429609
944.357182	2555.078580
944.659036	2557.468087
944.960851	2555.474311
945.262628	2556.139743
945.564367	2557.296688
945.866067	2556.124619
946.167729	2555.829712
946.469352	2556.669064
946.770937	2553.793086
947.072484	2555.320555
947.373992	2553.858621
947.675462	2553.530946
947.976893	2555.446584
948.278286	2553.304094
948.579641	2550.266799
948.880958	2550.539021
949.182236	2555.761656
949.483476	2552.837787
949.784678	2555.020607
950.085841	2553.893909
950.386967	2553.142777
950.688054	2552.709238
950.989103	2554.375339
951.290114	2552.618497
951.591087	2559.149312
951.892021	2559.900444
952.192917	2558.602347
952.493776	2561.798438
952.794596	2559.900444
953.095378	2561.448078
953.396122	2561.816082
953.696828	2559.333314
953.997496	2558.388097
954.298126	2556.953889
954.598718	2555.764177
954.899272	2554.271995
955.199788	2550.246634
955.500266	2553.089845
955.800706	2547.166489
956.101108	2544.678680
956.401472	2545.833104
956.701798	2544.167002
957.002087	2543.093237
957.302337	2544.071221
957.602550	2545.492826
957.902724	2543.398227
958.202861	2541.943854
958.502960	2542.712630
958.803022	2543.927548
959.103045	2539.690458
959.403031	2539.461085
959.702979	2538.752803
960.002889	2542.821014
960.302762	2539.206507
960.602596	2539.143493
960.902393	2537.618544
961.202153	2541.452341
961.501875	2538.697351
961.801559	2537.648791
962.101205	2539.942516
962.400814	2538.702392
962.700385	2537.850437
962.999918	2538.868750
963.299414	2535.402957
963.598873	2538.712474
963.898293	2538.218441
964.197677	2538.780530
964.497022	2536.247350
964.796331	2534.011598
965.095601	2536.751465
965.394835	2536.824562
965.694030	2534.561084
965.993189	2537.676517
966.292309	2538.909079
966.591393	2535.458409
966.890439	2533.938501
967.189447	2535.647452
967.488419	2536.910262
967.787353	2534.593851
968.086249	2536.101156
968.385108	2536.965714
968.683930	2534.503111
968.982714	2538.699871
969.281462	2536.461599
969.580172	2536.602751
969.878844	2536.927906
970.177480	2538.629295
970.476078	2536.829603
970.774639	2540.796991
971.073162	2535.912113
971.371649	2534.951773
971.670098	2535.264325
971.968510	2535.460930
972.266885	2531.012112
972.565223	2541.893442
972.863524	2537.815149
973.161788	2539.481250
973.460014	2539.030067
973.758204	2535.649973
974.056356	2537.610982
974.354471	2538.967052
974.652550	2539.647608
974.950591	2537.278266
975.248595	2536.164171
975.546563	2537.830272
975.844493	2539.677855
976.142386	2538.178112
976.440243	2537.179963
976.738062	2536.244829
977.035845	2535.776002
977.333590	2536.126362
977.631299	2537.429500
977.928971	2539.655170
978.226606	2533.545291
978.524204	2535.995292
978.821765	2536.096115
979.119290	2534.430014
979.416777	2536.204500
979.714228	2537.772299
980.011642	2533.789787
980.309020	2539.766075
980.606360	2533.497400
980.903664	2538.127700
981.200931	2536.995961
981.498162	2537.439583
981.795356	2539.834131
982.092513	2545.875954
982.389633	2545.883515
982.686717	2546.803526
982.983764	2550.486089
983.280775	2554.277037
983.577749	2551.360729
983.874686	2550.677653
984.171587	2546.861499
984.468451	2545.583567
984.765279	2544.517363
985.062070	2538.757844
985.358824	2537.298430
985.655543	2539.135931
985.952224	2539.428318
986.248869	2539.065355
986.545478	2529.141843
986.842050	2535.072761
987.138586	2531.727955
987.435086	2532.405991
987.731549	2531.685106
988.027975	2536.910262
988.324366	2535.763399
988.620719	2535.178625
988.917037	2535.150899
989.213318	2534.684592
989.509563	2535.143337
989.805772	2534.450178
990.101944	2532.549663
990.398080	2534.571166
990.694180	2534.293903
990.990244	2533.260466
991.286271	2535.765920
991.582262	2532.733666
991.878217	2531.186031
992.174136	2534.059489
992.470019	2533.245343
992.765865	2534.639222
993.061676	2533.394057
993.357450	2532.499252
993.653188	2531.266690
993.948890	2536.121321
994.244556	2534.137627
994.540186	2536.905220
994.835780	2533.623429
995.131337	2536.703574
995.426859	2536.234747
995.722345	2534.480425
996.017795	2535.231557
996.313208	2539.319933
996.608586	2540.260108
996.903928	2537.406815
997.199234	2538.190715
997.494504	2537.731970
997.789738	2536.829603
998.084936	2536.474202
998.380099	2535.103008
998.675225	2536.020498
998.970316	2534.765251
999.265371	2534.989582
999.560390	2533.910775
999.855373	2533.794828
1000.150320	2533.411701
1000.445232	2533.179808
1000.740108	2530.502955
1001.034948	2534.150230
1001.329752	2533.404139
1001.624521	2535.065199
1001.919254	2530.538243
1002.213951	2528.874662
1002.508613	2530.104704
1002.803239	2530.361803
1003.097829	2525.731503
1003.392384	2531.312060
1003.686903	2532.141330
1003.981386	2533.681403
1004.275834	2533.015970
1004.570246	2533.646114
1004.864623	2533.580579
1005.158964	2528.483973
1005.453270	2534.077133
1005.747540	2531.543953
1006.041775	2532.753830
1006.335974	2531.281813
1006.630138	2531.052441
1006.924266	2531.420445
1007.218359	2532.549663
1007.512416	2531.710311
1007.806438	2530.384488
1008.100425	2533.280631
1008.394376	2531.685106
1008.688292	2530.707122
1008.982172	2530.623943
1009.276017	2530.744930
1009.569827	2530.323994
1009.863602	2532.068233
1010.157341	2532.196783
1010.451045	2532.489170
1010.744714	2530.760054
1011.038347	2532.032945
1011.331945	2529.711494
1011.625508	2529.484642
1011.919036	2531.690147
1012.212528	2530.397091
1012.505986	2529.615712
1012.799408	2529.678726
1013.092795	2529.164529
1013.386147	2531.881711
1013.679464	2531.186031
1013.972745	2530.974303
1014.265992	2528.741072
1014.559204	2531.480939
1014.852380	2530.477749
1015.145521	2531.138140
1015.438628	2528.083201
1015.731699	2531.065044
1016.024736	2531.183511
1016.317737	2530.485311
1016.610703	2532.786598
1016.903635	2526.719569
1017.196531	2525.287881
1017.489393	2526.800227
1017.782219	2527.276617
1018.075011	2531.480939
1018.367768	2531.274252
1018.660490	2530.548325
1018.953177	2530.548325
1019.245829	2530.548325
