Dividing Wavelength (nm)	Counts (n)	Blue Motor Position (mm): 19.800000	Red Motor Position (mm): 0.000000	
326.493990	2134.268263
326.888308	2134.268263
327.282561	2134.268263
327.676750	2102.685434
328.070874	2100.915989
328.464933	2103.509663
328.858929	2107.804726
329.252859	2119.326283
329.646726	2131.079733
330.040528	2145.474748
330.434265	2163.058292
330.827938	2179.555468
331.221547	2197.985927
331.615091	2213.777341
332.008571	2234.176370
332.401986	2253.347878
332.795338	2273.862854
333.188625	2292.741975
333.581847	2311.427012
333.975006	2327.102480
334.368100	2348.993690
334.761129	2368.013964
335.154095	2384.496016
335.546996	2403.357493
335.939833	2422.544125
336.332606	2437.549119
336.725315	2449.022785
337.117960	2460.451081
337.510540	2467.042390
337.903056	2481.250882
338.295508	2486.100472
338.687896	2496.034066
339.080220	2504.672083
339.472480	2507.837927
339.864676	2511.676766
340.256807	2520.365195
340.648875	2523.384846
341.040879	2523.248735
341.432818	2524.438447
341.824694	2527.274096
342.216506	2528.194107
342.608253	2528.607481
342.999937	2528.095804
343.391557	2528.163860
343.783113	2525.416431
344.174605	2528.723428
344.566033	2524.937521
344.957397	2523.299146
345.348697	2521.733868
345.739934	2520.382839
346.131106	2516.304545
346.522215	2515.878568
346.913260	2513.579802
347.304241	2512.712723
347.695159	2509.022598
348.086012	2507.948833
348.476802	2506.587721
348.867528	2505.438338
349.258191	2503.295848
349.648789	2503.005981
350.039324	2501.571773
350.429796	2498.564725
350.820203	2499.439365
351.210548	2493.203458
351.600828	2496.147492
351.991045	2497.357368
352.381198	2496.913747
352.771288	2494.602378
353.161314	2496.177738
353.551276	2498.526916
353.941175	2494.884683
354.331010	2493.553818
354.720782	2492.394353
355.110490	2493.881493
355.500135	2494.935094
355.889717	2496.422234
356.279235	2494.559528
356.668689	2495.930722
357.058080	2494.418376
357.447408	2492.235556
357.836672	2491.423930
358.225873	2494.597337
358.615010	2493.737820
359.004084	2495.918119
359.393095	2499.678820
359.782043	2500.190497
360.170927	2498.191679
360.559748	2499.983810
360.948505	2500.185456
361.337199	2501.670076
361.725830	2499.852740
362.114398	2504.258708
362.502903	2501.380209
362.891344	2504.125117
363.279722	2503.106804
363.668037	2502.574963
364.056289	2503.023625
364.444478	2505.508914
364.832603	2505.450941
365.220665	2503.958759
365.608665	2505.244254
365.996601	2508.120232
366.384474	2504.949346
366.772284	2508.616786
367.160031	2509.521673
367.547715	2507.563184
367.935336	2504.057062
368.322893	2508.427742
368.710388	2505.045128
369.097820	2511.182733
369.485189	2506.663338
369.872495	2508.906652
370.259738	2507.787516
370.646918	2509.562002
371.034035	2509.695593
371.421090	2508.369769
371.808081	2508.667197
372.195010	2509.390603
372.581875	2508.667197
372.968678	2511.026457
373.355418	2512.332116
373.742096	2511.787671
374.128710	2509.569564
374.515262	2510.234996
374.901751	2513.814215
375.288177	2512.536283
375.674540	2512.324554
376.060841	2510.718947
376.447079	2512.921931
376.833254	2513.055522
377.219367	2508.657115
377.605417	2510.471930
377.991404	2509.551920
378.377329	2511.034019
378.763191	2509.498987
379.148991	2512.748011
379.534727	2514.141890
379.920402	2515.150121
380.306013	2513.657939
380.691563	2515.981911
381.077049	2512.793382
381.462474	2514.104082
381.847835	2516.491068
382.233134	2515.949144
382.618371	2515.813033
383.003545	2517.985770
383.388657	2517.683301
383.773706	2517.186747
384.158693	2515.336644
384.543618	2515.928979
384.928480	2517.176665
385.313280	2516.780934
385.698017	2519.840915
386.082692	2518.459638
386.467305	2518.368898
386.851856	2519.188085
387.236344	2518.182375
387.620770	2519.291429
388.005133	2519.298991
388.389435	2519.276305
388.773674	2518.789834
389.157851	2518.263033
389.541965	2521.562469
389.926018	2521.784279
390.310008	2517.587519
390.693936	2524.332583
391.077802	2521.242355
391.461606	2522.898374
391.845348	2520.279495
392.229027	2521.809485
392.612645	2524.662778
392.996200	2522.180010
393.379694	2522.472397
393.763125	2524.007428
394.146494	2524.065402
394.529801	2522.318642
394.913047	2523.082377
395.296230	2522.616070
395.679351	2524.045237
396.062410	2523.490710
396.445408	2522.774866
396.828343	2522.850483
397.211217	2521.214629
397.594028	2519.651871
397.976778	2523.972140
398.359466	2522.300998
398.742092	2522.033817
399.124656	2524.113292
399.507158	2522.822757
399.889598	2524.955165
400.271977	2524.856863
400.654294	2523.266379
401.036549	2524.761081
401.418742	2526.006246
401.800874	2524.430885
402.182944	2523.894002
402.564952	2526.031452
402.946898	2525.126564
403.328783	2526.704446
403.710606	2525.716379
404.092367	2526.033972
404.474067	2527.886596
404.855705	2524.773684
405.237282	2526.701925
405.618797	2526.538087
406.000250	2527.218643
406.381642	2528.831812
406.762972	2530.571011
407.144240	2527.243849
407.525447	2529.151926
407.906593	2529.421628
408.287677	2531.054961
408.668700	2526.467511
409.049661	2530.019004
409.430560	2528.559590
409.811399	2529.328366
410.192176	2530.447502
410.572891	2529.187214
410.953545	2529.797193
411.334138	2531.354910
411.714669	2528.746113
412.095139	2529.769467
412.475547	2527.942049
412.855894	2529.381298
413.236180	2529.898017
413.616405	2532.889941
413.996568	2529.633356
414.376670	2532.252235
414.756711	2531.135620
415.136691	2532.378264
415.516609	2532.837009
415.896466	2531.191073
416.276262	2531.203675
416.655997	2526.772501
417.035670	2528.685619
417.415283	2530.334076
417.794834	2525.582789
418.174324	2531.357431
418.553753	2530.946577
418.933121	2533.373892
419.312428	2532.534540
419.691674	2534.293903
420.070859	2533.046217
420.449983	2533.141999
420.829045	2535.902031
421.208047	2533.250384
421.586988	2532.743748
421.965867	2534.251053
422.344686	2534.102339
422.723444	2534.213244
423.102141	2532.736186
423.480777	2533.515044
423.859352	2534.888759
424.237866	2533.951104
424.616319	2535.987730
424.994712	2535.544109
425.373044	2535.705426
425.751314	2534.150230
426.129524	2534.006557
426.507673	2536.774150
426.885762	2536.121321
427.263789	2537.094264
427.641756	2537.200128
428.019662	2535.922195
428.397508	2534.545960
428.775292	2537.679037
429.153016	2536.123842
429.530679	2537.537885
429.908282	2537.807587
430.285824	2536.191897
430.663305	2538.573842
431.040726	2534.750127
431.418086	2539.740869
431.795385	2540.043339
432.172624	2536.436393
432.549802	2537.162319
432.926920	2536.060827
433.303977	2538.921682
433.680974	2538.382278
434.057910	2537.149716
434.434786	2536.844727
434.811601	2538.730118
435.188355	2538.442772
435.565050	2537.588297
435.941683	2536.620395
436.318257	2536.998482
436.694770	2534.790456
437.071222	2535.065199
437.447614	2535.019829
437.823946	2539.498894
438.200218	2541.006199
438.576429	2542.473175
438.952580	2539.463606
439.328670	2540.229861
439.704700	2539.395550
440.080670	2539.982845
440.456580	2540.290355
440.832429	2541.233051
441.208218	2539.461085
441.583947	2541.190201
441.959616	2542.596683
442.335224	2539.466127
442.710773	2538.861188
443.086261	2541.064172
443.461689	2539.438400
443.837057	2538.556198
444.212365	2540.502084
444.587612	2543.693134
444.962800	2541.865716
445.337927	2542.231199
445.712995	2540.461754
446.088002	2543.589790
446.462949	2542.604245
446.837837	2542.488298
447.212664	2542.667259
447.587431	2541.285983
447.962139	2540.532331
448.336786	2543.161292
448.711374	2543.322609
449.085901	2542.251364
449.460369	2541.560726
449.834776	2542.498381
450.209124	2541.268339
450.583412	2542.198432
450.957640	2543.433515
451.331808	2544.109029
451.705917	2543.214224
452.079965	2546.551468
452.453954	2544.151879
452.827883	2544.335881
453.201752	2545.291180
453.575562	2544.905532
453.949311	2544.890408
454.323001	2543.836807
454.696632	2543.408309
455.070202	2544.789585
455.443713	2544.698844
455.817164	2541.172557
456.190556	2540.595345
456.563888	2543.272198
456.937160	2541.406971
457.310373	2544.270346
457.683526	2545.376879
458.056619	2543.788916
458.429653	2544.724050
458.802628	2544.635830
459.175542	2546.788402
459.548398	2544.963505
459.921194	2544.766900
460.293930	2548.431819
460.666607	2548.865358
461.039224	2547.484082
461.411782	2546.795964
461.784280	2548.099102
462.156719	2545.636499
462.529099	2548.008362
462.901419	2545.606252
463.273680	2549.044319
463.645882	2547.410985
464.018024	2548.462066
464.390106	2549.689587
464.762130	2549.593805
465.134094	2549.258568
465.505999	2548.817467
465.877845	2550.332334
466.249631	2552.379042
466.621358	2550.460883
466.993026	2552.502550
467.364634	2553.626728
467.736184	2554.335010
468.107674	2550.097920
468.479105	2551.403579
468.850477	2551.912735
469.221790	2553.636810
469.593043	2547.942827
469.964238	2550.869217
470.335373	2549.848383
470.706449	2550.881819
471.077467	2549.308979
471.448425	2552.991542
471.819324	2550.927190
472.190164	2555.176882
472.560945	2552.850390
472.931667	2554.771070
473.302330	2554.156049
473.672934	2553.909032
474.043479	2552.106820
474.413965	2554.161090
474.784393	2548.933413
475.154761	2551.335523
475.525070	2548.835111
475.895321	2553.805689
476.265513	2548.827549
476.635645	2556.535473
477.005719	2553.997252
477.375734	2553.934238
477.745691	2554.516491
478.115588	2558.647717
478.485427	2554.203940
478.855207	2556.217881
479.224928	2559.310629
479.594591	2557.183262
479.964194	2556.621173
480.333739	2560.447409
480.703226	2559.383725
481.072653	2560.147460
481.442022	2559.184600
481.811333	2562.761298
482.180584	2562.632749
482.549777	2560.512944
482.918912	2562.841957
483.287988	2566.295147
483.657005	2563.303222
484.025964	2563.444375
484.394864	2564.709704
484.763706	2567.452092
485.132489	2567.469736
485.501213	2564.838254
485.869879	2566.559808
486.238487	2566.937894
486.607036	2568.616599
486.975527	2572.488205
487.343959	2573.844275
487.712333	2573.902248
488.080648	2577.466344
488.448905	2577.761252
488.817104	2580.039853
489.185244	2585.696028
489.553326	2585.590164
489.921350	2594.137440
490.289315	2600.196907
490.657222	2604.287803
491.025070	2607.320057
491.392861	2610.135542
491.760593	2612.136880
492.128267	2612.903135
492.495883	2614.128136
492.863440	2621.319342
493.230939	2621.352109
493.598380	2627.986267
493.965763	2629.531381
494.333088	2631.106742
494.700354	2637.463637
495.067563	2645.058135
495.434713	2648.470996
495.801805	2658.485248
496.168839	2668.355827
496.535815	2674.987465
496.902733	2680.016016
497.269593	2687.441636
497.636395	2696.195600
498.003139	2707.394523
498.369825	2713.015409
498.736453	2725.298181
499.103023	2734.110118
499.469535	2746.302148
499.835989	2755.565268
500.202385	2766.723862
500.568723	2776.128135
500.935003	2791.934673
501.301226	2807.040490
501.667390	2817.994918
502.033497	2841.854699
502.399546	2848.806450
502.765537	2860.723738
503.131470	2875.791747
503.497345	2901.378123
503.863163	2904.884245
504.228923	2932.718976
504.594625	2951.777058
504.960269	2961.879531
505.325856	2988.194354
505.691385	3000.272958
506.056856	3025.836650
506.422270	3052.443860
506.787625	3066.075140
507.152924	3093.677977
507.518164	3112.912500
507.883347	3131.650469
508.248472	3152.422543
508.613540	3192.489634
508.978550	3212.629044
509.343503	3234.109400
509.708398	3272.495266
510.073236	3307.422901
510.438016	3336.543126
510.802738	3364.143443
511.167403	3398.710635
511.532010	3426.560489
511.896561	3473.632263
512.261053	3518.163296
512.625488	3536.255997
512.989866	3568.501738
513.354186	3605.269393
513.718449	3634.636635
514.082655	3695.160728
514.446803	3721.304152
514.810894	3779.282462
515.174927	3806.592913
515.538904	3840.552646
515.902822	3907.887338
516.266684	3930.759053
516.630488	3974.029797
516.994235	4020.715923
517.357925	4081.050973
517.721558	4137.474087
518.085133	4193.478786
518.448651	4237.036876
518.812112	4263.439919
519.175516	4318.083506
519.538863	4389.052870
519.902152	4416.217127
520.265385	4517.652704
520.628560	4534.396897
520.991678	4596.423254
521.354739	4652.274197
521.717743	4689.924055
522.080690	4735.811158
522.443580	4835.668854
522.806413	4878.082602
523.169189	4935.196354
523.531908	5010.382643
523.894569	5025.853944
524.257174	5086.667904
524.619722	5179.021842
524.982213	5207.610226
525.344647	5298.661026
525.707025	5335.733671
526.069345	5420.483029
526.431608	5467.426254
526.793815	5562.588115
527.155964	5557.037804
527.518057	5625.584894
527.880093	5676.646741
528.242072	5749.420838
528.603995	5786.445593
528.965860	5818.061189
529.327669	5900.693262
529.689421	5933.405309
530.051117	5985.674513
530.412755	6098.745073
530.774337	6101.900836
531.135862	6167.098078
531.497331	6224.295010
531.858743	6232.020578
532.220098	6360.025557
532.581396	6362.715012
532.942638	6413.741571
533.303824	6454.469053
533.664953	6536.150869
534.026025	6553.358848
534.387040	6653.851729
534.747999	6711.930863
535.108902	6803.631972
535.469748	6742.560913
535.830537	6855.996957
536.191270	6911.817654
536.551947	6978.285267
536.912567	7036.553444
537.273131	7048.377470
537.633638	7095.938236
537.994089	7156.079202
538.354483	7180.801020
538.714821	7313.993346
539.075103	7377.761421
539.435328	7422.534429
539.795497	7364.568722
540.155609	7521.182248
540.515665	7626.902806
540.875665	7524.509410
541.235609	7629.083105
541.595496	7674.052718
541.955328	7837.544899
542.315102	7811.056156
542.674821	7833.655649
543.034483	7885.982826
543.394090	7946.637989
543.753640	7947.111857
544.113134	8147.404461
544.472571	8099.248839
544.831953	8251.831963
545.191278	8174.362032
545.550548	8240.176816
545.909761	8383.438846
546.268918	8412.312055
546.628019	8514.060183
546.987064	8478.416705
547.346053	8458.022717
547.704986	8584.704393
548.063863	8624.708469
548.422684	8655.741812
548.781449	8649.556317
549.140158	8760.749047
549.498811	8718.322696
549.857408	8642.433166
550.215949	8872.307261
550.574434	8788.324158
550.932864	8918.776617
551.291237	8992.077515
551.649555	9002.013629
552.007817	9045.848982
552.366022	9056.261485
552.724173	9091.340354
553.082267	9108.606306
553.440305	9268.123538
553.798288	9129.451478
554.156215	9300.311305
554.514086	9316.821084
554.871902	9225.036796
555.229661	9290.017269
555.587365	9306.461513
555.945014	9243.996575
556.302606	9391.951920
556.660143	9323.692176
557.017625	9492.507816
557.375050	9431.177138
557.732421	9581.519469
558.089735	9536.736379
558.446994	9564.908867
558.804197	9630.819433
559.161345	9659.422940
559.518437	9554.302280
559.875474	9660.413527
560.232455	9714.016116
560.589381	9687.043422
560.946251	9715.972083
561.303065	9823.840173
561.659825	9802.528695
562.016528	9756.170244
562.373177	9670.188324
562.729770	9805.185383
563.086307	9748.522814
563.442789	9851.836221
563.799216	9765.607284
564.155587	9827.464762
564.511904	9809.041866
564.868164	9820.689452
565.224370	9841.305250
565.580520	9805.419797
565.936615	9821.375049
566.292654	9716.995438
566.648638	9847.160551
567.004567	9830.260082
567.360441	9828.823353
567.716260	9761.213919
568.072023	9858.387200
568.427732	9832.561369
568.783385	9755.817363
569.138982	9847.800777
569.494525	9874.579386
569.850013	9767.669116
570.205445	9857.222694
570.560823	9766.786914
570.916145	9705.456237
571.271412	9779.399881
571.626625	9740.295651
571.981782	9731.022448
572.336884	9720.262105
572.691931	9729.515143
573.046923	9684.013689
573.401860	9650.550509
573.756743	9598.220812
574.111570	9647.503132
574.466342	9638.933170
574.821059	9680.565539
575.175722	9578.393954
575.530330	9599.743240
575.884882	9599.221481
576.239380	9533.847798
576.593823	9514.711578
576.948211	9542.067399
577.302544	9424.043905
577.656823	9450.908214
578.011047	9456.503895
578.365216	9437.486142
578.719330	9372.009115
579.073389	9377.007419
579.427394	9334.276079
579.781344	9315.873347
580.135239	9270.006408
580.489080	9282.919324
580.842866	9192.029841
581.196597	9201.000574
581.550273	9243.043797
581.903895	9215.337616
582.257463	9283.524263
582.610975	9164.174945
582.964434	9197.882620
583.317837	9121.776321
583.671186	9103.628167
584.024481	9110.365669
584.377721	9029.666878
584.730906	9008.544444
585.084037	9037.394967
585.437113	8983.671391
585.790135	9006.293568
586.143103	8903.330522
586.496016	8877.280359
586.848874	8943.775699
587.201679	8932.478473
587.554428	8817.928334
587.907124	8869.867342
588.259765	8847.096451
588.612352	8844.263322
588.964884	8721.047440
589.317362	8736.864060
589.669786	8738.177281
590.022155	8784.881050
590.374470	8802.721694
590.726731	8743.536027
591.078937	8600.795756
591.431090	8716.394455
591.783188	8586.196574
592.135232	8584.149866
592.487222	8580.358918
592.839157	8633.853122
593.191038	8569.739728
593.542866	8510.896859
593.894639	8420.617356
594.246358	8467.568142
594.598022	8484.037592
594.949633	8384.583188
595.301190	8366.346814
595.652692	8392.472594
596.004141	8499.022422
596.355535	8279.807847
596.706876	8259.214733
597.058162	8198.814148
597.409395	8275.865664
597.760573	8334.678286
598.111698	8247.075635
598.462768	8230.414621
598.813785	8200.704581
599.164748	8165.497162
599.515657	8159.994743
599.866511	8072.142555
600.217312	8196.220475
600.568060	8058.095380
600.918753	8160.108169
601.269392	8127.726317
601.619978	8044.532155
601.970510	8109.152186
602.320988	8099.959642
602.671412	8157.327973
603.021783	8096.622398
603.372100	8070.063079
603.722363	8077.773524
604.072572	8053.074391
604.422728	8057.734937
604.772830	7992.797314
605.122878	7999.262594
605.472872	7992.656162
605.822813	8027.208230
606.172701	7967.281514
606.522534	8040.806743
606.872314	8044.075931
607.222041	8009.793564
607.571714	8062.506389
607.921333	8024.158332
608.270899	8032.214096
608.620411	8115.226776
608.969870	8023.923918
609.319276	8021.511726
609.668627	8035.876494
610.017926	8070.110970
610.367171	8124.182386
610.716362	8096.609795
611.065500	8089.794155
611.414585	8114.352136
611.763616	8101.449303
612.112594	8079.449707
612.461518	8101.091381
612.810389	8163.662182
613.159207	8098.908561
613.507971	8045.742032
613.856682	8163.705032
614.205340	8120.106613
614.553945	8203.308337
614.902496	8100.670445
615.250994	8157.663209
615.599439	8133.236298
615.947830	8147.706931
616.296169	8125.120041
616.644454	8134.247050
616.992686	8136.019015
617.340864	8191.847274
617.688990	8089.085873
618.037063	8185.974329
618.385082	8131.630691
618.733048	8214.608083
619.080961	8155.009042
619.428821	8178.122732
619.776628	8177.109460
620.124382	8132.467522
620.472083	8113.727033
620.819731	8141.458420
621.167326	8032.067902
621.514868	8046.924183
621.862357	7934.992923
622.209793	7949.198895
622.557176	7885.841673
622.904506	7853.104420
623.251783	7791.677961
623.599007	7747.404027
623.946179	7744.359170
624.293297	7703.813170
624.640363	7625.085470
624.987376	7610.451001
625.334336	7561.077940
625.681243	7507.067017
626.028097	7496.437745
626.374899	7471.088302
626.721647	7466.904145
627.068343	7395.949904
627.414987	7368.299176
627.761577	7329.336097
628.108115	7362.101077
628.454600	7259.226250
628.801032	7303.381717
629.147412	7262.374451
629.493739	7260.668020
629.840014	7194.722166
630.186236	7248.607060
630.532405	7132.093392
630.878521	7179.954106
631.224585	7143.292315
631.570597	7065.845068
631.916556	7099.202383
632.262462	7095.459327
632.608316	7054.973820
632.954117	7032.752414
633.299866	7022.594489
633.645562	7013.139805
633.991206	6931.964625
634.336797	6875.241562
634.682336	6835.539955
635.027823	6804.347815
635.373257	6794.699047
635.718639	6726.807308
636.063968	6739.873978
636.409245	6632.759541
636.754470	6632.260467
637.099642	6590.849909
637.444762	6533.650457
637.789829	6547.753085
638.134845	6482.752447
638.479808	6471.472865
638.824719	6476.808927
639.169577	6407.480458
639.514383	6426.404950
639.859137	6353.056161
640.203839	6363.496391
640.548489	6352.582293
640.893086	6329.854251
641.237632	6300.905425
641.582125	6314.458567
641.926566	6286.767509
642.270955	6296.194467
642.615292	6297.716895
642.959576	6313.707435
643.303809	6304.668646
643.647990	6313.059647
643.992118	6298.838552
644.336195	6247.386015
644.680219	6276.254182
645.024192	6259.504949
645.368112	6356.272417
645.711981	6373.591302
646.055797	6453.927129
646.399562	6411.737713
646.743274	6538.495006
647.086935	6592.952070
647.430544	6585.014773
647.774101	6609.083762
648.117606	6609.507219
648.461059	6606.424554
648.804460	6562.901752
649.147810	6473.302804
649.491108	6448.578465
649.834354	6421.434372
650.177548	6337.652916
650.520690	6252.472539
650.863781	6229.610907
651.206820	6250.559421
651.549807	6170.294170
651.892742	6113.674450
652.235626	6118.740810
652.578458	6109.422237
652.921238	6013.559656
653.263967	6050.052568
653.606644	5995.136759
653.949269	5998.436194
654.291843	5937.932266
654.634365	5985.790460
654.976836	5943.396876
655.319255	5941.813954
655.661622	5921.712353
656.003938	5912.320683
656.346203	5878.202154
656.688416	5910.553759
657.030577	5859.396130
657.372687	5828.962684
657.714746	5818.426673
658.056753	5862.488878
658.398708	5800.480165
658.740612	5795.418846
659.082465	5845.931208
659.424266	5832.877140
659.766016	5827.203321
660.107715	5807.378984
660.449362	5817.579759
660.790958	5816.294264
661.132503	5803.157018
661.473996	5842.621690
661.815438	5825.118804
662.156829	5828.395554
662.498168	5812.152957
662.839456	5791.166633
663.180693	5827.775492
663.521879	5834.553324
663.863013	5813.672864
664.204097	5837.451987
664.545129	5874.393563
664.886110	5873.486155
665.227040	5903.826339
665.567918	5870.889961
665.908746	5895.286625
666.249522	5900.912552
666.590248	5889.980810
666.930922	5912.091311
667.271545	5930.736018
667.612118	5936.591319
667.952639	5905.099231
668.293109	5928.926244
668.633528	5888.806221
668.973896	5885.605089
669.314213	5877.418255
669.654480	5862.753538
669.994695	5854.377661
670.334859	5845.096897
670.674973	5837.313355
671.015035	5845.931208
671.355047	5840.083469
671.695008	5829.073589
672.034918	5799.166944
672.374777	5809.763450
672.714585	5800.001255
673.054342	5799.298014
673.394049	5788.053721
673.733705	5826.510163
674.073310	5810.524664
674.412864	5768.342809
674.752368	5763.203353
675.091820	5765.678559
675.431223	5699.609197
675.770574	5701.842428
676.109875	5655.302496
676.449125	5661.064535
676.788324	5626.958608
677.127473	5571.805865
677.466571	5561.852106
677.805619	5549.259304
678.144616	5538.652716
678.483562	5520.373492
678.822458	5483.719263
679.161303	5482.766485
679.500098	5473.379856
679.838842	5453.507628
680.177535	5459.085665
680.516179	5473.326924
680.854771	5488.236137
681.193314	5565.975770
681.531805	5675.482235
681.870247	5821.781560
682.208638	5921.263690
682.546978	5940.092400
682.885268	5919.002733
683.223508	5828.506460
683.561697	5775.286998
683.899836	5744.742647
684.237925	5703.306883
684.575963	5665.808260
684.913951	5622.224965
685.251889	5688.019584
685.589776	5651.337628
685.927614	5628.750738
686.265401	5697.386048
686.603137	5681.229150
686.940824	5759.271253
687.278460	5779.808913
687.616046	5790.680162
687.953582	5856.820100
688.291068	5837.953582
688.628504	5905.089148
688.965889	5858.834041
689.303224	5809.413089
689.640510	5759.752683
689.977745	5685.740983
690.314930	5589.840592
690.652065	5531.108630
690.989150	5441.194610
691.326185	5364.556468
691.663170	5315.127955
692.000105	5237.400924
692.336990	5157.879243
692.673825	5135.335203
693.010610	5067.093103
693.347345	5000.449049
693.684030	4988.922451
694.020665	4944.865287
694.357251	4854.127038
694.693786	4864.491651
695.030272	4833.748174
695.366707	4798.757525
695.703093	4763.698821
696.039429	4782.164567
696.375716	4768.490438
696.711952	4741.913474
697.048139	4730.427205
697.384276	4711.790060
697.720363	4724.665167
698.056400	4729.658429
698.392388	4683.292417
698.728326	4661.494468
699.064214	4639.961179
699.400053	4633.843739
699.735842	4602.397021
700.071581	4577.529009
700.407270	4551.836769
700.742910	4533.217267
701.078501	4481.729442
701.414042	4477.719204
701.749533	4449.970173
702.084974	4382.819483
702.420366	4439.572793
702.755709	4379.620871
703.091002	4326.126667
703.426246	4375.103997
703.761440	4330.053726
704.096584	4297.661792
704.431679	4318.983352
704.766725	4300.999036
705.101721	4287.680307
705.436668	4318.643074
705.771565	4265.784055
706.106413	4293.863282
706.441212	4330.416689
706.775961	4335.810723
707.110661	4315.212569
707.445311	4338.127134
707.779913	4364.104199
708.114465	4375.051065
708.448967	4396.937234
708.783421	4457.582315
709.117825	4500.966485
709.452180	4503.895396
709.786485	4550.115215
710.120742	4637.160818
710.454949	4622.309579
710.789107	4682.639587
711.123216	4759.633130
711.457275	4748.865226
711.791286	4825.394982
712.125247	4837.932332
712.459159	4740.121344
712.793023	4818.634795
713.126837	4775.285913
713.460602	4769.438174
713.794318	4690.080331
714.127985	4696.424623
714.461602	4614.026963
714.795171	4583.696861
715.128691	4516.931819
715.462162	4463.160352
715.795584	4414.961880
716.128957	4396.944796
716.462281	4346.021581
716.795556	4319.608455
717.128782	4280.446251
717.461960	4213.787074
717.795088	4224.237386
718.128167	4184.800439
718.461198	4123.318527
718.794180	4121.271819
719.127113	4098.987398
719.459997	4080.874532
719.792833	4037.457595
720.125619	4029.898385
720.458357	3987.265347
720.791046	3995.857993
721.123686	3972.030980
721.456278	3929.632355
721.788821	3947.251188
722.121315	3919.028288
722.453761	3891.601891
722.786158	3907.857091
723.118506	3925.584309
723.450805	3882.921024
723.783056	3905.903644
724.115259	3916.784975
724.447412	3924.026592
724.779518	3914.234151
725.111574	3922.877209
725.443582	3951.271508
725.775542	3938.088891
726.107453	3986.756190
726.439315	3989.017147
726.771129	3999.845546
727.102895	4036.063716
727.434612	4082.306220
727.766281	4096.345833
728.097901	4092.771655
728.429473	4102.979992
728.760996	4107.181794
729.092471	4103.146350
729.423897	4087.019699
729.755276	4092.202005
730.086606	4093.081686
730.417887	4128.762973
730.749120	4194.653375
731.080305	4258.411368
731.411442	4286.914052
731.742530	4250.912652
732.073570	4256.036984
732.404562	4310.425993
732.735506	4302.375271
733.066401	4264.281792
733.397249	4200.412893
733.728048	4123.157210
734.058798	4043.950601
734.389501	3972.898058
734.720156	3909.966814
735.050762	3870.469374
735.381320	3862.451418
735.711831	3812.170950
736.042293	3783.610293
736.372707	3803.071667
736.703073	3776.146865
737.033391	3766.036831
737.363661	3786.151034
737.693883	3810.464519
738.024056	3818.527845
738.354182	3812.528872
738.684260	3876.541443
739.014290	3897.845360
739.344272	3891.322107
739.674207	3933.113272
740.004093	3939.094601
740.333931	3935.117131
740.663722	3934.978499
740.993464	3933.425823
741.323159	3910.712905
741.652806	3876.624622
741.982405	3853.558823
742.311956	3821.562620
742.641460	3810.744303
742.970915	3789.745377
743.300323	3746.081423
743.629683	3713.147565
743.958996	3704.174311
744.288260	3675.656504
744.617477	3649.898728
744.946647	3634.054382
745.275768	3607.018674
745.604842	3607.336266
745.933869	3559.354564
746.262847	3550.736712
746.591778	3592.643823
746.920662	3555.782907
747.249498	3525.770397
747.578286	3571.579362
747.907027	3591.060901
748.235720	3586.440684
748.564365	3614.885394
748.892963	3613.063017
749.221514	3594.055347
749.550017	3573.600865
749.878473	3569.542736
750.206881	3540.914023
750.535242	3539.479815
750.863555	3539.429403
751.191821	3535.938404
751.520039	3515.332688
751.848210	3493.824605
752.176334	3528.608567
752.504411	3534.345400
752.832440	3493.343175
753.160421	3477.120742
753.488356	3487.356805
753.816243	3494.691684
754.144082	3458.153401
754.471875	3440.716049
754.799620	3462.564410
755.127318	3451.269705
755.454969	3453.386990
755.782572	3456.666260
756.110129	3432.539298
756.437638	3423.707196
756.765100	3434.550718
757.092515	3449.041515
757.419882	3451.574695
757.747203	3426.943617
758.074477	3431.102569
758.401703	3444.817028
758.728882	3465.223619
759.056014	3472.082109
759.383099	3475.058910
759.710138	3473.196204
760.037129	3489.685818
760.364073	3522.160931
760.690970	3505.285668
761.017820	3481.816577
761.344623	3501.441789
761.671379	3548.216135
761.998088	3598.783949
762.324751	3724.996797
762.651366	3965.832881
762.977935	4433.568779
763.304456	4871.400552
763.630931	4961.768276
763.957359	4601.000622
764.283740	4260.982356
764.610074	4077.658276
764.936362	3882.530334
765.262602	3727.098958
765.588796	3616.294397
765.914943	3527.731406
766.241044	3443.612192
766.567097	3414.363418
766.893104	3369.771891
767.219064	3338.609999
767.544978	3312.902635
767.870845	3255.080600
768.196665	3238.643918
768.522438	3246.729929
768.848165	3242.702047
769.173846	3206.917416
769.499479	3190.430323
769.825066	3175.364834
770.150607	3158.227432
770.476101	3174.197807
770.801548	3168.597085
771.126949	3122.742750
771.452303	3106.001078
771.777611	3108.892180
772.102872	3117.933489
772.428087	3091.270827
772.753256	3085.450814
773.078378	3077.410174
773.403453	3041.991027
773.728482	3032.256559
774.053465	3049.661143
774.378401	3039.009185
774.703291	3008.013650
775.028135	3007.154133
775.352932	3005.742610
775.677683	2994.019407
776.002388	2990.193171
776.327046	2991.700476
776.651658	2981.782006
776.976224	2967.664255
777.300743	2967.276086
777.625216	2959.646300
777.949643	2955.187399
778.274024	2959.147225
778.598359	2946.700617
778.922647	2952.445011
779.246889	2951.555248
779.571086	2935.589913
779.895236	2927.781166
780.219339	2939.453958
780.543397	2954.375773
780.867409	2955.971298
781.191374	2948.825463
781.515294	2947.086265
781.839167	2945.117694
782.162995	2941.730039
782.486776	2945.450410
782.810511	2944.235492
783.134201	2931.675458
783.457844	2938.390274
783.781441	2925.000970
784.104993	2910.495050
784.428498	2909.900193
784.751958	2922.472831
785.075372	2918.444949
785.398739	2899.820406
785.722061	2918.298756
786.045337	2925.633635
786.368568	2916.902356
786.691752	2904.722928
787.014891	2954.269909
787.337983	2982.308807
787.661030	3009.289062
787.984031	3078.259608
788.306987	3118.780403
788.629897	3114.550875
788.952760	3097.340376
789.275579	3083.071390
789.598351	3022.012934
789.921078	2978.767396
790.243759	2970.552836
790.566395	2954.527008
790.888984	2931.584717
791.211529	2915.528642
791.534027	2903.026580
791.856480	2897.869480
792.178888	2878.776110
792.501249	2875.748897
792.823566	2870.896786
793.145836	2866.682382
793.468062	2863.755992
793.790241	2862.614170
794.112375	2866.775643
794.434464	2877.094885
794.756507	2881.455483
795.078505	2888.387069
795.400457	2903.444996
795.722364	2942.629885
796.044226	2964.571507
796.366042	2963.989254
796.687812	2955.575568
797.009538	2974.512662
797.331218	2961.395580
797.652852	2945.163065
797.974442	2927.259407
798.295986	2926.551125
798.617484	2920.960485
798.938938	2908.811304
799.260346	2890.716083
799.581709	2886.065618
799.903026	2879.237375
800.224299	2874.758310
800.545526	2863.335055
800.866708	2846.996676
801.187845	2838.928309
801.508936	2839.833196
801.829983	2845.945595
802.150984	2833.869511
802.471940	2824.679488
802.792851	2826.731237
803.113717	2820.402069
803.434538	2828.198213
803.755314	2818.090700
804.076045	2814.597180
804.396731	2814.977787
804.717372	2813.515852
805.037967	2809.659370
805.358518	2817.228662
805.679024	2826.978254
805.999485	2824.182934
806.319901	2828.099911
806.640272	2818.811585
806.960598	2824.107317
807.280879	2834.507217
807.601115	2840.473423
807.921306	2825.201247
808.241453	2823.779642
808.561554	2831.399346
808.881611	2830.711228
809.201623	2826.280054
809.521590	2825.445743
809.841513	2820.462562
810.161390	2822.116061
810.481223	2821.251503
810.801011	2811.567447
811.120755	2806.901859
811.440453	2809.911427
811.760107	2809.094761
812.079716	2808.076447
812.399281	2799.077988
812.718801	2790.815537
813.038276	2786.003755
813.357707	2792.353089
813.677093	2799.786270
813.996434	2791.443160
814.315731	2787.092645
814.634983	2784.244393
814.954191	2784.904784
815.273354	2798.556228
815.592473	2807.267342
815.911547	2805.109728
816.230577	2816.906028
816.549562	2825.259220
816.868502	2826.206957
817.187399	2836.813545
817.506250	2851.669825
817.825058	2844.110615
818.143821	2854.291225
818.462539	2871.322764
818.781213	2897.365364
819.099843	2933.880962
819.418429	2990.215857
819.736970	3049.036040
820.055466	3119.513891
820.373919	3225.456260
820.692327	3360.914584
821.010691	3522.440715
821.329011	3962.878765
821.647286	4852.241647
821.965517	6202.267688
822.283704	6925.693430
822.601847	6897.573873
822.919945	6275.918946
823.237999	5781.835457
823.556010	5207.874886
823.873976	4667.352288
824.191897	4267.825723
824.509775	3981.573884
824.827609	3715.257288
825.145398	3592.240531
825.463144	3586.995211
825.780845	3673.629960
826.098502	3782.433183
826.416116	4060.077252
826.733685	4366.765929
827.051210	4423.499074
827.368692	4309.309378
827.686129	4050.725912
828.003522	3731.872931
828.320872	3477.950012
828.638177	3287.606125
828.955439	3157.214160
829.272656	3075.746593
829.589830	3008.787467
829.906960	2960.503296
830.224046	2917.396389
830.541088	2885.022099
830.858086	2867.816641
831.175041	2851.453056
831.491952	2852.950278
831.808819	2865.172556
832.125642	2889.130640
832.442421	2933.989347
832.759157	3011.950791
833.075849	3187.410672
833.392497	3463.741520
833.709101	3662.526819
834.025662	3612.473202
834.342179	3453.812967
834.658653	3281.130763
834.975083	3132.885552
835.291469	3037.806869
835.607811	2955.250413
835.924110	2900.132958
836.240366	2852.597398
836.556578	2809.311530
836.872746	2786.714558
837.188871	2763.885693
837.504952	2748.139649
837.820990	2742.312075
838.136984	2728.887482
838.452935	2720.972871
838.768842	2719.674774
839.084706	2736.434090
839.400526	2816.878302
839.716303	2943.771706
840.032037	3022.030578
840.347727	3008.432066
840.663373	2950.113478
840.978977	2874.236551
841.294537	2804.325829
841.610054	2759.676329
841.925527	2736.930643
842.240957	2715.276367
842.556344	2694.965558
842.871687	2678.619617
843.186987	2671.400684
843.502244	2664.887514
843.817458	2658.833088
844.132629	2648.685245
844.447756	2639.303658
844.762840	2630.665641
845.077881	2636.561270
845.392879	2634.587658
845.707833	2630.592544
846.022745	2622.423354
846.337613	2625.057357
846.652438	2628.550877
846.967221	2625.614405
847.281960	2623.325721
847.596656	2624.560803
847.911309	2621.543673
848.225919	2620.331275
848.540485	2617.031840
848.855009	2614.579319
849.169490	2612.192332
849.483928	2614.617127
849.798323	2613.540841
850.112675	2611.849534
850.426984	2614.798609
850.741251	2612.144442
851.055474	2613.001438
851.369654	2614.801130
851.683792	2615.978239
851.997887	2610.717795
852.311938	2610.448093
852.625947	2613.951695
852.939914	2615.494288
853.253837	2615.847169
853.567718	2611.610079
853.881555	2614.891870
854.195350	2616.477313
854.509103	2614.964967
854.822812	2610.468258
855.136479	2612.729215
855.450103	2612.640995
855.763685	2613.860954
856.077224	2610.725357
856.390720	2610.218721
856.704173	2613.303907
857.017584	2619.237345
857.330953	2618.420678
857.644278	2620.396810
857.957561	2621.568879
858.270802	2615.811881
858.584000	2613.835749
858.897155	2619.025617
859.210268	2620.661471
859.523339	2616.202570
859.836367	2611.789040
860.149352	2611.302569
860.462295	2610.241406
860.775195	2611.673094
861.088054	2607.536827
861.400869	2606.929368
861.713642	2604.978441
862.026373	2606.904162
862.339062	2611.327775
862.651708	2612.013372
862.964312	2616.033692
863.276873	2612.590584
863.589392	2617.919083
863.901869	2620.918570
864.214303	2627.202368
864.526696	2628.150105
864.839045	2631.318470
865.151353	2635.381640
865.463619	2632.321660
865.775842	2630.995836
866.088023	2630.569859
866.400162	2634.166722
866.712258	2632.528347
867.024313	2630.098511
867.336325	2627.109107
867.648296	2630.872328
867.960224	2635.202679
868.272110	2633.614716
868.583954	2626.173973
868.895755	2626.262193
869.207515	2631.988944
869.519233	2639.021353
869.830909	2636.624285
870.142542	2630.884931
870.454134	2635.547998
870.765684	2638.519758
871.077191	2638.280304
871.388657	2641.592342
871.700081	2641.665438
872.011463	2642.151910
872.322803	2641.234420
872.634101	2643.525624
872.945357	2652.471152
873.256571	2656.854435
873.567744	2656.239414
873.878874	2655.586585
874.189963	2654.091883
874.501010	2661.101607
874.812015	2664.479180
875.122979	2666.717452
875.433900	2655.957110
875.744780	2653.862510
876.055618	2659.024652
876.366415	2664.474139
876.677169	2663.612102
876.987882	2659.143119
877.298554	2659.092707
877.609183	2668.544871
877.919771	2676.646005
878.230317	2680.749504
878.540822	2690.801565
878.851285	2706.212372
879.161707	2727.309601
879.472087	2763.994078
879.782425	2808.653660
880.092722	2920.695824
880.402977	3104.120728
880.713191	3356.657330
881.023363	3635.886841
881.333494	3824.821726
881.643583	3991.746932
881.953631	3989.203670
882.263637	3817.638081
882.573602	3601.047427
882.883526	3475.184939
883.193408	3364.735779
883.503248	3265.815737
883.813048	3155.290960
884.122806	3044.612427
884.432522	2963.061681
884.742197	2897.977865
885.051831	2863.158615
885.361424	2832.810869
885.670975	2795.138326
885.980485	2766.166815
886.289954	2747.474217
886.599382	2736.131620
886.908768	2726.717266
887.218113	2706.590459
887.527417	2693.170907
887.836680	2685.531039
888.145901	2682.213959
888.455082	2673.112156
888.764221	2661.635969
889.073319	2655.347130
889.382376	2656.441060
889.691392	2656.327634
890.000366	2656.940135
890.309300	2652.690442
890.618193	2655.571461
890.927044	2661.497338
891.235855	2657.688746
891.544625	2659.049857
891.853353	2658.490289
892.162041	2663.743172
892.470687	2684.913497
892.779293	2695.792307
893.087858	2705.783874
893.396381	2728.821947
893.704864	2765.060282
894.013306	2836.485870
894.321707	2922.356885
894.630068	2972.370172
894.938387	2994.175683
895.246665	2981.877788
895.554903	2941.760286
895.863100	2899.432238
896.171256	2846.285873
896.479371	2785.877727
896.787446	2748.900863
897.095480	2726.901268
897.403473	2723.306925
897.711425	2707.094574
898.019336	2693.193592
898.327207	2678.087775
898.635038	2676.986283
898.942827	2676.525017
899.250576	2664.978254
899.558284	2653.262613
899.865952	2652.345123
900.173579	2650.900832
900.481165	2646.073927
900.788711	2639.890952
901.096216	2630.327883
901.403681	2629.796042
901.711105	2630.557256
902.018489	2627.177162
902.325832	2631.507513
902.633135	2633.105559
902.940397	2648.057622
903.247619	2685.266378
903.554800	2748.948754
903.861941	2872.383927
904.169041	2992.368429
904.476101	3050.321534
904.783121	3044.809032
905.090100	2989.373984
905.397039	2917.716503
905.703938	2847.488188
906.010796	2787.367387
906.317614	2736.736559
906.624391	2702.141641
906.931129	2677.046777
907.237826	2657.419044
907.544483	2639.792650
907.851099	2624.621297
908.157675	2616.590739
908.464211	2610.579163
908.770707	2598.709767
909.077163	2597.099118
909.383578	2589.572675
909.689954	2592.020155
909.996289	2589.917994
910.302584	2586.699218
910.608839	2586.429516
910.915054	2587.684763
911.221229	2588.408169
911.527363	2590.298601
911.833458	2591.737851
912.139513	2592.189034
912.445527	2593.638366
912.751502	2596.327821
913.057436	2603.531630
913.363331	2610.596807
913.669186	2621.127778
913.975000	2629.390229
914.280775	2645.789102
914.586510	2666.425066
914.892205	2698.726259
915.197859	2766.318050
915.503475	2842.716736
915.809050	2908.360121
916.114585	2920.516863
916.420081	2930.241249
916.725536	2940.683999
917.030952	2915.717685
917.336328	2872.565408
917.641665	2824.321566
917.946961	2777.146448
918.252218	2743.877353
918.557435	2719.475648
918.862612	2700.465457
919.167750	2683.181861
919.472848	2672.076199
919.777906	2649.998466
920.082925	2639.139820
920.387904	2631.353758
920.692843	2627.351082
920.997743	2622.206585
921.302603	2615.332971
921.607423	2610.143103
921.912204	2607.103288
922.216946	2599.987699
922.521647	2599.493666
922.826310	2594.737337
923.130932	2591.495875
923.435516	2586.091758
923.740059	2584.700400
924.044564	2581.650502
924.349028	2580.291911
924.653454	2574.048442
924.957840	2570.738924
925.262186	2569.234140
925.566493	2568.230950
925.870761	2566.960580
926.174989	2567.457133
926.479178	2565.286917
926.783328	2564.230795
927.087438	2564.596278
927.391509	2562.960424
927.695541	2559.766853
927.999533	2559.434137
928.303486	2559.739127
928.607400	2558.335165
928.911275	2559.474466
929.215110	2557.475649
929.518906	2556.994218
929.822663	2560.046637
930.126381	2555.449105
930.430060	2555.870041
930.733699	2559.338355
931.037299	2557.067315
931.340861	2560.936401
931.644383	2560.883469
931.947866	2557.717624
932.251309	2559.045968
932.554714	2558.882131
932.858080	2559.693756
933.161407	2558.320042
933.464694	2554.713096
933.767943	2556.265772
934.071153	2559.688715
934.374323	2553.785524
934.677455	2556.343910
934.980548	2552.205122
935.283602	2553.525905
935.586617	2552.920966
935.889593	2554.705535
936.192530	2554.060267
936.495428	2554.834084
936.798287	2555.975905
937.101108	2559.645865
937.403890	2560.550752
937.706632	2562.937739
938.009336	2566.421176
938.312002	2572.583987
938.614628	2571.936198
938.917216	2575.081878
939.219765	2577.824266
939.522275	2578.948443
939.824747	2577.224369
940.127179	2569.803790
940.429573	2567.656259
940.731929	2570.391085
941.034246	2564.071998
941.336524	2566.106104
941.638763	2568.077195
941.940964	2569.095508
942.243126	2564.813048
942.545250	2565.216340
942.847335	2563.502348
943.149381	2560.344065
943.451389	2562.610064
943.753359	2560.835578
944.055290	2560.467573
944.357182	2559.913047
944.659036	2557.422717
944.960851	2559.358520
945.262628	2557.200906
945.564367	2557.044630
945.866067	2557.838612
946.167729	2560.855742
946.469352	2556.923642
946.770937	2557.216029
947.072484	2556.908519
947.373992	2557.344579
947.675462	2557.624363
947.976893	2554.012376
948.278286	2556.873231
948.579641	2552.928528
948.880958	2558.141081
949.182236	2557.984805
949.483476	2555.227294
949.784678	2555.645710
950.085841	2554.392983
950.386967	2555.169321
950.688054	2553.810730
950.989103	2557.684857
951.290114	2555.617983
951.591087	2561.138047
951.892021	2560.391956
952.192917	2559.156873
952.493776	2560.868345
952.794596	2563.290620
953.095378	2562.912533
953.396122	2563.686350
953.696828	2558.188972
953.997496	2559.668551
954.298126	2557.720145
954.598718	2558.614949
954.899272	2556.583364
955.199788	2555.292829
955.500266	2554.720658
955.800706	2550.443239
956.101108	2546.589277
956.401472	2546.831252
956.701798	2545.346633
957.002087	2542.599204
957.302337	2545.011396
957.602550	2546.125491
957.902724	2543.473844
958.202861	2546.990049
958.502960	2546.997610
958.803022	2547.910059
959.103045	2544.005686
959.403031	2544.073741
959.702979	2543.801519
960.002889	2544.436704
960.302762	2539.007382
960.602596	2544.424101
960.902393	2544.635830
961.202153	2543.501570
961.501875	2542.319420
961.801559	2541.691796
962.101205	2544.393854
962.400814	2544.824873
962.700385	2545.059287
962.999918	2541.291024
963.299414	2542.354708
963.598873	2540.582742
963.898293	2541.144831
964.197677	2541.742207
964.497022	2541.984183
964.796331	2540.436549
965.095601	2541.926210
965.394835	2543.110881
965.694030	2541.497712
965.993189	2539.375386
966.292309	2538.760365
966.591393	2539.322454
966.890439	2540.121477
967.189447	2540.552495
967.488419	2539.806404
967.787353	2538.863709
968.086249	2540.557536
968.385108	2541.921168
968.683930	2537.878163
968.982714	2542.238761
969.281462	2542.420243
969.580172	2539.221631
969.878844	2541.195242
970.177480	2543.443597
970.476078	2541.074255
970.774639	2541.449821
971.073162	2539.718184
971.371649	2539.549306
971.670098	2540.980993
971.968510	2537.638708
972.266885	2539.140972
972.565223	2540.413863
972.863524	2541.991745
973.161788	2543.068031
973.460014	2542.263967
973.758204	2541.222969
974.056356	2542.692465
974.354471	2541.817825
974.652550	2542.914276
974.950591	2543.027702
975.248595	2543.451159
975.546563	2543.355377
975.844493	2540.378575
976.142386	2541.732125
976.440243	2540.771785
976.738062	2540.197094
977.035845	2541.117104
977.333590	2540.244985
977.631299	2539.017464
977.928971	2541.359080
978.226606	2540.474357
978.524204	2539.811446
978.821765	2538.382278
979.119290	2539.841692
979.416777	2540.451672
979.714228	2537.737011
980.011642	2540.670962
980.309020	2542.750438
980.606360	2536.317926
980.903664	2541.525438
981.200931	2539.645087
981.498162	2540.144162
981.795356	2543.705737
982.092513	2547.917621
982.389633	2548.119267
982.686717	2549.003990
982.983764	2554.047664
983.280775	2555.744012
983.577749	2556.389280
983.874686	2550.292004
984.171587	2549.114895
984.468451	2548.731767
984.765279	2544.983669
985.062070	2544.555171
985.358824	2541.485109
985.655543	2541.787578
985.952224	2544.749256
986.248869	2541.553164
986.545478	2536.111239
986.842050	2537.605941
987.138586	2534.704757
987.435086	2534.382123
987.731549	2530.906247
988.027975	2538.563760
988.324366	2536.680889
988.620719	2539.451003
988.917037	2539.491332
989.213318	2539.198945
989.509563	2536.753986
989.805772	2538.389840
990.101944	2538.336908
990.398080	2535.695343
990.694180	2536.748945
990.990244	2537.510159
991.286271	2536.789274
991.582262	2535.430683
991.878217	2538.042001
992.174136	2537.157278
992.470019	2537.996630
992.765865	2536.070909
993.061676	2537.303472
993.357450	2537.918492
993.653188	2536.806918
993.948890	2538.553678
994.244556	2538.064686
994.540186	2540.683565
994.835780	2539.153575
995.131337	2538.780530
995.426859	2537.656352
995.722345	2538.682227
996.017795	2542.561395
996.313208	2542.558874
996.608586	2543.287321
996.903928	2539.219110
997.199234	2540.139121
997.494504	2543.080634
997.789738	2542.228679
998.084936	2541.943854
998.380099	2539.917310
998.675225	2539.637526
998.970316	2538.770447
999.265371	2537.116949
999.560390	2536.063348
999.855373	2538.404964
1000.150320	2536.290200
1000.445232	2536.219623
1000.740108	2538.019315
1001.034948	2539.183822
1001.329752	2535.055117
1001.624521	2537.580735
1001.919254	2531.685106
1002.213951	2534.553522
1002.508613	2534.263656
1002.803239	2535.607123
1003.097829	2531.493542
1003.392384	2538.276414
1003.686903	2536.658204
1003.981386	2535.856660
1004.275834	2536.506969
1004.570246	2535.770961
1004.864623	2536.943029
1005.158964	2534.036804
1005.453270	2538.283976
1005.747540	2535.491177
1006.041775	2535.075282
1006.335974	2536.701054
1006.630138	2536.461599
1006.924266	2534.404808
1007.218359	2536.418749
1007.512416	2535.609644
1007.806438	2537.363965
1008.100425	2532.660569
1008.394376	2535.707946
1008.688292	2536.872453
1008.982172	2535.513862
1009.276017	2534.041845
1009.569827	2536.532175
1009.863602	2536.819521
1010.157341	2535.213913
1010.451045	2534.755168
1010.744714	2536.713657
1011.038347	2536.073430
1011.331945	2534.160312
1011.625508	2536.980838
1011.919036	2534.634181
1012.212528	2535.987730
1012.505986	2534.586290
1012.799408	2536.088553
1013.092795	2536.751465
1013.386147	2538.256250
1013.679464	2533.986392
1013.972745	2535.544109
1014.265992	2532.327853
1014.559204	2537.300951
1014.852380	2536.504449
1015.145521	2538.102494
1015.438628	2535.614685
1015.731699	2535.909593
1016.024736	2536.312885
1016.317737	2537.404295
1016.610703	2538.006713
1016.903635	2531.342307
1017.196531	2531.249046
1017.489393	2535.445806
1017.782219	2531.238963
1018.075011	2533.336083
1018.367768	2533.172246
1018.660490	2538.460416
1018.953177	2538.460416
1019.245829	2538.460416
