Dividing Wavelength (nm)	Counts (n)	Blue Motor Position (mm): 42.300000	Red Motor Position (mm): 0.000000	
326.493990	2257.360637
326.888308	2257.360637
327.282561	2257.360637
327.676750	2216.776828
328.070874	2212.743905
328.464933	2216.673484
328.858929	2217.855635
329.252859	2223.957951
329.646726	2231.081102
330.040528	2242.910169
330.434265	2256.249062
330.827938	2277.220262
331.221547	2293.029321
331.615091	2308.805612
332.008571	2326.976451
332.401986	2347.040243
332.795338	2367.913141
333.188625	2386.716644
333.581847	2405.202556
333.975006	2426.418252
334.368100	2446.270315
334.761129	2461.219857
335.154095	2479.683083
335.546996	2506.214676
335.939833	2546.128011
336.332606	2560.364230
336.725315	2572.967114
337.117960	2586.613518
337.510540	2596.184148
337.903056	2608.396344
338.295508	2616.953702
338.687896	2629.717904
339.080220	2631.071454
339.472480	2641.098309
339.864676	2644.307003
340.256807	2647.929072
340.648875	2652.473672
341.040879	2655.871410
341.432818	2657.550114
341.824694	2662.185455
342.216506	2661.202430
342.608253	2664.101094
342.999937	2664.917761
343.391557	2664.098573
343.783113	2663.896927
344.174605	2661.729231
344.566033	2662.349293
344.957397	2660.889879
345.348697	2657.935762
345.739934	2657.378715
346.131106	2656.176400
346.522215	2653.930566
346.913260	2654.225473
347.304241	2652.226656
347.695159	2649.927890
348.086012	2650.888229
348.476802	2645.002682
348.867528	2642.587970
349.258191	2639.802732
349.648789	2638.020684
350.039324	2635.805097
350.429796	2637.433390
350.820203	2637.967752
351.210548	2637.181332
351.600828	2636.941877
351.991045	2635.366517
352.381198	2633.743265
352.771288	2634.005405
353.161314	2629.843933
353.551276	2632.503141
353.941175	2631.187400
354.331010	2632.349386
354.720782	2630.398460
355.110490	2629.942235
355.500135	2632.160343
355.889717	2630.758902
356.279235	2629.697739
356.668689	2631.447020
357.058080	2632.692185
357.447408	2632.288892
357.836672	2631.411732
358.225873	2634.073461
358.615010	2632.034314
359.004084	2633.105559
359.393095	2633.082874
359.782043	2636.997330
360.170927	2637.065386
360.559748	2636.699902
360.948505	2638.585293
361.337199	2638.134110
361.725830	2640.594193
362.114398	2637.471198
362.502903	2637.849285
362.891344	2641.599903
363.279722	2640.765592
363.668037	2642.335912
364.056289	2642.802219
364.444478	2643.507980
364.832603	2645.403454
365.220665	2643.946561
365.608665	2644.506129
365.996601	2645.234575
366.384474	2646.797333
366.772284	2646.958650
367.160031	2645.993269
367.547715	2648.929741
367.935336	2648.024854
368.322893	2647.833290
368.710388	2645.952940
369.097820	2648.634834
369.485189	2645.743732
369.872495	2650.563075
370.259738	2653.923004
370.646918	2652.650113
371.034035	2651.518374
371.421090	2652.445946
371.808081	2653.186996
372.195010	2654.112047
372.581875	2653.786893
372.968678	2654.722027
373.355418	2655.274033
373.742096	2655.785710
374.128710	2655.468118
374.515262	2655.460556
374.901751	2658.081956
375.288177	2657.164466
375.674540	2658.092038
376.060841	2659.662358
376.447079	2657.124137
376.833254	2659.778304
377.219367	2658.243273
377.605417	2659.974909
377.991404	2659.906854
378.377329	2664.383398
378.763191	2663.942297
379.148991	2664.930363
379.534727	2663.602019
379.920402	2666.956907
380.306013	2666.793070
380.691563	2670.755417
381.077049	2672.875222
381.462474	2675.907476
381.847835	2682.894515
382.233134	2688.374249
382.618371	2696.855991
383.003545	2708.974925
383.388657	2723.974878
383.773706	2740.308216
384.158693	2763.817637
384.543618	2787.019548
384.928480	2820.636482
385.313280	2851.873992
385.698017	2884.177706
386.082692	2932.103956
386.467305	2966.635859
386.851856	3011.353415
387.236344	3071.055800
387.620770	3118.319138
388.005133	3173.023218
388.389435	3230.139492
388.773674	3276.167747
389.157851	3352.775641
389.541965	3429.381015
389.926018	3450.604273
390.310008	3551.008934
390.693936	3626.311169
391.077802	3689.002959
391.461606	3729.735482
391.845348	3817.297803
392.229027	3901.709404
392.612645	3948.856795
392.996200	4057.755801
393.379694	4149.598062
393.763125	4267.278758
394.146494	4328.304445
394.529801	4418.296603
394.913047	4520.710164
395.296230	4521.655381
395.679351	4646.711284
396.062410	4731.052308
396.445408	4742.833485
396.828343	4827.187112
397.211217	4905.219133
397.594028	4826.864478
397.976778	4957.803408
398.359466	5023.325806
398.742092	5067.176282
399.124656	4999.274461
399.507158	5127.934789
399.889598	5199.534297
400.271977	5337.495554
400.654294	5341.672150
401.036549	5388.073451
401.418742	5319.803625
401.800874	5530.604514
402.182944	5593.596252
402.564952	5704.473910
402.946898	5767.044712
403.328783	5620.435355
403.710606	5635.125277
404.092367	5956.103105
404.474067	5975.551876
404.855705	5884.682558
405.237282	5823.306509
405.618797	6067.079065
406.000250	6054.582045
406.381642	6259.580566
406.762972	6273.516836
407.144240	6336.553944
407.525447	6315.993598
407.906593	6351.425348
408.287677	6501.140056
408.668700	6417.192241
409.049661	6534.900663
409.430560	6563.526855
409.811399	6421.615854
410.192176	6696.174736
410.572891	6700.258071
410.953545	6896.968935
411.334138	6629.303830
411.714669	6801.746580
412.095139	6592.571463
412.475547	6845.433219
412.855894	6912.629279
413.236180	7083.799138
413.616405	6769.026971
413.996568	6986.146947
414.376670	7022.632297
414.756711	6917.378046
415.136691	7013.275916
415.516609	7223.585293
415.896466	7214.347378
416.276262	7405.155051
416.655997	7385.721403
417.035670	7577.370949
417.415283	7916.333092
417.794834	7969.497101
418.174324	7831.772778
418.553753	7749.975016
418.933121	8060.678971
419.312428	8157.648086
419.691674	7942.201773
420.070859	8418.822705
420.449983	8099.387471
420.829045	8457.962223
421.208047	8233.194818
421.586988	8536.752937
421.965867	8554.643993
422.344686	8659.096700
422.723444	8712.129639
423.102141	8070.973007
423.480777	8820.847162
423.859352	8342.487033
424.237866	8962.717835
424.616319	8834.082712
424.994712	9253.045446
425.373044	8804.375192
425.751314	9275.899517
426.129524	9144.910176
426.507673	9254.262885
426.885762	9407.438345
427.263789	9327.231066
427.641756	9249.882122
428.019662	9343.030043
428.397508	9598.866080
428.775292	9281.787585
429.153016	9653.723916
429.530679	9488.825253
429.908282	9517.088482
430.285824	9237.085153
430.663305	9923.244165
431.040726	9378.451710
431.418086	9360.497641
431.795385	9687.550058
432.172624	9779.702350
432.549802	9682.700468
432.926920	9769.577193
433.303977	9643.742431
433.680974	9854.770172
434.057910	9941.014232
434.434786	10009.052165
434.811601	9838.159570
435.188355	10406.272403
435.565050	10142.274738
435.941683	10069.427544
436.318257	10550.582994
436.694770	10702.336848
437.071222	10761.104099
437.447614	10598.105951
437.823946	10506.190593
438.200218	10625.426484
438.576429	10452.088930
438.952580	10697.431805
439.328670	10733.907074
439.704700	10531.046002
440.080670	10518.725422
440.456580	11056.908924
440.832429	10828.360653
441.208218	10426.862996
441.583947	10744.604402
441.959616	10908.361244
442.335224	10717.636750
442.710773	10835.277116
443.086261	11054.398430
443.461689	10327.827008
443.837057	10997.433391
444.212365	11250.832030
444.587612	10890.296269
444.962800	11112.185176
445.337927	10868.878927
445.712995	10498.364202
446.088002	11562.793754
446.462949	11244.439847
446.837837	11215.301978
447.212664	11169.498054
447.587431	11724.740821
447.962139	12462.082668
448.336786	14745.135545
448.711374	15257.994811
449.085901	13083.924118
449.460369	12724.066392
449.834776	12168.553923
450.209124	13077.335330
450.583412	13494.130368
450.957640	14428.888841
451.331808	13521.337476
451.705917	12552.783108
452.079965	11825.707571
452.453954	12730.203997
452.827883	12374.558155
453.201752	12672.583608
453.575562	12200.605580
453.949311	12619.114610
454.323001	12587.156215
454.696632	12823.384685
455.070202	13101.832817
455.443713	13315.073625
455.817164	13797.542295
456.190556	13779.729378
456.563888	14140.615499
456.937160	14300.473008
457.310373	13649.690294
457.683526	13743.359973
458.056619	13275.107357
458.429653	13456.518320
458.802628	12852.545239
459.175542	13244.157193
459.548398	14200.751424
459.921194	14547.618096
460.293930	14615.590494
460.666607	15480.854140
461.039224	16532.766508
461.411782	17255.867095
461.784280	17067.194350
462.156719	17156.236251
462.529099	16838.663723
462.901419	15771.748882
463.273680	15546.588266
463.645882	15432.257417
464.018024	15155.795499
464.390106	15387.318051
464.762130	16104.114676
465.134094	16891.479892
465.505999	18926.480274
465.877845	22189.921627
466.249631	25004.314641
466.621358	24645.515557
466.993026	23219.032856
467.364634	22644.331235
467.736184	21168.407418
468.107674	20361.069150
468.479105	20507.411326
468.850477	19961.726586
469.221790	19561.332942
469.593043	18881.548469
469.964238	18307.913053
470.335373	17952.763764
470.706449	18439.217466
471.077467	18001.945261
471.448425	19856.018631
471.819324	23975.979750
472.190164	25868.489398
472.560945	22230.384449
472.931667	19916.759494
473.302330	19296.684968
473.672934	18899.981448
474.043479	19154.655500
474.413965	18972.473241
474.784393	18558.455878
475.154761	19315.301949
475.525070	19254.891282
475.895321	18956.142423
476.265513	19558.983764
476.635645	20138.718977
477.005719	19907.188863
477.375734	20098.326732
477.745691	20583.368911
478.115588	21124.211622
478.485427	21663.413438
478.855207	22735.467735
479.224928	24530.738566
479.594591	26762.464936
479.964194	26707.939816
480.333739	26931.608250
480.703226	26504.277200
481.072653	26215.388838
481.442022	26818.273029
481.811333	27745.910872
482.180584	27636.439696
482.549777	26682.101382
482.918912	26339.940626
483.287988	26479.134445
483.657005	26111.873785
484.025964	25894.224488
484.394864	25780.433043
484.763706	25434.856906
485.132489	24903.635237
485.501213	25069.466513
485.869879	24986.685726
486.238487	24819.211033
486.607036	24961.237981
486.975527	24692.952815
487.343959	24993.599668
487.712333	24916.255765
488.080648	24575.803961
488.448905	25066.603138
488.817104	24831.725698
489.185244	25525.932912
489.553326	25481.338865
489.921350	26509.399012
490.289315	28843.027266
490.657222	30576.750650
491.025070	31094.736769
491.392861	30845.058501
491.760593	30000.740849
492.128267	29068.812985
492.495883	28011.309978
492.863440	27145.126321
493.230939	26284.316534
493.598380	26125.479859
493.965763	25724.360289
494.333088	25238.854323
494.700354	25199.210690
495.067563	25054.363216
495.434713	24811.314066
495.801805	24973.896318
496.168839	24769.590956
496.535815	24622.737103
496.902733	24849.934345
497.269593	24535.222672
497.636395	24699.440780
498.003139	24643.471369
498.369825	24386.269179
498.736453	24604.606593
499.103023	24461.946981
499.469535	24470.337981
499.835989	24687.717576
500.202385	24706.695000
500.568723	24234.580860
500.935003	24437.923362
501.301226	24094.376289
501.667390	24946.356495
502.033497	25166.455792
502.399546	24891.617126
502.765537	24439.032416
503.131470	24817.184489
503.497345	24949.608039
503.863163	24200.215314
504.228923	24761.459575
504.594625	24995.258208
504.960269	24550.963675
505.325856	25012.496433
505.691385	24417.264714
506.056856	25032.966039
506.422270	25008.652554
506.787625	24546.623242
507.152924	24976.681556
507.518164	25007.538459
507.883347	24825.880480
508.248472	24507.503888
508.613540	25283.067763
508.978550	25081.867752
509.343503	25084.227012
509.708398	25309.163296
510.073236	25483.556972
510.438016	25682.211201
510.802738	25346.460273
511.167403	25602.356804
511.532010	25336.519118
511.896561	26079.630565
512.261053	26046.411882
512.625488	25881.382149
512.989866	25765.685147
513.354186	25613.681756
513.718449	25734.858492
514.082655	26117.782017
514.446803	25832.291392
514.810894	26323.763563
515.174927	25803.700488
515.538904	25844.478382
515.902822	26330.841343
516.266684	26076.263074
516.630488	25987.788303
516.994235	25941.906242
517.357925	26273.546109
517.721558	26439.770596
518.085133	26549.987863
518.448651	26434.946211
518.812112	26205.835851
519.175516	26411.088951
519.538863	26562.288278
519.902152	26355.268254
520.265385	26628.367723
520.628560	26414.849652
520.991678	26406.735914
521.354739	26471.151778
521.717743	26543.699023
522.080690	26339.663362
522.443580	26667.592941
522.806413	26641.401626
523.169189	26751.323986
523.531908	26784.973688
523.894569	26415.736895
524.257174	26504.196542
524.619722	26657.308987
524.982213	26361.836878
525.344647	26405.032004
525.707025	26556.518677
526.069345	26522.924428
526.431608	26486.255075
526.793815	26666.020101
527.155964	26141.644319
527.518057	26327.337741
527.880093	26245.146769
528.242072	26461.475283
528.603995	26181.197212
528.965860	25975.777754
529.327669	26027.928491
529.689421	26011.257395
530.051117	25848.259247
530.412755	26019.419023
530.774337	25806.342053
531.135862	25692.749733
531.497331	25881.291408
531.858743	25465.996113
532.220098	25924.335300
532.581396	25626.743386
532.942638	25520.367478
533.303824	25642.514635
533.664953	25630.786391
534.026025	25301.997296
534.387040	25537.199890
534.747999	25595.064775
535.108902	25751.985812
535.469748	25248.175417
535.830537	25418.332003
536.191270	25559.713683
536.551947	25394.658745
536.912567	25023.153433
537.273131	25447.459790
537.633638	25113.352278
537.994089	25338.091958
538.354483	24836.812222
538.714821	25350.246179
539.075103	25379.749532
539.435328	25153.043803
539.795497	24758.525623
540.155609	25108.147287
540.515665	25428.154692
540.875665	24630.954184
541.235609	24966.284176
541.595496	24908.220166
541.955328	25261.073209
542.315102	25191.064185
542.674821	24699.339957
543.034483	24595.950932
543.394090	24759.682568
543.753640	24566.974380
544.113134	25205.933068
544.472571	24772.681183
544.831953	25093.359062
545.191278	24730.224586
545.550548	24623.793225
545.909761	24818.162473
546.268918	25053.579317
546.628019	25027.140985
546.987064	24721.291661
547.346053	24462.057886
547.704986	24558.318719
548.063863	24727.343566
548.422684	24750.815178
548.781449	24257.129941
549.140158	24666.970708
549.498811	24247.274485
549.857408	24000.822556
550.215949	24400.308793
550.574434	24090.066103
550.932864	24292.173522
551.291237	24464.936385
551.649555	24320.119158
552.007817	24383.463777
552.366022	24224.516196
552.724173	24258.201186
553.082267	24225.703388
553.440305	24718.750919
553.798288	23945.087559
554.156215	24447.907367
554.514086	24571.435801
554.871902	23948.949083
555.229661	24225.020312
555.587365	24074.796448
555.945014	23975.941941
556.302606	24196.449572
556.660143	24173.537528
557.017625	24411.888323
557.375050	23928.033336
557.732421	24319.035310
558.089735	24144.329083
558.446994	24185.948849
558.804197	24242.775256
559.161345	24137.120233
559.518437	23924.544857
559.875474	24095.031639
560.232455	24279.989053
560.589381	24094.978707
560.946251	24096.727988
561.303065	24394.012392
561.659825	24501.482230
562.016528	24090.106432
562.373177	23838.172248
562.729770	24198.460993
563.086307	24041.693711
563.442789	24208.976840
563.799216	24073.533639
564.155587	24059.665424
564.511904	24041.323186
564.868164	23988.358303
565.224370	23950.254742
565.580520	23871.627865
565.936615	24002.707948
566.292654	23692.465258
566.648638	23951.033600
567.004567	23782.827940
567.360441	23720.841913
567.716260	23455.417601
568.072023	23769.279839
568.427732	23554.138517
568.783385	23316.059944
569.138982	23564.830804
569.494525	23590.492798
569.850013	23351.307692
570.205445	23448.123051
570.560823	23257.844699
570.916145	23026.672507
571.271412	23211.309808
571.626625	22961.903763
571.981782	23069.308066
572.336884	22880.789077
572.691931	23008.370598
573.046923	22749.121700
573.401860	22627.561837
573.756743	22661.304800
574.111570	22541.761398
574.466342	22475.079536
574.821059	22555.982493
575.175722	22253.336822
575.530330	22234.482907
575.884882	22245.495307
576.239380	22162.361639
576.593823	22056.207542
576.948211	22031.757946
577.302544	21882.940564
577.656823	21740.228019
578.011047	21855.867047
578.365216	21716.219524
578.719330	21589.048857
579.073389	21474.322277
579.427394	21637.756485
579.781344	21383.377341
580.135239	21278.591918
580.489080	21224.424719
580.842866	21011.219200
581.196597	21218.483720
581.550273	21185.869975
581.903895	21059.901622
582.257463	21365.203982
582.610975	20913.602297
582.964434	21230.355637
583.317837	20911.207749
583.671186	20998.646562
584.024481	20974.474229
584.377721	20744.877398
584.730906	20827.665747
585.084037	20811.954991
585.437113	20736.458671
585.790135	20941.356369
586.143103	20401.065665
586.496016	20425.364026
586.848874	20662.262969
587.201679	20574.181408
587.554428	20267.966600
587.907124	20608.052921
588.259765	20363.793894
588.612352	20436.157137
588.964884	20010.494709
589.317362	20172.635860
589.669786	20250.904815
590.022155	20241.278732
590.374470	20473.895214
590.726731	20243.668239
591.078937	20037.366579
591.431090	20117.238621
591.783188	19873.571929
592.135232	19841.968936
592.487222	19935.016033
592.839157	19946.668660
593.191038	19826.621143
593.542866	19713.999245
593.894639	19427.271017
594.246358	19649.575820
594.598022	19532.222799
594.949633	19293.884607
595.301190	19276.583367
595.652692	19443.032185
596.004141	19662.420680
596.355535	18993.678854
596.706876	19025.002064
597.058162	18903.643847
597.409395	19147.371032
597.760573	19197.540595
598.111698	18972.427870
598.462768	18912.385208
598.813785	18883.252379
599.164748	18685.394653
599.515657	18747.441174
599.866511	18535.715233
600.217312	18888.361589
600.568060	18403.846210
600.918753	18719.888748
601.269392	18622.160939
601.619978	18415.685360
601.970510	18596.045242
602.320988	18544.960709
602.671412	18755.741434
603.021783	18676.423919
603.372100	18388.513541
603.722363	18532.786323
604.072572	18486.329570
604.422728	18639.608373
604.772830	18383.810144
605.122878	18348.849743
605.472872	18335.145366
605.822813	18317.403025
606.172701	18288.537378
606.522534	18480.116348
606.872314	18498.408174
607.222041	18336.887084
607.571714	18553.029076
607.921333	18372.202888
608.270899	18452.483263
608.620411	18617.989385
608.969870	18405.396365
609.319276	18404.453669
609.668627	18426.544006
610.017926	18557.803049
610.367171	18670.926541
610.716362	18728.872084
611.065500	18538.974339
611.414585	18686.735600
611.763616	18665.867743
612.112594	18600.012630
612.461518	18585.559642
612.810389	18765.546478
613.159207	18625.417525
613.507971	18536.206746
613.856682	18797.938412
614.205340	18711.923725
614.553945	18876.719044
614.902496	18614.556359
615.250994	18832.140121
615.599439	18790.169994
615.947830	18768.344319
616.296169	18839.820318
616.644454	18800.950502
616.992686	18770.416233
617.340864	18982.326176
617.688990	18726.543071
618.037063	18907.893539
618.385082	18764.818032
618.733048	19042.313386
619.080961	18931.342467
619.428821	18952.797617
619.776628	18830.161468
620.124382	18768.634185
620.472083	18829.581735
620.819731	18822.813986
621.167326	18520.664868
621.514868	18553.031597
621.862357	18335.402465
622.209793	18336.342640
622.557176	18166.397782
622.904506	18006.260489
623.251783	17931.860620
623.599007	17676.143050
623.946179	17613.763812
624.293297	17540.500723
624.640363	17288.334646
624.987376	17313.734500
625.334336	17116.154037
625.681243	16955.915920
626.028097	16987.339953
626.374899	16900.657312
626.721647	16759.782268
627.068343	16593.996362
627.414987	16541.013835
627.761577	16500.659399
628.108115	16533.981426
628.454600	16263.440343
628.801032	16364.417175
629.147412	16299.010724
629.493739	16307.666386
629.840014	16114.287724
630.186236	16212.151644
630.532405	15969.478059
630.878521	16179.124524
631.224585	16082.039463
631.570597	15905.039510
631.916556	15925.383087
632.262462	15898.975002
632.608316	15821.742005
632.954117	15762.284116
633.299866	15757.784886
633.645562	15661.221584
633.991206	15439.887204
634.336797	15301.351255
634.682336	15273.191369
635.027823	15144.737728
635.373257	15020.821126
635.718639	14931.222178
636.063968	14881.851637
636.409245	14630.109017
636.754470	14657.439633
637.099642	14507.079658
637.444762	14273.631385
637.789829	14317.512108
638.134845	14153.641841
638.479808	14185.209546
638.824719	14104.493112
639.169577	13974.443945
639.514383	14009.784954
639.859137	13842.897556
640.203839	13933.918109
640.548489	13779.497485
640.893086	13765.835958
641.237632	13640.056649
641.582125	13797.350731
641.926566	13616.249800
642.270955	13631.625319
642.615292	13590.950769
642.959576	13596.284310
643.303809	13626.085091
643.647990	13562.311974
643.992118	13619.183751
644.336195	13395.013722
644.680219	13615.493627
645.024192	13518.869831
645.368112	13764.933591
645.711981	13803.231237
646.055797	13998.301206
646.399562	13976.659532
646.743274	14237.408174
647.086935	14510.616027
647.430544	14472.089009
647.774101	14512.912273
648.117606	14645.401357
648.461059	14626.426454
648.804460	14608.258136
649.147810	14337.074306
649.491108	14251.231018
649.834354	14258.840639
650.177548	13933.587914
650.520690	13755.103341
650.863781	13670.389272
651.206820	13715.623545
651.549807	13557.535481
651.892742	13350.054192
652.235626	13280.372843
652.578458	13280.082976
652.921238	12992.006240
653.263967	13183.091176
653.606644	13006.315555
653.949269	12995.406498
654.291843	12785.528140
654.634365	12954.694139
654.976836	12800.059266
655.319255	12795.209676
655.661622	12765.648350
656.003938	12685.572141
656.346203	12602.332609
656.688416	12688.629601
657.030577	12644.643013
657.372687	12542.163917
657.714746	12535.406251
658.056753	12728.910941
658.398708	12528.908203
658.740612	12542.627703
659.082465	12645.734423
659.424266	12613.254269
659.766016	12645.565544
660.107715	12550.938046
660.449362	12629.204480
660.790958	12580.615318
661.132503	12522.309333
661.473996	12596.595776
661.815438	12606.738578
662.156829	12633.398720
662.498168	12610.262344
662.839456	12603.250099
663.180693	12622.698871
663.521879	12726.178636
663.863013	12679.845391
664.204097	12669.609328
664.545129	12795.113894
664.886110	12772.582457
665.227040	12856.038759
665.567918	12864.177702
665.908746	12885.837019
666.249522	12875.588353
666.590248	12930.289914
666.930922	13040.691183
667.271545	13008.221111
667.612118	13096.683279
667.952639	12997.949760
668.293109	13025.686188
668.633528	12967.924648
668.973896	12943.507819
669.314213	13018.174869
669.654480	12758.507555
669.994695	12849.134898
670.334859	12865.019574
670.674973	12811.101913
671.015035	12839.314731
671.355047	12781.311215
671.695008	12753.728541
672.034918	12761.265066
672.374777	12813.630052
672.714585	12721.974313
673.054342	12756.493614
673.394049	12713.437119
673.733705	12810.186944
674.073310	12707.612066
674.412864	12727.184346
674.752368	12569.275243
675.091820	12620.518572
675.431223	12599.086106
675.770574	12456.769292
676.109875	12382.523178
676.449125	12342.178824
676.788324	12289.834003
677.127473	12119.637087
677.466571	12108.007145
677.805619	12006.334634
678.144616	11931.992738
678.483562	11905.511557
678.822458	11775.827874
679.161303	11757.478074
679.500098	11740.411248
679.838842	11694.045235
680.177535	11730.427243
680.516179	11792.748507
680.854771	11736.486710
681.193314	11947.370778
681.531805	12117.892848
681.870247	12553.622460
682.208638	12962.933905
682.546978	13267.049073
682.885268	13299.277169
683.223508	12999.686437
683.561697	12844.171882
683.899836	12745.604722
684.237925	12535.113864
684.575963	12463.879839
684.913951	12369.937937
685.251889	12332.220024
685.589776	12426.799632
685.927614	12343.277795
686.265401	12317.318373
686.603137	12375.044626
686.940824	12519.687933
687.278460	12653.427224
687.616046	12689.456350
687.953582	12847.597347
688.291068	12782.536215
688.628504	13024.609902
688.965889	13020.776105
689.303224	12980.557779
689.640510	12866.141231
689.977745	12553.264538
690.314930	12332.560302
690.652065	12235.659243
690.989150	11946.607043
691.326185	11712.190869
691.663170	11516.571414
692.000105	11274.543097
692.336990	11157.041363
692.673825	10892.111084
693.010610	10787.053438
693.347345	10570.782897
693.684030	10381.505214
694.020665	10327.012862
694.357251	10123.816553
694.693786	10057.747191
695.030272	9908.750848
695.366707	9785.507239
695.703093	9725.938445
696.039429	9720.965346
696.375716	9619.887691
696.711952	9496.223146
697.048139	9552.638699
697.384276	9501.158436
697.720363	9520.766004
698.056400	9450.061300
698.392388	9400.995750
698.728326	9358.927321
699.064214	9305.528899
699.400053	9343.040125
699.735842	9159.970623
700.071581	9121.304973
700.407270	9047.192450
700.742910	8975.676121
701.078501	8866.242753
701.414042	8741.007888
701.749533	8688.945372
702.084974	8554.303715
702.420366	8665.902258
702.755709	8543.800471
703.091002	8408.760562
703.426246	8437.613606
703.761440	8390.468735
704.096584	8349.476593
704.431679	8280.758104
704.766725	8267.850230
705.101721	8218.101603
705.436668	8273.874408
705.771565	8161.441554
706.106413	8246.125377
706.441212	8281.912528
706.775961	8240.423832
707.110661	8290.674054
707.445311	8417.733816
707.779913	8318.470976
708.114465	8436.033204
708.448967	8476.231365
708.783421	8640.724215
709.117825	8816.715937
709.452180	8840.346346
709.786485	8936.642466
710.120742	9220.230055
710.454949	9231.945697
710.789107	9331.629473
711.123216	9552.255571
711.457275	9723.054905
711.791286	9870.039827
712.125247	9873.757678
712.459159	9863.493889
712.793023	10092.614331
713.126837	9673.066823
713.460602	9827.406789
713.794318	9655.974791
714.127985	9679.844654
714.461602	9339.085340
714.795171	9295.769225
715.128691	9042.544506
715.462162	8803.238412
715.795584	8740.407991
716.128957	8575.221983
716.462281	8412.319617
716.795556	8459.809806
717.128782	8255.592664
717.461960	8000.457347
717.795088	8068.827996
718.128167	7973.565312
718.461198	7813.183523
718.794180	7758.164370
719.127113	7748.026610
719.459997	7578.974036
719.792833	7357.934563
720.125619	7421.518637
720.458357	7271.796367
720.791046	7273.701924
721.123686	7260.058041
721.456278	7099.948474
721.788821	7116.556555
722.121315	7023.229674
722.453761	7092.537978
722.786158	7026.549274
723.118506	7037.750718
723.450805	6997.976014
723.783056	7060.148564
724.115259	6983.719631
724.447412	6983.414641
724.779518	7029.541199
725.111574	7029.480705
725.443582	7104.664473
725.775542	7084.837615
726.107453	7277.976822
726.439315	7194.943977
726.771129	7265.268073
727.102895	7443.608973
727.434612	7543.701083
727.766281	7582.268430
728.097901	7654.971951
728.429473	7661.810276
728.760996	7645.050960
729.092471	7620.573638
729.423897	7560.339411
729.755276	7552.339100
730.086606	7474.375135
730.417887	7584.685663
730.749120	7796.981255
731.080305	7987.698187
731.411442	8095.266328
731.742530	8082.272754
732.073570	8198.990589
732.404562	8282.446891
732.735506	8131.038355
733.066401	8271.716795
733.397249	8187.204371
733.728048	7951.711910
734.058798	7618.910057
734.389501	7382.300980
734.720156	7208.129115
735.050762	6989.516958
735.381320	6903.731643
735.711831	6835.895356
736.042293	6731.165385
736.372707	6744.658033
736.703073	6609.907991
737.033391	6653.566904
737.363661	6661.476474
737.693883	6702.272012
738.024056	6783.331245
738.354182	6817.225443
738.684260	6851.066709
739.014290	6974.040616
739.344272	7084.366267
739.674207	7114.623273
740.004093	7190.114552
740.333931	7203.171140
740.663722	7204.524690
740.993464	7288.820344
741.323159	7263.191118
741.652806	7013.865731
741.982405	7049.128602
742.311956	7093.125272
742.641460	6910.295225
742.970915	6714.595112
743.300323	6710.887344
743.629683	6671.825963
743.958996	6535.515684
744.288260	6445.498320
744.617477	6390.048148
744.946647	6383.603033
745.275768	6226.268622
745.604842	6178.112999
745.933869	6159.811090
746.262847	6119.171829
746.591778	6108.421568
746.920662	6068.021761
747.249498	6066.398510
747.578286	6112.736796
747.907027	6189.420307
748.235720	6244.694039
748.564365	6216.100614
748.892963	6257.637201
749.221514	6396.543675
749.550017	6215.583896
749.878473	6105.175065
750.206881	6170.470610
750.535242	6109.976764
750.863555	6042.148039
751.191821	6052.769750
751.520039	6048.152053
751.848210	5957.925482
752.176334	5986.549153
752.504411	6030.833169
752.832440	5955.271314
753.160421	5888.874277
753.488356	5938.118788
753.816243	5967.639785
754.144082	5812.662113
754.471875	5792.580677
754.799620	5830.462427
755.127318	5838.833263
755.454969	5801.148118
755.782572	5765.522283
756.110129	5811.089273
756.437638	5786.548936
756.765100	5730.236727
757.092515	5740.949179
757.419882	5793.099916
757.747203	5759.926603
758.074477	5824.929761
758.401703	5807.474766
758.728882	5763.470534
759.056014	5833.991235
759.383099	5948.642197
759.710138	5960.052849
760.037129	5944.808399
760.364073	5950.005829
760.690970	6033.764600
761.017820	6013.932701
761.344623	5974.992308
761.671379	6077.408390
761.998088	6207.709614
762.324751	6464.768131
762.651366	7099.872857
762.977935	8462.630332
763.304456	10118.132652
763.630931	10978.771040
763.957359	10531.366115
764.283740	9570.809538
764.610074	8705.792908
764.936362	7702.618416
765.262602	7111.207891
765.588796	6573.379790
765.914943	6247.587661
766.241044	6078.051137
766.567097	5867.570361
766.893104	5611.472184
767.219064	5432.975008
767.544978	5369.048136
767.870845	5286.305158
768.196665	5179.533519
768.522438	5107.019042
768.848165	5073.843208
769.173846	5002.941900
769.499479	4960.079489
769.825066	4914.204989
770.150607	4849.935319
770.476101	4827.650898
770.801548	4822.350125
771.126949	4738.535901
771.452303	4687.068241
771.777611	4647.885873
772.102872	4663.969674
772.428087	4633.004387
772.753256	4583.795163
773.078378	4537.293040
773.403453	4470.391887
773.728482	4453.846820
774.053465	4408.153802
774.378401	4400.781114
774.703291	4395.586205
775.028135	4322.428981
775.352932	4271.846043
775.677683	4259.265843
776.002388	4275.994913
776.327046	4286.271305
776.651658	4212.640212
776.976224	4151.506139
777.300743	4156.126356
777.625216	4180.863298
777.949643	4164.890402
778.274024	4127.454794
778.598359	4089.943568
778.922647	4118.204277
779.246889	4105.114921
779.571086	4096.802058
779.895236	4079.258842
780.219339	4066.756781
780.543397	4063.250658
780.867409	4117.969863
781.191374	4127.384218
781.515294	4064.226122
781.839167	4058.910225
782.162995	4081.701282
782.486776	4069.484045
782.810511	4080.529213
783.134201	4066.603026
783.457844	4020.862116
783.781441	3970.347234
784.104993	3974.503666
784.428498	3994.728775
784.751958	3989.097806
785.075372	3968.623160
785.398739	3931.069084
785.722061	3945.753965
786.045337	3989.639730
786.368568	4015.831045
786.691752	3929.854166
787.014891	3983.865088
787.337983	4115.542547
787.661030	4285.502529
787.984031	4443.015901
788.306987	4605.706539
788.629897	4692.706772
788.952760	4645.188856
789.275579	4581.471192
789.598351	4510.693392
789.921078	4361.744939
790.243759	4160.151718
790.566395	4150.432373
790.888984	4139.309067
791.211529	4035.970454
791.534027	3977.172957
791.856480	3959.748208
792.178888	3899.163621
792.501249	3857.334647
792.823566	3866.958210
793.145836	3890.999473
793.468062	3835.849250
793.790241	3794.224442
794.112375	3824.897343
794.434464	3892.806726
794.756507	3913.200714
795.078505	3890.497878
795.400457	3933.377932
795.722364	4074.240374
796.044226	4178.080581
796.366042	4253.980194
796.687812	4226.147983
797.009538	4230.233838
797.331218	4194.149259
797.652852	4163.942665
797.974442	4138.731855
798.295986	4144.128410
798.617484	4056.419895
798.938938	3974.249087
799.260346	4019.685007
799.581709	4008.201258
799.903026	3931.668981
800.224299	3898.104979
800.545526	3891.639699
800.866708	3851.819625
801.187845	3798.058240
801.508936	3827.710307
801.829983	3818.502639
802.150984	3741.120928
802.471940	3737.435844
802.792851	3743.233171
803.113717	3745.350456
803.434538	3745.254674
803.755314	3687.697300
804.076045	3665.748116
804.396731	3684.113039
804.717372	3713.084551
805.037967	3690.825336
805.358518	3684.995241
805.679024	3712.300651
805.999485	3729.475862
806.319901	3730.899988
806.640272	3744.120414
806.960598	3755.193309
807.280879	3729.276737
807.601115	3748.299531
807.921306	3760.128598
808.241453	3802.915392
808.561554	3774.178294
808.881611	3710.173284
809.201623	3749.814398
809.521590	3758.127260
809.841513	3730.494175
810.161390	3759.606839
810.481223	3734.632963
810.801011	3681.017771
811.120755	3681.279911
811.440453	3710.810990
811.760107	3710.833675
812.079716	3666.625277
812.399281	3638.261225
812.718801	3659.723937
813.038276	3635.155874
813.357707	3632.287457
813.677093	3650.239006
813.996434	3594.390583
814.315731	3608.493211
814.634983	3615.127370
814.954191	3630.064308
815.273354	3654.597084
815.592473	3645.709529
815.911547	3658.509019
816.230577	3704.237326
816.549562	3753.547372
816.868502	3794.778969
817.187399	3816.655056
817.506250	3818.490036
817.825058	3790.814102
818.143821	3892.302611
818.462539	3990.902539
818.781213	4034.412738
819.099843	4097.202830
819.418429	4363.736195
819.736970	4601.134212
820.055466	4856.972770
820.373919	5231.522939
820.692327	5646.372092
821.010691	6132.828314
821.329011	7601.893642
821.647286	10477.629936
821.965517	15193.016859
822.283704	19211.880158
822.601847	21217.543544
822.919945	19310.409509
823.237999	16654.212945
823.556010	14142.460562
823.873976	11989.499701
824.191897	9878.650118
824.509775	8545.585039
824.827609	7411.789210
825.145398	6881.175000
825.463144	6766.156034
825.780845	6876.663167
826.098502	7100.407219
826.416116	8037.731639
826.733685	9401.958610
827.051210	10498.694397
827.368692	10450.808477
827.686129	9134.943815
828.003522	7619.164635
828.320872	6601.068328
828.638177	5887.097270
828.955439	5312.130989
829.272656	4809.787570
829.589830	4534.560734
829.906960	4359.725957
830.224046	4169.742513
830.541088	4046.665262
830.858086	3995.477386
831.175041	3917.692382
831.491952	3907.589910
831.808819	3918.604831
832.125642	3999.742202
832.442421	4154.311541
832.759157	4445.382723
833.075849	5024.530641
833.392497	5914.553915
833.709101	6704.694286
834.025662	7013.631317
834.342179	6605.461693
834.658653	5923.658238
834.975083	5265.966623
835.291469	4685.145041
835.607811	4278.989358
835.924110	4139.004077
836.240366	3932.954476
836.556578	3730.499217
836.872746	3619.130046
837.188871	3576.043304
837.504952	3511.337574
837.820990	3426.462187
838.136984	3385.096999
838.452935	3410.466606
838.768842	3405.279258
839.084706	3427.979574
839.400526	3600.324021
839.716303	3955.821149
840.032037	4503.033358
840.347727	4743.950101
840.663373	4436.953914
840.978977	4045.185684
841.294537	3738.612954
841.610054	3512.020650
841.925527	3404.807911
842.240957	3335.595389
842.556344	3280.059517
842.871687	3217.624827
843.186987	3169.328053
843.502244	3133.175418
843.817458	3097.607557
844.132629	3068.280644
844.447756	3078.579722
844.762840	3056.486865
845.077881	3025.395549
845.392879	3009.596573
845.707833	3005.218330
846.022745	3006.395440
846.337613	3005.261180
846.652438	2993.238028
846.967221	2987.400372
847.281960	2977.839824
847.596656	2973.378403
847.911309	2973.489308
848.225919	2969.037969
848.540485	2963.172587
848.855009	2960.790642
849.169490	2950.473920
849.483928	2940.371448
849.798323	2940.847837
850.112675	2936.940943
850.426984	2951.928293
850.741251	2944.762293
851.055474	2934.337187
851.369654	2931.128492
851.683792	2936.023453
851.997887	2947.537448
852.311938	2943.756583
852.625947	2931.879624
852.939914	2940.525203
853.253837	2940.540327
853.567718	2928.917946
853.881555	2927.574479
854.195350	2942.886984
854.509103	2935.935233
854.822812	2929.049016
855.136479	2926.117585
855.450103	2928.575148
855.763685	2922.442584
856.077224	2919.853952
856.390720	2932.207299
856.704173	2940.953701
857.017584	2933.102104
857.330953	2930.243770
857.644278	2937.906324
857.957561	2949.581636
858.270802	2954.302677
858.584000	2953.115485
858.897155	2938.138217
859.210268	2936.588062
859.523339	2934.274172
859.836367	2934.188473
860.149352	2926.737647
860.462295	2925.046340
860.775195	2935.000098
861.088054	2931.907351
861.400869	2913.716347
861.713642	2912.115781
862.026373	2931.418359
862.339062	2929.979109
862.651708	2934.443051
862.964312	2939.358176
863.276873	2932.971034
863.589392	2944.648867
863.901869	2956.001545
864.214303	2980.509115
864.526696	2994.004284
864.839045	2987.760815
865.151353	2989.154694
865.463619	2987.377687
865.775842	2992.071001
866.088023	3008.802591
866.400162	3014.340298
866.712258	2984.133704
867.024313	2973.756489
867.336325	2985.005824
867.648296	3007.869977
867.960224	2999.620129
868.272110	2982.666729
868.583954	2989.119406
868.895755	3003.711025
869.207515	2989.983963
869.519233	2999.325222
869.830909	3006.952487
870.142542	3011.809639
870.454134	3014.315092
870.765684	3017.758201
871.077191	3018.164013
871.388657	3026.776825
871.700081	3039.941798
872.011463	3052.469065
872.322803	3048.630227
872.634101	3050.019065
872.945357	3067.095973
873.256571	3096.435489
873.567744	3087.139601
873.878874	3083.643561
874.189963	3105.315481
874.501010	3101.930346
874.812015	3093.562031
875.122979	3092.878955
875.433900	3092.785693
875.744780	3099.198041
876.055618	3108.619957
876.366415	3102.207610
876.677169	3113.093982
876.987882	3106.371603
877.298554	3105.227261
877.609183	3129.858339
877.919771	3152.185609
878.230317	3180.983200
878.540822	3231.583782
878.851285	3274.909979
879.161707	3318.914211
879.472087	3432.340172
879.782425	3677.393181
880.092722	4134.693891
880.402977	4677.285882
880.713191	5333.452549
881.023363	6549.141923
881.333494	7850.271292
881.643583	8377.497846
881.953631	8047.128350
882.263637	7383.052112
882.573602	6765.793071
882.883526	6177.296332
883.193408	5605.047233
883.503248	5150.433459
883.813048	4835.938555
884.122806	4509.654914
884.432522	4188.914021
884.742197	3945.479222
885.051831	3755.243720
885.361424	3626.313690
885.670975	3549.579767
885.980485	3458.589460
886.289954	3375.680124
886.599382	3333.021880
886.908768	3296.586940
887.218113	3251.168665
887.527417	3192.663554
887.836680	3142.189001
888.145901	3132.872949
888.455082	3123.836680
888.764221	3067.811817
889.073319	3043.324412
889.382376	3039.178063
889.691392	3046.336502
890.000366	3044.206614
890.309300	3032.014584
890.618193	3046.316337
890.927044	3060.832340
891.235855	3059.773697
891.544625	3047.029660
891.853353	3060.965930
892.162041	3076.906059
892.470687	3119.639920
892.779293	3172.975327
893.087858	3223.033985
893.396381	3298.613484
893.704864	3427.354471
894.013306	3679.271011
894.321707	3990.035461
894.630068	4190.738919
894.938387	4177.120242
895.246665	4133.877224
895.554903	4004.682533
895.863100	3799.938590
896.171256	3629.668578
896.479371	3484.092658
896.787446	3356.929552
897.095480	3256.151845
897.403473	3189.129705
897.711425	3155.222904
898.019336	3145.163282
898.327207	3112.849486
898.635038	3075.781881
898.942827	3064.933318
899.250576	3051.806154
899.558284	3018.345495
899.865952	3000.096518
900.173579	2977.176912
900.481165	2967.971765
900.788711	2958.645631
901.096216	2934.080088
901.403681	2922.964344
901.711105	2928.406269
902.018489	2923.791093
902.325832	2929.653955
902.633135	2937.195521
902.940397	2976.329998
903.247619	3062.284192
903.554800	3268.752209
903.861941	3636.020432
904.169041	4081.106425
904.476101	4374.310015
904.783121	4304.180004
905.090100	4041.979510
905.397039	3762.402159
905.703938	3507.312212
906.010796	3325.709686
906.317614	3207.048486
906.624391	3112.990638
906.931129	3037.930378
907.237826	2974.822693
907.544483	2927.178748
907.851099	2899.510375
908.157675	2875.448948
908.464211	2855.685104
908.770707	2843.422498
909.077163	2829.292143
909.383578	2813.480564
909.689954	2801.762402
909.996289	2801.936322
910.302584	2802.286682
910.608839	2801.228040
910.915054	2794.765281
911.221229	2787.931997
911.527363	2790.858387
911.833458	2799.355251
912.139513	2802.979841
912.445527	2807.915131
912.751502	2814.776141
913.057436	2824.866010
913.363331	2839.150120
913.669186	2864.902854
913.975000	2899.666651
914.280775	2963.129737
914.586510	3037.043135
914.892205	3118.833335
915.197859	3254.226125
915.503475	3461.150367
915.809050	3685.028009
916.114585	3830.712314
916.420081	3840.356041
916.725536	3776.023356
917.030952	3654.511384
917.336328	3520.792258
917.641665	3385.107081
917.946961	3281.586987
918.252218	3210.836913
918.557435	3129.702063
918.862612	3063.811662
919.167750	3013.997500
919.472848	2976.534165
919.777906	2948.885957
920.082925	2921.636000
920.387904	2889.077708
920.692843	2873.296375
920.997743	2863.493852
921.302603	2847.087417
921.607423	2837.657938
921.912204	2823.187306
922.216946	2812.474854
922.521647	2803.368010
922.826310	2795.516413
923.130932	2787.203550
923.435516	2780.264402
923.740059	2770.056065
924.044564	2759.366298
924.349028	2755.736668
924.653454	2750.367839
924.957840	2740.698906
925.262186	2740.935840
925.566493	2737.490211
925.870761	2730.830847
926.174989	2725.215002
926.479178	2717.512119
926.783328	2712.919627
927.087438	2715.026830
927.391509	2713.635471
927.695541	2709.572301
927.999533	2706.870243
928.303486	2704.218596
928.607400	2705.292362
928.911275	2703.989223
929.215110	2703.772454
929.518906	2700.042000
929.822663	2702.784388
930.126381	2700.102494
930.430060	2700.215920
930.733699	2703.359079
931.037299	2703.694316
931.340861	2703.452341
931.644383	2704.982331
931.947866	2704.579038
932.251309	2703.265818
932.554714	2700.977134
932.858080	2702.000488
933.161407	2698.015456
933.464694	2696.961855
933.767943	2694.370702
934.071153	2695.782225
934.374323	2696.185517
934.677455	2694.950435
934.980548	2691.522450
935.283602	2692.076977
935.586617	2693.934642
935.889593	2695.356247
936.192530	2692.422296
936.495428	2693.397759
936.798287	2698.529654
937.101108	2697.397915
937.403890	2704.523586
937.706632	2708.009544
938.009336	2714.701675
938.312002	2725.938407
938.614628	2734.389902
938.917216	2737.593555
939.219765	2737.369224
939.522275	2738.765623
939.824747	2735.519120
940.127179	2735.836713
940.429573	2727.634756
940.731929	2728.348079
941.034246	2722.021431
941.336524	2723.231308
941.638763	2719.732747
941.940964	2718.462376
942.243126	2712.929710
942.545250	2714.447097
942.847335	2710.056252
943.149381	2705.620037
943.451389	2702.983513
943.753359	2701.997968
944.055290	2699.018646
944.357182	2698.375899
944.659036	2695.648634
944.960851	2695.787266
945.262628	2691.552697
945.564367	2696.598892
945.866067	2694.524457
946.167729	2694.330373
946.469352	2693.566638
946.770937	2696.402287
947.072484	2694.315249
947.373992	2694.474046
947.675462	2692.981864
947.976893	2688.797706
948.278286	2684.878209
948.579641	2686.425843
948.880958	2685.399969
949.182236	2688.293591
949.483476	2685.037006
949.784678	2688.477593
950.085841	2686.829136
950.386967	2686.181348
950.688054	2687.718899
950.989103	2691.940866
951.290114	2688.132274
951.591087	2690.872141
951.892021	2691.212419
952.192917	2697.786084
952.493776	2697.468491
952.794596	2700.072247
953.095378	2698.315405
953.396122	2695.961186
953.696828	2696.790456
953.997496	2695.262986
954.298126	2690.909950
954.598718	2689.286698
954.899272	2687.572706
955.199788	2686.977850
955.500266	2680.951150
955.800706	2680.157169
956.101108	2676.900583
956.401472	2678.075172
956.701798	2677.253464
957.002087	2670.329439
957.302337	2668.592762
957.602550	2671.564522
957.902724	2667.647545
958.202861	2669.212824
958.502960	2667.478667
958.803022	2667.329953
959.103045	2664.348110
959.403031	2663.249139
959.702979	2662.737462
960.002889	2662.702173
960.302762	2662.918943
960.602596	2661.434323
960.902393	2661.058757
961.202153	2663.662513
961.501875	2662.402225
961.801559	2660.171514
962.101205	2660.894920
962.400814	2661.068840
962.700385	2659.899292
962.999918	2660.073212
963.299414	2657.358550
963.598873	2658.545742
963.898293	2653.970895
964.197677	2658.696977
964.497022	2659.783345
964.796331	2662.248470
965.095601	2658.495331
965.394835	2657.978612
965.694030	2657.408962
965.993189	2657.358550
966.292309	2655.886533
966.591393	2657.114054
966.890439	2657.013231
967.189447	2657.966009
967.488419	2655.659682
967.787353	2658.455001
968.086249	2655.145484
968.385108	2655.851245
968.683930	2657.172028
968.982714	2658.515495
969.281462	2657.630773
969.580172	2659.077584
969.878844	2656.778818
970.177480	2657.255207
970.476078	2657.315701
970.774639	2659.498520
971.073162	2656.226811
971.371649	2654.948879
971.670098	2659.616987
971.968510	2656.955258
972.266885	2656.360402
972.565223	2659.705207
972.863524	2657.474497
973.161788	2657.230001
973.460014	2656.342758
973.758204	2657.361071
974.056356	2658.313849
974.354471	2659.143119
974.652550	2658.732265
974.950591	2657.832419
975.248595	2657.028355
975.546563	2655.586585
975.844493	2656.884682
976.142386	2656.093221
976.440243	2657.446771
976.738062	2657.214878
977.035845	2655.248827
977.333590	2656.499034
977.631299	2655.332007
977.928971	2654.341420
978.226606	2655.450474
978.524204	2655.203457
978.821765	2652.080462
979.119290	2654.810247
979.416777	2656.370484
979.714228	2654.880823
980.011642	2656.516678
980.309020	2655.258910
980.606360	2657.267810
980.903664	2653.791934
981.200931	2653.839825
981.498162	2654.316214
981.795356	2656.050371
982.092513	2660.156391
982.389633	2660.831905
982.686717	2664.736279
982.983764	2667.546722
983.280775	2675.357990
983.577749	2675.272291
983.874686	2674.548885
984.171587	2670.140396
984.468451	2668.801970
984.765279	2667.077895
985.062070	2664.060764
985.358824	2660.965496
985.655543	2661.346103
985.952224	2660.032882
986.248869	2655.475679
986.545478	2655.581544
986.842050	2655.203457
987.138586	2656.161276
987.435086	2655.395021
987.731549	2655.909219
988.027975	2651.392345
988.324366	2653.376039
988.620719	2651.450318
988.917037	2650.757159
989.213318	2653.446615
989.509563	2650.618528
989.805772	2648.448311
990.101944	2650.366470
990.398080	2650.195071
990.694180	2648.380255
990.990244	2650.580719
991.286271	2651.556182
991.582262	2651.541059
991.878217	2651.805719
992.174136	2652.992911
992.470019	2649.670791
992.765865	2647.992087
993.061676	2650.066521
993.357450	2651.036943
993.653188	2646.575522
993.948890	2651.339413
994.244556	2653.930566
994.540186	2653.305463
994.835780	2653.428971
995.131337	2655.878972
995.426859	2655.493323
995.722345	2654.308652
996.017795	2655.437871
996.313208	2656.425937
996.608586	2657.131698
996.903928	2657.081287
997.199234	2658.233191
997.494504	2654.275885
997.789738	2657.963489
998.084936	2655.896616
998.380099	2655.271513
998.675225	2655.977274
998.970316	2653.764208
999.265371	2653.060967
999.560390	2651.498209
999.855373	2652.382932
1000.150320	2653.774290
1000.445232	2651.019299
1000.740108	2650.028713
1001.034948	2650.895791
1001.329752	2652.148518
1001.624521	2648.483599
1001.919254	2649.746408
1002.213951	2650.278250
1002.508613	2649.945534
1002.803239	2648.057622
1003.097829	2650.507622
1003.392384	2649.771614
1003.686903	2649.088537
1003.981386	2647.661891
1004.275834	2651.097437
1004.570246	2651.004176
1004.864623	2649.028044
1005.158964	2650.169865
1005.453270	2652.473672
1005.747540	2648.881850
1006.041775	2648.463434
1006.335974	2650.401758
1006.630138	2652.093065
1006.924266	2651.142808
1007.218359	2648.763383
1007.512416	2647.387148
1007.806438	2646.837662
1008.100425	2646.935965
1008.394376	2642.850110
1008.688292	2646.706592
1008.982172	2650.235400
1009.276017	2649.731285
1009.569827	2649.995945
1009.863602	2648.705410
1010.157341	2650.575678
1010.451045	2648.644916
1010.744714	2648.612148
1011.038347	2650.608445
1011.331945	2648.959988
1011.625508	2647.094761
1011.919036	2650.132056
1012.212528	2648.279432
1012.505986	2647.924031
1012.799408	2648.662560
1013.092795	2650.709268
1013.386147	2647.480409
1013.679464	2647.704741
1013.972745	2648.478558
1014.265992	2648.445790
1014.559204	2648.972591
1014.852380	2649.575009
1015.145521	2649.287663
1015.438628	2648.523928
1015.731699	2649.968219
1016.024736	2646.784730
1016.317737	2648.523928
1016.610703	2646.663742
1016.903635	2647.679535
1017.196531	2647.606438
1017.489393	2649.854793
1017.782219	2647.273722
1018.075011	2645.789102
1018.367768	2647.208187
1018.660490	2648.682725
1018.953177	2648.682725
1019.245829	2648.682725
