Dividing Wavelength (nm)	Counts (n)	Blue Motor Position (mm): 10.000000	Red Motor Position (mm): 0.000000	
326.493990	2138.696916
326.888308	2138.696916
327.282561	2138.696916
327.676750	2105.775661
328.070874	2104.492688
328.464933	2107.240116
328.858929	2115.242948
329.252859	2125.010184
329.646726	2135.631895
330.040528	2145.310910
330.434265	2164.742038
330.827938	2182.164265
331.221547	2199.737728
331.615091	2219.408310
332.008571	2241.803636
332.401986	2259.798035
332.795338	2279.960129
333.188625	2296.676596
333.581847	2314.459266
333.975006	2336.055569
334.368100	2353.586181
334.761129	2371.512524
335.154095	2386.825029
335.546996	2406.157854
335.939833	2420.494896
336.332606	2438.660694
336.725315	2451.598815
337.117960	2459.783128
337.510540	2467.796042
337.903056	2478.100161
338.295508	2485.329175
338.687896	2497.375012
339.080220	2502.597648
339.472480	2510.250119
339.864676	2516.470903
340.256807	2518.913342
340.648875	2521.325534
341.040879	2525.280320
341.432818	2527.183355
341.824694	2530.573531
342.216506	2526.253262
342.608253	2527.732841
342.999937	2528.552028
343.391557	2526.477594
343.783113	2525.804600
344.174605	2523.951976
344.566033	2525.595392
344.957397	2521.864938
345.348697	2520.637417
345.739934	2520.251769
346.131106	2515.029133
346.522215	2515.117353
346.913260	2515.311438
347.304241	2511.117198
347.695159	2510.623165
348.086012	2507.235509
348.476802	2506.960767
348.867528	2503.807525
349.258191	2504.974552
349.648789	2502.481701
350.039324	2501.140754
350.429796	2500.601351
350.820203	2498.713439
351.210548	2495.885352
351.600828	2496.540702
351.991045	2494.380567
352.381198	2493.049702
352.771288	2495.287975
353.161314	2492.648931
353.551276	2497.843840
353.941175	2492.747233
354.331010	2495.865187
354.720782	2493.944507
355.110490	2490.350165
355.500135	2492.482573
355.889717	2495.547594
356.279235	2495.247646
356.668689	2494.993067
357.058080	2493.700011
357.447408	2490.284630
357.836672	2492.757316
358.225873	2492.076760
358.615010	2491.222284
359.004084	2496.331494
359.393095	2496.104642
359.782043	2496.639004
360.170927	2499.572956
360.559748	2498.015239
360.948505	2501.629746
361.337199	2499.855260
361.725830	2501.559170
362.114398	2502.489263
362.502903	2502.685868
362.891344	2499.525065
363.279722	2503.132010
363.668037	2502.370796
364.056289	2502.267452
364.444478	2505.256857
364.832603	2503.384068
365.220665	2505.156033
365.608665	2505.521517
365.996601	2505.834069
366.384474	2503.893224
366.772284	2505.992865
367.160031	2505.125787
367.547715	2505.619820
367.935336	2504.339367
368.322893	2507.830366
368.710388	2506.713750
369.097820	2508.614265
369.485189	2507.313647
369.872495	2507.984121
370.259738	2505.150992
370.646918	2508.198370
371.034035	2505.259377
371.421090	2508.808349
371.808081	2510.633247
372.195010	2508.369769
372.581875	2511.437311
372.968678	2509.816580
373.355418	2511.437311
373.742096	2510.902949
374.128710	2511.631396
374.515262	2512.742970
374.901751	2510.164420
375.288177	2511.903618
375.674540	2509.866992
376.060841	2511.807836
376.447079	2512.153155
376.833254	2514.232631
377.219367	2506.875067
377.605417	2512.127949
377.991404	2509.393123
378.377329	2508.019409
378.763191	2506.597803
379.148991	2513.562158
379.534727	2510.406395
379.920402	2512.690038
380.306013	2512.148114
380.691563	2513.877230
381.077049	2513.547034
381.462474	2515.031654
381.847835	2516.143228
382.233134	2514.880419
382.618371	2515.112312
383.003545	2516.639782
383.388657	2516.929648
383.773706	2517.617766
384.158693	2517.302694
384.543618	2516.473424
384.928480	2515.694566
385.313280	2515.384535
385.698017	2517.796727
386.082692	2518.802437
386.467305	2516.997704
386.851856	2518.792355
387.236344	2516.322189
387.620770	2518.394103
388.005133	2515.225738
388.389435	2520.251769
388.773674	2518.104237
389.157851	2517.126253
389.541965	2518.913342
389.926018	2521.176820
390.310008	2518.996521
390.693936	2520.902077
391.077802	2520.566841
391.461606	2521.073477
391.845348	2517.892509
392.229027	2521.418796
392.612645	2520.302180
392.996200	2520.650020
393.379694	2518.557941
393.763125	2523.251255
394.146494	2523.210926
394.529801	2519.661954
394.913047	2521.570030
395.296230	2518.724299
395.679351	2523.042047
396.062410	2521.191944
396.445408	2524.188910
396.828343	2524.067922
397.211217	2519.984587
397.594028	2523.969620
397.976778	2517.680780
398.359466	2524.390556
398.742092	2519.548528
399.124656	2524.919877
399.507158	2523.631862
399.889598	2526.117151
400.271977	2526.016328
400.654294	2521.549866
401.036549	2524.514064
401.418742	2524.882068
401.800874	2524.052799
402.182944	2522.880730
402.564952	2522.941224
402.946898	2526.606143
403.328783	2524.748478
403.710606	2526.742254
404.092367	2527.455577
404.474067	2523.510875
404.855705	2528.340300
405.237282	2526.664116
405.618797	2525.459281
406.000250	2528.267203
406.381642	2525.885258
406.762972	2528.209230
407.144240	2526.409538
407.525447	2527.135464
407.906593	2524.884589
408.287677	2528.143695
408.668700	2529.361134
409.049661	2527.266534
409.430560	2526.177645
409.811399	2528.521782
410.192176	2529.613191
410.572891	2527.064888
410.953545	2528.829292
411.334138	2529.194776
411.714669	2526.210412
412.095139	2529.197296
412.475547	2528.206709
412.855894	2529.708973
413.236180	2526.822913
413.616405	2529.151926
413.996568	2529.986237
414.376670	2531.060002
414.756711	2530.490352
415.136691	2529.981196
415.516609	2529.426669
415.896466	2530.649148
416.276262	2531.987575
416.655997	2527.271575
417.035670	2528.494055
417.415283	2531.312060
417.794834	2525.048427
418.174324	2530.087060
418.553753	2529.164529
418.933121	2531.677544
419.312428	2531.632173
419.691674	2531.223840
420.070859	2535.123172
420.449983	2531.359951
420.829045	2531.506145
421.208047	2534.263656
421.586988	2530.255938
421.965867	2531.377595
422.344686	2530.936494
422.723444	2530.903727
423.102141	2531.559077
423.480777	2533.129396
423.859352	2533.618388
424.237866	2532.900024
424.616319	2532.741227
424.994712	2534.719880
425.373044	2533.605785
425.751314	2535.342463
426.129524	2534.011598
426.507673	2533.144520
426.885762	2532.554705
427.263789	2533.880528
427.641756	2530.777698
428.019662	2535.244160
428.397508	2535.465971
428.775292	2535.967566
429.153016	2531.249046
429.530679	2536.811959
429.908282	2529.963552
430.285824	2534.755168
430.663305	2534.107380
431.040726	2535.188707
431.418086	2535.781043
431.795385	2538.261291
432.172624	2532.925229
432.549802	2535.680220
432.926920	2535.710467
433.303977	2537.079140
433.680974	2537.096784
434.057910	2536.149047
434.434786	2536.862371
434.811601	2535.430683
435.188355	2536.869932
435.565050	2536.567463
435.941683	2535.148378
436.318257	2535.919675
436.694770	2532.748789
437.071222	2533.913296
437.447614	2533.202493
437.823946	2534.520755
438.200218	2534.924047
438.576429	2538.011754
438.952580	2535.914634
439.328670	2537.875643
439.704700	2537.326157
440.080670	2537.696682
440.456580	2537.500077
440.832429	2538.054603
441.208218	2536.723739
441.583947	2539.400592
441.959616	2535.710467
442.335224	2539.652649
442.710773	2541.316230
443.086261	2538.909079
443.461689	2538.604089
443.837057	2538.309182
444.212365	2538.357073
444.587612	2539.987886
444.962800	2539.206507
445.337927	2540.827238
445.712995	2540.575180
446.088002	2539.080478
446.462949	2542.689944
446.837837	2538.523431
447.212664	2540.159285
447.587431	2539.206507
447.962139	2539.894625
448.336786	2541.782537
448.711374	2540.860006
449.085901	2540.794471
449.460369	2538.538554
449.834776	2539.824048
450.209124	2539.677855
450.583412	2540.005530
450.957640	2542.384955
451.331808	2542.200952
451.705917	2538.483102
452.079965	2541.737166
452.453954	2538.117618
452.827883	2540.597866
453.201752	2540.852444
453.575562	2543.468803
453.949311	2540.537372
454.323001	2541.774975
454.696632	2541.727084
455.070202	2541.966539
455.443713	2540.232382
455.817164	2539.365303
456.190556	2537.106867
456.563888	2541.442259
456.937160	2539.864378
457.310373	2540.900335
457.683526	2541.076775
458.056619	2542.841179
458.429653	2540.623071
458.802628	2544.532486
459.175542	2539.314892
459.548398	2543.395706
459.921194	2543.791437
460.293930	2543.057949
460.666607	2540.907897
461.039224	2543.209183
461.411782	2542.296734
461.784280	2541.898483
462.156719	2542.475695
462.529099	2545.959133
462.901419	2542.251364
463.273680	2543.380582
463.645882	2540.494522
464.018024	2543.284801
464.390106	2542.042156
464.762130	2543.791437
465.134094	2543.856972
465.505999	2544.741694
465.877845	2542.891591
466.249631	2544.671118
466.621358	2542.415202
466.993026	2547.862168
467.364634	2548.830070
467.736184	2543.771272
468.107674	2542.274049
468.479105	2542.997455
468.850477	2544.101467
469.221790	2544.424101
469.593043	2544.361087
469.964238	2546.894267
470.335373	2545.679349
470.706449	2547.252189
471.077467	2544.093906
471.448425	2545.694472
471.819324	2543.504091
472.190164	2545.797816
472.560945	2541.812784
472.931667	2548.394010
473.302330	2544.756818
473.672934	2544.353525
474.043479	2543.496529
474.413965	2545.749925
474.784393	2539.236754
475.154761	2541.870757
475.525070	2540.323123
475.895321	2543.231868
476.265513	2540.638195
476.635645	2546.977446
477.005719	2543.683052
477.375734	2547.257230
477.745691	2546.788403
478.115588	2546.115408
478.485427	2545.102137
478.855207	2544.847558
479.224928	2546.349822
479.594591	2546.246478
479.964194	2543.829245
480.333739	2548.182282
480.703226	2545.944009
481.072653	2547.542055
481.442022	2546.864020
481.811333	2547.647919
482.180584	2546.440563
482.549777	2544.890408
482.918912	2545.666746
483.287988	2547.433670
483.657005	2547.529452
484.025964	2548.522559
484.394864	2547.383259
484.763706	2548.288146
485.132489	2550.120605
485.501213	2548.343598
485.869879	2545.976777
486.238487	2546.526263
486.607036	2549.132539
486.975527	2548.429298
487.343959	2546.783361
487.712333	2547.612631
488.080648	2548.061294
488.448905	2544.474513
488.817104	2547.758825
489.185244	2548.830070
489.553326	2545.104657
489.921350	2549.634134
490.289315	2549.424926
490.657222	2546.985008
491.025070	2548.590615
491.392861	2549.891233
491.760593	2546.808567
492.128267	2549.414844
492.495883	2548.237734
492.863440	2546.339740
493.230939	2548.383928
493.598380	2549.530790
493.965763	2543.773792
494.333088	2547.627755
494.700354	2547.463917
495.067563	2547.680687
495.434713	2543.468803
495.801805	2549.495502
496.168839	2545.434853
496.535815	2548.313352
496.902733	2545.802857
497.269593	2551.320400
497.636395	2548.933413
498.003139	2551.272509
498.369825	2547.108516
498.736453	2547.879812
499.103023	2550.143290
499.469535	2548.497354
499.835989	2544.925696
500.202385	2548.668753
500.568723	2548.807385
500.935003	2548.893084
501.301226	2546.833773
501.667390	2548.900646
502.033497	2551.292673
502.399546	2546.881664
502.765537	2550.324772
503.131470	2550.188661
503.497345	2546.301931
503.863163	2553.213353
504.228923	2552.852911
504.594625	2549.089689
504.960269	2550.039947
505.325856	2550.160934
505.691385	2547.910059
506.056856	2550.410472
506.422270	2550.760832
506.787625	2550.546583
507.152924	2550.420554
507.518164	2549.530790
507.883347	2552.174875
508.248472	2546.339740
508.613540	2551.779145
508.978550	2549.624052
509.343503	2548.762014
509.708398	2553.795606
510.073236	2550.168496
510.438016	2550.297046
510.802738	2548.779658
511.167403	2550.682694
511.532010	2550.944834
511.896561	2549.543393
512.261053	2553.140256
512.625488	2546.095244
512.989866	2547.650440
513.354186	2549.200595
513.718449	2544.517363
514.082655	2549.298897
514.446803	2550.289484
514.810894	2550.571788
515.174927	2551.186809
515.538904	2549.114895
515.902822	2551.675801
516.266684	2548.351160
516.630488	2549.407282
516.994235	2551.761501
517.357925	2552.762170
517.721558	2551.448949
518.085133	2551.559855
518.448651	2552.701676
518.812112	2545.863351
519.175516	2550.879299
519.538863	2551.295194
519.902152	2552.111861
520.265385	2550.544062
520.628560	2552.527756
520.991678	2551.592622
521.354739	2551.380894
521.717743	2550.929710
522.080690	2551.660678
522.443580	2554.675288
522.806413	2551.660678
523.169189	2553.462890
523.531908	2552.431974
523.894569	2551.085986
524.257174	2555.469269
524.619722	2551.348126
524.982213	2552.966337
525.344647	2556.782490
525.707025	2552.351316
526.069345	2553.833415
526.431608	2552.608415
526.793815	2553.641851
527.155964	2553.132695
527.518057	2552.709238
527.880093	2553.341902
528.242072	2554.793755
528.603995	2556.921122
528.965860	2553.858621
529.327669	2553.777962
529.689421	2554.876934
530.051117	2557.515978
530.412755	2554.753426
530.774337	2554.246790
531.135862	2557.647048
531.497331	2555.512119
531.858743	2551.534649
532.220098	2551.464073
532.581396	2553.662016
532.942638	2553.107489
533.303824	2554.420709
533.664953	2557.432799
534.026025	2558.088149
534.387040	2559.691236
534.747999	2557.967161
535.108902	2558.244425
535.469748	2558.617470
535.830537	2557.687377
536.191270	2557.611760
536.551947	2561.483366
536.912567	2560.807851
537.273131	2561.004456
537.633638	2559.013201
537.994089	2559.441699
538.354483	2556.921122
538.714821	2561.344734
539.075103	2562.494117
539.435328	2559.214847
539.795497	2561.243911
540.155609	2560.263407
540.515665	2560.523026
540.875665	2561.974878
541.235609	2556.981616
541.595496	2561.012018
541.955328	2560.180228
542.315102	2560.147460
542.674821	2563.421690
543.034483	2561.067471
543.394090	2562.791545
543.753640	2560.817934
544.113134	2562.521844
544.472571	2562.274827
544.831953	2562.599982
545.191278	2562.312636
545.550548	2560.633932
545.909761	2561.173335
546.268918	2562.952862
546.628019	2562.300033
546.987064	2566.509396
547.346053	2563.577965
547.704986	2563.643500
548.063863	2563.993861
548.422684	2565.748182
548.781449	2563.643500
549.140158	2564.934036
549.498811	2565.004612
549.857408	2564.122410
550.215949	2562.413459
550.574434	2563.018397
550.932864	2560.633932
551.291237	2560.379353
551.649555	2564.886145
552.007817	2566.217009
552.366022	2563.484704
552.724173	2565.208779
553.082267	2564.210630
553.440305	2564.820610
553.798288	2564.631567
554.156215	2566.012843
554.514086	2567.129458
554.871902	2564.835733
555.229661	2563.643500
555.587365	2567.361351
555.945014	2565.342369
556.302606	2564.770198
556.660143	2563.083932
557.017625	2563.585527
557.375050	2561.130485
557.732421	2564.873542
558.089735	2567.147102
558.446994	2567.419325
558.804197	2565.564180
559.161345	2565.264231
559.518437	2564.966803
559.875474	2567.588203
560.232455	2564.162739
560.589381	2565.226423
560.946251	2568.851012
561.303065	2563.451937
561.659825	2564.901268
562.016528	2566.141392
562.373177	2565.614592
562.729770	2564.044272
563.086307	2565.387740
563.442789	2563.083932
563.799216	2566.474108
564.155587	2564.513099
564.511904	2565.435631
564.868164	2566.257339
565.224370	2564.631567
565.580520	2563.149467
565.936615	2563.177194
566.292654	2563.595609
566.648638	2565.654921
567.004567	2562.436144
567.360441	2566.368244
567.716260	2562.264745
568.072023	2564.422359
568.427732	2561.513613
568.783385	2560.142419
569.138982	2557.760474
569.494525	2560.228119
569.850013	2558.080587
570.205445	2563.719118
570.560823	2562.887327
570.916145	2562.758778
571.271412	2563.714077
571.626625	2565.463357
571.981782	2561.175856
572.336884	2562.184086
572.691931	2563.951011
573.046923	2565.365054
573.401860	2561.871535
573.756743	2563.376319
574.111570	2562.713407
574.466342	2564.722307
574.821059	2562.831875
575.175722	2561.374981
575.530330	2564.336659
575.884882	2564.117369
576.239380	2560.346586
576.593823	2561.692574
576.948211	2559.073694
577.302544	2562.751216
577.656823	2561.944632
578.011047	2561.974878
578.365216	2562.799107
578.719330	2561.445557
579.073389	2562.196689
579.427394	2558.683005
579.781344	2560.331462
580.135239	2561.473284
580.489080	2561.364899
580.842866	2558.783828
581.196597	2566.582493
581.550273	2562.433623
581.903895	2561.269117
582.257463	2557.944476
582.610975	2561.001936
582.964434	2561.644683
583.317837	2560.550753
583.671186	2560.119734
584.024481	2562.287430
584.377721	2561.347255
584.730906	2564.135013
585.084037	2560.644014
585.437113	2561.158212
585.790135	2561.362378
586.143103	2561.599312
586.496016	2561.657286
586.848874	2559.388767
587.201679	2557.773077
587.554428	2555.900288
587.907124	2560.081925
588.259765	2555.824671
588.612352	2558.859445
588.964884	2560.333983
589.317362	2559.277861
589.669786	2558.980433
590.022155	2559.512275
590.374470	2559.766853
590.726731	2560.853222
591.078937	2559.197203
591.431090	2561.133006
591.783188	2561.992522
592.135232	2560.825495
592.487222	2562.839436
592.839157	2562.322718
593.191038	2559.083777
593.542866	2561.173335
593.894639	2562.698284
594.246358	2558.672923
594.598022	2560.238201
594.949633	2562.378171
595.301190	2560.649055
595.652692	2562.421021
596.004141	2559.789538
596.355535	2563.235167
596.706876	2560.573438
597.058162	2559.413972
597.409395	2562.852039
597.760573	2560.951524
598.111698	2562.524364
598.462768	2561.115362
598.813785	2565.062585
599.164748	2563.734241
599.515657	2560.855742
599.866511	2563.608212
600.217312	2562.153839
600.568060	2562.622667
600.918753	2564.477811
601.269392	2563.706515
601.619978	2563.887996
601.970510	2563.172152
602.320988	2561.165773
602.671412	2564.215671
603.021783	2561.289282
603.372100	2565.423028
603.722363	2562.809189
604.072572	2566.869839
604.422728	2563.343552
604.772830	2559.658468
605.122878	2559.237532
605.472872	2562.262224
605.822813	2559.348437
606.172701	2561.337172
606.522534	2564.729869
606.872314	2565.604509
607.222041	2564.679458
607.571714	2564.210630
607.921333	2565.460836
608.270899	2564.427400
608.620411	2567.426886
608.969870	2569.622309
609.319276	2569.057700
609.668627	2572.349573
610.017926	2573.670355
610.367171	2575.601117
610.716362	2574.499625
611.065500	2573.037691
611.414585	2571.971487
611.763616	2570.358317
612.112594	2569.433266
612.461518	2570.791857
612.810389	2572.823442
613.159207	2571.757237
613.507971	2572.825962
613.856682	2573.143555
614.205340	2573.037691
614.553945	2574.038360
614.902496	2574.033318
615.250994	2574.910479
615.599439	2573.929975
615.947830	2574.784450
616.296169	2576.125397
616.644454	2577.378124
616.992686	2574.449214
617.340864	2576.737898
617.688990	2578.388875
618.037063	2579.387024
618.385082	2580.987590
618.733048	2581.466500
619.080961	2585.340627
619.428821	2582.938517
619.776628	2584.463466
620.124382	2586.515215
620.472083	2585.169227
620.819731	2585.330544
621.167326	2587.571337
621.514868	2586.537901
621.862357	2585.416244
622.209793	2585.081007
622.557176	2587.354567
622.904506	2585.302818
623.251783	2583.714854
623.599007	2587.498240
623.946179	2581.262333
624.293297	2587.049578
624.640363	2588.105699
624.987376	2587.858683
625.334336	2591.594178
625.681243	2590.948910
626.028097	2590.396904
626.374899	2593.499734
626.721647	2595.342276
627.068343	2596.229519
627.414987	2596.141299
627.761577	2594.792790
628.108115	2596.353027
628.454600	2593.340938
628.801032	2602.498194
629.147412	2601.540374
629.493739	2604.693616
629.840014	2603.675303
630.186236	2606.699995
630.532405	2605.739656
630.878521	2608.439193
631.224585	2609.177722
631.570597	2610.921962
631.916556	2614.647374
632.262462	2614.884309
632.608316	2616.472272
632.954117	2615.171654
633.299866	2619.711213
633.645562	2620.394290
633.991206	2621.314300
634.336797	2623.640793
634.682336	2622.539301
635.027823	2620.860597
635.373257	2625.241359
635.718639	2623.000566
636.063968	2625.470732
636.409245	2623.953344
636.754470	2629.405352
637.099642	2629.128089
637.444762	2629.680095
637.789829	2630.537091
638.134845	2632.931639
638.479808	2633.710498
638.824719	2637.241826
639.169577	2635.878194
639.514383	2640.468164
639.859137	2642.305665
640.203839	2642.124183
640.548489	2645.663073
640.893086	2642.711478
641.237632	2643.455048
641.582125	2644.894297
641.926566	2646.729277
642.270955	2653.928045
642.615292	2655.926863
642.959576	2661.121772
643.303809	2663.057575
643.647990	2667.987823
643.992118	2665.043789
644.336195	2665.457164
644.680219	2673.417146
645.024192	2675.698268
645.368112	2681.251099
645.711981	2684.910977
646.055797	2692.694518
646.399562	2697.158460
646.743274	2708.009544
647.086935	2714.900801
647.430544	2718.258209
647.774101	2724.864642
648.117606	2726.107286
648.461059	2730.034345
648.804460	2731.957545
649.147810	2727.342369
649.491108	2729.779767
649.834354	2736.502145
650.177548	2733.321177
650.520690	2732.743965
650.863781	2733.006105
651.206820	2741.024060
651.549807	2737.452403
651.892742	2739.710840
652.235626	2743.743763
652.578458	2742.874164
652.921238	2746.607138
653.263967	2749.596542
653.606644	2747.643095
653.949269	2756.455032
654.291843	2754.683067
654.634365	2761.634818
654.976836	2769.652773
655.319255	2767.737134
655.661622	2771.873401
656.003938	2778.568053
656.346203	2773.295007
656.688416	2784.819084
657.030577	2780.723147
657.372687	2785.315638
657.714746	2785.494599
658.056753	2794.306536
658.398708	2793.754529
658.740612	2792.537091
659.082465	2807.847075
659.424266	2806.808597
659.766016	2810.632312
660.107715	2819.797130
660.449362	2824.976916
660.790958	2828.167966
661.132503	2832.891527
661.473996	2843.016685
661.815438	2844.274453
662.156829	2849.232427
662.498168	2853.777028
662.839456	2850.648992
663.180693	2861.550487
663.521879	2863.604757
663.863013	2866.332021
664.204097	2880.812736
664.545129	2884.485216
664.886110	2891.482338
665.227040	2905.428690
665.567918	2900.566497
665.908746	2913.469330
666.249522	2916.186512
666.590248	2918.893612
666.930922	2928.786876
667.271545	2937.180398
667.612118	2943.396140
667.952639	2941.180553
668.293109	2953.155814
668.633528	2951.421657
668.973896	2951.149435
669.314213	2957.997842
669.654480	2968.702733
669.994695	2964.674851
670.334859	2966.661065
670.674973	2980.554485
671.015035	2980.272181
671.355047	2988.481700
671.695008	2995.201558
672.034918	2988.007831
672.374777	3001.104749
672.714585	3003.312774
673.054342	3009.210924
673.394049	3015.524969
673.733705	3033.988195
674.073310	3037.690923
674.412864	3029.383101
674.752368	3040.085471
675.091820	3046.149979
675.431223	3034.585572
675.770574	3046.424722
676.109875	3037.370810
676.449125	3046.790206
676.788324	3043.130328
677.127473	3041.000440
677.466571	3042.810215
677.805619	3050.182902
678.144616	3053.265568
678.483562	3057.429561
678.822458	3053.106771
679.161303	3059.524160
679.500098	3063.854511
679.838842	3065.530695
680.177535	3071.630491
680.516179	3077.473188
680.854771	3087.749581
681.193314	3110.684310
681.531805	3133.765233
681.870247	3178.795340
682.208638	3207.199721
682.546978	3209.506049
682.885268	3213.296997
683.223508	3206.393136
683.561697	3200.817620
683.899836	3202.569421
684.237925	3201.306612
684.575963	3194.775797
684.913951	3190.256403
685.251889	3225.879717
685.589776	3212.631564
685.927614	3209.309444
686.265401	3242.223137
686.603137	3244.262284
686.940824	3270.788836
687.278460	3277.236471
687.616046	3293.015283
687.953582	3308.249650
688.291068	3313.789878
688.628504	3345.612162
688.965889	3330.345027
689.303224	3321.845642
689.640510	3321.346568
689.977745	3307.594300
690.314930	3289.690642
690.652065	3276.739918
690.989150	3255.055394
691.326185	3247.143303
691.663170	3247.546596
692.000105	3228.241497
692.336990	3206.861964
692.673825	3216.782954
693.010610	3198.435675
693.347345	3175.077489
693.684030	3194.801003
694.020665	3185.673994
694.357251	3155.543017
694.693786	3166.779749
695.030272	3164.231446
695.366707	3161.988133
695.703093	3152.374652
696.039429	3164.375119
696.375716	3170.845440
696.711952	3163.823113
697.048139	3159.858245
697.384276	3161.231960
697.720363	3169.839730
698.056400	3183.239117
698.392388	3168.723114
698.728326	3160.561486
699.064214	3160.495951
699.400053	3162.693894
699.735842	3164.677588
700.071581	3156.490754
700.407270	3152.730054
700.742910	3152.117553
701.078501	3135.695995
701.414042	3151.157214
701.749533	3143.653456
702.084974	3119.357615
702.420366	3146.993221
702.755709	3130.337248
703.091002	3111.609362
703.426246	3144.114722
703.761440	3123.529170
704.096584	3111.838734
704.431679	3130.551497
704.766725	3129.044192
705.101721	3131.506796
705.436668	3144.717140
705.771565	3121.482462
706.106413	3134.919657
706.441212	3160.498472
706.775961	3171.294103
707.110661	3154.035712
707.445311	3164.017197
707.779913	3191.637679
708.114465	3193.392001
708.448967	3196.751930
708.783421	3226.782083
709.117825	3246.402254
709.452180	3247.279415
709.786485	3262.090325
710.120742	3301.141623
710.454949	3293.043009
710.789107	3321.061742
711.123216	3349.884539
711.457275	3346.295238
711.791286	3380.449055
712.125247	3399.733989
712.459159	3348.029395
712.793023	3378.087275
713.126837	3395.015469
713.460602	3393.850963
713.794318	3346.940506
714.127985	3361.859800
714.461602	3347.396730
714.795171	3323.274809
715.128691	3310.523210
715.462162	3297.867393
715.795584	3284.536062
716.128957	3288.659726
716.462281	3256.734099
716.795556	3254.306783
717.128782	3250.687235
717.461960	3225.398286
717.795088	3234.363978
718.128167	3219.119529
718.461198	3193.097093
718.794180	3194.783359
719.127113	3198.387784
719.459997	3193.961651
719.792833	3175.674865
720.125619	3171.261335
720.458357	3161.509223
720.791046	3173.918023
721.123686	3161.511744
721.456278	3143.880308
721.788821	3153.488747
722.121315	3144.921306
722.453761	3131.476549
722.786158	3145.725370
723.118506	3164.077691
723.450805	3134.539050
723.783056	3145.808549
724.115259	3165.378309
724.447412	3170.797549
724.779518	3162.330931
725.111574	3170.356448
725.443582	3184.970753
725.775542	3185.643747
726.107453	3206.413301
726.439315	3211.298179
726.771129	3209.160730
727.102895	3226.431723
727.434612	3258.339706
727.766281	3262.052516
728.097901	3252.560023
728.429473	3266.531581
728.760996	3272.732200
729.092471	3268.827827
729.423897	3269.480656
729.755276	3280.140176
730.086606	3279.915845
730.417887	3295.558545
730.749120	3330.697908
731.080305	3374.530741
731.411442	3384.353429
731.742530	3367.820965
732.073570	3370.160060
732.404562	3408.603899
732.735506	3405.664907
733.066401	3385.197822
733.397249	3358.968699
733.728048	3329.659430
734.058798	3299.919143
734.389501	3270.912344
734.720156	3235.278948
735.050762	3218.610373
735.381320	3228.980026
735.711831	3196.409131
736.042293	3182.886236
736.372707	3200.547918
736.703073	3189.835467
737.033391	3177.784588
737.363661	3193.981816
737.693883	3210.529403
738.024056	3215.651215
738.354182	3207.986141
738.684260	3241.789598
739.014290	3251.922317
739.344272	3248.201946
739.674207	3273.899228
740.004093	3274.652880
740.333931	3273.947118
740.663722	3279.320988
740.993464	3279.658746
741.323159	3269.125255
741.652806	3260.419182
741.982405	3246.800505
742.311956	3233.275089
742.641460	3234.172415
742.970915	3225.322669
743.300323	3206.025132
743.629683	3189.956454
743.958996	3192.043492
744.288260	3180.912624
744.617477	3165.327897
744.946647	3159.270951
745.275768	3155.633758
745.604842	3152.334323
745.933869	3121.210239
746.262847	3118.714868
746.591778	3151.242913
746.920662	3130.130561
747.249498	3109.902931
747.578286	3146.733601
747.907027	3155.220384
748.235720	3142.831748
748.564365	3166.996519
748.892963	3173.509690
749.221514	3160.742968
749.550017	3146.524393
749.878473	3150.985814
750.206881	3137.712456
750.535242	3134.279431
750.863555	3138.889566
751.191821	3142.345277
751.520039	3124.731485
751.848210	3111.246399
752.176334	3139.272693
752.504411	3146.408447
752.832440	3117.285701
753.160421	3106.903445
753.488356	3120.038171
753.816243	3130.377577
754.144082	3102.570573
754.471875	3093.867021
754.799620	3105.045779
755.127318	3100.949842
755.454969	3104.277003
755.782572	3110.454938
756.110129	3091.477514
756.437638	3087.454673
756.765100	3099.563525
757.092515	3108.123404
757.419882	3112.491564
757.747203	3094.159408
758.074477	3095.013883
758.401703	3107.679782
758.728882	3121.759725
759.056014	3131.017804
759.383099	3129.429841
759.710138	3123.574540
760.037129	3136.888228
760.364073	3167.009122
760.690970	3150.756442
761.017820	3136.812610
761.344623	3150.648057
761.671379	3185.300949
761.998088	3217.108109
762.324751	3300.874442
762.651366	3443.062707
762.977935	3713.480281
763.304456	3989.881705
763.630931	4068.947162
763.957359	3852.447249
764.283740	3648.535096
764.610074	3544.906617
764.936362	3425.529573
765.262602	3318.573933
765.588796	3252.544900
765.914943	3195.199254
766.241044	3140.638846
766.567097	3124.121506
766.893104	3094.799634
767.219064	3073.906572
767.544978	3062.261507
767.870845	3020.639220
768.196665	3012.165040
768.522438	3024.291536
768.848165	3021.387831
769.173846	2996.749192
769.499479	2981.318220
769.825066	2974.908393
770.150607	2964.979840
770.476101	2979.521049
770.801548	2979.004330
771.126949	2944.963939
771.452303	2934.017073
771.777611	2943.507046
772.102872	2949.400154
772.428087	2932.033379
772.753256	2925.724375
773.078378	2920.421082
773.403453	2894.930487
773.728482	2888.838253
774.053465	2909.446490
774.378401	2900.082546
774.703291	2876.643702
775.028135	2878.100595
775.352932	2874.589431
775.677683	2866.228678
776.002388	2867.884697
776.327046	2868.477032
776.651658	2861.371526
776.976224	2853.716534
777.300743	2855.511185
777.625216	2847.347036
777.949643	2845.073476
778.274024	2848.229238
778.598359	2837.904955
778.922647	2843.445183
779.246889	2842.142045
779.571086	2829.405569
779.895236	2825.846515
780.219339	2837.310099
780.543397	2847.082375
780.867409	2848.982890
781.191374	2839.964266
781.515294	2841.965604
781.839167	2841.627847
782.162995	2837.957887
782.486776	2846.048939
782.810511	2843.735049
783.134201	2832.647031
783.457844	2840.007116
783.781441	2835.938905
784.104993	2814.952581
784.428498	2821.508602
784.751958	2831.348934
785.075372	2828.306598
785.398739	2816.167499
785.722061	2831.132165
786.045337	2839.450068
786.368568	2827.207626
786.691752	2818.640185
787.014891	2857.578058
787.337983	2878.844165
787.661030	2892.011659
787.984031	2938.602003
788.306987	2976.249340
788.629897	2970.691468
788.952760	2967.984368
789.275579	2960.972123
789.598351	2915.037129
789.921078	2880.802653
790.243759	2878.037581
790.566395	2866.498379
790.888984	2848.254444
791.211529	2835.326405
791.534027	2828.104952
791.856480	2820.417192
792.178888	2811.113743
792.501249	2807.219451
792.823566	2802.715180
793.145836	2801.669141
793.468062	2798.984727
793.790241	2798.626805
794.112375	2804.887918
794.434464	2810.201294
794.756507	2815.875112
795.078505	2821.294353
795.400457	2826.312822
795.722364	2855.639734
796.044226	2872.033566
796.366042	2874.725543
796.687812	2864.519727
797.009538	2885.223745
797.331218	2876.731922
797.652852	2864.179449
797.974442	2853.280474
798.295986	2850.139835
798.617484	2847.778055
798.938938	2834.131651
799.260346	2825.168480
799.581709	2821.609425
799.903026	2814.453507
800.224299	2808.262970
800.545526	2803.378092
800.866708	2793.086577
801.187845	2782.714402
801.508936	2787.092645
801.829983	2792.095990
802.150984	2781.499484
802.471940	2770.103956
802.792851	2770.860129
803.113717	2774.353649
803.434538	2776.624689
803.755314	2771.180242
804.076045	2768.427772
804.396731	2766.675972
804.717372	2768.579007
805.037967	2760.755136
805.358518	2766.766712
805.679024	2774.991355
805.999485	2773.705861
806.319901	2777.305244
806.640272	2768.722680
806.960598	2773.277362
807.280879	2781.686007
807.601115	2787.316976
807.921306	2777.995882
808.241453	2774.237702
808.561554	2781.796912
808.881611	2782.245575
809.201623	2777.116201
809.521590	2778.270625
809.841513	2773.841972
810.161390	2778.101747
810.481223	2775.722322
810.801011	2765.710591
811.120755	2762.842174
811.440453	2765.392998
811.760107	2766.731424
812.079716	2764.291506
812.399281	2756.230701
812.718801	2752.303642
813.038276	2745.856006
813.357707	2752.548138
813.677093	2762.176742
813.996434	2753.654671
814.315731	2752.540576
814.634983	2749.226017
814.954191	2751.698703
815.273354	2762.973244
815.592473	2770.592948
815.911547	2771.591097
816.230577	2778.764658
816.549562	2783.299176
816.868502	2785.126595
817.187399	2793.598254
817.506250	2806.337249
817.825058	2802.674851
818.143821	2814.335040
818.462539	2824.109837
818.781213	2849.353415
819.099843	2880.210318
819.418429	2923.654982
819.736970	2972.591983
820.055466	3035.576159
820.373919	3124.882720
820.692327	3246.939137
821.010691	3380.512070
821.329011	3724.301118
821.647286	4377.369996
821.965517	5364.911870
822.283704	5895.369804
822.601847	5907.191309
822.919945	5491.434749
823.237999	5171.182848
823.556010	4740.360799
823.873976	4309.470695
824.191897	3989.304493
824.509775	3758.517950
824.827609	3537.377654
825.145398	3436.441151
825.463144	3434.591048
825.780845	3510.939323
826.098502	3589.828339
826.416116	3816.786126
826.733685	4062.713776
827.051210	4111.108852
827.368692	4030.931821
827.686129	3826.172755
828.003522	3562.170048
828.320872	3347.396730
828.638177	3185.033767
828.955439	3071.630491
829.272656	3004.663803
829.589830	2947.797068
829.906960	2908.024884
830.224046	2869.102135
830.541088	2837.736076
830.858086	2826.499344
831.175041	2811.471665
831.491952	2815.441573
831.808819	2826.731237
832.125642	2847.233610
832.442421	2887.157028
832.759157	2952.213118
833.075849	3103.465378
833.392497	3337.027077
833.709101	3510.246164
834.025662	3463.615491
834.342179	3331.171776
834.658653	3187.445960
834.975083	3061.001218
835.291469	2980.541882
835.607811	2908.902045
835.924110	2859.649972
836.240366	2814.824032
836.556578	2778.149638
836.872746	2759.275558
837.188871	2741.470202
837.504952	2727.251628
837.820990	2721.592933
838.136984	2706.827393
838.452935	2701.617361
838.768842	2699.477391
839.084706	2716.612273
839.400526	2785.177006
839.716303	2893.463511
840.032037	2960.175621
840.347727	2947.121553
840.663373	2897.461146
840.978977	2837.640294
841.294537	2774.940943
841.610054	2733.192628
841.925527	2715.596480
842.240957	2700.034438
842.556344	2677.150120
842.871687	2665.598316
843.186987	2655.205978
843.502244	2652.670277
843.817458	2649.932931
844.132629	2638.333236
844.447756	2631.071454
844.762840	2622.045268
845.077881	2628.775208
845.392879	2627.071298
845.707833	2621.924280
846.022745	2613.354318
846.337613	2617.107457
846.652438	2616.941099
846.967221	2615.713578
847.281960	2616.285749
847.596656	2613.969339
847.911309	2613.767693
848.225919	2611.438680
848.540485	2608.940788
848.855009	2610.750562
849.169490	2606.826024
849.483928	2609.134873
849.798323	2608.293000
850.112675	2605.900973
850.426984	2607.556992
850.741251	2606.168154
851.055474	2604.376023
851.369654	2609.122270
851.683792	2609.402054
851.997887	2608.908021
852.311938	2602.669593
852.625947	2609.402054
852.939914	2609.180243
853.253837	2609.485233
853.567718	2606.984821
853.881555	2606.185798
854.195350	2606.493308
854.509103	2605.870726
854.822812	2605.172526
855.136479	2604.423914
855.450103	2607.942640
855.763685	2608.381220
856.077224	2605.848040
856.390720	2601.938626
856.704173	2607.645212
857.017584	2607.504059
857.330953	2609.916252
857.644278	2613.679473
857.957561	2610.836262
858.270802	2611.778958
858.584000	2609.142434
858.897155	2615.113681
859.210268	2615.395986
859.523339	2609.684358
859.836367	2605.853082
860.149352	2605.061620
860.462295	2605.638832
860.775195	2602.470467
861.088054	2603.032556
861.400869	2603.297217
861.713642	2597.152050
862.026373	2600.668255
862.339062	2601.472319
862.651708	2607.272166
862.964312	2610.720316
863.276873	2607.012547
863.589392	2610.374997
863.901869	2612.988835
864.214303	2616.966305
864.526696	2618.975205
864.839045	2621.566358
865.151353	2623.136677
865.463619	2623.381173
865.775842	2623.943262
866.088023	2622.622480
866.400162	2624.860752
866.712258	2626.834364
867.024313	2620.991667
867.336325	2621.478138
867.648296	2620.255658
867.960224	2625.662296
868.272110	2625.828654
868.583954	2620.038888
868.895755	2619.565020
869.207515	2626.925105
869.519233	2632.246042
869.830909	2629.299488
870.142542	2622.428395
870.454134	2622.980402
870.765684	2630.675723
871.077191	2628.823099
871.388657	2635.621095
871.700081	2632.992133
872.011463	2632.999695
872.322803	2633.589510
872.634101	2636.551188
872.945357	2645.390851
873.256571	2649.199443
873.567744	2644.526293
873.878874	2644.254071
874.189963	2644.780872
874.501010	2650.316058
874.812015	2655.369815
875.122979	2652.201450
875.433900	2645.799185
875.744780	2642.852630
876.055618	2651.851090
876.366415	2655.223622
876.677169	2655.609270
876.987882	2650.058960
877.298554	2646.933444
877.609183	2658.946514
877.919771	2665.043789
878.230317	2671.173832
878.540822	2679.693382
878.851285	2692.916329
879.161707	2712.428115
879.472087	2749.430184
879.782425	2787.576595
880.092722	2888.462687
880.402977	3054.425033
880.713191	3271.272786
881.023363	3497.499606
881.333494	3643.294817
881.643583	3796.240904
881.953631	3806.640804
882.263637	3661.384997
882.573602	3475.754589
882.883526	3369.257694
883.193408	3277.201183
883.503248	3192.963502
883.813048	3093.400714
884.122806	2994.311794
884.432522	2920.597522
884.742197	2866.110211
885.051831	2835.263390
885.361424	2802.450520
885.670975	2774.404060
885.980485	2745.621592
886.289954	2727.987636
886.599382	2718.051522
886.908768	2709.733618
887.218113	2689.803417
887.527417	2678.851510
887.836680	2674.095181
888.145901	2671.662824
888.455082	2662.220743
888.764221	2651.694814
889.073319	2647.036788
889.382376	2643.061838
889.691392	2642.898001
890.000366	2646.855306
890.309300	2643.397075
890.618193	2646.716675
890.927044	2648.042498
891.235855	2648.004689
891.544625	2646.615852
891.853353	2647.528300
892.162041	2655.596667
892.470687	2674.006961
892.779293	2682.952488
893.087858	2688.739733
893.396381	2708.816128
893.704864	2746.592015
894.013306	2812.179947
894.321707	2890.002759
894.630068	2934.377516
894.938387	2951.361163
895.246665	2944.744649
895.554903	2905.894997
895.863100	2868.900489
896.171256	2818.309990
896.479371	2763.137082
896.787446	2727.223902
897.095480	2712.440718
897.403473	2707.913762
897.711425	2697.186186
898.019336	2676.141890
898.327207	2667.133348
898.635038	2666.109993
898.942827	2663.382729
899.250576	2656.231852
899.558284	2643.722229
899.865952	2638.900366
900.173579	2641.428504
900.481165	2637.249388
900.788711	2631.489869
901.096216	2624.906122
901.403681	2620.293467
901.711105	2622.952675
902.018489	2620.976543
902.325832	2623.718931
902.633135	2625.253962
902.940397	2638.335756
903.247619	2673.880932
903.554800	2732.270097
903.861941	2840.755727
904.169041	2950.388221
904.476101	3003.058196
904.783121	2996.630725
905.090100	2945.478137
905.397039	2884.308776
905.703938	2818.146152
906.010796	2765.357710
906.317614	2722.470093
906.624391	2687.865093
906.931129	2664.005312
907.237826	2645.007723
907.544483	2630.927781
907.851099	2617.420009
908.157675	2610.483381
908.464211	2605.003647
908.770707	2594.664241
909.077163	2591.921853
909.383578	2586.734506
909.689954	2585.428847
909.996289	2582.157138
910.302584	2584.581933
910.608839	2582.464648
910.915054	2584.433219
911.221229	2585.766604
911.527363	2588.871955
911.833458	2586.202664
912.139513	2582.860379
912.445527	2587.672160
912.751502	2592.408324
913.057436	2599.407966
913.363331	2603.042638
913.669186	2611.564709
913.975000	2623.885289
914.280775	2639.298617
914.586510	2653.512150
914.892205	2684.674042
915.197859	2745.283835
915.503475	2818.201605
915.809050	2875.368290
916.114585	2885.082593
916.420081	2891.404200
916.725536	2905.716036
917.030952	2884.190309
917.336328	2844.496263
917.641665	2798.760395
917.946961	2754.153745
918.252218	2728.005280
918.557435	2705.249512
918.862612	2683.590194
919.167750	2669.865653
919.472848	2656.541883
919.777906	2644.445635
920.082925	2635.202679
920.387904	2621.354630
920.692843	2618.226594
920.997743	2615.713578
921.302603	2610.153186
921.607423	2604.701178
921.912204	2598.417380
922.216946	2596.506782
922.521647	2596.080805
922.826310	2589.991091
923.130932	2586.958837
923.435516	2579.513053
923.740059	2577.007599
924.044564	2579.185378
924.349028	2576.763103
924.653454	2568.054510
924.957840	2569.415622
925.262186	2564.049313
925.566493	2569.392936
925.870761	2564.177863
926.174989	2562.504200
926.479178	2563.693912
926.783328	2560.316339
927.087438	2558.980433
927.391509	2563.149467
927.695541	2561.107800
927.999533	2557.165618
928.303486	2556.434650
928.607400	2555.255020
928.911275	2555.244938
929.215110	2557.871379
929.518906	2558.675443
929.822663	2554.755946
930.126381	2557.480690
930.430060	2558.186451
930.733699	2557.190823
931.037299	2553.951882
931.340861	2556.999260
931.644383	2556.157387
931.947866	2555.996070
932.251309	2556.679146
932.554714	2556.832902
932.858080	2556.890875
933.161407	2556.704352
933.464694	2557.165618
933.767943	2552.749567
934.071153	2552.361398
934.374323	2552.951213
934.677455	2554.317366
934.980548	2553.299053
935.283602	2555.340720
935.586617	2554.292160
935.889593	2554.987839
936.192530	2552.983981
936.495428	2555.849877
936.798287	2551.582540
937.101108	2556.016235
937.403890	2557.155535
937.706632	2561.233829
938.009336	2564.901268
938.312002	2570.267577
938.614628	2570.552402
938.917216	2570.577608
939.219765	2573.992989
939.522275	2576.828638
939.824747	2573.821590
940.127179	2567.983934
940.429573	2565.980075
940.731929	2565.365054
941.034246	2564.591237
941.336524	2565.997719
941.638763	2565.891855
941.940964	2565.231464
942.243126	2562.252142
942.545250	2562.100907
942.847335	2562.229457
943.149381	2559.519837
943.451389	2559.461863
943.753359	2559.668551
944.055290	2557.866338
944.357182	2557.032027
944.659036	2556.336348
944.960851	2556.444733
945.262628	2554.410627
945.564367	2555.265103
945.866067	2556.999260
946.167729	2556.656461
946.469352	2558.251986
946.770937	2555.582695
947.072484	2553.354505
947.373992	2555.776780
947.675462	2553.581357
947.976893	2556.341389
948.278286	2554.566903
948.579641	2556.192675
948.880958	2555.260062
949.182236	2551.580019
949.483476	2552.837787
949.784678	2554.271995
950.085841	2553.281409
950.386967	2555.345761
950.688054	2549.492982
950.989103	2552.069011
951.290114	2554.372818
951.591087	2554.609753
951.892021	2558.289795
952.192917	2560.873386
952.493776	2560.195351
952.794596	2562.612584
953.095378	2562.148798
953.396122	2561.576627
953.696828	2561.773232
953.997496	2560.361709
954.298126	2554.473642
954.598718	2556.200237
954.899272	2557.402552
955.199788	2554.357695
955.500266	2550.418033
955.800706	2550.816284
956.101108	2547.968033
956.401472	2545.898639
956.701798	2545.921324
957.002087	2547.327806
957.302337	2547.244627
957.602550	2547.211859
957.902724	2547.108516
958.202861	2543.836807
958.502960	2545.540717
958.803022	2547.277394
959.103045	2547.557178
959.403031	2543.052908
959.702979	2541.805222
960.002889	2545.384441
960.302762	2545.981818
960.602596	2543.405788
960.902393	2542.027033
961.202153	2545.109698
961.501875	2540.318082
961.801559	2545.409647
962.101205	2544.189688
962.400814	2544.020809
962.700385	2541.545603
962.999918	2543.133566
963.299414	2542.979811
963.598873	2544.371169
963.898293	2542.737835
964.197677	2541.623740
964.497022	2544.000644
964.796331	2540.444110
965.095601	2543.562064
965.394835	2541.732125
965.694030	2543.115922
965.993189	2542.594163
966.292309	2540.955787
966.591393	2539.965201
966.890439	2540.499563
967.189447	2542.579039
967.488419	2540.630633
967.787353	2541.250695
968.086249	2540.733977
968.385108	2540.292876
968.683930	2543.914945
968.982714	2542.523586
969.281462	2544.141797
969.580172	2543.506611
969.878844	2542.795809
970.177480	2543.007537
970.476078	2542.684903
970.774639	2543.685572
971.073162	2543.052908
971.371649	2541.124666
971.670098	2541.671631
971.968510	2537.505118
972.266885	2535.740714
972.565223	2542.611807
972.863524	2544.043494
973.161788	2542.304296
973.460014	2542.301776
973.758204	2542.758000
974.056356	2543.983000
974.354471	2543.035263
974.652550	2544.910573
974.950591	2540.706250
975.248595	2541.101981
975.546563	2543.927548
975.844493	2542.942002
976.142386	2541.079296
976.440243	2540.071065
976.738062	2543.035263
977.035845	2540.933102
977.333590	2540.431507
977.631299	2542.284132
977.928971	2540.164326
978.226606	2538.788091
978.524204	2541.727084
978.821765	2538.694830
979.119290	2540.426466
979.416777	2539.849254
979.714228	2541.578370
980.011642	2543.012578
980.309020	2544.446787
980.606360	2542.521066
980.903664	2543.259595
981.200931	2539.244316
981.498162	2543.050387
981.795356	2543.143648
982.092513	2549.205636
982.389633	2549.419885
982.686717	2549.888712
982.983764	2553.314176
983.280775	2554.561862
983.577749	2555.774259
983.874686	2553.967006
984.171587	2551.680842
984.468451	2549.818136
984.765279	2549.639175
985.062070	2546.420398
985.358824	2548.038609
985.655543	2547.037940
985.952224	2543.884698
986.248869	2542.304296
986.545478	2539.158616
986.842050	2539.345139
987.138586	2538.054603
987.435086	2537.167360
987.731549	2539.516538
988.027975	2540.665921
988.324366	2538.725077
988.620719	2541.860675
988.917037	2540.123997
989.213318	2544.103988
989.509563	2537.177443
989.805772	2541.648946
990.101944	2538.112577
990.398080	2538.954449
990.694180	2542.700027
990.990244	2542.584080
991.286271	2539.524100
991.582262	2539.655170
991.878217	2539.919830
992.174136	2542.833617
992.470019	2540.948226
992.765865	2538.964532
993.061676	2538.896476
993.357450	2540.159285
993.653188	2538.664583
993.948890	2541.845551
994.244556	2539.571991
994.540186	2539.052752
994.835780	2540.802032
995.131337	2542.818494
995.426859	2541.197763
995.722345	2541.285983
996.017795	2542.894111
996.313208	2544.655994
996.608586	2543.914945
996.903928	2543.078113
997.199234	2541.661549
997.494504	2544.275387
997.789738	2540.635674
998.084936	2538.825900
998.380099	2539.801363
998.675225	2540.003009
998.970316	2542.528628
999.265371	2541.989224
999.560390	2542.969728
999.855373	2541.122146
1000.150320	2538.102494
1000.445232	2541.285983
1000.740108	2540.471837
1001.034948	2539.415715
1001.329752	2540.620551
1001.624521	2541.830428
1001.919254	2535.440765
1002.213951	2536.925385
1002.508613	2535.453368
1002.803239	2536.496887
1003.097829	2531.927081
1003.392384	2539.060314
1003.686903	2540.736497
1003.981386	2541.379244
1004.275834	2537.341280
1004.570246	2542.079965
1004.864623	2539.282124
1005.158964	2539.292207
1005.453270	2537.573173
1005.747540	2535.972607
1006.041775	2539.962680
1006.335974	2541.628782
1006.630138	2538.982176
1006.924266	2538.941847
1007.218359	2536.975797
1007.512416	2537.845396
1007.806438	2537.273225
1008.100425	2539.856816
1008.394376	2536.186856
1008.688292	2538.583925
1008.982172	2539.214069
1009.276017	2540.139121
1009.569827	2538.803215
1009.863602	2541.449821
1010.157341	2537.716846
1010.451045	2540.318082
1010.744714	2536.254912
1011.038347	2538.798174
1011.331945	2536.945550
1011.625508	2539.173740
1011.919036	2540.166847
1012.212528	2538.591486
1012.505986	2538.432690
1012.799408	2536.650642
1013.092795	2542.158103
1013.386147	2541.404450
1013.679464	2537.439583
1013.972745	2537.673996
1014.265992	2538.205838
1014.559204	2538.813297
1014.852380	2536.663245
1015.145521	2536.789274
1015.438628	2537.830272
1015.731699	2536.935467
1016.024736	2537.759696
1016.317737	2538.062165
1016.610703	2536.569984
1016.903635	2534.624098
1017.196531	2534.477905
1017.489393	2535.198790
1017.782219	2533.694005
1018.075011	2537.555529
1018.367768	2536.443955
1018.660490	2541.041487
1018.953177	2541.041487
1019.245829	2541.041487
