Dividing Wavelength (nm)	Counts (n)	Blue Motor Position (mm): 16.600000	Red Motor Position (mm): 0.000000	
326.493990	2061.418548
326.888308	2061.418548
327.282561	2061.418548
327.676750	2032.152130
328.070874	2036.142203
328.464933	2043.401465
328.858929	2051.714327
329.252859	2060.193548
329.646726	2076.597463
330.040528	2093.092118
330.434265	2108.596187
330.827938	2131.178035
331.221547	2148.161683
331.615091	2173.420384
332.008571	2193.443847
332.401986	2211.914635
332.795338	2233.820969
333.188625	2252.561458
333.581847	2272.201794
333.975006	2290.554114
334.368100	2306.383337
334.761129	2325.829588
335.154095	2338.994562
335.546996	2381.350336
335.939833	2468.859726
336.332606	2479.670480
336.725315	2492.603560
337.117960	2499.862822
337.510540	2509.337671
337.903056	2521.570030
338.295508	2525.325690
338.687896	2532.877338
339.080220	2537.205169
339.472480	2541.240613
339.864676	2545.797816
340.256807	2549.321582
340.648875	2551.789227
341.040879	2550.912066
341.432818	2551.829556
341.824694	2555.683518
342.216506	2555.083621
342.608253	2552.094217
342.999937	2551.169165
343.391557	2552.583209
343.783113	2549.135060
344.174605	2548.096582
344.566033	2548.719164
344.957397	2544.192208
345.348697	2541.089378
345.739934	2541.991745
346.131106	2539.067875
346.522215	2536.481763
346.913260	2535.266845
347.304241	2536.050745
347.695159	2534.084695
348.086012	2532.816845
348.476802	2530.185362
348.867528	2526.684281
349.258191	2520.594567
349.648789	2522.979033
350.039324	2519.692201
350.429796	2526.538088
350.820203	2524.335103
351.210548	2522.414424
351.600828	2521.144053
351.991045	2519.447705
352.381198	2520.420647
352.771288	2520.992818
353.161314	2516.869154
353.551276	2520.730678
353.941175	2515.757580
354.331010	2519.268744
354.720782	2523.498272
355.110490	2527.503468
355.500135	2519.230935
355.889717	2520.236645
356.279235	2521.133971
356.668689	2521.272602
357.058080	2520.483662
357.447408	2521.721265
357.836672	2520.120699
358.225873	2522.600946
358.615010	2522.653878
359.004084	2523.394928
359.393095	2523.954496
359.782043	2526.722090
360.170927	2524.095648
360.559748	2527.143026
360.948505	2523.533560
361.337199	2528.184024
361.725830	2529.411545
362.114398	2527.304343
362.502903	2528.136133
362.891344	2529.247708
363.279722	2527.705115
363.668037	2531.319622
364.056289	2526.487676
364.444478	2530.134951
364.832603	2530.853315
365.220665	2532.322812
365.608665	2534.399767
365.996601	2530.994468
366.384474	2530.989426
366.772284	2531.163346
367.160031	2531.758202
367.547715	2534.377082
367.935336	2531.140661
368.322893	2532.897503
368.710388	2531.546474
369.097820	2531.675023
369.485189	2531.196114
369.872495	2533.890610
370.259738	2534.581248
370.646918	2536.955632
371.034035	2537.028729
371.421090	2533.520086
371.808081	2535.017308
372.195010	2535.919675
372.581875	2532.995806
372.968678	2536.950591
373.355418	2534.316588
373.742096	2537.976466
374.128710	2537.903369
374.515262	2538.175591
374.901751	2538.132741
375.288177	2537.716846
375.674540	2539.428318
376.060841	2539.597197
376.447079	2539.473688
376.833254	2537.898328
377.219367	2536.665766
377.605417	2539.430838
377.991404	2541.137269
378.377329	2542.258926
378.763191	2541.107022
379.148991	2541.434697
379.534727	2540.703730
379.920402	2541.303627
380.306013	2539.367824
380.691563	2542.364790
381.077049	2542.289173
381.462474	2540.774306
381.847835	2539.839172
382.233134	2543.897301
382.618371	2539.234233
383.003545	2540.280273
383.388657	2538.876312
383.773706	2541.296065
384.158693	2542.528628
384.543618	2544.706406
384.928480	2541.717002
385.313280	2543.965356
385.698017	2545.986859
386.082692	2542.947043
386.467305	2543.042825
386.851856	2544.736653
387.236344	2542.251364
387.620770	2542.082485
388.005133	2542.468134
388.389435	2544.088865
388.773674	2540.630633
389.157851	2545.351674
389.541965	2546.425439
389.926018	2549.155224
390.310008	2546.871582
390.693936	2547.905018
391.077802	2547.962991
391.461606	2548.935934
391.845348	2545.812939
392.229027	2545.328988
392.612645	2545.520552
392.996200	2546.591798
393.379694	2547.700851
393.763125	2548.630944
394.146494	2546.543907
394.529801	2548.267981
394.913047	2549.528270
395.296230	2549.634134
395.679351	2550.581871
396.062410	2551.305276
396.445408	2550.274360
396.828343	2552.918446
397.211217	2548.903167
397.594028	2553.823333
397.976778	2551.012889
398.359466	2549.119936
398.742092	2550.710420
399.124656	2550.604556
399.507158	2550.972560
399.889598	2551.648075
400.271977	2551.701007
400.654294	2552.126984
401.036549	2553.145297
401.418742	2553.593960
401.800874	2551.663198
402.182944	2551.801830
402.564952	2553.392314
402.946898	2553.704866
403.328783	2552.089176
403.710606	2554.695452
404.092367	2554.297201
404.474067	2554.108158
404.855705	2553.611604
405.237282	2554.894578
405.618797	2555.464228
406.000250	2553.490617
406.381642	2556.046482
406.762972	2555.144115
407.144240	2551.093548
407.525447	2554.564382
407.906593	2548.396531
408.287677	2554.342572
408.668700	2552.842828
409.049661	2555.376008
409.430560	2555.673436
409.811399	2556.795093
410.192176	2557.014383
410.572891	2557.309291
410.953545	2558.511606
411.334138	2556.011193
411.714669	2558.113355
412.095139	2558.226781
412.475547	2558.307439
412.855894	2557.188303
413.236180	2556.953889
413.616405	2557.208468
413.996568	2557.528581
414.376670	2558.385577
414.756711	2560.127296
415.136691	2559.955896
415.516609	2556.759805
415.896466	2560.270968
416.276262	2559.421534
416.655997	2559.487069
417.035670	2556.265772
417.415283	2560.404559
417.794834	2556.283416
418.174324	2559.262738
418.553753	2557.533622
418.933121	2559.038406
419.312428	2559.134188
419.691674	2556.530432
420.070859	2562.421021
420.449983	2558.141081
420.829045	2558.922460
421.208047	2558.861966
421.586988	2559.940773
421.965867	2557.871379
422.344686	2561.473284
422.723444	2557.614280
423.102141	2562.080743
423.480777	2560.147460
423.859352	2558.564538
424.237866	2560.187789
424.616319	2560.548232
424.994712	2561.974878
425.373044	2558.438509
425.751314	2559.227450
426.129524	2554.808878
426.507673	2558.302398
426.885762	2552.948693
427.263789	2559.436658
427.641756	2559.623180
428.019662	2559.116544
428.397508	2560.538150
428.775292	2558.471277
429.153016	2560.701987
429.530679	2560.810372
429.908282	2559.217367
430.285824	2559.325752
430.663305	2560.991853
431.040726	2562.163922
431.418086	2563.356155
431.795385	2561.657286
432.172624	2560.071843
432.549802	2560.858263
432.926920	2561.806000
433.303977	2562.355486
433.680974	2560.064281
434.057910	2560.321380
434.434786	2562.869683
434.811601	2562.438665
435.188355	2561.649724
435.565050	2561.874055
435.941683	2561.022100
436.318257	2560.177707
436.694770	2563.686350
437.071222	2561.397666
437.447614	2561.180897
437.823946	2560.749878
438.200218	2560.875907
438.576429	2558.627552
438.952580	2559.524878
439.328670	2560.888510
439.704700	2559.804662
440.080670	2560.391956
440.456580	2563.073850
440.832429	2562.491597
441.208218	2562.143757
441.583947	2564.157698
441.959616	2560.535629
442.335224	2560.278530
442.710773	2563.068809
443.086261	2560.906154
443.461689	2563.777091
443.837057	2563.756926
444.212365	2561.843808
444.587612	2560.749878
444.962800	2558.962789
445.337927	2560.308777
445.712995	2558.415824
446.088002	2563.242729
446.462949	2562.017728
446.837837	2560.097049
447.212664	2564.303892
447.587431	2563.882955
447.962139	2563.893038
448.336786	2564.021587
448.711374	2561.604354
449.085901	2564.787842
449.460369	2564.402194
449.834776	2564.258521
450.209124	2566.123748
450.583412	2562.423541
450.957640	2563.083932
451.331808	2561.846329
451.705917	2563.966134
452.079965	2564.881104
452.453954	2565.125600
452.827883	2562.587379
453.201752	2564.334138
453.575562	2564.361865
453.949311	2565.176011
454.323001	2563.719118
454.696632	2565.876732
455.070202	2564.593758
455.443713	2564.124931
455.817164	2567.162226
456.190556	2565.085270
456.563888	2568.740107
456.937160	2563.129303
457.310373	2566.620302
457.683526	2565.148285
458.056619	2565.944787
458.429653	2565.896896
458.802628	2564.780281
459.175542	2564.777760
459.548398	2566.272462
459.921194	2567.434448
460.293930	2566.383367
460.666607	2567.205076
461.039224	2566.600137
461.411782	2567.255487
461.784280	2565.269272
462.156719	2567.336146
462.529099	2566.980744
462.901419	2565.672565
463.273680	2564.543346
463.645882	2563.293140
464.018024	2564.878583
464.390106	2564.306412
464.762130	2567.452092
465.134094	2568.961918
465.505999	2568.601475
465.877845	2572.231106
466.249631	2570.567525
466.621358	2569.629871
466.993026	2569.219017
467.364634	2575.376786
467.736184	2571.893349
468.107674	2573.244378
468.479105	2570.481826
468.850477	2571.124573
469.221790	2572.841086
469.593043	2571.714388
469.964238	2569.178687
470.335373	2571.472412
470.706449	2570.875036
471.077467	2572.193297
471.448425	2574.063565
471.819324	2574.887794
472.190164	2572.962073
472.560945	2574.522310
472.931667	2570.600293
473.302330	2570.701116
473.672934	2572.984758
474.043479	2574.214800
474.413965	2574.998699
474.784393	2570.665828
475.154761	2573.708164
475.525070	2573.781261
475.895321	2573.872002
476.265513	2573.869481
476.635645	2574.194635
477.005719	2572.447876
477.375734	2577.481468
477.745691	2574.454255
478.115588	2576.831159
478.485427	2578.860223
478.855207	2579.470203
479.224928	2578.988773
479.594591	2580.697724
479.964194	2578.212435
480.333739	2583.714854
480.703226	2580.541448
481.072653	2583.099834
481.442022	2580.604463
481.811333	2583.989597
482.180584	2579.649164
482.549777	2586.396748
482.918912	2578.535069
483.287988	2588.640062
483.657005	2585.111254
484.025964	2587.367170
484.394864	2587.619228
484.763706	2588.274578
485.132489	2587.757860
485.501213	2591.074939
485.869879	2588.080494
486.238487	2587.299115
486.607036	2589.038313
486.975527	2589.146698
487.343959	2590.759867
487.712333	2588.997984
488.080648	2590.686770
488.448905	2595.017121
488.817104	2593.895465
489.185244	2594.931422
489.553326	2595.780856
489.921350	2601.442072
490.289315	2606.571446
490.657222	2602.026846
491.025070	2606.851230
491.392861	2608.814759
491.760593	2607.955243
492.128267	2605.676641
492.495883	2604.847371
492.863440	2606.243771
493.230939	2605.290993
493.598380	2603.335025
493.965763	2605.084306
494.333088	2605.626230
494.700354	2604.108842
495.067563	2606.435335
495.434713	2608.547578
495.801805	2610.001951
496.168839	2609.807867
496.535815	2611.058073
496.902733	2611.451283
497.269593	2614.130656
497.636395	2612.620831
498.003139	2616.368928
498.369825	2618.687859
498.736453	2616.691562
499.103023	2619.348250
499.469535	2619.529732
499.835989	2621.526029
500.202385	2616.626027
500.568723	2617.730040
500.935003	2623.454270
501.301226	2619.713734
501.667390	2627.000722
502.033497	2628.558438
502.399546	2630.118676
502.765537	2629.876700
503.131470	2632.530868
503.497345	2632.094808
503.863163	2629.697739
504.228923	2637.088071
504.594625	2638.050931
504.960269	2639.822897
505.325856	2639.984214
505.691385	2638.242495
506.056856	2641.254584
506.422270	2643.878505
506.787625	2642.010757
507.152924	2648.712972
507.518164	2649.887560
507.883347	2647.508136
508.248472	2651.142808
508.613540	2652.387973
508.978550	2655.697490
509.343503	2658.051709
509.708398	2658.875938
510.073236	2661.449447
510.438016	2663.483552
510.802738	2665.522699
511.167403	2668.010508
511.532010	2672.930675
511.896561	2675.816735
512.261053	2681.868640
512.625488	2680.999041
512.989866	2682.571881
513.354186	2685.747808
513.718449	2690.766277
514.082655	2693.312060
514.446803	2696.248532
514.810894	2702.307999
515.174927	2706.179605
515.538904	2709.605069
515.902822	2713.685883
516.266684	2716.919783
516.630488	2723.906822
516.994235	2725.850187
517.357925	2731.440827
517.721558	2741.782754
518.085133	2746.007241
518.448651	2752.805237
518.812112	2753.369846
519.175516	2760.795466
519.538863	2769.892228
519.902152	2776.970008
520.265385	2790.339148
520.628560	2797.621094
520.991678	2803.834317
521.354739	2813.530976
521.717743	2827.847853
522.080690	2832.863801
522.443580	2845.706140
522.806413	2858.659385
523.169189	2868.963504
523.531908	2882.766183
523.894569	2890.098541
524.257174	2907.059503
524.619722	2922.145156
524.982213	2935.080757
525.344647	2950.282356
525.707025	2965.665437
526.069345	2985.101606
526.431608	2999.955366
526.793815	3018.877337
527.155964	3032.266641
527.518057	3049.940927
527.880093	3066.395253
528.242072	3096.622011
528.603995	3113.807305
528.965860	3131.559728
529.327669	3155.800116
529.689421	3178.820545
530.051117	3197.641693
530.412755	3225.907443
530.774337	3255.839294
531.135862	3278.232099
531.497331	3305.285451
531.858743	3332.331242
532.220098	3371.705174
532.581396	3396.273237
532.942638	3419.525559
533.303824	3457.480407
533.664953	3494.240500
534.026025	3519.423584
534.387040	3567.193558
534.747999	3603.242849
535.108902	3646.987462
535.469748	3672.180628
535.830537	3716.394068
536.191270	3763.856532
536.551947	3797.753250
536.912567	3850.324923
537.273131	3899.937438
537.633638	3932.707459
537.994089	3989.617045
538.354483	4029.968961
538.714821	4100.030917
539.075103	4160.476872
539.435328	4208.345148
539.795497	4255.487499
540.155609	4314.053103
540.515665	4391.792737
540.875665	4423.216769
541.235609	4490.977439
541.595496	4557.417326
541.955328	4645.047703
542.315102	4685.008930
542.674821	4739.428186
543.034483	4795.314417
543.394090	4863.690107
543.753640	4932.166621
544.113134	5056.070620
544.472571	5081.798149
544.831953	5218.292431
545.191278	5255.423049
545.550548	5302.903157
545.909761	5422.693575
546.268918	5513.071381
546.628019	5620.198421
546.987064	5671.877810
547.346053	5697.446542
547.704986	5848.391291
548.063863	5905.371453
548.422684	6014.288102
548.781449	6066.796761
549.140158	6202.766762
549.498811	6275.301404
549.857408	6322.030380
550.215949	6486.676985
550.574434	6575.262661
550.932864	6664.163409
551.291237	6836.790161
551.649555	6916.941987
552.007817	7033.919441
552.366022	7111.215453
552.724173	7227.033442
553.082267	7381.413737
553.440305	7538.314610
553.798288	7572.435659
554.156215	7734.057572
554.514086	7875.729119
554.871902	7950.050850
555.229661	8096.945032
555.587365	8178.112650
555.945014	8326.244435
556.302606	8455.063560
556.660143	8597.665199
557.017625	8754.717306
557.375050	8850.806740
557.732421	9035.018063
558.089735	9189.204274
558.446994	9304.490421
558.804197	9516.297021
559.161345	9638.958376
559.518437	9679.045632
559.875474	9863.377943
560.232455	10045.925685
560.589381	10211.930881
560.946251	10320.827366
561.303065	10591.285270
561.659825	10691.452997
562.016528	10802.839812
562.373177	10881.239836
562.729770	11164.580409
563.086307	11225.711961
563.442789	11498.544248
563.799216	11632.853189
564.155587	11775.631269
564.511904	11938.392483
564.868164	12108.458328
565.224370	12359.520393
565.580520	12476.323927
565.936615	12696.377855
566.292654	12799.812249
566.648638	13066.292683
567.004567	13233.081778
567.360441	13450.824336
567.716260	13554.183114
568.072023	13830.808869
568.427732	14002.147606
568.783385	14064.426021
569.138982	14357.929559
569.494525	14591.380353
569.850013	14661.643955
570.205445	14883.222831
570.560823	15017.093192
570.916145	15174.846020
571.271412	15429.696511
571.626625	15520.074317
571.981782	15742.177473
572.336884	15817.005841
572.691931	16112.225892
573.046923	16206.535798
573.401860	16347.594845
573.756743	16549.235957
574.111570	16805.989484
574.466342	16975.967110
574.821059	17224.042291
575.175722	17246.868635
575.530330	17487.770254
575.884882	17571.145898
576.239380	17737.251917
576.593823	17984.535636
576.948211	18161.908634
577.302544	18208.559472
577.656823	18397.512001
578.011047	18699.575418
578.365216	18843.215536
578.719330	18940.514846
579.073389	19128.186921
579.427394	19358.061016
579.781344	19536.195228
580.135239	19636.763727
580.489080	19869.710405
580.842866	19861.584065
581.196597	20274.469689
581.550273	20481.091461
581.903895	20651.903398
582.257463	21051.084644
582.610975	21002.825679
582.964434	21358.234587
583.317837	21340.943429
583.671186	21520.741222
584.024481	21840.466322
584.377721	21845.699040
584.730906	22141.675265
585.084037	22414.810021
585.437113	22462.484213
585.790135	22736.221387
586.143103	22717.430487
586.496016	22996.266788
586.848874	23255.233382
587.201679	23470.954437
587.554428	23409.507813
587.907124	23753.498507
588.259765	23826.950639
588.612352	24107.077476
588.964884	24012.956613
589.317362	24379.735844
589.669786	24558.583379
590.022155	24680.244066
590.374470	25132.228878
590.726731	25076.040178
591.078937	24903.897377
591.431090	25285.830316
591.783188	25200.299579
592.135232	25268.168633
592.487222	25626.826565
592.839157	25895.963686
593.191038	25870.218513
593.542866	25943.010254
593.894639	25772.470540
594.246358	26132.313143
594.598022	26305.123897
594.949633	26221.276906
595.301190	26396.396508
595.652692	26533.137806
596.004141	27010.199838
596.355535	26499.500707
596.706876	26674.998396
597.058162	26662.640007
597.409395	27148.972722
597.760573	27470.699160
598.111698	27375.602834
598.462768	27496.966092
598.813785	27669.202154
599.164748	27559.602429
599.515657	27926.782431
599.866511	27742.828206
600.217312	28374.076450
600.568060	27790.464590
600.918753	28535.839515
601.269392	28628.765624
601.619978	28590.873792
601.970510	28885.912362
602.320988	29138.229673
602.671412	29474.933380
603.021783	29521.679999
603.372100	29363.649909
603.722363	29595.245558
604.072572	29771.685942
604.422728	29899.529604
604.772830	29887.793797
605.122878	30146.034465
605.472872	30186.701453
605.822813	30519.339469
606.172701	30471.524125
606.522534	30854.873628
606.872314	31140.076907
607.222041	31143.741826
607.571714	31532.936547
607.921333	31261.470412
608.270899	31570.992217
608.620411	31993.700529
608.969870	31904.005799
609.319276	32052.235887
609.668627	32207.936964
610.017926	32635.401605
610.367171	32859.135574
610.716362	33018.899822
611.065500	33045.307906
611.414585	33341.057279
611.763616	33604.139975
612.112594	33627.541011
612.461518	33854.322358
612.810389	34272.881800
613.159207	34221.598142
613.507971	34304.351203
613.856682	34822.791026
614.205340	34797.973426
614.553945	35453.295699
614.902496	35021.072210
615.250994	35456.852233
615.599439	35627.031505
615.947830	35812.077139
616.296169	35914.084887
616.644454	36046.296708
616.992686	36256.291013
617.340864	36748.385766
617.688990	36420.909892
618.037063	37083.592250
618.385082	37032.626185
618.733048	37419.406193
619.080961	37382.482262
619.428821	37503.701847
619.776628	37615.552448
620.124382	37531.571866
620.472083	37735.121056
620.819731	37922.430168
621.167326	37627.908316
621.514868	37732.507217
621.862357	37378.729123
622.209793	37542.576705
622.557176	37253.892509
622.904506	37131.515979
623.251783	36910.781496
623.599007	36726.930616
623.946179	36746.553307
624.293297	36605.474096
624.640363	36211.709569
624.987376	36149.650445
625.334336	36059.086116
625.681243	35757.370538
626.028097	35746.595071
626.374899	35668.366446
626.721647	35704.385490
627.068343	35590.435248
627.414987	35398.044653
627.761577	35227.459569
628.108115	35590.364672
628.454600	34994.643961
628.801032	35252.834217
629.147412	35201.134663
629.493739	35204.018203
629.840014	34861.065987
630.186236	35280.003515
630.532405	34831.544990
630.878521	35094.731029
631.224585	34955.854802
631.570597	34690.140624
631.916556	34882.536261
632.262462	34819.642825
632.608316	34820.514945
632.954117	34740.368161
633.299866	34785.302485
633.645562	34732.864403
633.991206	34294.969615
634.336797	33982.072758
634.682336	33933.024852
635.027823	33762.870786
635.373257	33708.973289
635.718639	33437.237453
636.063968	33394.032244
636.409245	32833.788653
636.754470	32857.779504
637.099642	32675.065403
637.444762	32205.567622
637.789829	32370.161295
638.134845	32055.994067
638.479808	32023.009797
638.824719	32016.536956
639.169577	31579.597467
639.514383	31696.635415
639.859137	31381.500285
640.203839	31571.153534
640.548489	31335.295589
640.893086	31361.285258
641.237632	31149.259368
641.582125	31260.711718
641.926566	31106.442328
642.270955	31150.771715
642.615292	31127.466460
642.959576	31055.665306
643.303809	31092.158219
643.647990	31203.025795
643.992118	31182.722548
644.336195	31082.552300
644.680219	31194.944825
645.024192	31409.919790
645.368112	31922.494231
645.711981	31960.050827
646.055797	32687.040664
646.399562	32507.121883
646.743274	33360.730382
647.086935	33779.758651
647.430544	33747.351594
647.774101	33817.315247
648.117606	34119.623161
648.461059	34286.641629
648.804460	33901.729368
649.147810	33434.086732
649.491108	33136.635970
649.834354	33026.393497
650.177548	32262.383946
650.520690	31810.363846
650.863781	31816.178817
651.206820	31680.629751
651.549807	31314.271457
651.892742	30774.668870
652.235626	30700.364783
652.578458	30605.976739
652.921238	29960.419180
653.263967	30277.492634
653.606644	30011.299546
653.949269	29937.134091
654.291843	29578.859287
654.634365	29944.103486
654.976836	29514.030048
655.319255	29613.106366
655.661622	29503.705765
656.003938	29395.565454
656.346203	29228.725947
656.688416	29489.847633
657.030577	29265.937224
657.372687	29116.600603
657.714746	29290.033939
658.056753	29498.715023
658.398708	28909.923377
658.740612	28980.242432
659.082465	29189.130204
659.424266	29113.023904
659.766016	29124.643764
660.107715	29000.117181
660.449362	29108.295302
660.790958	29098.396996
661.132503	29040.330466
661.473996	29138.015424
661.815438	29229.971112
662.156829	29364.758963
662.498168	29175.521609
662.839456	29168.320321
663.180693	29302.258737
663.521879	29400.213397
663.863013	29379.499296
664.204097	29373.770025
664.545129	29781.861511
664.886110	29732.997607
665.227040	29836.585757
665.567918	29851.784836
665.908746	29927.424828
666.249522	30025.432421
666.590248	30043.812468
666.930922	30162.214048
667.271545	30166.650264
667.612118	30229.551261
667.952639	30045.851615
668.293109	30096.553019
668.633528	29968.747167
668.973896	29933.819532
669.314213	29927.923903
669.654480	29742.081766
669.994695	29745.056047
670.334859	29673.383442
670.674973	29521.864002
671.015035	29715.078826
671.355047	29656.780402
671.695008	29592.679610
672.034918	29507.615180
672.374777	29625.779826
672.714585	29506.440591
673.054342	29629.404416
673.394049	29491.496091
673.733705	29709.833505
674.073310	29418.555636
674.412864	29502.982360
674.752368	29196.270998
675.091820	29429.079044
675.431223	29049.535612
675.770574	28834.472428
676.109875	28703.689773
676.449125	28488.450148
676.788324	28400.668536
677.127473	27931.279140
677.466571	27836.069388
677.805619	27568.681547
678.144616	27515.953598
678.483562	27462.837481
678.822458	27153.219894
679.161303	27098.069671
679.500098	27015.896342
679.838842	26962.543291
680.177535	27047.615282
680.516179	27282.870809
680.854771	27425.356502
681.193314	28196.627834
681.531805	29211.991836
681.870247	29973.720265
682.208638	30692.006550
682.546978	30955.888269
682.885268	31095.772726
683.223508	30652.100776
683.561697	30376.947037
683.899836	30233.432949
684.237925	29818.351903
684.575963	29678.674133
684.913951	29330.194291
685.251889	29491.838889
685.589776	29528.518325
685.927614	29522.504228
686.265401	29721.014784
686.603137	29837.437712
686.940824	30352.003408
687.278460	30663.871870
687.616046	30850.820540
687.953582	31501.923368
688.291068	31429.542481
688.628504	31757.441812
688.965889	31757.245207
689.303224	31488.579434
689.640510	31200.636288
689.977745	30569.960215
690.314930	29832.502422
690.652065	29402.988553
690.989150	28733.755215
691.326185	27900.946517
691.663170	27265.788859
692.000105	26533.662086
692.336990	25932.416270
692.673825	25520.420410
693.010610	25023.188721
693.347345	24532.548340
693.684030	23906.749584
694.020665	23711.800603
694.357251	23046.867370
694.693786	23049.405591
695.030272	22818.722391
695.366707	22340.142971
695.703093	22058.541597
696.039429	22128.180096
696.375716	21892.609497
696.711952	21889.380638
697.048139	21755.648909
697.384276	21596.834919
697.720363	21713.164585
698.056400	21609.185746
698.392388	21448.476282
698.728326	21451.170778
699.064214	21285.952002
699.400053	21283.940582
699.735842	20903.330946
700.071581	20707.577901
700.407270	20467.016560
700.742910	20297.696805
701.078501	20043.055521
701.414042	19841.343832
701.749533	19535.189518
702.084974	19233.292458
702.420366	19452.675912
702.755709	19054.991888
703.091002	18747.839425
703.426246	18826.219285
703.761440	18758.007433
704.096584	18516.480711
704.431679	18445.334907
704.766725	18399.001662
705.101721	18339.145521
705.436668	18450.812120
705.771565	18177.198454
706.106413	18496.815170
706.441212	18560.737000
706.775961	18672.824536
707.110661	18758.095653
707.445311	19124.869842
707.779913	19006.717799
708.114465	19319.879317
708.448967	19625.960534
708.783421	20259.570558
709.117825	20625.888523
709.452180	20856.057526
709.786485	21304.833644
710.120742	22069.523750
710.454949	22196.371784
710.789107	22692.615407
711.123216	23409.298605
711.457275	23628.271205
711.791286	24163.792978
712.125247	24317.432223
712.459159	24049.361306
712.793023	24799.147241
713.126837	23766.340847
713.460602	24025.935064
713.794318	23694.257388
714.127985	23408.895313
714.461602	22514.496318
714.795171	22497.084172
715.128691	21519.629647
715.462162	21006.389774
715.795584	20570.438352
716.128957	20296.401228
716.462281	19928.848181
716.795556	19638.339088
717.128782	19162.091202
717.461960	18571.691428
717.795088	18536.763793
718.128167	18183.827571
718.461198	17732.669508
718.794180	17612.611908
719.127113	17269.614321
719.459997	17087.056497
719.792833	16720.405816
720.125619	16756.172802
720.458357	16421.218376
720.791046	16278.021880
721.123686	16130.936135
721.456278	15911.587969
721.788821	15903.953142
722.121315	15632.965917
722.453761	15739.624129
722.786158	15627.677746
723.118506	15717.301900
723.450805	15596.168014
723.783056	15776.411949
724.115259	15672.322205
724.447412	15659.608415
724.779518	15883.286931
725.111574	15933.844663
725.443582	16202.603698
725.775542	16164.482493
726.107453	16680.036256
726.439315	16600.514574
726.771129	17021.211466
727.102895	17445.601002
727.434612	17709.568420
727.766281	17871.114716
728.097901	18201.295169
728.429473	18291.415877
728.760996	18288.786915
729.092471	18425.104756
729.423897	18307.650913
729.755276	18188.125155
730.086606	18301.818298
730.417887	18884.159787
730.749120	19447.309604
731.080305	19665.823458
731.411442	20056.651513
731.742530	20179.116264
732.073570	20347.747901
732.404562	20666.429483
732.735506	20504.416880
733.066401	20287.322110
733.397249	19786.412900
733.728048	19158.464091
734.058798	18300.905849
734.389501	17544.122792
734.720156	17024.702465
735.050762	16451.976976
735.381320	16058.817388
735.711831	15794.108920
736.042293	15423.901705
736.372707	15464.508199
736.703073	15253.984573
737.033391	15447.653101
737.363661	15449.765345
737.693883	15582.083030
738.024056	15781.579132
738.354182	15994.199878
738.684260	16365.057402
739.014290	16651.689848
739.344272	16858.533431
739.674207	17212.329170
740.004093	17382.911733
740.333931	17437.177234
740.663722	17520.124379
740.993464	17555.641829
741.323159	17403.348571
741.652806	17099.210718
741.982405	16933.923887
742.311956	16572.763022
742.641460	16465.270499
742.970915	16140.940304
743.300323	15798.262831
743.629683	15574.465847
743.958996	15257.072280
744.288260	14940.419763
744.617477	14631.432320
744.946647	14600.093987
745.275768	14281.745122
745.604842	14087.978292
745.933869	13908.379624
746.262847	13880.738978
746.591778	13793.360658
746.920662	13678.475282
747.249498	13683.660109
747.578286	13851.936345
747.907027	14020.283157
748.235720	14284.336275
748.564365	14362.179252
748.892963	14275.173978
749.221514	14379.919073
749.550017	14241.869595
749.878473	14225.294281
750.206881	13986.797293
750.535242	13913.249379
750.863555	13840.238347
751.191821	13738.175147
751.520039	13757.208023
751.848210	13685.638762
752.176334	13730.878077
752.504411	13665.516996
752.832440	13484.085869
753.160421	13590.575203
753.488356	13479.604284
753.816243	13392.009194
754.144082	13232.159247
754.471875	13169.359073
754.799620	13142.840083
755.127318	13118.824026
755.454969	13101.532869
755.782572	13078.802306
756.110129	13093.005757
756.437638	12992.835509
756.765100	12997.796005
757.092515	13026.727187
757.419882	13068.079772
757.747203	13087.437802
758.074477	13168.998631
758.401703	13148.491217
758.728882	13344.844159
759.056014	13393.057754
759.383099	13564.824989
759.710138	13683.650027
760.037129	13805.817349
760.364073	13869.703892
760.690970	13884.119071
761.017820	13916.074945
761.344623	14137.668945
761.671379	14523.470969
761.998088	15240.547378
762.324751	17037.149073
762.651366	20470.535285
762.977935	24962.614216
763.304456	27912.911696
763.630931	28963.591501
763.957359	27723.235762
764.283740	25455.374402
764.610074	23186.782074
764.936362	20535.024246
765.262602	18652.601947
765.588796	16721.330867
765.914943	15440.726556
766.241044	14325.083922
766.567097	13542.626268
766.893104	12817.456288
767.219064	12353.559228
767.544978	11875.209181
767.870845	11486.533699
768.196665	11265.610173
768.522438	11035.395800
768.848165	10831.314769
769.173846	10620.768458
769.499479	10494.295990
769.825066	10319.488940
770.150607	10090.817160
770.476101	10013.473257
770.801548	9892.349454
771.126949	9730.621677
771.452303	9620.558165
771.777611	9421.019213
772.102872	9408.013036
772.428087	9269.560266
772.753256	9112.056976
773.078378	9021.664047
773.403453	8836.799894
773.728482	8722.844611
774.053465	8644.772262
774.378401	8549.025627
774.703291	8419.780524
775.028135	8298.689488
775.352932	8271.563039
775.677683	8161.262593
776.002388	8056.499855
776.327046	8071.449396
776.651658	7970.197821
776.976224	7866.234106
777.300743	7866.962552
777.625216	7774.742204
777.949643	7731.731080
778.274024	7750.829491
778.598359	7660.676016
778.922647	7675.703696
779.246889	7627.764843
779.571086	7633.741131
779.895236	7640.634909
780.219339	7651.523802
780.543397	7653.870459
780.867409	7733.498004
781.191374	7745.238852
781.515294	7710.742236
781.839167	7809.957185
782.162995	7779.793441
782.486776	7727.834268
782.810511	7676.565733
783.134201	7585.396466
783.457844	7582.490241
783.781441	7525.323556
784.104993	7463.329967
784.428498	7430.426356
784.751958	7423.441837
785.075372	7395.831437
785.398739	7342.329672
785.722061	7385.592854
786.045337	7388.320118
786.368568	7548.654016
786.691752	7576.869354
787.014891	7925.069412
787.337983	8279.959081
787.661030	8873.983445
787.984031	9503.225309
788.306987	9902.343541
788.629897	10113.615778
788.952760	10058.190812
789.275579	9831.573303
789.598351	9435.293240
789.921078	9079.927182
790.243759	8662.602823
790.566395	8376.030871
790.888984	8126.302191
791.211529	7911.344871
791.534027	7693.584669
791.856480	7482.766135
792.178888	7415.101248
792.501249	7313.108623
792.823566	7158.660272
793.145836	7159.295458
793.468062	7135.733105
793.790241	7088.255518
794.112375	7155.819582
794.434464	7307.454969
794.756507	7349.367122
795.078505	7515.460539
795.400457	7827.354207
795.722364	8174.727515
796.044226	8464.848440
796.366042	8738.893124
796.687812	8685.126698
797.009538	8764.769367
797.331218	8659.041248
797.652852	8566.755365
797.974442	8415.631655
798.295986	8330.773912
798.617484	8131.048438
798.938938	7999.476843
799.260346	7895.674444
799.581709	7691.464863
799.903026	7610.030064
800.224299	7503.906214
800.545526	7327.430541
800.866708	7229.856488
801.187845	7167.540265
801.508936	7063.110242
801.829983	7024.852926
802.150984	6867.331992
802.471940	6824.875394
802.792851	6812.683363
803.113717	6777.748167
803.434538	6738.885912
803.755314	6688.151740
804.076045	6695.637853
804.396731	6637.677187
804.717372	6670.157341
805.037967	6672.166241
805.358518	6712.374484
805.679024	6795.636702
805.999485	6802.585932
806.319901	6846.146543
806.640272	6871.153186
806.960598	6952.318284
807.280879	6951.262162
807.601115	7031.469440
807.921306	6978.358364
808.241453	6988.239025
808.561554	7013.522932
808.881611	6973.967519
809.201623	6982.983622
809.521590	6931.389933
809.841513	6901.261477
810.161390	6947.635052
810.481223	6819.569579
810.801011	6801.388658
811.120755	6775.068794
811.440453	6696.177257
811.760107	6668.178688
812.079716	6638.342619
812.399281	6566.332257
812.718801	6560.053500
813.038276	6513.654720
813.357707	6455.520134
813.677093	6499.231979
813.996434	6399.598614
814.315731	6442.067815
814.634983	6437.490447
814.954191	6451.131809
815.273354	6555.955042
815.592473	6617.941070
815.911547	6743.354895
816.230577	6824.802297
816.549562	6973.682694
816.868502	7073.502581
817.187399	7175.578385
817.506250	7325.625808
817.825058	7369.821604
818.143821	7631.039073
818.462539	7909.625837
818.781213	8271.673945
819.099843	8825.512750
819.418429	9841.280045
819.736970	10805.867024
820.055466	11998.314158
820.373919	13536.065207
820.692327	15912.432362
821.010691	20076.122970
821.329011	29077.882021
821.647286	42025.001826
821.965517	55342.570823
822.283704	60699.840303
822.601847	62667.982382
822.919945	59974.135960
823.237999	55777.839169
823.556010	49639.745369
823.873976	42931.784416
824.191897	36431.080420
824.509775	31602.620416
824.827609	27102.392460
825.145398	24539.028744
825.463144	23176.112472
825.780845	23499.963757
826.098502	25294.632170
826.416116	29087.543392
826.733685	32721.287743
827.051210	33877.224320
827.368692	32061.977916
827.686129	28094.841897
828.003522	23970.696621
828.320872	20276.080337
828.638177	17423.994617
828.955439	15265.256593
829.272656	13452.687043
829.589830	11973.904891
829.906960	10697.459532
830.224046	9759.583105
830.541088	9014.550978
830.858086	8551.253817
831.175041	8180.693721
831.491952	8061.654434
831.808819	8110.251157
832.125642	8515.391048
832.442421	9417.129963
832.759157	11219.733152
833.075849	14152.605884
833.392497	17374.218264
833.709101	19539.638337
834.025662	19369.244816
834.342179	17660.167633
834.658653	15460.530729
834.975083	13536.602090
835.291469	11924.262129
835.607811	10598.037895
835.924110	9690.834370
836.240366	8815.979928
836.556578	8018.446705
836.872746	7369.811522
837.188871	6868.844338
837.504952	6450.907478
837.820990	6134.328058
838.136984	5918.622126
838.452935	5824.944884
838.768842	5857.631726
839.084706	6293.593231
839.400526	7500.561408
839.716303	9077.119259
840.032037	10178.835706
840.347727	10091.648950
840.663373	9108.316440
840.978977	8069.044766
841.294537	7262.301354
841.610054	6660.208624
841.925527	6228.554785
842.240957	5866.335278
842.556344	5532.865472
842.871687	5250.177729
843.186987	4967.016117
843.502244	4743.415738
843.817458	4579.852981
844.132629	4438.821661
844.447756	4350.286397
844.762840	4270.646248
845.077881	4196.579095
845.392879	4133.915033
845.707833	4084.688165
846.022745	4042.380282
846.337613	4012.045138
846.652438	3968.824806
846.967221	3949.930561
847.281960	3916.437135
847.596656	3901.119589
847.911309	3879.941702
848.225919	3860.016541
848.540485	3844.709078
848.855009	3827.511181
849.169490	3805.340187
849.483928	3796.724855
849.798323	3786.193884
850.112675	3766.298971
850.426984	3772.965897
850.741251	3759.034668
851.055474	3752.118205
851.369654	3760.221860
851.683792	3752.929831
851.997887	3760.499123
852.311938	3764.234618
852.625947	3764.975668
852.939914	3757.973505
853.253837	3764.789145
853.567718	3766.026748
853.881555	3753.144080
854.195350	3771.325001
854.509103	3766.818209
854.822812	3765.310904
855.136479	3750.996548
855.450103	3766.281327
855.763685	3748.821290
856.077224	3753.547372
856.390720	3770.220988
856.704173	3789.647075
857.017584	3800.654434
857.330953	3814.157165
857.644278	3836.476873
857.957561	3841.455013
858.270802	3840.290506
858.584000	3847.111187
858.897155	3838.694981
859.210268	3820.221673
859.523339	3796.419865
859.836367	3795.197385
860.149352	3789.662198
860.462295	3782.289511
860.775195	3774.639560
861.088054	3770.039507
861.400869	3763.816202
861.713642	3764.282509
862.026373	3776.219961
862.339062	3780.772123
862.651708	3798.615287
862.964312	3836.076102
863.276873	3847.133873
863.589392	3906.271648
863.901869	3955.513639
864.214303	3999.628776
864.526696	4028.559958
864.839045	4074.328594
865.151353	4102.793469
865.463619	4110.115745
865.775842	4116.744863
866.088023	4135.944097
866.400162	4122.713589
866.712258	4131.752378
867.024313	4133.937718
867.336325	4134.976195
867.648296	4135.949138
867.960224	4139.394767
868.272110	4154.377076
868.583954	4151.301972
868.895755	4168.041123
869.207515	4165.316380
869.519233	4204.965055
869.830909	4216.801684
870.142542	4242.498966
870.454134	4256.117643
870.765684	4285.421870
871.077191	4327.921318
871.388657	4348.126262
871.700081	4384.699833
872.011463	4428.212553
872.322803	4463.513233
872.634101	4492.303262
872.945357	4531.715003
873.256571	4589.189198
873.567744	4617.323878
873.878874	4633.747957
874.189963	4669.961086
874.501010	4680.068599
874.812015	4680.658414
875.122979	4722.489909
875.433900	4720.110484
875.744780	4733.847628
876.055618	4762.161269
876.366415	4762.025158
876.677169	4782.232623
876.987882	4828.822967
877.298554	4880.915730
877.609183	4963.076455
877.919771	5069.096962
878.230317	5214.496442
878.540822	5432.420481
878.851285	5751.122227
879.161707	6211.271189
879.472087	6973.251675
879.782425	8209.667753
880.092722	10383.380523
880.402977	13675.682483
880.713191	17380.865025
881.023363	21048.226310
881.333494	23204.267316
881.643583	24406.411109
881.953631	24424.279479
882.263637	23589.252674
882.573602	22130.861990
882.883526	20586.012996
883.193408	18938.090051
883.503248	17251.766116
883.813048	15715.850048
884.122806	14297.024859
884.432522	12844.287829
884.742197	11582.608009
885.051831	10505.187403
885.361424	9513.804170
885.670975	8699.768729
885.980485	8020.599277
886.289954	7443.145187
886.599382	6972.752601
886.908768	6595.472647
887.218113	6241.442495
887.527417	5951.694616
887.836680	5683.898441
888.145901	5463.579853
888.455082	5303.356861
888.764221	5153.362369
889.073319	5023.114077
889.382376	4949.321667
889.691392	4887.406216
890.000366	4862.966702
890.309300	4849.055638
890.618193	4848.480946
890.927044	4836.062064
891.235855	4859.947051
891.544625	4892.560795
891.853353	4956.132266
892.162041	5067.020007
892.470687	5256.068317
892.779293	5506.094424
893.087858	5879.462443
893.396381	6455.951152
893.704864	7251.404900
894.013306	8407.502794
894.321707	9575.573428
894.630068	10382.364731
894.938387	10585.699671
895.246665	10341.664975
895.554903	9747.595242
895.863100	9050.791833
896.171256	8489.298036
896.479371	7993.737489
896.787446	7494.426324
897.095480	7066.429842
897.403473	6749.663899
897.711425	6433.076917
898.019336	6167.904663
898.327207	5890.069030
898.635038	5666.393034
898.942827	5419.555457
899.250576	5226.653184
899.558284	5037.531777
899.865952	4913.516872
900.173579	4766.393317
900.481165	4659.480527
900.788711	4568.215477
901.096216	4494.516329
901.403681	4432.318573
901.711105	4407.556425
902.018489	4392.218714
902.325832	4466.691680
902.633135	4586.025874
902.940397	4929.658647
903.247619	5727.476695
903.554800	7157.631877
903.861941	9066.497548
904.169041	10571.463453
904.476101	11179.908037
904.783121	10820.272122
905.090100	10076.840561
905.397039	9257.418647
905.703938	8509.175305
906.010796	7824.516037
906.317614	7275.778879
906.624391	6741.043526
906.931129	6315.670964
907.237826	5922.352580
907.544483	5549.960024
907.851099	5176.163508
908.157675	4825.299200
908.464211	4501.737782
908.770707	4266.759519
909.077163	4073.612750
909.383578	3933.110751
909.689954	3817.184377
909.996289	3745.020260
910.302584	3681.668080
910.608839	3651.819408
910.915054	3616.077627
911.221229	3606.895165
911.527363	3615.825569
911.833458	3629.242600
912.139513	3656.676560
912.445527	3690.311138
912.751502	3769.575721
913.057436	3869.864435
913.363331	4004.972399
913.669186	4211.352197
913.975000	4466.611022
914.280775	4884.857912
914.586510	5463.295028
914.892205	6259.532675
915.197859	7287.451671
915.503475	8493.255342
915.809050	9544.325836
916.114585	10177.545171
916.420081	10437.467063
916.725536	10394.420650
917.030952	9957.362694
917.336328	9545.480260
917.641665	9142.364393
917.946961	8672.203700
918.252218	8254.012262
918.557435	7746.547031
918.862612	7321.797052
919.167750	6946.450381
919.472848	6529.788933
919.777906	6156.304968
920.082925	5803.792203
920.387904	5436.839053
920.692843	5175.283827
920.997743	4937.338844
921.302603	4696.749777
921.607423	4539.049882
921.912204	4374.617526
922.216946	4258.277777
922.521647	4136.218840
922.826310	4029.565668
923.130932	3939.495373
923.435516	3843.355528
923.740059	3771.498921
924.044564	3696.007642
924.349028	3637.459681
924.653454	3575.758479
924.957840	3505.487315
925.262186	3460.406796
925.566493	3399.156777
925.870761	3342.494208
926.174989	3309.300730
926.479178	3271.671038
926.783328	3228.959862
927.087438	3201.568752
927.391509	3164.193638
927.695541	3139.348311
927.999533	3110.465020
928.303486	3086.486772
928.607400	3071.098649
928.911275	3063.410890
929.215110	3042.863147
929.518906	3036.932229
929.822663	3034.769574
930.126381	3032.886703
930.430060	3041.872560
930.733699	3040.965152
931.037299	3051.470917
931.340861	3047.667366
931.644383	3056.249931
931.947866	3055.828994
932.251309	3049.605690
932.554714	3050.021585
932.858080	3045.434135
933.161407	3034.673792
933.464694	3027.774973
933.767943	3022.370856
934.071153	3016.056811
934.374323	3005.924092
934.677455	3003.640449
934.980548	2995.007473
935.283602	2988.176710
935.586617	2986.868530
935.889593	2994.992350
936.192530	2999.751199
936.495428	3015.444311
936.798287	3037.789225
937.101108	3069.200655
937.403890	3121.124540
937.706632	3184.141483
938.009336	3260.605705
938.312002	3332.212775
938.614628	3394.665109
938.917216	3446.609158
939.219765	3478.912872
939.522275	3511.445958
939.824747	3511.950074
940.127179	3512.897811
940.429573	3508.345649
940.731929	3501.489680
941.034246	3488.738081
941.336524	3475.167295
941.638763	3460.920994
941.940964	3449.628809
942.243126	3404.144999
942.545250	3382.009292
942.847335	3346.514528
943.149381	3309.676296
943.451389	3278.053138
943.753359	3242.911255
944.055290	3220.377297
944.357182	3195.700849
944.659036	3180.012778
944.960851	3170.774864
945.262628	3155.752225
945.564367	3160.818585
945.866067	3151.071514
946.167729	3148.782830
946.469352	3146.252171
946.770937	3141.488281
947.072484	3129.281127
947.373992	3129.780201
947.675462	3123.551855
947.976893	3105.948146
948.278286	3097.872217
948.579641	3090.630600
948.880958	3083.343612
949.182236	3089.660178
949.483476	3081.160792
949.784678	3082.093406
950.085841	3084.573654
950.386967	3092.972216
950.688054	3109.499639
950.989103	3129.860859
951.290114	3150.373314
951.591087	3180.894980
951.892021	3203.373485
952.192917	3233.771643
952.493776	3256.824839
952.794596	3265.979575
953.095378	3272.810338
953.396122	3268.306067
953.696828	3261.114861
953.997496	3250.997266
954.298126	3227.669326
954.598718	3205.299206
954.899272	3182.296421
955.199788	3153.889519
955.500266	3120.297790
955.800706	3087.545414
956.101108	3047.879095
956.401472	3017.987573
956.701798	2984.262254
957.002087	2945.082406
957.302337	2917.499733
957.602550	2887.212481
957.902724	2861.154756
958.202861	2835.898576
958.502960	2812.905873
958.803022	2793.396607
959.103045	2773.204266
959.403031	2757.460742
959.702979	2743.537075
960.002889	2730.583831
960.302762	2716.375338
960.602596	2706.998792
960.902393	2698.801876
961.202153	2689.299301
961.501875	2681.122550
961.801559	2676.129287
962.101205	2669.782474
962.400814	2662.336690
962.700385	2659.218736
962.999918	2652.922335
963.299414	2642.219965
963.598873	2641.557054
963.898293	2637.493884
964.197677	2636.863739
964.497022	2635.598410
964.796331	2634.391053
965.095601	2631.391567
965.394835	2629.102883
965.694030	2625.637090
965.993189	2623.509723
966.292309	2625.097686
966.591393	2623.832357
966.890439	2619.257510
967.189447	2622.695577
967.488419	2625.284209
967.787353	2625.695063
968.086249	2627.903088
968.385108	2628.833181
968.683930	2630.728655
968.982714	2637.075468
969.281462	2640.180819
969.580172	2642.267856
969.878844	2647.117446
970.177480	2657.320742
970.476078	2664.469098
970.774639	2672.529903
971.073162	2680.154648
971.371649	2684.744619
971.670098	2691.126719
971.968510	2696.545960
972.266885	2701.214068
972.565223	2703.820345
972.863524	2704.626929
973.161788	2708.284287
973.460014	2710.862837
973.758204	2715.722509
974.056356	2717.060935
974.354471	2718.038919
974.652550	2717.131512
974.950591	2717.665874
975.248595	2719.241234
975.546563	2715.641851
975.844493	2710.976263
976.142386	2704.296734
976.440243	2700.188193
976.738062	2696.871114
977.035845	2691.068746
977.333590	2681.465348
977.631299	2675.710871
977.928971	2670.460509
978.226606	2666.593944
978.524204	2661.686381
978.821765	2658.150012
979.119290	2661.809889
979.416777	2662.379540
979.714228	2662.250990
980.011642	2669.553102
980.309020	2677.049297
980.606360	2692.112265
980.903664	2714.381562
981.200931	2747.890112
981.498162	2795.501289
981.795356	2869.134903
982.092513	2958.277626
982.389633	3059.567010
982.686717	3154.862462
982.983764	3226.865262
983.280775	3275.439300
983.577749	3281.362656
983.874686	3267.938063
984.171587	3234.285841
984.468451	3197.165304
984.765279	3152.490599
985.062070	3108.022581
985.358824	3064.794687
985.655543	3006.539113
985.952224	2956.004066
986.248869	2893.806310
986.545478	2835.467557
986.842050	2781.769186
987.138586	2738.427866
987.435086	2701.798842
987.731549	2668.950684
988.027975	2645.219452
988.324366	2629.677575
988.620719	2613.974380
988.917037	2604.648246
989.213318	2596.103490
989.509563	2587.417582
989.805772	2581.433732
990.101944	2581.027919
990.398080	2578.320820
990.694180	2577.176478
990.990244	2577.294945
991.286271	2575.081878
991.582262	2577.297466
991.878217	2582.573033
992.174136	2583.712334
992.470019	2584.687797
992.765865	2589.890268
993.061676	2595.211206
993.357450	2600.360744
993.653188	2606.533637
993.948890	2627.401494
994.244556	2645.141314
994.540186	2667.730724
994.835780	2699.162319
995.131337	2735.226733
995.426859	2776.213835
995.722345	2824.301401
996.017795	2874.793598
996.313208	2910.706778
996.608586	2937.745007
996.903928	2948.825463
997.199234	2947.403858
997.494504	2946.400668
997.789738	2931.302412
998.084936	2905.595048
998.380099	2876.038763
998.675225	2849.557582
998.970316	2816.840493
999.265371	2783.505864
999.560390	2745.518249
999.855373	2718.890874
1000.150320	2691.242666
1000.445232	2665.487411
1000.740108	2644.932106
1001.034948	2624.553242
1001.329752	2610.380038
1001.624521	2598.145157
1001.919254	2586.674012
1002.213951	2580.765779
1002.508613	2569.534089
1002.803239	2563.426731
1003.097829	2561.780794
1003.392384	2556.270813
1003.686903	2554.067829
1003.981386	2549.266130
1004.275834	2545.011396
1004.570246	2539.766075
1004.864623	2540.078627
1005.158964	2539.337577
1005.453270	2533.386495
1005.747540	2535.460930
1006.041775	2531.218799
1006.335974	2532.211906
1006.630138	2531.642256
1006.924266	2531.937163
1007.218359	2525.275278
1007.512416	2525.597912
1007.806438	2521.194464
1008.100425	2524.660258
1008.394376	2522.215298
1008.688292	2525.403828
1008.982172	2522.132119
1009.276017	2528.725948
1009.569827	2525.446678
1009.863602	2523.268899
1010.157341	2523.694877
1010.451045	2522.999198
1010.744714	2521.910308
1011.038347	2522.759743
1011.331945	2518.618435
1011.625508	2523.609177
1011.919036	2517.247241
1012.212528	2519.472910
1012.505986	2516.707837
1012.799408	2515.838238
1013.092795	2515.523166
1013.386147	2514.081396
1013.679464	2515.203053
1013.972745	2514.487209
1014.265992	2513.242044
1014.559204	2514.376304
1014.852380	2513.499143
1015.145521	2512.047291
1015.438628	2512.316993
1015.731699	2514.454442
1016.024736	2513.612569
1016.317737	2517.942920
1016.610703	2519.029289
1016.903635	2518.991480
1017.196531	2521.814526
1017.489393	2521.844773
1017.782219	2523.405010
1018.075011	2526.636390
1018.367768	2523.271420
1018.660490	2524.829136
1018.953177	2524.829136
1019.245829	2524.829136
