Dividing Wavelength (nm)	Counts (n)	Blue Motor Position (mm): 2.600000	Red Motor Position (mm): 0.000000	
326.493990	2064.317212
326.888308	2064.317212
327.282561	2064.317212
327.676750	2039.630682
328.070874	2040.714530
328.464933	2046.037988
328.858929	2055.233053
329.252859	2066.623540
329.646726	2079.092834
330.040528	2094.949783
330.434265	2111.401589
330.827938	2134.691720
331.221547	2155.063022
331.615091	2174.547082
332.008571	2194.013498
332.401986	2214.644420
332.795338	2234.136041
333.188625	2256.564134
333.581847	2274.873605
333.975006	2291.128806
334.368100	2309.302165
334.761129	2329.141626
335.154095	2340.574963
335.546996	2355.360668
335.939833	2371.694006
336.332606	2386.230173
336.725315	2394.749723
337.117960	2404.509397
337.510540	2416.512384
337.903056	2422.997829
338.295508	2431.101483
338.687896	2437.884356
339.080220	2446.202260
339.472480	2447.999431
339.864676	2451.681994
340.256807	2451.956737
340.648875	2455.800617
341.040879	2455.838425
341.432818	2459.778087
341.824694	2457.935545
342.216506	2458.643828
342.608253	2457.050823
342.999937	2458.986626
343.391557	2457.562500
343.783113	2454.131995
344.174605	2454.646193
344.566033	2452.818774
344.957397	2451.994546
345.348697	2450.184771
345.739934	2450.991356
346.131106	2444.208483
346.522215	2446.323248
346.913260	2442.882660
347.304241	2439.855447
347.695159	2438.375868
348.086012	2438.779161
348.476802	2435.416711
348.867528	2432.616350
349.258191	2430.836823
349.648789	2430.262131
350.039324	2425.800710
350.429796	2429.294230
350.820203	2429.188366
351.210548	2431.393870
351.600828	2428.669127
351.991045	2426.899682
352.381198	2429.054775
352.771288	2427.653334
353.161314	2427.315577
353.551276	2427.673499
353.941175	2428.026380
354.331010	2426.687953
354.720782	2429.747934
355.110490	2425.581420
355.500135	2427.958324
355.889717	2430.483942
356.279235	2425.099990
356.668689	2430.244487
357.058080	2431.749272
357.447408	2429.546288
357.836672	2431.139292
358.225873	2429.238777
358.615010	2429.906730
359.004084	2431.222471
359.393095	2433.571649
359.782043	2436.019129
360.170927	2432.371854
360.559748	2430.667944
360.948505	2434.010229
361.337199	2433.942174
361.725830	2435.434355
362.114398	2436.606423
362.502903	2435.179777
362.891344	2437.995261
363.279722	2436.578697
363.668037	2435.512493
364.056289	2437.407967
364.444478	2436.974428
364.832603	2439.638678
365.220665	2436.119952
365.608665	2440.714964
365.996601	2439.752103
366.384474	2438.035591
366.772284	2439.651280
367.160031	2439.386620
367.547715	2441.403081
367.935336	2438.912751
368.322893	2438.781681
368.710388	2437.271856
369.097820	2441.239244
369.485189	2435.015939
369.872495	2442.139090
370.259738	2439.704212
370.646918	2444.072372
371.034035	2441.937444
371.421090	2442.902825
371.808081	2443.066662
372.195010	2443.346446
372.581875	2442.154213
372.968678	2443.364090
373.355418	2445.904832
373.742096	2442.854934
374.128710	2444.894080
374.515262	2445.587239
374.901751	2443.447269
375.288177	2444.233689
375.674540	2446.555141
376.060841	2445.020109
376.447079	2442.769234
376.833254	2444.158072
377.219367	2444.846189
377.605417	2446.585387
377.991404	2443.608586
378.377329	2446.575305
378.763191	2444.851231
379.148991	2448.107816
379.534727	2446.255192
379.920402	2447.270984
380.306013	2448.264092
380.691563	2448.954730
381.077049	2446.182095
381.462474	2449.758794
381.847835	2449.060594
382.233134	2449.184102
382.618371	2450.265430
383.003545	2448.558999
383.388657	2449.836932
383.773706	2449.899946
384.158693	2449.375666
384.543618	2449.582353
384.928480	2453.441357
385.313280	2447.533124
385.698017	2448.773248
386.082692	2450.358691
386.467305	2450.872889
386.851856	2452.753239
387.236344	2450.101592
387.620770	2449.050512
388.005133	2448.667384
388.389435	2448.765687
388.773674	2449.819288
389.157851	2453.748867
389.541965	2453.363219
389.926018	2453.219546
390.310008	2453.574947
390.693936	2451.918928
391.077802	2453.375822
391.461606	2457.252469
391.845348	2454.530246
392.229027	2453.340534
392.612645	2452.516305
392.996200	2452.271809
393.379694	2455.271296
393.763125	2454.076542
394.146494	2452.806171
394.529801	2453.809361
394.913047	2455.704835
395.296230	2454.752057
395.679351	2458.404373
396.062410	2455.598971
396.445408	2455.412448
396.828343	2455.838425
397.211217	2457.862449
397.594028	2456.634928
397.976778	2454.820112
398.359466	2459.263889
398.742092	2457.857408
399.124656	2457.207099
399.507158	2457.426389
399.889598	2459.112655
400.271977	2457.491924
400.654294	2457.340689
401.036549	2459.586523
401.418742	2457.456636
401.800874	2459.357151
402.182944	2458.200206
402.564952	2458.469908
402.946898	2459.825978
403.328783	2461.091308
403.710606	2461.555094
404.092367	2462.349076
404.474067	2458.348920
404.855705	2461.207254
405.237282	2461.166925
405.618797	2460.294805
406.000250	2462.575928
406.381642	2459.926801
406.762972	2458.031327
407.144240	2456.864300
407.525447	2458.311111
407.906593	2456.829012
408.287677	2459.952007
408.668700	2463.190948
409.049661	2462.946452
409.430560	2462.144909
409.811399	2462.870835
410.192176	2462.659107
410.572891	2462.815382
410.953545	2461.086267
411.334138	2461.797069
411.714669	2460.302367
412.095139	2460.279682
412.475547	2463.407718
412.855894	2464.090794
413.236180	2463.299333
413.616405	2463.659776
413.996568	2463.899230
414.376670	2464.279837
414.756711	2464.110959
415.136691	2463.052317
415.516609	2463.697584
415.896466	2466.603809
416.276262	2462.994343
416.655997	2464.027780
417.035670	2461.333283
417.415283	2463.291771
417.794834	2466.984417
418.174324	2464.431072
418.553753	2464.347893
418.933121	2465.255301
419.312428	2464.912502
419.691674	2467.120528
420.070859	2465.711525
420.449983	2467.317133
420.829045	2464.491566
421.208047	2466.497945
421.586988	2464.771350
421.965867	2465.920733
422.344686	2464.902420
422.723444	2469.300827
423.102141	2464.869653
423.480777	2465.467029
423.859352	2467.496094
424.237866	2468.398460
424.616319	2467.092801
424.994712	2467.319653
425.373044	2464.940229
425.751314	2464.983078
426.129524	2465.015846
426.507673	2467.289406
426.885762	2462.364199
427.263789	2466.883593
427.641756	2469.169757
428.019662	2467.896865
428.397508	2468.630353
428.775292	2468.985755
429.153016	2467.980044
429.530679	2465.981227
429.908282	2469.167236
430.285824	2468.423666
430.663305	2468.408543
431.040726	2469.371403
431.418086	2470.460292
431.795385	2473.502628
432.172624	2468.496763
432.549802	2470.447689
432.926920	2471.206383
433.303977	2470.175467
433.680974	2472.333081
434.057910	2473.812659
434.434786	2470.719912
434.811601	2472.237299
435.188355	2470.520786
435.565050	2471.755869
435.941683	2472.549850
436.318257	2473.132104
436.694770	2467.914509
437.071222	2469.578090
437.447614	2470.863584
437.823946	2472.779223
438.200218	2468.985755
438.576429	2470.916517
438.952580	2469.089098
439.328670	2472.885087
439.704700	2472.620427
440.080670	2473.570684
440.456580	2468.620271
440.832429	2473.575725
441.208218	2471.786116
441.583947	2473.628657
441.959616	2472.277628
442.335224	2473.225365
442.710773	2476.663432
443.086261	2472.096147
443.461689	2474.430201
443.837057	2471.579428
444.212365	2472.257463
444.587612	2472.025570
444.962800	2467.760754
445.337927	2470.465333
445.712995	2467.866618
446.088002	2475.135962
446.462949	2471.912144
446.837837	2472.355766
447.212664	2473.966415
447.587431	2475.173771
447.962139	2473.850468
448.336786	2475.025057
448.711374	2473.013637
449.085901	2476.766776
449.460369	2472.559933
449.834776	2472.759058
450.209124	2474.916672
450.583412	2474.251240
450.957640	2474.193267
451.331808	2473.260653
451.705917	2476.799543
452.079965	2477.336426
452.453954	2474.621765
452.827883	2475.055304
453.201752	2473.656384
453.575562	2476.257619
453.949311	2474.036991
454.323001	2474.606641
454.696632	2473.517752
455.070202	2475.859368
455.443713	2475.947588
455.817164	2474.193267
456.190556	2477.326344
456.563888	2475.866930
456.937160	2475.027578
457.310373	2475.466158
457.683526	2475.014975
458.056619	2478.879019
458.429653	2474.566312
458.802628	2476.817187
459.175542	2476.812146
459.548398	2475.899697
459.921194	2474.962043
460.293930	2478.117805
460.666607	2475.317444
461.039224	2476.023205
461.411782	2475.650160
461.784280	2474.195787
462.156719	2475.438432
462.529099	2478.561426
462.901419	2476.192084
463.273680	2475.103195
463.645882	2473.215283
464.018024	2475.307362
464.390106	2471.667648
464.762130	2479.688124
465.134094	2475.304841
465.505999	2477.943885
465.877845	2477.439770
466.249631	2478.780717
466.621358	2477.815336
466.993026	2476.353401
467.364634	2479.587301
467.736184	2475.849286
468.107674	2480.217445
468.479105	2478.266519
468.850477	2479.146200
469.221790	2478.763073
469.593043	2477.482619
469.964238	2476.635706
470.335373	2479.657877
470.706449	2478.884060
471.077467	2479.536890
471.448425	2480.043526
471.819324	2477.538072
472.190164	2480.487147
472.560945	2477.548154
472.931667	2477.948926
473.302330	2480.159472
473.672934	2478.014461
474.043479	2478.236272
474.413965	2477.356591
474.784393	2478.415233
475.154761	2480.411530
475.525070	2478.397589
475.895321	2480.756849
476.265513	2479.620069
476.635645	2479.995635
477.005719	2479.572178
477.375734	2479.942703
477.745691	2479.080665
478.115588	2481.190388
478.485427	2479.388176
478.855207	2478.432877
479.224928	2484.298259
479.594591	2477.764924
479.964194	2479.804071
480.333739	2477.603607
480.703226	2480.000676
481.072653	2477.845583
481.442022	2478.256437
481.811333	2480.174596
482.180584	2475.398102
482.549777	2478.251395
482.918912	2476.993627
483.287988	2479.236941
483.657005	2481.097127
484.025964	2480.456900
484.394864	2481.039153
484.763706	2479.723412
485.132489	2480.101499
485.501213	2480.434215
485.869879	2482.538897
486.238487	2479.511684
486.607036	2482.637199
486.975527	2481.202991
487.343959	2479.388176
487.712333	2482.188537
488.080648	2479.269708
488.448905	2479.743577
488.817104	2480.603094
489.185244	2482.115440
489.553326	2481.843217
489.921350	2479.695686
490.289315	2481.888588
490.657222	2481.734833
491.025070	2481.084524
491.392861	2482.528814
491.760593	2479.972949
492.128267	2481.608804
492.495883	2479.267188
492.863440	2481.228197
493.230939	2481.465131
493.598380	2482.007055
493.965763	2482.095275
494.333088	2483.811788
494.700354	2482.254072
495.067563	2481.875985
495.434713	2481.923876
495.801805	2482.763228
496.168839	2479.811633
496.535815	2481.147538
496.902733	2482.271716
497.269593	2482.851448
497.636395	2485.573671
498.003139	2480.867754
498.369825	2482.420430
498.736453	2483.784062
499.103023	2481.737353
499.469535	2481.397075
499.835989	2481.082003
500.202385	2482.818681
500.568723	2479.234420
500.935003	2481.276088
501.301226	2475.758545
501.667390	2482.342292
502.033497	2482.521253
502.399546	2481.011427
502.765537	2479.884729
503.131470	2482.478403
503.497345	2482.518732
503.863163	2482.496047
504.228923	2484.177272
504.594625	2482.228866
504.960269	2483.526963
505.325856	2482.198619
505.691385	2481.760038
506.056856	2480.633341
506.422270	2486.062663
506.787625	2482.163331
507.152924	2482.785913
507.518164	2481.649133
507.883347	2482.823722
508.248472	2482.201139
508.613540	2484.643578
508.978550	2484.943527
509.343503	2481.777682
509.708398	2482.644761
510.073236	2485.646768
510.438016	2483.035450
510.802738	2483.007724
511.167403	2480.940851
511.532010	2482.485965
511.896561	2485.545945
512.261053	2483.479072
512.625488	2483.547127
512.989866	2484.141984
513.354186	2484.560399
513.718449	2483.348002
514.082655	2482.707775
514.446803	2485.351861
514.810894	2481.634010
515.174927	2481.548310
515.538904	2481.923876
515.902822	2481.114771
516.266684	2483.831953
516.630488	2482.400265
516.994235	2485.508136
517.357925	2485.480410
517.721558	2481.409678
518.085133	2481.389514
518.448651	2480.794657
518.812112	2482.052425
519.175516	2482.014617
519.538863	2478.266519
519.902152	2482.085193
520.265385	2483.652992
520.628560	2482.901860
520.991678	2483.642909
521.354739	2484.091572
521.717743	2481.545789
522.080690	2482.322127
522.443580	2484.522591
522.806413	2485.303970
523.169189	2486.685246
523.531908	2483.005203
523.894569	2483.534525
524.257174	2483.232055
524.619722	2483.763897
524.982213	2486.163486
525.344647	2482.581747
525.707025	2483.547128
526.069345	2483.196767
526.431608	2482.433033
526.793815	2486.385297
527.155964	2483.781541
527.518057	2485.482931
527.880093	2482.922024
528.242072	2485.450163
528.603995	2483.723568
528.965860	2483.867241
529.327669	2484.376397
529.689421	2484.668784
530.051117	2484.472179
530.412755	2485.084679
530.774337	2484.182313
531.135862	2484.404124
531.497331	2483.600060
531.858743	2484.502426
532.220098	2485.349340
532.581396	2486.486120
532.942638	2484.898157
533.303824	2486.302118
533.664953	2483.574854
534.026025	2486.118116
534.387040	2483.426140
534.747999	2486.644917
535.108902	2485.314052
535.469748	2485.490492
535.830537	2485.349340
536.191270	2486.725575
536.551947	2483.731130
536.912567	2479.791468
537.273131	2483.474031
537.633638	2481.006386
537.994089	2484.406644
538.354483	2484.404124
538.714821	2484.399083
539.075103	2484.061325
539.435328	2484.787251
539.795497	2484.903198
540.155609	2483.894967
540.515665	2486.823878
540.875665	2487.207005
541.235609	2484.220122
541.595496	2485.770276
541.955328	2485.278764
542.315102	2485.855976
542.674821	2483.126191
543.034483	2487.368322
543.394090	2483.451346
543.753640	2484.204998
544.113134	2483.519401
544.472571	2484.930924
544.831953	2486.118116
545.191278	2484.028558
545.550548	2484.197436
545.909761	2484.459576
546.268918	2486.707931
546.628019	2483.045533
546.987064	2485.069556
547.346053	2485.702221
547.704986	2486.907057
548.063863	2485.228352
548.422684	2485.278764
548.781449	2485.500575
549.140158	2484.368836
549.498811	2485.021665
549.857408	2487.096100
550.215949	2484.081490
550.574434	2481.001345
550.932864	2487.010400
551.291237	2486.317242
551.649555	2484.981336
552.007817	2485.664412
552.366022	2486.828919
552.724173	2485.064515
553.082267	2487.723723
553.440305	2484.404124
553.798288	2487.285143
554.156215	2484.313383
554.514086	2484.071408
554.871902	2483.095944
555.229661	2483.002683
555.587365	2480.267857
555.945014	2485.190544
556.302606	2486.231542
556.660143	2485.737509
557.017625	2484.257930
557.375050	2486.493682
557.732421	2485.160297
558.089735	2486.322283
558.446994	2487.201964
558.804197	2487.431337
559.161345	2485.538383
559.518437	2486.828919
559.875474	2486.644917
560.232455	2485.976964
560.589381	2484.499906
560.946251	2486.163486
561.303065	2486.539052
561.659825	2485.785400
562.016528	2485.089721
562.373177	2486.135760
562.729770	2484.462097
563.086307	2484.452015
563.442789	2483.405975
563.799216	2488.633652
564.155587	2483.446304
564.511904	2485.435040
564.868164	2486.090390
565.224370	2485.888743
565.580520	2483.199288
565.936615	2486.440750
566.292654	2485.266161
566.648638	2485.407313
567.004567	2484.192395
567.360441	2485.505616
567.716260	2484.683908
568.072023	2487.330513
568.427732	2483.801706
568.783385	2487.070894
569.138982	2485.467807
569.494525	2486.050060
569.850013	2485.258599
570.205445	2486.347488
570.560823	2486.092910
570.916145	2484.368836
571.271412	2485.881182
571.626625	2488.502582
571.981782	2488.714310
572.336884	2484.741881
572.691931	2479.927579
573.046923	2482.453197
573.401860	2480.623258
573.756743	2487.907726
574.111570	2485.276243
574.466342	2484.361274
574.821059	2485.989567
575.175722	2485.382108
575.530330	2485.810606
575.884882	2484.207519
576.239380	2483.332878
576.593823	2486.022334
576.948211	2486.496203
577.302544	2486.836480
577.656823	2485.341778
578.011047	2484.152066
578.365216	2485.855976
578.719330	2487.806902
579.073389	2484.273054
579.427394	2486.473517
579.781344	2487.451501
580.135239	2486.095431
580.489080	2484.159628
580.842866	2487.320431
581.196597	2488.459732
581.550273	2486.574340
581.903895	2481.886067
582.257463	2487.438898
582.610975	2484.424288
582.964434	2485.329175
583.317837	2488.447129
583.671186	2486.581902
584.024481	2486.798672
584.377721	2485.702221
584.730906	2483.100985
585.084037	2489.326810
585.437113	2487.648106
585.790135	2484.951089
586.143103	2487.005359
586.496016	2489.215905
586.848874	2484.603249
587.201679	2484.862869
587.554428	2487.212046
587.907124	2484.091572
588.259765	2485.379587
588.612352	2485.031747
588.964884	2487.254896
589.317362	2485.238435
589.669786	2488.041316
590.022155	2484.686428
590.374470	2479.912456
590.726731	2484.668784
591.078937	2479.037815
591.431090	2488.590802
591.783188	2482.922024
592.135232	2486.274392
592.487222	2486.118116
592.839157	2486.430668
593.191038	2485.424957
593.542866	2483.312714
593.894639	2484.666264
594.246358	2484.688949
594.598022	2485.243476
594.949633	2485.762715
595.301190	2486.299598
595.652692	2483.516881
596.004141	2487.610298
596.355535	2488.885709
596.706876	2487.438898
597.058162	2484.467138
597.409395	2485.319093
597.760573	2486.304639
598.111698	2486.546614
598.462768	2485.571151
598.813785	2487.978302
599.164748	2485.518219
599.515657	2484.499906
599.866511	2486.712972
600.217312	2486.102993
600.568060	2486.821357
600.918753	2485.210708
601.269392	2485.170379
601.619978	2484.885554
601.970510	2485.813126
602.320988	2486.760863
602.671412	2485.987046
603.021783	2486.849083
603.372100	2484.676346
603.722363	2485.881182
604.072572	2487.663230
604.422728	2484.361274
604.772830	2486.223980
605.122878	2485.069556
605.472872	2487.270020
605.822813	2484.600729
606.172701	2485.954278
606.522534	2484.618373
606.872314	2488.207674
607.222041	2484.973774
607.571714	2483.211891
607.921333	2481.008907
608.270899	2483.184164
608.620411	2478.896663
608.969870	2485.429998
609.319276	2483.201808
609.668627	2484.283136
610.017926	2485.518219
610.367171	2485.538383
610.716362	2485.356902
611.065500	2486.375215
611.414585	2484.835142
611.763616	2484.010914
612.112594	2487.322952
612.461518	2483.766418
612.810389	2483.910091
613.159207	2487.017962
613.507971	2486.352530
613.856682	2487.358240
614.205340	2486.513847
614.553945	2485.886223
614.902496	2484.928404
615.250994	2485.107365
615.599439	2485.465287
615.947830	2485.974443
616.296169	2485.939155
616.644454	2486.322283
616.992686	2487.786738
617.340864	2485.235914
617.688990	2484.847745
618.037063	2485.679536
618.385082	2485.813126
618.733048	2487.401090
619.080961	2486.334886
619.428821	2485.702221
619.776628	2484.986377
620.124382	2487.259937
620.472083	2488.726913
620.819731	2487.161635
621.167326	2483.020327
621.514868	2487.234732
621.862357	2486.392859
622.209793	2487.509474
622.557176	2486.009731
622.904506	2486.317242
623.251783	2485.820688
623.599007	2485.281284
623.946179	2485.918990
624.293297	2485.853455
624.640363	2485.135091
624.987376	2486.728096
625.334336	2482.044864
625.681243	2484.048722
626.028097	2480.537559
626.374899	2484.207519
626.721647	2486.382777
627.068343	2485.324134
627.414987	2484.648620
627.761577	2487.872438
628.108115	2484.094093
628.454600	2487.756491
628.801032	2483.816829
629.147412	2487.713641
629.493739	2487.897643
629.840014	2484.394041
630.186236	2486.322283
630.532405	2487.421254
630.878521	2482.652323
631.224585	2485.079638
631.570597	2484.961171
631.916556	2488.079125
632.262462	2484.794813
632.608316	2485.361943
632.954117	2486.062663
633.299866	2484.333547
633.645562	2484.547797
633.991206	2486.584423
634.336797	2484.280615
634.682336	2482.765749
635.027823	2483.773979
635.373257	2483.940337
635.718639	2484.467138
636.063968	2486.370174
636.409245	2484.570482
636.754470	2488.363950
637.099642	2481.029071
637.444762	2482.221304
637.789829	2487.023003
638.134845	2486.637355
638.479808	2486.344968
638.824719	2483.466469
639.169577	2488.469814
639.514383	2489.944352
639.859137	2485.563589
640.203839	2485.417396
640.548489	2484.164669
640.893086	2486.501244
641.237632	2486.198774
641.582125	2485.089721
641.926566	2486.007211
642.270955	2488.038796
642.615292	2480.855151
642.959576	2482.564103
643.303809	2479.851962
643.647990	2485.314052
643.992118	2482.647282
644.336195	2488.288333
644.680219	2484.817498
645.024192	2482.899339
645.368112	2485.792962
645.711981	2484.484782
646.055797	2485.132570
646.399562	2487.413693
646.743274	2484.988897
647.086935	2485.697180
647.430544	2484.729278
647.774101	2485.392190
648.117606	2486.188692
648.461059	2483.348002
648.804460	2486.594505
649.147810	2485.775318
649.491108	2485.026706
649.834354	2484.714155
650.177548	2487.123826
650.520690	2483.584936
650.863781	2485.253558
651.206820	2485.316573
651.549807	2489.843529
651.892742	2483.647951
652.235626	2483.738691
652.578458	2486.604587
652.921238	2486.009731
653.263967	2486.987715
653.606644	2484.991418
653.949269	2485.462766
654.291843	2484.300780
654.634365	2485.409834
654.976836	2484.147025
655.319255	2486.594505
655.661622	2485.235914
656.003938	2486.564258
656.346203	2486.566779
656.688416	2484.099134
657.030577	2485.490492
657.372687	2483.474031
657.714746	2486.934783
658.056753	2484.552838
658.398708	2484.981336
658.740612	2486.486120
659.082465	2484.797334
659.424266	2482.049905
659.766016	2481.150059
660.107715	2481.283649
660.449362	2483.809268
660.790958	2484.998980
661.132503	2482.990080
661.473996	2483.264823
661.815438	2485.687097
662.156829	2485.873620
662.498168	2484.220122
662.839456	2483.363125
663.180693	2485.437560
663.521879	2484.772128
663.863013	2488.028713
664.204097	2486.581902
664.545129	2483.836994
664.886110	2484.993939
665.227040	2485.059474
665.567918	2484.310862
665.908746	2481.956643
666.249522	2486.629793
666.590248	2485.472848
666.930922	2484.580564
667.271545	2487.322952
667.612118	2482.531335
667.952639	2483.100985
668.293109	2483.179123
668.633528	2484.429329
668.973896	2487.244814
669.314213	2482.675008
669.654480	2484.164669
669.994695	2485.306490
670.334859	2486.095431
670.674973	2487.262458
671.015035	2485.215749
671.355047	2483.975626
671.695008	2482.062508
672.034918	2484.913280
672.374777	2484.668784
672.714585	2483.998311
673.054342	2485.949237
673.394049	2483.632827
673.733705	2486.405462
674.073310	2485.346819
674.412864	2486.733137
674.752368	2485.004021
675.091820	2484.247848
675.431223	2484.903198
675.770574	2486.080307
676.109875	2486.239104
676.449125	2483.968064
676.788324	2480.419092
677.127473	2481.918835
677.466571	2480.749287
677.805619	2484.323465
678.144616	2484.389000
678.483562	2486.034937
678.822458	2484.928404
679.161303	2484.691469
679.500098	2484.189875
679.838842	2484.666264
680.177535	2486.120637
680.516179	2486.128198
680.854771	2483.985708
681.193314	2483.405975
681.531805	2486.425626
681.870247	2485.213229
682.208638	2482.682570
682.546978	2484.179792
682.885268	2487.703559
683.223508	2485.210708
683.561697	2481.795327
683.899836	2484.530153
684.237925	2482.319607
684.575963	2485.243476
684.913951	2485.150214
685.251889	2488.704228
685.589776	2483.887405
685.927614	2483.905049
686.265401	2481.996973
686.603137	2482.727940
686.940824	2485.354381
687.278460	2484.194916
687.616046	2484.419247
687.953582	2484.535194
688.291068	2483.126191
688.628504	2484.197436
688.965889	2483.025368
689.303224	2486.455873
689.640510	2483.829432
689.977745	2484.469659
690.314930	2484.497385
690.652065	2481.460090
690.989150	2483.998311
691.326185	2483.214411
691.663170	2485.452684
692.000105	2483.458907
692.336990	2483.494195
692.673825	2484.641058
693.010610	2484.487303
693.347345	2484.557879
693.684030	2480.582929
694.020665	2484.336068
694.357251	2481.318938
694.693786	2483.912611
695.030272	2483.290029
695.366707	2485.795482
695.703093	2483.111068
696.039429	2484.487303
696.375716	2484.414206
696.711952	2484.288177
697.048139	2485.626603
697.384276	2487.171717
697.720363	2482.826242
698.056400	2485.450163
698.392388	2485.059474
698.728326	2483.632827
699.064214	2483.232055
699.400053	2484.462097
699.735842	2482.675008
700.071581	2485.041830
700.407270	2482.556541
700.742910	2484.724237
701.078501	2482.969915
701.414042	2483.242138
701.749533	2485.205667
702.084974	2485.755153
702.420366	2484.373877
702.755709	2486.261789
703.091002	2483.705924
703.426246	2483.310193
703.761440	2487.350678
704.096584	2483.471510
704.431679	2484.431850
704.766725	2482.985039
705.101721	2484.598208
705.436668	2482.707775
705.771565	2484.870430
706.106413	2483.020327
706.441212	2481.513022
706.775961	2483.204329
707.110661	2483.983187
707.445311	2484.472179
707.779913	2484.643578
708.114465	2485.119968
708.448967	2484.825060
708.783421	2482.496047
709.117825	2483.532004
709.452180	2485.094762
709.786485	2483.688280
710.120742	2482.231386
710.454949	2480.910604
710.789107	2482.057467
711.123216	2480.550162
711.457275	2482.831284
711.791286	2483.663074
712.125247	2484.033599
712.459159	2480.643423
712.793023	2483.262302
713.126837	2484.668784
713.460602	2483.499237
713.794318	2482.843887
714.127985	2485.225832
714.461602	2482.143166
714.795171	2482.949751
715.128691	2483.733650
715.462162	2484.182313
715.795584	2484.260451
716.128957	2485.465287
716.462281	2482.581747
716.795556	2482.281798
717.128782	2482.211222
717.461960	2484.961171
717.795088	2482.687611
718.128167	2482.503609
718.461198	2482.392703
718.794180	2486.120637
719.127113	2482.634679
719.459997	2484.325986
719.792833	2480.237610
720.125619	2482.715337
720.458357	2483.554689
720.791046	2485.245996
721.123686	2483.479072
721.456278	2483.678198
721.788821	2486.831439
722.121315	2481.422281
722.453761	2485.450163
722.786158	2483.748774
723.118506	2484.784731
723.450805	2483.824391
723.783056	2483.421099
724.115259	2482.685090
724.447412	2481.883547
724.779518	2483.307673
725.111574	2482.720378
725.443582	2485.621562
725.775542	2484.520070
726.107453	2482.395224
726.439315	2482.611993
726.771129	2486.415544
727.102895	2476.552527
727.434612	2481.094606
727.766281	2476.910448
728.097901	2486.768425
728.429473	2482.095275
728.760996	2483.834473
729.092471	2484.888074
729.423897	2484.361274
729.755276	2485.750112
730.086606	2483.330358
730.417887	2481.170223
730.749120	2482.765749
731.080305	2484.719196
731.411442	2484.363794
731.742530	2483.852117
732.073570	2484.207519
732.404562	2482.032261
732.735506	2483.259782
733.066401	2483.849597
733.397249	2481.908753
733.728048	2480.736684
734.058798	2485.223311
734.389501	2483.494195
734.720156	2480.056128
735.050762	2484.373877
735.381320	2484.772128
735.711831	2483.642909
736.042293	2484.540235
736.372707	2483.640389
736.703073	2481.076962
737.033391	2482.238948
737.363661	2483.917652
737.693883	2481.175265
738.024056	2483.534525
738.354182	2484.278095
738.684260	2482.180975
739.014290	2481.046715
739.344272	2482.967395
739.674207	2483.446304
740.004093	2481.601242
740.333931	2483.791623
740.663722	2483.234576
740.993464	2483.905049
741.323159	2484.933445
741.652806	2480.351036
741.982405	2484.981336
742.311956	2483.209370
742.641460	2483.169041
742.970915	2482.740543
743.300323	2482.475882
743.629683	2479.685604
743.958996	2482.274236
744.288260	2475.032619
744.617477	2483.282467
744.946647	2481.112250
745.275768	2485.515698
745.604842	2480.567806
745.933869	2482.145687
746.262847	2480.759369
746.591778	2482.954792
746.920662	2482.062508
747.249498	2482.233907
747.578286	2483.279946
747.907027	2481.654174
748.235720	2485.092241
748.564365	2479.413381
748.892963	2481.623927
749.221514	2481.606283
749.550017	2481.790285
749.878473	2484.164669
750.206881	2482.281798
750.535242	2482.281798
750.863555	2484.305821
751.191821	2484.000831
751.520039	2482.861531
751.848210	2483.854638
752.176334	2483.169041
752.504411	2483.849597
752.832440	2479.957826
753.160421	2482.299442
753.488356	2481.868423
753.816243	2483.920173
754.144082	2482.760707
754.471875	2482.362456
754.799620	2483.557210
755.127318	2482.188537
755.454969	2484.280615
755.782572	2483.811788
756.110129	2484.068887
756.437638	2483.088383
756.765100	2483.012765
757.092515	2481.003865
757.419882	2484.063846
757.747203	2482.614514
758.074477	2485.273723
758.401703	2483.227014
758.728882	2481.941520
759.056014	2482.140646
759.383099	2480.827425
759.710138	2481.155100
760.037129	2478.110243
760.364073	2479.065542
760.690970	2479.572178
761.017820	2484.139463
761.344623	2482.180975
761.671379	2479.894812
761.998088	2482.148207
762.324751	2486.521408
762.651366	2479.746098
762.977935	2481.581077
763.304456	2480.565285
763.630931	2480.850110
763.957359	2482.463279
764.283740	2483.060656
764.610074	2483.325317
764.936362	2482.722899
765.262602	2482.541417
765.588796	2479.184009
765.914943	2482.392703
766.241044	2480.411530
766.567097	2479.844400
766.893104	2485.500575
767.219064	2481.631489
767.544978	2482.750625
767.870845	2481.311376
768.196665	2483.524442
768.522438	2480.020840
768.848165	2481.669298
769.173846	2480.368680
769.499479	2481.825573
769.825066	2482.301962
770.150607	2481.293732
770.476101	2482.816160
770.801548	2482.586788
771.126949	2479.390696
771.452303	2484.169710
771.777611	2480.066211
772.102872	2478.420274
772.428087	2480.454380
772.753256	2481.137456
773.078378	2482.362456
773.403453	2481.263485
773.728482	2482.979998
774.053465	2480.552682
774.378401	2482.314565
774.703291	2481.565954
775.028135	2482.218783
775.352932	2480.441777
775.677683	2481.046715
776.002388	2481.916314
776.327046	2477.117136
776.651658	2479.027733
776.976224	2475.128401
777.300743	2483.799185
777.625216	2480.794658
777.949643	2483.037971
778.274024	2483.592498
778.598359	2484.580564
778.922647	2480.782055
779.246889	2480.890439
779.571086	2480.696355
779.895236	2483.315234
780.219339	2479.809112
780.543397	2482.493526
780.867409	2480.093937
781.191374	2480.711478
781.515294	2483.416058
781.839167	2480.209884
782.162995	2482.433032
782.486776	2480.300624
782.810511	2482.400265
783.134201	2480.620738
783.457844	2478.747949
783.781441	2482.327168
784.104993	2479.927579
784.428498	2482.085193
784.751958	2479.428505
785.075372	2481.628968
785.398739	2481.689462
785.722061	2482.390183
786.045337	2480.497229
786.368568	2484.139463
786.691752	2481.374390
787.014891	2480.547641
787.337983	2482.649802
787.661030	2481.732312
787.984031	2484.008393
788.306987	2479.355408
788.629897	2481.946561
788.952760	2480.363639
789.275579	2481.964205
789.598351	2483.065697
789.921078	2477.951447
790.243759	2481.686942
790.566395	2480.625779
790.888984	2483.678198
791.211529	2482.009576
791.534027	2480.524956
791.856480	2478.805922
792.178888	2480.880357
792.501249	2479.095789
792.823566	2479.292394
793.145836	2479.131077
793.468062	2481.250882
793.790241	2481.853300
794.112375	2481.886067
794.434464	2483.869761
794.756507	2480.620738
795.078505	2483.380769
795.400457	2479.947744
795.722364	2478.168216
796.044226	2483.262302
796.366042	2480.779534
796.687812	2480.282980
797.009538	2479.877168
797.331218	2479.012610
797.652852	2482.939668
797.974442	2479.380614
798.295986	2481.331540
798.617484	2480.005717
798.938938	2483.789103
799.260346	2480.555203
799.581709	2480.366159
799.903026	2482.407827
800.224299	2481.392034
800.545526	2480.582929
800.866708	2479.909935
801.187845	2482.347333
801.508936	2480.189719
801.829983	2481.006386
802.150984	2478.803402
802.471940	2481.361787
802.792851	2480.769452
803.113717	2480.376242
803.434538	2480.645943
803.755314	2482.861531
804.076045	2482.710296
804.396731	2479.756180
804.717372	2482.692652
805.037967	2481.444966
805.358518	2479.602425
805.679024	2482.480923
805.999485	2480.436736
806.319901	2480.398927
806.640272	2482.972436
806.960598	2483.383290
807.280879	2483.524442
807.601115	2479.304997
807.921306	2482.896819
808.241453	2479.831797
808.561554	2478.715182
808.881611	2478.571509
809.201623	2478.674852
809.521590	2479.776344
809.841513	2481.049236
810.161390	2482.501088
810.481223	2480.867754
810.801011	2479.763742
811.120755	2478.725264
811.440453	2478.969760
811.760107	2478.551344
812.079716	2480.232569
812.399281	2481.954123
812.718801	2478.599235
813.038276	2479.723412
813.357707	2479.405820
813.677093	2479.665439
813.996434	2482.433032
814.315731	2479.899853
814.634983	2482.811119
814.954191	2478.213587
815.273354	2483.063177
815.592473	2480.247692
815.911547	2479.743577
816.230577	2480.925728
816.549562	2482.962354
816.868502	2482.140646
817.187399	2480.681232
817.506250	2478.934472
817.825058	2480.903042
818.143821	2479.173927
818.462539	2481.107209
818.781213	2480.285501
819.099843	2479.673001
819.418429	2479.617548
819.736970	2478.415233
820.055466	2477.359111
820.373919	2480.058649
820.692327	2479.559575
821.010691	2481.480254
821.329011	2482.128043
821.647286	2481.366828
821.965517	2481.860862
822.283704	2478.667291
822.601847	2480.935810
822.919945	2481.056797
823.237999	2480.711478
823.556010	2479.776344
823.873976	2478.727784
824.191897	2477.089409
824.509775	2475.347691
824.827609	2477.286014
825.145398	2475.866930
825.463144	2480.272898
825.780845	2480.527476
826.098502	2481.427322
826.416116	2478.042188
826.733685	2479.829277
827.051210	2481.467652
827.368692	2480.991263
827.686129	2477.177630
828.003522	2481.581078
828.320872	2479.176447
828.638177	2482.070069
828.955439	2479.499081
829.272656	2481.555872
829.589830	2481.465131
829.906960	2480.759369
830.224046	2480.088896
830.541088	2478.175778
830.858086	2481.402117
831.175041	2480.572847
831.491952	2478.480768
831.808819	2479.804071
832.125642	2480.729122
832.442421	2482.622076
832.759157	2479.425984
833.075849	2481.870944
833.392497	2480.517394
833.709101	2482.589308
834.025662	2478.619400
834.342179	2483.342961
834.658653	2479.032774
834.975083	2482.564103
835.291469	2482.727940
835.607811	2480.451859
835.924110	2481.371870
836.240366	2483.055615
836.556578	2481.034112
836.872746	2482.561582
837.188871	2480.812302
837.504952	2480.396406
837.820990	2477.149903
838.136984	2480.822384
838.452935	2479.045377
838.768842	2481.644092
839.084706	2480.842548
839.400526	2480.507312
839.716303	2481.639051
840.032037	2477.638895
840.347727	2477.497743
840.663373	2477.235603
840.978977	2476.678555
841.294537	2478.884060
841.610054	2478.062352
841.925527	2479.695686
842.240957	2479.360449
842.556344	2480.451859
842.871687	2479.352888
843.186987	2481.639051
843.502244	2478.531179
843.817458	2478.574029
844.132629	2479.783906
844.447756	2476.736529
844.762840	2480.386324
845.077881	2479.415902
845.392879	2477.999338
845.707833	2478.178299
846.022745	2480.066211
846.337613	2478.553865
846.652438	2478.594194
846.967221	2480.653505
847.281960	2480.787096
847.596656	2480.668629
847.911309	2478.798361
848.225919	2483.373208
848.540485	2477.263329
848.855009	2482.261633
849.169490	2479.156283
849.483928	2480.731643
849.798323	2476.512197
850.112675	2480.686273
850.426984	2479.355408
850.741251	2478.621920
851.055474	2480.494709
851.369654	2482.102837
851.683792	2477.386837
851.997887	2479.279791
852.311938	2478.632002
852.625947	2480.524956
852.939914	2479.955305
853.253837	2479.698207
853.567718	2478.697537
853.881555	2480.114102
854.195350	2481.422281
854.509103	2479.312558
854.822812	2476.507156
855.136479	2482.117960
855.450103	2481.278608
855.763685	2476.426498
856.077224	2473.968935
856.390720	2478.619400
856.704173	2474.432721
857.017584	2477.709471
857.330953	2480.978660
857.644278	2478.722743
857.957561	2480.277939
858.270802	2480.600573
858.584000	2480.409009
858.897155	2479.960347
859.210268	2479.403299
859.523339	2479.902373
859.836367	2479.279791
860.149352	2479.151241
860.462295	2477.437249
860.775195	2479.680562
861.088054	2481.432363
861.400869	2479.027733
861.713642	2477.865747
862.026373	2480.232569
862.339062	2479.501602
862.651708	2479.536890
862.964312	2477.961529
863.276873	2478.959678
863.589392	2478.223669
863.901869	2479.526807
864.214303	2477.217959
864.526696	2478.846252
864.839045	2480.038484
865.151353	2478.921869
865.463619	2478.929431
865.775842	2476.058493
866.088023	2479.337764
866.400162	2478.223669
866.712258	2482.062508
867.024313	2481.724750
867.336325	2478.034626
867.648296	2481.097127
867.960224	2480.018320
868.272110	2479.806591
868.583954	2479.481437
868.895755	2478.795840
869.207515	2479.642754
869.519233	2479.524287
869.830909	2478.460603
870.142542	2479.599904
870.454134	2479.055459
870.765684	2478.405151
871.077191	2478.344657
871.388657	2479.070583
871.700081	2475.168730
872.011463	2478.352218
872.322803	2475.375417
872.634101	2479.857003
872.945357	2479.105871
873.256571	2478.669811
873.567744	2479.693165
873.878874	2479.378093
874.189963	2476.539924
874.501010	2478.606797
874.812015	2478.682414
875.122979	2478.425315
875.433900	2478.732826
875.744780	2478.410192
876.055618	2479.438587
876.366415	2476.892804
876.677169	2479.463793
876.987882	2480.305666
877.298554	2481.729792
877.609183	2479.637713
877.919771	2479.819194
878.230317	2478.120325
878.540822	2476.900366
878.851285	2478.919348
879.161707	2477.439770
879.472087	2477.560757
879.782425	2479.559575
880.092722	2476.050932
880.402977	2480.078814
880.713191	2478.856334
881.023363	2480.920686
881.333494	2480.593011
881.643583	2480.151910
881.953631	2478.997486
882.263637	2478.347177
882.573602	2477.994297
882.883526	2480.676190
883.193408	2478.448000
883.503248	2477.802733
883.813048	2481.855820
884.122806	2476.192084
884.432522	2477.452373
884.742197	2477.366673
885.051831	2477.061683
885.361424	2478.604276
885.670975	2478.470686
885.980485	2479.486478
886.289954	2478.160655
886.599382	2480.978660
886.908768	2475.289718
887.218113	2472.602782
887.527417	2476.862558
887.836680	2474.621765
888.145901	2480.454380
888.455082	2478.619400
888.764221	2478.374904
889.073319	2479.287353
889.382376	2478.064873
889.691392	2479.557054
890.000366	2479.920017
890.309300	2479.718371
890.618193	2480.535038
890.927044	2477.457414
891.235855	2480.587970
891.544625	2475.632516
891.853353	2477.492702
892.162041	2477.578401
892.470687	2476.829790
892.779293	2477.822897
893.087858	2479.506643
893.396381	2478.344657
893.704864	2478.616879
894.013306	2476.978504
894.321707	2476.686117
894.630068	2477.205356
894.938387	2477.286014
895.246665	2480.225007
895.554903	2478.022023
895.863100	2478.768114
896.171256	2478.316930
896.479371	2480.754328
896.787446	2477.709471
897.095480	2477.817856
897.403473	2477.853144
897.711425	2477.719554
898.019336	2477.986735
898.327207	2478.571509
898.635038	2481.074442
898.942827	2477.414564
899.250576	2479.156283
899.558284	2476.605459
899.865952	2477.311220
900.173579	2478.485809
900.481165	2478.707620
900.788711	2481.202991
901.096216	2477.046560
901.403681	2479.022692
901.711105	2479.975470
902.018489	2479.602425
902.325832	2477.802733
902.633135	2473.573205
902.940397	2477.548154
903.247619	2470.745117
903.554800	2480.323310
903.861941	2475.912300
904.169041	2478.374904
904.476101	2477.283494
904.783121	2478.077476
905.090100	2477.956488
905.397039	2478.611838
905.703938	2477.664101
906.010796	2479.360449
906.317614	2476.842393
906.624391	2479.337764
906.931129	2477.777527
907.237826	2478.155613
907.544483	2477.323823
907.851099	2479.670480
908.157675	2474.372227
908.464211	2478.944554
908.770707	2479.063021
909.077163	2475.745942
909.383578	2479.632672
909.689954	2479.307517
909.996289	2479.935141
910.302584	2478.800881
910.608839	2477.245685
910.915054	2477.654019
911.221229	2477.147383
911.527363	2480.779534
911.833458	2478.639564
912.139513	2480.129225
912.445527	2476.325675
912.751502	2480.860193
913.057436	2477.575881
913.363331	2477.807774
913.669186	2477.989255
913.975000	2478.425315
914.280775	2475.239306
914.586510	2476.958339
914.892205	2475.889615
915.197859	2478.435397
915.503475	2479.791468
915.809050	2476.620582
916.114585	2477.593525
916.420081	2476.277784
916.725536	2475.756024
917.030952	2478.901704
917.336328	2474.536065
917.641665	2475.188894
917.946961	2473.492546
918.252218	2475.987917
918.557435	2472.774182
918.862612	2478.168216
919.167750	2474.316775
919.472848	2478.919348
919.777906	2475.264512
920.082925	2476.693679
920.387904	2477.810294
920.692843	2478.203504
920.997743	2476.272743
921.302603	2477.225521
921.607423	2477.888432
921.912204	2478.548823
922.216946	2479.083186
922.521647	2477.701910
922.826310	2477.248206
923.130932	2477.096971
923.435516	2473.137145
923.740059	2478.364821
924.044564	2477.134780
924.349028	2479.967908
924.653454	2478.926910
924.957840	2478.710140
925.262186	2476.587815
925.566493	2477.023874
925.870761	2473.938688
926.174989	2477.772486
926.479178	2477.444811
926.783328	2475.390541
927.087438	2478.352218
927.391509	2477.545634
927.695541	2476.706282
927.999533	2477.515387
928.303486	2475.950109
928.607400	2477.013792
928.911275	2477.588484
929.215110	2475.645119
929.518906	2477.606128
929.822663	2477.706951
930.126381	2477.825418
930.430060	2476.050932
930.733699	2480.865234
931.037299	2477.102012
931.340861	2475.587146
931.644383	2476.786940
931.947866	2476.943216
932.251309	2477.013792
932.554714	2476.131590
932.858080	2476.229893
933.161407	2471.564305
933.464694	2475.307362
933.767943	2471.859212
934.071153	2476.789461
934.374323	2477.051601
934.677455	2476.063535
934.980548	2477.119656
935.283602	2478.004379
935.586617	2477.724595
935.889593	2472.194449
936.192530	2476.716364
936.495428	2472.688482
936.798287	2476.101343
937.101108	2475.017495
937.403890	2476.242496
937.706632	2475.753504
938.009336	2478.684935
938.312002	2478.921869
938.614628	2477.477578
938.917216	2478.669811
939.219765	2477.964050
939.522275	2475.909779
939.824747	2477.313741
940.127179	2477.356591
940.429573	2477.036477
940.731929	2477.306179
941.034246	2476.567650
941.336524	2478.236272
941.638763	2478.611838
941.940964	2475.050263
942.243126	2476.746611
942.545250	2475.987917
942.847335	2477.255767
943.149381	2478.246354
943.451389	2478.437918
943.753359	2479.582260
944.055290	2476.779378
944.357182	2476.950778
944.659036	2475.889615
944.960851	2476.040849
945.262628	2477.147383
945.564367	2478.095120
945.866067	2476.597897
946.167729	2476.103864
946.469352	2477.192753
946.770937	2477.598566
947.072484	2476.262660
947.373992	2477.507825
947.675462	2476.595376
947.976893	2475.816518
948.278286	2471.047587
948.579641	2473.119501
948.880958	2469.573049
949.182236	2474.972125
949.483476	2475.904738
949.784678	2476.988586
950.085841	2477.066724
950.386967	2476.993628
950.688054	2478.589153
950.989103	2475.120839
951.290114	2473.323667
951.591087	2475.400623
951.892021	2475.811477
952.192917	2476.141673
952.493776	2477.679224
952.794596	2476.950778
953.095378	2476.234934
953.396122	2474.871302
953.696828	2475.965232
953.997496	2477.104533
954.298126	2475.433390
954.598718	2477.709471
954.899272	2476.398771
955.199788	2478.107722
955.500266	2473.202680
955.800706	2478.374904
956.101108	2475.607310
956.401472	2474.843575
956.701798	2474.367186
957.002087	2478.689976
957.302337	2474.967084
957.602550	2475.614872
957.902724	2476.960860
958.202861	2477.921200
958.502960	2476.471868
958.803022	2479.128556
959.103045	2477.061683
959.403031	2477.187712
959.702979	2475.335088
960.002889	2475.675366
960.302762	2475.980356
960.602596	2476.020685
960.902393	2479.831797
961.202153	2476.572691
961.501875	2474.455407
961.801559	2479.297435
962.101205	2477.580922
962.400814	2476.406333
962.700385	2474.818370
962.999918	2470.672021
963.299414	2470.422483
963.598873	2473.822742
963.898293	2470.944243
964.197677	2477.018833
964.497022	2477.117136
964.796331	2475.584625
965.095601	2475.221662
965.394835	2475.856847
965.694030	2477.054121
965.993189	2475.761065
966.292309	2478.747949
966.591393	2475.992958
966.890439	2475.677886
967.189447	2476.033288
967.488419	2475.390541
967.787353	2477.165027
968.086249	2475.889615
968.385108	2477.263329
968.683930	2475.196456
968.982714	2473.295941
969.281462	2477.255767
969.580172	2477.719554
969.878844	2475.756024
970.177480	2477.205356
970.476078	2475.877012
970.774639	2477.296097
971.073162	2476.529841
971.371649	2477.119656
971.670098	2473.958853
971.968510	2473.679069
972.266885	2477.563278
972.565223	2477.172588
972.863524	2475.279635
973.161788	2474.836014
973.460014	2473.106898
973.758204	2477.119656
974.056356	2474.755355
974.354471	2477.364152
974.652550	2477.326344
974.950591	2477.371714
975.248595	2474.155458
975.546563	2476.434059
975.844493	2475.083030
976.142386	2474.135293
976.440243	2476.239975
976.738062	2475.922382
977.035845	2475.012454
977.333590	2478.037146
977.631299	2473.306023
977.928971	2471.458441
978.226606	2471.511373
978.524204	2471.735704
978.821765	2470.225878
979.119290	2475.698051
979.416777	2473.288379
979.714228	2475.786271
980.011642	2475.980356
980.309020	2475.206538
980.606360	2476.809625
980.903664	2476.842393
981.200931	2477.475058
981.498162	2475.241827
981.795356	2474.301651
982.092513	2475.614872
982.389633	2472.595221
982.686717	2475.141003
982.983764	2477.371714
983.280775	2475.657722
983.577749	2478.316930
983.874686	2476.388689
984.171587	2475.367855
984.468451	2475.125880
984.765279	2474.195787
985.062070	2476.676035
985.358824	2475.763586
985.655543	2476.302989
985.952224	2473.154789
986.248869	2475.816518
986.545478	2475.352732
986.842050	2477.346508
987.138586	2471.037504
987.435086	2476.693679
987.731549	2475.871971
988.027975	2475.221662
988.324366	2474.712505
988.620719	2474.631847
988.917037	2474.949440
989.213318	2478.475727
989.509563	2476.217290
989.805772	2477.154944
990.101944	2477.722074
990.398080	2477.888432
990.694180	2475.738380
990.990244	2475.423308
991.286271	2476.149234
991.582262	2473.449696
991.878217	2474.941878
992.174136	2475.715695
992.470019	2472.935499
992.765865	2474.024388
993.061676	2471.957515
993.357450	2471.841568
993.653188	2470.583800
993.948890	2476.154275
994.244556	2476.282825
994.540186	2477.843062
994.835780	2476.678555
995.131337	2475.841724
995.426859	2473.275777
995.722345	2473.212762
996.017795	2477.936323
996.313208	2474.226034
996.608586	2475.834162
996.903928	2476.187043
997.199234	2474.394913
997.494504	2476.229893
997.789738	2473.820221
998.084936	2476.865078
998.380099	2475.824080
998.675225	2476.164358
998.970316	2475.070427
999.265371	2475.801395
999.560390	2475.385499
999.855373	2477.777527
1000.150320	2476.539924
1000.445232	2474.805767
1000.740108	2475.060345
1001.034948	2475.987917
1001.329752	2473.800057
1001.624521	2476.328195
1001.919254	2475.730818
1002.213951	2474.115129
1002.508613	2474.236116
1002.803239	2472.683441
1003.097829	2475.761065
1003.392384	2476.537403
1003.686903	2473.207721
1003.981386	2477.175109
1004.275834	2474.251240
1004.570246	2477.278453
1004.864623	2473.363997
1005.158964	2473.921044
1005.453270	2474.919193
1005.747540	2479.171406
1006.041775	2474.704944
1006.335974	2475.710654
1006.630138	2475.521611
1006.924266	2474.697382
1007.218359	2472.927937
1007.512416	2471.634881
1007.806438	2471.841568
1008.100425	2469.951136
1008.394376	2471.496249
1008.688292	2474.725108
1008.982172	2476.376086
1009.276017	2472.602782
1009.569827	2475.879532
1009.863602	2477.850624
1010.157341	2473.190077
1010.451045	2475.960191
1010.744714	2475.456076
1011.038347	2475.057824
1011.331945	2473.069089
1011.625508	2473.772330
1011.919036	2474.712505
1012.212528	2476.189563
1012.505986	2475.173771
1012.799408	2475.267032
1013.092795	2472.474233
1013.386147	2476.050932
1013.679464	2475.624954
1013.972745	2475.080510
1014.265992	2474.599079
1014.559204	2471.685292
1014.852380	2475.007413
1015.145521	2473.663945
1015.438628	2472.859881
1015.731699	2475.128401
1016.024736	2473.618575
1016.317737	2473.989100
1016.610703	2475.234265
1016.903635	2474.818370
1017.196531	2474.440283
1017.489393	2475.733339
1017.782219	2474.513380
1018.075011	2477.132259
1018.367768	2474.084882
1018.660490	2476.013123
1018.953177	2476.013123
1019.245829	2476.013123
