Dividing Wavelength (nm)	Counts (n)	Blue Motor Position (mm): 12.200000	Red Motor Position (mm): 0.000000	
326.493990	2137.784468
326.888308	2137.784468
327.282561	2137.784468
327.676750	2107.046032
328.070874	2102.882039
328.464933	2107.351022
328.858929	2114.426281
329.252859	2123.694443
329.646726	2134.472429
330.040528	2149.031282
330.434265	2166.763540
330.827938	2182.186951
331.221547	2198.180011
331.615091	2217.830429
332.008571	2238.824314
332.401986	2259.634197
332.795338	2277.474841
333.188625	2296.583334
333.581847	2315.964050
333.975006	2333.746720
334.368100	2353.601305
334.761129	2369.579242
335.154095	2388.539022
335.546996	2405.661301
335.939833	2425.644434
336.332606	2439.487443
336.725315	2452.269288
337.117960	2462.268417
337.510540	2470.830817
337.903056	2479.211735
338.295508	2486.140801
338.687896	2495.252687
339.080220	2504.553616
339.472480	2510.655932
339.864676	2515.734895
340.256807	2518.333610
340.648875	2524.745957
341.040879	2524.566996
341.432818	2528.080681
341.824694	2529.361134
342.216506	2528.693181
342.608253	2530.500434
342.999937	2529.431710
343.391557	2529.492204
343.783113	2529.323325
344.174605	2526.404497
344.566033	2523.024403
344.957397	2524.456091
345.348697	2522.167407
345.739934	2517.511902
346.131106	2518.653723
346.522215	2518.084073
346.913260	2514.983763
347.304241	2512.488392
347.695159	2511.911180
348.086012	2509.314985
348.476802	2506.749038
348.867528	2503.429438
349.258191	2504.914058
349.648789	2505.125787
350.039324	2499.693943
350.429796	2502.753924
350.820203	2499.784684
351.210548	2497.690085
351.600828	2496.742348
351.991045	2498.116062
352.381198	2494.531802
352.771288	2496.971720
353.161314	2495.350989
353.551276	2498.479025
353.941175	2495.161946
354.331010	2496.190341
354.720782	2496.399549
355.110490	2495.426607
355.500135	2495.419045
355.889717	2494.120948
356.279235	2496.482728
356.668689	2496.618839
357.058080	2496.361741
357.447408	2494.592296
357.836672	2492.134733
358.225873	2497.397698
358.615010	2492.875783
359.004084	2495.403921
359.393095	2498.574807
359.782043	2500.238388
360.170927	2498.090856
360.559748	2498.431134
360.948505	2500.283758
361.337199	2500.969355
361.725830	2501.937257
362.114398	2503.759634
362.502903	2501.808707
362.891344	2501.443224
363.279722	2502.728718
363.668037	2503.258039
364.056289	2503.084119
364.444478	2505.660149
364.832603	2502.471619
365.220665	2504.873729
365.608665	2504.467916
365.996601	2505.307268
366.384474	2505.748369
366.772284	2507.830366
367.160031	2505.672752
367.547715	2508.344563
367.935336	2506.701147
368.322893	2508.626868
368.710388	2507.217865
369.097820	2511.843124
369.485189	2507.691734
369.872495	2511.880933
370.259738	2508.989831
370.646918	2507.109481
371.034035	2509.327588
371.421090	2509.067969
371.808081	2510.512259
372.195010	2510.774399
372.581875	2510.073679
372.968678	2511.666684
373.355418	2509.073010
373.742096	2511.170130
374.128710	2512.150634
374.515262	2510.300531
374.901751	2511.853206
375.288177	2512.223731
375.674540	2510.300531
376.060841	2511.351612
376.447079	2512.062414
376.833254	2514.260357
377.219367	2510.527383
377.605417	2513.090810
377.991404	2511.636437
378.377329	2510.121570
378.763191	2510.973525
379.148991	2512.276663
379.534727	2515.286232
379.920402	2514.313289
380.306013	2515.041736
380.691563	2515.298835
381.077049	2516.314627
381.462474	2518.212622
381.847835	2516.455780
382.233134	2517.474093
382.618371	2514.477127
383.003545	2515.417302
383.388657	2516.828825
383.773706	2515.296314
384.158693	2515.843280
384.543618	2517.711027
384.928480	2515.974350
385.313280	2520.166069
385.698017	2517.726151
386.082692	2519.422499
386.467305	2519.233456
386.851856	2517.075842
387.236344	2516.352436
387.620770	2519.513240
388.005133	2519.036851
388.389435	2520.120699
388.773674	2518.951151
389.157851	2519.556089
389.541965	2520.390400
389.926018	2519.155318
390.310008	2518.809999
390.693936	2519.866120
391.077802	2519.684639
391.461606	2521.812006
391.845348	2522.512726
392.229027	2523.493231
392.612645	2521.461646
392.996200	2521.393590
393.379694	2524.536749
393.763125	2523.916688
394.146494	2521.685977
394.529801	2525.633200
394.913047	2522.820237
395.296230	2525.728982
395.679351	2521.539783
396.062410	2524.844260
396.445408	2522.331245
396.828343	2525.227387
397.211217	2519.737571
397.594028	2522.159845
397.976778	2522.217819
398.359466	2522.555576
398.742092	2521.741430
399.124656	2525.355937
399.507158	2525.355937
399.889598	2527.939528
400.271977	2522.648837
400.654294	2527.122861
401.036549	2524.990453
401.418742	2524.398118
401.800874	2526.016328
402.182944	2526.913653
402.564952	2528.057995
402.946898	2525.333252
403.328783	2525.686132
403.710606	2525.638242
404.092367	2527.281658
404.474067	2526.548170
404.855705	2528.199148
405.237282	2524.395597
405.618797	2527.821061
406.000250	2526.737213
406.381642	2527.760567
406.762972	2527.488345
407.144240	2524.871986
407.525447	2528.690660
407.906593	2527.954652
408.287677	2530.258459
408.668700	2528.546987
409.049661	2529.290558
409.430560	2529.086391
409.811399	2529.933305
410.192176	2529.114117
410.572891	2528.262162
410.953545	2528.305012
411.334138	2530.152595
411.714669	2526.457429
412.095139	2529.993798
412.475547	2526.134795
412.855894	2528.254600
413.236180	2529.333407
413.616405	2533.515044
413.996568	2531.533871
414.376670	2531.919519
414.756711	2531.090249
415.136691	2530.825589
415.516609	2531.894313
415.896466	2529.764426
416.276262	2530.868439
416.655997	2527.959693
417.035670	2525.176976
417.415283	2528.426000
417.794834	2528.398273
418.174324	2531.284334
418.553753	2532.176618
418.933121	2533.061341
419.312428	2532.065713
419.691674	2533.593182
420.070859	2533.683923
420.449983	2533.719211
420.829045	2534.223327
421.208047	2533.252904
421.586988	2532.196783
421.965867	2533.855322
422.344686	2531.967410
422.723444	2536.118800
423.102141	2532.348017
423.480777	2535.566794
423.859352	2533.517565
424.237866	2536.330529
424.616319	2534.024201
424.994712	2533.822555
425.373044	2534.772812
425.751314	2536.141486
426.129524	2533.547812
426.507673	2536.448996
426.885762	2535.453368
427.263789	2535.730632
427.641756	2534.147709
428.019662	2535.256763
428.397508	2534.750127
428.775292	2535.791125
429.153016	2535.241640
429.530679	2539.544264
429.908282	2535.231557
430.285824	2536.275076
430.663305	2534.243491
431.040726	2535.554191
431.418086	2535.574356
431.795385	2538.226003
432.172624	2537.792463
432.549802	2537.333718
432.926920	2537.863040
433.303977	2540.376055
433.680974	2537.278266
434.057910	2539.163657
434.434786	2536.635519
434.811601	2540.875129
435.188355	2537.366486
435.565050	2537.752134
435.941683	2537.245498
436.318257	2534.999664
436.694770	2535.692823
437.071222	2535.836496
437.447614	2534.364479
437.823946	2535.493697
438.200218	2535.554191
438.576429	2537.268183
438.952580	2540.683565
439.328670	2538.911600
439.704700	2537.227854
440.080670	2539.627443
440.456580	2538.341949
440.832429	2536.103677
441.208218	2539.072917
441.583947	2538.808256
441.959616	2536.693492
442.335224	2537.318595
442.710773	2540.897814
443.086261	2539.695499
443.461689	2541.031405
443.837057	2541.086857
444.212365	2540.237423
444.587612	2540.970911
444.962800	2542.972249
445.337927	2539.352701
445.712995	2542.158103
446.088002	2540.597866
446.462949	2538.881353
446.837837	2541.351518
447.212664	2537.598379
447.587431	2544.204811
447.962139	2539.718184
448.336786	2542.957126
448.711374	2538.936805
449.085901	2542.818494
449.460369	2541.855633
449.834776	2541.606096
450.209124	2541.820345
450.583412	2540.681045
450.957640	2542.740356
451.331808	2539.947557
451.705917	2542.347146
452.079965	2541.520397
452.453954	2541.570808
452.827883	2539.062834
453.201752	2543.060469
453.575562	2539.140972
453.949311	2541.646426
454.323001	2542.949564
454.696632	2543.219266
455.070202	2544.658515
455.443713	2542.611807
455.817164	2540.917979
456.190556	2538.684748
456.563888	2538.427649
456.937160	2537.021167
457.310373	2542.198432
457.683526	2546.248999
458.056619	2542.629451
458.429653	2544.290511
458.802628	2542.112732
459.175542	2539.400592
459.548398	2543.199101
459.921194	2540.759183
460.293930	2546.921993
460.666607	2543.408309
461.039224	2542.936961
461.411782	2547.574823
461.784280	2544.527445
462.156719	2545.109698
462.529099	2544.537527
462.901419	2544.613145
463.273680	2543.718340
463.645882	2546.024668
464.018024	2543.229348
464.390106	2544.502239
464.762130	2544.199770
465.134094	2544.542568
465.505999	2544.663556
465.877845	2545.628937
466.249631	2543.869574
466.621358	2547.224462
466.993026	2547.206818
467.364634	2549.465255
467.736184	2547.000131
468.107674	2546.622044
468.479105	2545.414688
468.850477	2543.214224
469.221790	2543.831766
469.593043	2545.684390
469.964238	2545.964174
470.335373	2545.066848
470.706449	2543.128525
471.077467	2544.855120
471.448425	2544.174564
471.819324	2546.760676
472.190164	2546.238917
472.560945	2544.721529
472.931667	2547.022816
473.302330	2545.628937
473.672934	2547.915100
474.043479	2546.990049
474.413965	2545.921324
474.784393	2543.367980
475.154761	2543.766231
475.525070	2541.159954
475.895321	2542.216076
476.265513	2542.460572
476.635645	2548.749411
477.005719	2545.979297
477.375734	2549.308979
477.745691	2546.662374
478.115588	2549.611449
478.485427	2548.701520
478.855207	2545.812939
479.224928	2547.960471
479.594591	2549.452652
479.964194	2549.177909
480.333739	2549.198074
480.703226	2548.174720
481.072653	2548.363763
481.442022	2547.083310
481.811333	2549.591284
482.180584	2547.443752
482.549777	2546.765717
482.918912	2551.348126
483.287988	2549.424926
483.657005	2546.576674
484.025964	2550.372663
484.394864	2545.414688
484.763706	2549.465255
485.132489	2548.653629
485.501213	2548.250337
485.869879	2550.531459
486.238487	2547.272353
486.607036	2549.228321
486.975527	2548.905687
487.343959	2548.235214
487.712333	2548.252858
488.080648	2550.654968
488.448905	2548.840152
488.817104	2549.999617
489.185244	2550.599515
489.553326	2549.929041
489.921350	2550.743188
490.289315	2552.434495
490.657222	2551.736295
491.025070	2549.440049
491.392861	2551.519525
491.760593	2550.347457
492.128267	2552.757129
492.495883	2550.750749
492.863440	2551.670760
493.230939	2549.437529
493.598380	2551.728733
493.965763	2543.582229
494.333088	2547.259750
494.700354	2547.355532
495.067563	2548.588094
495.434713	2545.218083
495.801805	2553.286450
496.168839	2551.252344
496.535815	2552.532797
496.902733	2552.525236
497.269593	2552.391645
497.636395	2549.876109
498.003139	2551.975750
498.369825	2551.998435
498.736453	2550.095399
499.103023	2549.939124
499.469535	2551.224618
499.835989	2551.431305
500.202385	2552.195040
500.568723	2554.576985
500.935003	2549.974412
501.301226	2552.268137
501.667390	2551.872406
502.033497	2553.649413
502.399546	2551.443908
502.765537	2551.022972
503.131470	2551.988353
503.497345	2550.465924
503.863163	2552.953734
504.228923	2551.940462
504.594625	2551.564896
504.960269	2551.050698
505.325856	2552.769732
505.691385	2552.421892
506.056856	2552.321069
506.422270	2552.608415
506.787625	2554.128323
507.152924	2553.198230
507.518164	2552.535318
507.883347	2550.712941
508.248472	2551.491799
508.613540	2551.877447
508.978550	2554.100596
509.343503	2553.135215
509.708398	2552.368960
510.073236	2553.687222
510.438016	2553.689742
510.802738	2554.037582
511.167403	2553.417520
511.532010	2552.426933
511.896561	2552.699155
512.261053	2553.639331
512.625488	2552.189999
512.989866	2549.137580
513.354186	2552.283260
513.718449	2549.462735
514.082655	2554.554300
514.446803	2552.729402
514.810894	2555.116389
515.174927	2553.611604
515.538904	2555.484393
515.902822	2554.738302
516.266684	2554.072870
516.630488	2553.392314
516.994235	2556.888354
517.357925	2555.255020
517.721558	2557.400031
518.085133	2558.365412
518.448651	2557.619322
518.812112	2556.414486
519.175516	2558.504044
519.538863	2558.075546
519.902152	2559.229970
520.265385	2558.894733
520.628560	2557.447922
520.991678	2557.415155
521.354739	2558.894733
521.717743	2557.362223
522.080690	2559.164435
522.443580	2560.742316
522.806413	2559.532439
523.169189	2558.541853
523.531908	2560.399518
523.894569	2560.946483
524.257174	2560.550752
524.619722	2559.721483
524.982213	2564.054354
525.344647	2560.288612
525.707025	2562.877245
526.069345	2560.533108
526.431608	2562.655434
526.793815	2562.471432
527.155964	2564.679457
527.518057	2562.738613
527.880093	2563.887996
528.242072	2562.960424
528.603995	2562.723490
528.965860	2564.303892
529.327669	2565.579303
529.689421	2560.578479
530.051117	2564.092163
530.412755	2567.114335
530.774337	2563.993861
531.135862	2562.824313
531.497331	2563.678788
531.858743	2559.996226
532.220098	2566.635425
532.581396	2561.806000
532.942638	2563.918243
533.303824	2564.263562
533.664953	2565.649880
534.026025	2568.384706
534.387040	2564.210630
534.747999	2569.589541
535.108902	2569.589541
535.469748	2567.542833
535.830537	2569.607185
536.191270	2569.370251
536.551947	2569.269428
536.912567	2569.362689
537.273131	2567.517627
537.633638	2569.554253
537.994089	2569.934860
538.354483	2567.794891
538.714821	2570.703636
539.075103	2570.668348
539.435328	2571.409398
539.795497	2571.679100
540.155609	2571.023750
540.515665	2572.331929
540.875665	2573.055335
541.235609	2572.583987
541.595496	2572.357135
541.955328	2571.870663
542.315102	2572.800756
542.674821	2572.815880
543.034483	2574.855027
543.394090	2573.256981
543.753640	2571.117011
544.113134	2570.643142
544.472571	2571.404357
544.831953	2574.786971
545.191278	2574.938206
545.550548	2572.079871
545.909761	2574.484502
546.268918	2575.893504
546.628019	2572.435273
546.987064	2575.265881
547.346053	2574.164388
547.704986	2576.006930
548.063863	2576.642116
548.422684	2575.535582
548.781449	2575.979204
549.140158	2577.221848
549.498811	2576.453072
549.857408	2574.487022
550.215949	2571.845458
550.574434	2571.890828
550.932864	2572.566343
551.291237	2572.725139
551.649555	2575.359142
552.007817	2576.526169
552.366022	2578.517425
552.724173	2573.882084
553.082267	2575.328895
553.440305	2577.627661
553.798288	2577.098340
554.156215	2575.275963
554.514086	2574.383679
554.871902	2571.517783
555.229661	2575.243195
555.587365	2576.813515
555.945014	2576.029615
556.302606	2576.120356
556.660143	2575.044070
557.017625	2577.365521
557.375050	2574.517269
557.732421	2575.515418
558.089735	2574.282856
558.446994	2576.281673
558.804197	2575.706982
559.161345	2578.376272
559.518437	2577.168916
559.875474	2577.408371
560.232455	2580.556572
560.589381	2576.851323
560.946251	2580.906932
561.303065	2576.868968
561.659825	2578.383834
562.016528	2575.336457
562.373177	2575.911148
562.729770	2578.378793
563.086307	2576.964749
563.442789	2577.123546
563.799216	2577.073134
564.155587	2579.291242
564.511904	2578.620768
564.868164	2575.863257
565.224370	2578.015830
565.580520	2578.950964
565.936615	2575.230592
566.292654	2579.543300
566.648638	2581.232086
567.004567	2579.205542
567.360441	2578.237641
567.716260	2578.325861
568.072023	2579.238310
568.427732	2574.794533
568.783385	2575.424677
569.138982	2577.196642
569.494525	2576.437949
569.850013	2574.204718
570.205445	2580.854000
570.560823	2579.210583
570.916145	2580.662436
571.271412	2582.827611
571.626625	2579.205542
571.981782	2580.226376
572.336884	2583.132601
572.691931	2581.569843
573.046923	2580.627148
573.401860	2584.158476
573.756743	2583.457756
574.111570	2584.685277
574.466342	2584.062694
574.821059	2584.894484
575.175722	2585.249886
575.530330	2584.612180
575.884882	2585.817016
576.239380	2585.441450
576.593823	2586.401789
576.948211	2588.017479
577.302544	2587.039495
577.656823	2587.205853
578.011047	2590.399424
578.365216	2589.005545
578.719330	2589.141657
579.073389	2590.717017
579.427394	2589.509661
579.781344	2590.505289
580.135239	2595.899323
580.489080	2592.247007
580.842866	2593.096442
581.196597	2596.736155
581.550273	2596.736155
581.903895	2599.360075
582.257463	2598.835795
582.610975	2601.270673
582.964434	2598.508120
583.317837	2601.915940
583.671186	2604.895262
584.024481	2604.925509
584.377721	2608.257712
584.730906	2606.142948
585.084037	2607.924996
585.437113	2607.746035
585.790135	2609.999431
586.143103	2613.107302
586.496016	2613.934051
586.848874	2613.016561
587.201679	2611.857096
587.554428	2613.714761
587.907124	2617.099896
588.259765	2615.960595
588.612352	2625.044754
588.964884	2623.764301
589.317362	2628.061885
589.669786	2630.123717
590.022155	2629.866618
590.374470	2634.464150
590.726731	2635.716877
591.078937	2634.073461
591.431090	2640.798360
591.783188	2641.206693
592.135232	2642.426653
592.487222	2642.227527
592.839157	2645.083341
593.191038	2647.596356
593.542866	2648.687766
593.894639	2650.759680
594.246358	2655.914260
594.598022	2659.483397
594.949633	2659.178407
595.301190	2660.935249
595.652692	2664.794252
596.004141	2669.598472
596.355535	2668.925478
596.706876	2673.868329
597.058162	2672.081240
597.409395	2677.697086
597.760573	2680.842766
598.111698	2682.594567
598.462768	2687.245031
598.813785	2688.303673
599.164748	2689.367357
599.515657	2691.678726
599.866511	2698.091073
600.217312	2701.234233
600.568060	2702.844882
600.918753	2712.526417
601.269392	2713.610266
601.619978	2718.069166
601.970510	2720.332644
602.320988	2726.838253
602.671412	2737.109604
603.021783	2733.449727
603.372100	2739.955336
603.722363	2744.893146
604.072572	2750.009917
604.422728	2755.792120
604.772830	2754.423447
605.122878	2761.110538
605.472872	2762.181783
605.822813	2772.495984
606.172701	2778.905811
606.522534	2786.593570
606.872314	2793.598254
607.222041	2800.161836
607.571714	2810.077786
607.921333	2812.721871
608.270899	2819.164465
608.620411	2828.921619
608.969870	2832.770540
609.319276	2843.104905
609.668627	2851.747963
610.017926	2862.835981
610.367171	2878.508928
610.716362	2884.306255
611.065500	2893.450908
611.414585	2902.020870
611.763616	2905.544637
612.112594	2913.885226
612.461518	2924.411155
612.810389	2938.670058
613.159207	2939.590069
613.507971	2946.599793
613.856682	2969.577373
614.205340	2973.456541
614.553945	2989.011021
614.902496	2992.355826
615.250994	3007.983403
615.599439	3017.279291
615.947830	3029.977957
616.296169	3044.836758
616.644454	3055.392935
616.992686	3064.799728
617.340864	3084.298911
617.688990	3083.825042
618.037063	3106.217848
618.385082	3116.867285
618.733048	3140.316212
619.080961	3143.179588
619.428821	3157.647699
619.776628	3172.138496
620.124382	3178.641584
620.472083	3190.657175
620.819731	3200.598330
621.167326	3203.474308
621.514868	3213.634754
621.862357	3210.579815
622.209793	3221.503995
622.557176	3229.894996
622.904506	3231.551015
623.251783	3232.430696
623.599007	3239.042169
623.946179	3246.908890
624.293297	3257.323914
624.640363	3256.880292
624.987376	3266.965120
625.334336	3269.425203
625.681243	3280.097326
626.028097	3287.338944
626.374899	3291.208029
626.721647	3308.605051
627.068343	3311.677634
627.414987	3321.507884
627.761577	3325.122392
628.108115	3342.012778
628.454600	3339.867767
628.801032	3364.355172
629.147412	3361.874924
629.493739	3375.733056
629.840014	3379.279508
630.186236	3402.070564
630.532405	3395.912795
630.878521	3418.862648
631.224585	3423.147628
631.570597	3424.251641
631.916556	3444.706123
632.262462	3456.474696
632.608316	3462.055254
632.954117	3473.438179
633.299866	3481.569560
633.645562	3493.769152
633.991206	3489.693380
634.336797	3488.891836
634.682336	3492.874348
635.027823	3495.533556
635.373257	3500.045389
635.718639	3499.505986
636.063968	3515.105836
636.409245	3498.991788
636.754470	3511.103160
637.099642	3514.760517
637.444762	3515.834283
637.789829	3529.263917
638.134845	3527.970861
638.479808	3536.530740
638.824719	3548.967267
639.169577	3541.997871
639.514383	3560.629976
639.859137	3550.686300
640.203839	3565.098959
640.548489	3578.354673
640.893086	3578.498346
641.237632	3586.791044
641.582125	3604.190586
641.926566	3604.190586
642.270955	3622.842856
642.615292	3634.825678
642.959576	3654.960047
643.303809	3658.912311
643.647990	3673.027542
643.992118	3683.687062
644.336195	3676.747914
644.680219	3703.587017
645.024192	3705.641287
645.368112	3752.899584
645.711981	3768.164198
646.055797	3807.994354
646.399562	3808.851350
646.743274	3865.382849
647.086935	3893.124319
647.430544	3904.121596
647.774101	3931.129578
648.117606	3932.286523
648.461059	3948.292186
648.804460	3950.737146
649.147810	3923.570368
649.491108	3928.845935
649.834354	3930.549845
650.177548	3918.287238
650.520690	3898.455339
650.863781	3903.461205
651.206820	3924.200512
651.549807	3903.962800
651.892742	3896.615318
652.235626	3911.728697
652.578458	3916.669028
652.921238	3895.561717
653.263967	3919.300510
653.606644	3901.054054
653.949269	3919.638268
654.291843	3903.834250
654.634365	3931.530350
654.976836	3937.461267
655.319255	3935.230557
655.661622	3944.130714
656.003938	3953.913073
656.346203	3941.282462
656.688416	3974.899396
657.030577	3959.697797
657.372687	3956.935244
657.714746	3957.593115
658.056753	3988.558402
658.398708	3975.229592
658.740612	3977.304027
659.082465	4016.763658
659.424266	4016.519162
659.766016	4029.636245
660.107715	4038.576731
660.449362	4054.252199
660.790958	4059.535328
661.132503	4064.952048
661.473996	4098.715176
661.815438	4095.554372
662.156829	4107.832103
662.498168	4116.250829
662.839456	4105.792956
663.180693	4141.764109
663.521879	4147.994975
663.863013	4153.746932
664.204097	4178.277186
664.545129	4201.900033
664.886110	4216.421077
665.227040	4245.886621
665.567918	4226.427767
665.908746	4260.213580
666.249522	4271.460395
666.590248	4266.237759
666.930922	4293.155000
667.271545	4313.831293
667.612118	4324.074917
667.952639	4314.426149
668.293109	4345.751879
668.633528	4327.588602
668.973896	4333.471628
669.314213	4342.691898
669.654480	4345.958566
669.994695	4350.230944
670.334859	4355.007437
670.674973	4360.789641
671.015035	4374.854460
671.355047	4389.380545
671.695008	4387.820308
672.034918	4376.356724
672.374777	4395.868510
672.714585	4396.503695
673.054342	4405.809665
673.394049	4411.054986
673.733705	4438.181435
674.073310	4446.186787
674.412864	4420.418929
674.752368	4432.207667
675.091820	4441.806024
675.431223	4409.283020
675.770574	4424.091410
676.109875	4405.040889
676.449125	4416.393568
676.788324	4402.807658
677.127473	4378.816807
677.466571	4381.234040
677.805619	4389.690576
678.144616	4388.420205
678.483562	4387.641347
678.822458	4377.453175
679.161303	4381.433166
679.500098	4385.319895
679.838842	4378.685737
680.177535	4390.993714
680.516179	4405.693719
680.854771	4423.448663
681.193314	4479.561746
681.531805	4554.503539
681.870247	4655.896266
682.208638	4722.618458
682.546978	4738.795521
682.885268	4735.433071
683.223508	4694.312379
683.561697	4668.723482
683.899836	4657.469106
684.237925	4635.260303
684.575963	4613.210296
684.913951	4595.664560
685.251889	4651.195390
685.589776	4624.875526
685.927614	4611.980255
686.265401	4667.511085
686.603137	4659.523377
686.940824	4722.867995
687.278460	4737.709152
687.616046	4749.197942
687.953582	4796.337771
688.291068	4791.901556
688.628504	4845.199155
688.965889	4821.389785
689.303224	4788.138335
689.640510	4768.339203
689.977745	4725.812029
690.314930	4666.936393
690.652065	4637.906909
690.989150	4577.297116
691.326185	4547.486253
691.663170	4516.399978
692.000105	4470.883400
692.336990	4425.331533
692.673825	4416.438938
693.010610	4371.204665
693.347345	4324.521059
693.684030	4330.429292
694.020665	4300.754540
694.357251	4239.900251
694.693786	4253.705451
695.030272	4235.988316
695.366707	4218.578691
695.703093	4198.030948
696.039429	4219.050039
696.375716	4215.465778
696.711952	4195.749826
697.048139	4188.445194
697.384276	4176.986651
697.720363	4191.565668
698.056400	4205.222154
698.392388	4165.870907
698.728326	4155.997807
699.064214	4144.282165
699.400053	4146.117145
699.735842	4127.371615
700.071581	4112.729583
700.407270	4094.021862
700.742910	4091.564299
701.078501	4050.594842
701.414042	4059.051377
701.749533	4039.411042
702.084974	3988.850789
702.420366	4041.021691
702.755709	4000.289167
703.091002	3958.530770
703.426246	4006.784694
703.761440	3970.223726
704.096584	3943.364458
704.431679	3963.415648
704.766725	3954.966674
705.101721	3950.631282
705.436668	3977.455261
705.771565	3935.744754
706.106413	3965.842963
706.441212	3997.773632
706.775961	4004.695136
707.110661	3986.451200
707.445311	4010.363913
707.779913	4037.641597
708.114465	4047.865057
708.448967	4064.357192
708.783421	4121.486068
709.117825	4149.199811
709.452180	4159.128363
709.786485	4195.548179
710.120742	4262.973612
710.454949	4245.868977
710.789107	4304.447185
711.123216	4360.406513
711.457275	4349.933516
711.791286	4412.799225
712.125247	4426.977470
712.459159	4345.583000
712.793023	4411.120521
713.126837	4392.609404
713.460602	4384.233527
713.794318	4325.221780
714.127985	4338.248121
714.461602	4279.238895
714.795171	4254.660749
715.128691	4213.590469
715.462162	4170.896937
715.795584	4131.308756
716.128957	4121.733084
716.462281	4083.543823
716.795556	4067.225608
717.128782	4035.516751
717.461960	3982.874502
717.795088	3993.407992
718.128167	3963.319866
718.461198	3912.295827
718.794180	3915.403698
719.127113	3899.582037
719.459997	3882.830283
719.792833	3848.124459
720.125619	3840.456864
720.458357	3811.871001
720.791046	3819.470541
721.123686	3795.416675
721.456278	3762.981891
721.788821	3781.871095
722.121315	3757.746653
722.453761	3734.824527
722.786158	3752.213987
723.118506	3773.248201
723.450805	3727.840008
723.783056	3747.407247
724.115259	3767.173611
724.447412	3771.007408
724.779518	3765.310904
725.111574	3770.369702
725.443582	3797.085297
725.775542	3786.297228
726.107453	3831.314732
726.439315	3832.277592
726.771129	3844.288141
727.102895	3873.168912
727.434612	3920.366714
727.766281	3925.904422
728.097901	3928.823250
728.429473	3934.355916
728.760996	3941.537040
729.092471	3939.356741
729.423897	3927.111778
729.755276	3938.212399
730.086606	3940.065023
730.417887	3972.530054
730.749120	4033.626318
731.080305	4093.046398
731.411442	4116.601190
731.742530	4092.524639
732.073570	4097.235597
732.404562	4149.524965
732.735506	4142.633708
733.066401	4107.017956
733.397249	4052.268505
733.728048	3990.370697
734.058798	3918.960232
734.389501	3857.553937
734.720156	3799.633600
735.050762	3767.965072
735.381320	3762.707148
735.711831	3710.344683
736.042293	3690.588402
736.372707	3709.122204
736.703073	3684.614634
737.033391	3674.247501
737.363661	3691.493289
737.693883	3714.566650
738.024056	3724.802713
738.354182	3719.587639
738.684260	3775.804066
739.014290	3795.129329
739.344272	3791.381232
739.674207	3828.504288
740.004093	3831.594516
740.333931	3826.132426
740.663722	3829.696521
740.993464	3829.245338
741.323159	3811.553409
741.652806	3784.247999
741.982405	3760.408382
742.311956	3733.566759
742.641460	3727.935790
742.970915	3707.193962
743.300323	3667.671316
743.629683	3640.794404
743.958996	3632.529433
744.288260	3610.633181
744.617477	3578.372317
744.946647	3567.753126
745.275768	3546.958367
745.604842	3544.425187
745.933869	3500.075636
746.262847	3494.938700
746.591778	3534.602499
746.920662	3503.128055
747.249498	3473.780977
747.578286	3517.674304
747.907027	3530.156201
748.235720	3529.382384
748.564365	3555.500602
748.892963	3555.039336
749.221514	3540.684651
749.550017	3518.014582
749.878473	3517.452493
750.206881	3486.835045
750.535242	3486.646002
750.863555	3492.128257
751.191821	3484.395127
751.520039	3469.082622
751.848210	3444.743931
752.176334	3481.085609
752.504411	3488.327227
752.832440	3447.750980
753.160421	3432.380502
753.488356	3440.718570
753.816243	3455.547124
754.144082	3411.063983
754.471875	3396.714338
754.799620	3420.412802
755.127318	3409.914599
755.454969	3411.164806
755.782572	3416.962133
756.110129	3391.653020
756.437638	3382.155486
756.765100	3399.653331
757.092515	3407.830082
757.419882	3409.967532
757.747203	3385.737226
758.074477	3392.875499
758.401703	3405.506110
758.728882	3422.187288
759.056014	3431.052158
759.383099	3436.234464
759.710138	3429.620470
760.037129	3449.396916
760.364073	3480.601659
760.690970	3464.835450
761.017820	3442.036832
761.344623	3460.825212
761.671379	3503.773322
761.998088	3554.595715
762.324751	3674.824713
762.651366	3908.489756
762.977935	4356.552551
763.304456	4770.859780
763.630931	4855.677193
763.957359	4512.944267
764.283740	4195.117161
764.610074	4014.971528
764.936362	3831.808765
765.262602	3680.241433
765.588796	3577.696802
765.914943	3490.699090
766.241044	3410.501894
766.567097	3383.166237
766.893104	3337.130420
767.219064	3309.779640
767.544978	3283.101854
767.870845	3229.859708
768.196665	3214.814384
768.522438	3226.429202
768.848165	3223.606156
769.173846	3184.375897
769.499479	3169.335614
769.825066	3152.210815
770.150607	3139.731438
770.476101	3153.234169
770.801548	3150.247285
771.126949	3106.132148
771.452303	3088.510795
771.777611	3097.847012
772.102872	3100.758278
772.428087	3078.917479
772.753256	3069.205696
773.078378	3058.331927
773.403453	3027.351516
773.728482	3017.627131
774.053465	3039.755275
774.378401	3025.403110
774.703291	2994.493276
775.028135	2995.821620
775.352932	2992.161742
775.677683	2982.160093
776.002388	2978.830411
776.327046	2981.257726
776.651658	2970.915799
776.976224	2957.793676
777.300743	2957.634879
777.625216	2948.797737
777.949643	2946.234310
778.274024	2947.552572
778.598359	2936.346087
778.922647	2941.233485
779.246889	2942.652570
779.571086	2926.157915
779.895236	2919.042326
780.219339	2928.093718
780.543397	2944.870678
780.867409	2946.950154
781.191374	2937.848350
781.515294	2933.636466
781.839167	2935.216868
782.162995	2928.446598
782.486776	2938.604523
782.810511	2935.168977
783.134201	2920.922676
783.457844	2927.992895
783.781441	2919.243972
784.104993	2898.406363
784.428498	2901.178997
784.751958	2915.891605
785.075372	2907.147723
785.398739	2894.398645
785.722061	2910.328692
786.045337	2922.528284
786.368568	2906.240316
786.691752	2897.493914
787.014891	2946.282201
787.337983	2972.687765
787.661030	2999.148781
787.984031	3065.308884
788.306987	3110.336470
788.629897	3099.586210
788.952760	3084.261102
789.275579	3072.926068
789.598351	3013.679907
789.921078	2972.483598
790.243759	2963.026393
790.566395	2947.098868
790.888984	2925.396700
791.211529	2907.175450
791.534027	2898.799573
791.856480	2889.564179
792.178888	2875.242261
792.501249	2866.339583
792.823566	2862.152905
793.145836	2860.678367
793.468062	2859.806248
793.790241	2857.028572
794.112375	2861.908409
794.434464	2871.945346
794.756507	2878.801315
795.078505	2882.088148
795.400457	2896.405025
795.722364	2930.490786
796.044226	2954.486679
796.366042	2955.200002
796.687812	2949.367387
797.009538	2965.922536
797.331218	2952.349229
797.652852	2939.559822
797.974442	2923.246648
798.295986	2917.426636
798.617484	2914.452355
798.938938	2899.757392
799.260346	2883.668549
799.581709	2879.824670
799.903026	2873.722353
800.224299	2867.458719
800.545526	2859.135774
800.866708	2842.406705
801.187845	2832.493276
801.508936	2838.008298
801.829983	2841.653053
802.150984	2830.764160
802.471940	2815.973415
802.792851	2818.768735
803.113717	2815.194557
803.434538	2823.827533
803.755314	2813.157931
804.076045	2811.020481
804.396731	2808.000830
804.717372	2809.553506
805.037967	2803.015129
805.358518	2813.379741
805.679024	2821.163283
805.999485	2820.734785
806.319901	2823.144456
806.640272	2814.839155
806.960598	2820.497851
807.280879	2825.912050
807.601115	2835.880932
807.921306	2824.185455
808.241453	2817.420226
808.561554	2827.593275
808.881611	2828.104952
809.201623	2822.980619
809.521590	2821.594302
809.841513	2816.323775
810.161390	2819.403920
810.481223	2817.657160
810.801011	2806.526293
811.120755	2800.935653
811.440453	2803.846919
811.760107	2805.583597
812.079716	2803.078143
812.399281	2792.864766
812.718801	2785.439146
813.038276	2782.636265
813.357707	2789.628345
813.677093	2795.070271
813.996434	2791.175979
814.315731	2785.570216
814.634983	2782.142232
814.954191	2784.408230
815.273354	2797.253090
815.592473	2801.485139
815.911547	2802.894141
816.230577	2812.414360
816.549562	2825.370126
816.868502	2817.435350
817.187399	2830.938080
817.506250	2846.542972
817.825058	2837.431086
818.143821	2852.867099
818.462539	2867.753627
818.781213	2889.644837
819.099843	2928.996084
819.418429	2985.701503
819.736970	3043.344577
820.055466	3112.176492
820.373919	3214.869837
820.692327	3348.140300
821.010691	3508.219620
821.329011	3937.579734
821.647286	4797.739212
821.965517	6121.561336
822.283704	6814.755278
822.601847	6781.581965
822.919945	6179.577455
823.237999	5703.795875
823.556010	5146.327439
823.873976	4614.997385
824.191897	4227.327613
824.509775	3948.559367
824.827609	3689.814584
825.145398	3573.316040
825.463144	3563.846232
825.780845	3654.949964
826.098502	3761.272940
826.416116	4031.572048
826.733685	4329.867203
827.051210	4382.229668
827.368692	4275.813431
827.686129	4017.887836
828.003522	3710.017008
828.320872	3461.473000
828.638177	3273.211110
828.955439	3144.311327
829.272656	3064.015828
829.589830	2996.781959
829.906960	2951.910649
830.224046	2908.649987
830.541088	2877.404916
830.858086	2864.214737
831.175041	2846.573219
831.491952	2846.043898
831.808819	2857.452029
832.125642	2882.110833
832.442421	2924.658171
832.759157	3002.334790
833.075849	3180.451359
833.392497	3449.321299
833.709101	3640.547388
834.025662	3582.548913
834.342179	3436.577262
834.658653	3265.480501
834.975083	3121.321145
835.291469	3031.843184
835.607811	2951.063735
835.924110	2894.345713
836.240366	2842.260512
836.556578	2804.366158
836.872746	2785.056018
837.188871	2762.010384
837.504952	2743.791654
837.820990	2740.411560
838.136984	2722.863303
838.452935	2718.900957
838.768842	2716.443394
839.084706	2734.092474
839.400526	2811.569967
839.716303	2935.252156
840.032037	3011.716378
840.347727	2998.498472
840.663373	2938.475974
840.978977	2869.112218
841.294537	2795.455919
841.610054	2753.568972
841.925527	2732.650704
842.240957	2712.014740
842.556344	2690.751153
842.871687	2676.794719
843.186987	2669.180056
843.502244	2664.199396
843.817458	2658.828047
844.132629	2649.948054
844.447756	2635.197638
844.762840	2632.172946
845.077881	2635.921044
845.392879	2634.469191
845.707833	2632.916516
846.022745	2621.790689
846.337613	2626.473921
846.652438	2624.447377
846.967221	2624.079373
847.281960	2623.696246
847.596656	2618.710544
847.911309	2620.255658
848.225919	2616.258023
848.540485	2613.377004
848.855009	2612.414143
849.169490	2612.184771
849.483928	2612.583022
849.798323	2614.352467
850.112675	2611.998248
850.426984	2613.566047
850.741251	2610.979935
851.055474	2613.651747
851.369654	2616.242900
851.683792	2615.136366
851.997887	2611.778958
852.311938	2612.716612
852.625947	2612.358691
852.939914	2613.440018
853.253837	2616.520163
853.567718	2612.779627
853.881555	2610.591766
854.195350	2614.377673
854.509103	2613.369442
854.822812	2611.042949
855.136479	2609.394492
855.450103	2614.972529
855.763685	2613.104781
856.077224	2611.942795
856.390720	2609.954060
856.704173	2610.296859
857.017584	2613.520677
857.330953	2619.222222
857.644278	2619.065946
857.957561	2621.011831
858.270802	2614.947323
858.584000	2615.524535
858.897155	2620.192644
859.210268	2620.908487
859.523339	2615.607714
859.836367	2607.922475
860.149352	2609.908690
860.462295	2610.261571
860.775195	2608.015737
861.088054	2607.012547
861.400869	2607.436004
861.713642	2605.492639
862.026373	2605.522886
862.339062	2610.233844
862.651708	2614.775924
862.964312	2616.880606
863.276873	2611.335336
863.589392	2616.373970
863.901869	2621.082407
864.214303	2624.144908
864.526696	2627.764457
864.839045	2627.338479
865.151353	2631.719242
865.463619	2630.043058
865.775842	2632.150261
866.088023	2631.172277
866.400162	2631.111783
866.712258	2629.869138
867.024313	2630.176649
867.336325	2624.124744
867.648296	2625.914353
867.960224	2629.135651
868.272110	2630.476597
868.583954	2627.285547
868.895755	2628.445012
869.207515	2630.968110
869.519233	2635.507669
869.830909	2634.028090
870.142542	2629.735548
870.454134	2630.484159
870.765684	2635.986579
871.077191	2636.972124
871.388657	2641.582259
871.700081	2636.941877
872.011463	2637.962711
872.322803	2641.725932
872.634101	2643.669297
872.945357	2648.932262
873.256571	2654.475010
873.567744	2653.524753
873.878874	2651.750267
874.189963	2653.466780
874.501010	2654.437202
874.812015	2663.047492
875.122979	2661.094045
875.433900	2654.066677
875.744780	2650.991573
876.055618	2656.872079
876.366415	2663.947338
876.677169	2661.252842
876.987882	2657.814775
877.298554	2655.263951
877.609183	2665.426917
877.919771	2672.595438
878.230317	2680.419309
878.540822	2688.454908
878.851285	2702.297916
879.161707	2723.778273
879.472087	2758.466452
879.782425	2803.476395
880.092722	2914.558220
880.402977	3092.460539
880.713191	3338.443641
881.023363	3613.862040
881.333494	3792.878454
881.643583	3953.045994
881.953631	3955.501036
882.263637	3780.832617
882.573602	3571.292016
882.883526	3446.382306
883.193408	3340.651666
883.503248	3249.535331
883.813048	3140.618682
884.122806	3030.320756
884.432522	2949.085082
884.742197	2890.370763
885.051831	2853.066225
885.361424	2823.746874
885.670975	2790.399642
885.980485	2758.615167
886.289954	2743.103536
886.599382	2730.624160
886.908768	2719.967161
887.218113	2701.062834
887.527417	2691.401462
887.836680	2682.554237
888.145901	2679.685821
888.455082	2669.069151
888.764221	2659.727893
889.073319	2653.186996
889.382376	2653.242448
889.691392	2655.067346
890.000366	2653.202119
890.309300	2652.554331
890.618193	2653.600370
890.927044	2654.038951
891.235855	2655.389980
891.544625	2655.750422
891.853353	2653.383601
892.162041	2661.779642
892.470687	2681.425019
892.779293	2689.586647
893.087858	2699.089222
893.396381	2720.209136
893.704864	2761.486104
894.013306	2825.115547
894.321707	2912.892118
894.630068	2960.067236
894.938387	2978.119608
895.246665	2973.156592
895.554903	2929.732093
895.863100	2887.928324
896.171256	2836.695078
896.479371	2775.858433
896.787446	2740.809811
897.095480	2725.875393
897.403473	2722.460011
897.711425	2704.639532
898.019336	2686.307376
898.327207	2674.400171
898.635038	2674.690037
898.942827	2675.559636
899.250576	2661.572955
899.558284	2653.670946
899.865952	2646.147024
900.173579	2645.186684
900.481165	2644.763227
900.788711	2634.736372
901.096216	2630.902575
901.403681	2627.943418
901.711105	2626.662965
902.018489	2624.649024
902.325832	2627.320835
902.633135	2629.375105
902.940397	2643.185346
903.247619	2678.377641
903.554800	2745.223341
903.861941	2863.400590
904.169041	2979.248826
904.476101	3035.097249
904.783121	3030.524923
905.090100	2977.302941
905.397039	2905.801735
905.703938	2837.262208
906.010796	2780.995369
906.317614	2731.677761
906.624391	2698.844726
906.931129	2673.205417
907.237826	2652.448467
907.544483	2636.319295
907.851099	2623.363529
908.157675	2614.314658
908.464211	2606.944491
908.770707	2599.281937
909.077163	2593.862697
909.383578	2588.657706
909.689954	2590.719538
909.996289	2588.042685
910.302584	2586.179979
910.608839	2583.482961
910.915054	2585.980853
911.221229	2587.944383
911.527363	2588.692994
911.833458	2587.009248
912.139513	2586.595874
912.445527	2591.153077
912.751502	2595.816144
913.057436	2598.979468
913.363331	2606.253853
913.669186	2619.857407
913.975000	2628.596247
914.280775	2643.858340
914.586510	2659.248983
914.892205	2694.297605
915.197859	2759.210023
915.503475	2836.808504
915.809050	2895.301012
916.114585	2908.576891
916.420081	2916.446132
916.725536	2929.054058
917.030952	2907.336767
917.336328	2862.268851
917.641665	2813.866213
917.946961	2767.497680
918.252218	2737.964080
918.557435	2714.847869
918.862612	2693.375074
919.167750	2679.655574
919.472848	2662.878614
919.777906	2648.332364
920.082925	2635.593369
920.387904	2627.368726
920.692843	2623.900412
920.997743	2619.043261
921.302603	2612.038577
921.607423	2605.444748
921.912204	2602.041969
922.216946	2598.936618
922.521647	2598.757658
922.826310	2594.558376
923.130932	2586.416913
923.435516	2585.030596
923.740059	2582.144535
924.044564	2580.077662
924.349028	2579.994483
924.653454	2571.051476
924.957840	2570.428893
925.262186	2565.760785
925.566493	2567.683985
925.870761	2562.975547
926.174989	2565.624674
926.479178	2564.460167
926.783328	2566.050651
927.087438	2561.238870
927.391509	2563.247770
927.695541	2558.819116
927.999533	2557.281564
928.303486	2559.469425
928.607400	2556.038920
928.911275	2556.091852
929.215110	2557.042109
929.518906	2556.326266
929.822663	2558.675443
930.126381	2557.901626
930.430060	2559.794579
930.733699	2555.882644
931.037299	2556.036399
931.340861	2558.987995
931.644383	2558.884651
931.947866	2555.832232
932.251309	2559.408931
932.554714	2553.387273
932.858080	2556.853066
933.161407	2554.753426
933.464694	2554.392983
933.767943	2557.468087
934.071153	2553.871224
934.374323	2555.484393
934.677455	2556.091852
934.980548	2550.992725
935.283602	2554.713096
935.586617	2551.958106
935.889593	2551.557334
936.192530	2555.139074
936.495428	2554.259393
936.798287	2554.587067
937.101108	2554.786193
937.403890	2557.916750
937.706632	2563.114179
938.009336	2563.951011
938.312002	2566.978224
938.614628	2571.661456
938.917216	2575.210428
939.219765	2575.926272
939.522275	2572.906621
939.824747	2575.522979
940.127179	2570.053327
940.429573	2568.367062
940.731929	2568.427555
941.034246	2563.887996
941.336524	2566.022925
941.638763	2565.785991
941.940964	2567.933522
942.243126	2562.292471
942.545250	2562.741134
942.847335	2561.458160
943.149381	2561.236349
943.451389	2562.146278
943.753359	2560.366750
944.055290	2558.216698
944.357182	2556.759805
944.659036	2556.842984
944.960851	2555.408776
945.262628	2559.270299
945.564367	2557.037068
945.866067	2558.516647
946.167729	2558.274672
946.469352	2554.745864
946.770937	2557.755433
947.072484	2557.062274
947.373992	2558.529250
947.675462	2559.156873
947.976893	2556.928683
948.278286	2556.797613
948.579641	2557.611760
948.880958	2554.544218
949.182236	2555.638148
949.483476	2555.302911
949.784678	2553.256203
950.085841	2554.362736
950.386967	2555.343241
950.688054	2553.692263
950.989103	2554.269475
951.290114	2555.381049
951.591087	2559.434137
951.892021	2558.178890
952.192917	2559.471946
952.493776	2560.283571
952.794596	2563.565363
953.095378	2561.518654
953.396122	2563.270455
953.696828	2558.761143
953.997496	2559.920608
954.298126	2555.088662
954.598718	2556.795093
954.899272	2556.754764
955.199788	2554.622356
955.500266	2556.293498
955.800706	2550.148332
956.101108	2546.538865
956.401472	2547.685728
956.701798	2548.651109
957.002087	2546.513660
957.302337	2547.050542
957.602550	2549.293856
957.902724	2546.959802
958.202861	2548.086500
958.502960	2544.086344
958.803022	2548.240255
959.103045	2546.238917
959.403031	2544.363608
959.702979	2544.653474
960.002889	2546.974925
960.302762	2542.924358
960.602596	2543.080634
960.902393	2544.966025
961.202153	2544.487116
961.501875	2541.764893
961.801559	2543.234389
962.101205	2543.199101
962.400814	2541.343956
962.700385	2543.456200
962.999918	2542.866385
963.299414	2541.880839
963.598873	2541.094419
963.898293	2543.771272
964.197677	2542.432846
964.497022	2542.609286
964.796331	2543.647764
965.095601	2543.483926
965.394835	2541.800181
965.694030	2540.880170
965.993189	2541.543082
966.292309	2541.812784
966.591393	2539.617361
966.890439	2544.187167
967.189447	2541.583411
967.488419	2542.306817
967.787353	2541.129707
968.086249	2539.879501
968.385108	2543.975439
968.683930	2540.507125
968.982714	2543.496529
969.281462	2539.385468
969.580172	2542.379913
969.878844	2542.155582
970.177480	2541.207845
970.476078	2540.733977
970.774639	2544.524924
971.073162	2540.280273
971.371649	2539.539223
971.670098	2538.107536
971.968510	2538.188194
972.266885	2540.066024
972.565223	2543.519214
972.863524	2541.520397
973.161788	2547.146324
973.460014	2541.898483
973.758204	2542.785726
974.056356	2544.056097
974.354471	2542.100129
974.652550	2543.700696
974.950591	2544.280428
975.248595	2542.568957
975.546563	2542.392516
975.844493	2542.039636
976.142386	2544.035932
976.440243	2542.395037
976.738062	2539.932433
977.035845	2541.414533
977.333590	2539.914789
977.631299	2544.144317
977.928971	2543.756148
978.226606	2542.132897
978.524204	2541.235572
978.821765	2537.114428
979.119290	2542.079965
979.416777	2541.341436
979.714228	2544.514842
980.011642	2542.014430
980.309020	2542.193391
980.606360	2540.912938
980.903664	2542.707588
981.200931	2543.385624
981.498162	2543.617517
981.795356	2546.236396
982.092513	2548.215049
982.389633	2549.490461
982.686717	2554.781152
982.983764	2555.640669
983.280775	2556.671585
983.577749	2557.291647
983.874686	2555.149156
984.171587	2550.886861
984.468451	2548.825029
984.765279	2548.842673
985.062070	2548.106664
985.358824	2545.487785
985.655543	2541.656508
985.952224	2546.841335
986.248869	2542.848741
986.545478	2540.408822
986.842050	2539.703061
987.138586	2538.636857
987.435086	2537.502597
987.731549	2535.889428
988.027975	2541.475026
988.324366	2540.161806
988.620719	2539.400592
988.917037	2540.741538
989.213318	2541.164995
989.509563	2539.803884
989.805772	2537.280786
990.101944	2539.345139
990.398080	2540.023174
990.694180	2536.272556
990.990244	2539.030067
991.286271	2539.027546
991.582262	2540.643236
991.878217	2539.451003
992.174136	2538.717515
992.470019	2540.549975
992.765865	2539.151054
993.061676	2537.467309
993.357450	2540.746580
993.653188	2541.011240
993.948890	2540.708771
994.244556	2541.137269
994.540186	2542.021992
994.835780	2542.090047
995.131337	2542.831097
995.426859	2540.673483
995.722345	2541.074255
996.017795	2542.440407
996.313208	2543.526776
996.608586	2545.530635
996.903928	2543.017619
997.199234	2544.426622
997.494504	2543.980480
997.789738	2541.827907
998.084936	2542.248843
998.380099	2541.137269
998.675225	2539.640046
998.970316	2541.979142
999.265371	2539.297248
999.560390	2542.112732
999.855373	2540.469316
1000.150320	2541.714481
1000.445232	2541.563247
1000.740108	2538.510828
1001.034948	2539.700540
1001.329752	2537.384130
1001.624521	2538.140303
1001.919254	2535.607123
1002.213951	2535.677699
1002.508613	2534.614016
1002.803239	2539.173740
1003.097829	2534.893800
1003.392384	2539.796322
1003.686903	2542.039636
1003.981386	2537.739531
1004.275834	2536.466640
1004.570246	2539.138452
1004.864623	2534.626619
1005.158964	2539.350180
1005.453270	2539.100643
1005.747540	2537.132072
1006.041775	2537.467309
1006.335974	2536.660724
1006.630138	2539.191384
1006.924266	2541.820345
1007.218359	2536.438914
1007.512416	2539.544264
1007.806438	2537.091743
1008.100425	2537.578214
1008.394376	2538.770447
1008.688292	2539.025026
1008.982172	2537.568132
1009.276017	2538.833462
1009.569827	2537.260622
1009.863602	2540.469316
1010.157341	2537.845396
1010.451045	2539.463606
1010.744714	2539.851775
1011.038347	2536.529654
1011.331945	2538.157947
1011.625508	2541.230530
1011.919036	2536.423790
1012.212528	2535.765920
1012.505986	2538.893956
1012.799408	2538.246167
1013.092795	2537.684079
1013.386147	2537.633667
1013.679464	2538.639377
1013.972745	2538.588966
1014.265992	2537.656352
1014.559204	2535.927237
1014.852380	2537.104346
1015.145521	2538.631816
1015.438628	2540.650798
1015.731699	2538.147865
1016.024736	2538.881353
1016.317737	2537.270704
1016.610703	2538.145344
1016.903635	2536.512010
1017.196531	2534.427493
1017.489393	2535.397915
1017.782219	2533.557894
1018.075011	2537.033770
1018.367768	2537.464788
1018.660490	2537.225334
1018.953177	2537.225334
1019.245829	2537.225334
