Dividing Wavelength (nm)	Counts (n)	Blue Motor Position (mm): 7.000000	Red Motor Position (mm): 0.000000	
326.493990	2157.613846
326.888308	2157.613846
327.282561	2157.613846
327.676750	2177.778462
328.070874	2192.901923
328.464933	2258.436923
328.858929	2152.572692
329.252859	2155.093269
329.646726	2208.025385
330.040528	2205.504808
330.434265	2233.231154
330.827938	2205.504808
331.221547	2165.175577
331.615091	2293.725000
332.008571	2271.039808
332.401986	2271.039808
332.795338	2311.369038
333.188625	2351.698269
333.581847	2316.410192
333.975006	2394.548077
334.368100	2364.301154
334.761129	2369.342308
335.154095	2434.877308
335.546996	2437.397885
335.939833	2523.097500
336.332606	2548.303269
336.725315	2490.330000
337.117960	2472.685962
337.510540	2533.179808
337.903056	2525.618077
338.295508	2518.056346
338.687896	2596.194231
339.080220	2515.535769
339.472480	2500.412308
339.864676	2588.632500
340.256807	2628.961731
340.648875	2553.344423
341.040879	2563.426731
341.432818	2581.070769
341.824694	2558.385577
342.216506	2603.755962
342.608253	2550.823846
342.999937	2480.247692
343.391557	2611.317692
343.783113	2528.138654
344.174605	2525.618077
344.566033	2606.276538
344.957397	2596.194231
345.348697	2641.564615
345.739934	2558.385577
346.131106	2533.179808
346.522215	2593.673654
346.913260	2573.509038
347.304241	2621.400000
347.695159	2538.220962
348.086012	2601.235385
348.476802	2525.618077
348.867528	2515.535769
349.258191	2515.535769
349.648789	2583.591346
350.039324	2540.741538
350.429796	2543.262115
350.820203	2538.220962
351.210548	2548.303269
351.600828	2490.330000
351.991045	2646.605769
352.381198	2510.494615
352.771288	2563.426731
353.161314	2523.097500
353.551276	2525.618077
353.941175	2543.262115
354.331010	2555.865000
354.720782	2591.153077
355.110490	2636.523462
355.500135	2593.673654
355.889717	2576.029615
356.279235	2533.179808
356.668689	2616.358846
357.058080	2513.015192
357.447408	2535.700385
357.836672	2613.838269
358.225873	2631.482308
358.615010	2492.850577
359.004084	2510.494615
359.393095	2492.850577
359.782043	2570.988462
360.170927	2545.782692
360.559748	2576.029615
360.948505	2591.153077
361.337199	2586.111923
361.725830	2460.083077
362.114398	2502.932885
362.502903	2507.974038
362.891344	2601.235385
363.279722	2523.097500
363.668037	2611.317692
364.056289	2540.741538
364.444478	2623.920577
364.832603	2520.576923
365.220665	2560.906154
365.608665	2560.906154
365.996601	2470.165385
366.384474	2611.317692
366.772284	2586.111923
367.160031	2601.235385
367.547715	2555.865000
367.935336	2606.276538
368.322893	2505.453462
368.710388	2583.591346
369.097820	2591.153077
369.485189	2558.385577
369.872495	2649.126346
370.259738	2523.097500
370.646918	2555.865000
371.034035	2616.358846
371.421090	2548.303269
371.808081	2497.891731
372.195010	2470.165385
372.581875	2528.138654
372.968678	2598.714808
373.355418	2618.879423
373.742096	2628.961731
374.128710	2565.947308
374.515262	2558.385577
374.901751	2568.467885
375.288177	2634.002885
375.674540	2608.797115
376.060841	2593.673654
376.447079	2558.385577
376.833254	2543.262115
377.219367	2611.317692
377.605417	2623.920577
377.991404	2596.194231
378.377329	2523.097500
378.763191	2515.535769
379.148991	2565.947308
379.534727	2565.947308
379.920402	2482.768269
380.306013	2515.535769
380.691563	2563.426731
381.077049	2548.303269
381.462474	2659.208654
381.847835	2581.070769
382.233134	2568.467885
382.618371	2576.029615
383.003545	2639.044038
383.388657	2669.290962
383.773706	2621.400000
384.158693	2538.220962
384.543618	2603.755962
384.928480	2593.673654
385.313280	2603.755962
385.698017	2545.782692
386.082692	2613.838269
386.467305	2591.153077
386.851856	2676.852692
387.236344	2591.153077
387.620770	2568.467885
388.005133	2500.412308
388.389435	2560.906154
388.773674	2558.385577
389.157851	2550.823846
389.541965	2623.920577
389.926018	2505.453462
390.310008	2606.276538
390.693936	2558.385577
391.077802	2555.865000
391.461606	2560.906154
391.845348	2608.797115
392.229027	2523.097500
392.612645	2649.126346
392.996200	2563.426731
393.379694	2525.618077
393.763125	2623.920577
394.146494	2570.988462
394.529801	2558.385577
394.913047	2555.865000
395.296230	2628.961731
395.679351	2525.618077
396.062410	2631.482308
396.445408	2623.920577
396.828343	2598.714808
397.211217	2528.138654
397.594028	2679.373269
397.976778	2576.029615
398.359466	2606.276538
398.742092	2492.850577
399.124656	2593.673654
399.507158	2588.632500
399.889598	2573.509038
400.271977	2528.138654
400.654294	2611.317692
401.036549	2540.741538
401.418742	2623.920577
401.800874	2621.400000
402.182944	2634.002885
402.564952	2596.194231
402.946898	2535.700385
403.328783	2591.153077
403.710606	2581.070769
404.092367	2636.523462
404.474067	2593.673654
404.855705	2623.920577
405.237282	2596.194231
405.618797	2570.988462
406.000250	2623.920577
406.381642	2636.523462
406.762972	2596.194231
407.144240	2613.838269
407.525447	2631.482308
407.906593	2505.453462
408.287677	2618.879423
408.668700	2492.850577
409.049661	2560.906154
409.430560	2606.276538
409.811399	2563.426731
410.192176	2548.303269
410.572891	2586.111923
410.953545	2601.235385
411.334138	2593.673654
411.714669	2676.852692
412.095139	2603.755962
412.475547	2558.385577
412.855894	2565.947308
413.236180	2697.017308
413.616405	2558.385577
413.996568	2596.194231
414.376670	2538.220962
414.756711	2568.467885
415.136691	2513.015192
415.516609	2618.879423
415.896466	2573.509038
416.276262	2628.961731
416.655997	2502.932885
417.035670	2525.618077
417.415283	2543.262115
417.794834	2586.111923
418.174324	2608.797115
418.553753	2601.235385
418.933121	2649.126346
419.312428	2565.947308
419.691674	2573.509038
420.070859	2558.385577
420.449983	2616.358846
420.829045	2593.673654
421.208047	2649.126346
421.586988	2500.412308
421.965867	2628.961731
422.344686	2568.467885
422.723444	2606.276538
423.102141	2598.714808
423.480777	2611.317692
423.859352	2568.467885
424.237866	2694.496731
424.616319	2523.097500
424.994712	2583.591346
425.373044	2621.400000
425.751314	2533.179808
426.129524	2651.646923
426.507673	2646.605769
426.885762	2596.194231
427.263789	2616.358846
427.641756	2606.276538
428.019662	2646.605769
428.397508	2639.044038
428.775292	2649.126346
429.153016	2669.290962
429.530679	2588.632500
429.908282	2603.755962
430.285824	2603.755962
430.663305	2568.467885
431.040726	2714.661346
431.418086	2588.632500
431.795385	2591.153077
432.172624	2606.276538
432.549802	2593.673654
432.926920	2616.358846
433.303977	2654.167500
433.680974	2596.194231
434.057910	2618.879423
434.434786	2626.441154
434.811601	2573.509038
435.188355	2470.165385
435.565050	2613.838269
435.941683	2679.373269
436.318257	2618.879423
436.694770	2656.688077
437.071222	2636.523462
437.447614	2666.770385
437.823946	2649.126346
438.200218	2593.673654
438.576429	2603.755962
438.952580	2528.138654
439.328670	2709.620192
439.704700	2654.167500
440.080670	2601.235385
440.456580	2712.140769
440.832429	2724.743654
441.208218	2704.579038
441.583947	2732.305385
441.959616	2712.140769
442.335224	2757.511154
442.710773	2782.716923
443.086261	2792.799231
443.461689	2823.046154
443.837057	2823.046154
444.212365	2855.813654
444.587612	2782.716923
444.962800	2893.622308
445.337927	2918.828077
445.712995	2938.992692
446.088002	2938.992692
446.462949	3034.774615
446.837837	3065.021538
447.212664	3082.665577
447.587431	3188.529808
447.962139	3264.147115
448.336786	3478.396154
448.711374	3629.630769
449.085901	3465.793269
449.460369	3513.684231
449.834776	3526.287115
450.209124	3745.577308
450.583412	3922.017692
450.957640	4000.155577
451.331808	3969.908654
451.705917	3974.949808
452.079965	4020.320192
452.453954	4118.622692
452.827883	4151.390192
453.201752	4272.377885
453.575562	4416.050769
453.949311	4468.982885
454.323001	4448.818269
454.696632	4721.040577
455.070202	4831.945962
455.443713	5096.606538
455.817164	5318.417308
456.190556	5444.446154
456.563888	5656.174615
456.937160	5772.121154
457.310373	5663.736346
457.683526	5840.176731
458.056619	5746.915385
458.429653	6145.166538
458.802628	5940.999808
459.175542	6288.839423
459.548398	6961.833462
459.921194	7072.738846
460.293930	7387.810962
460.666607	7758.335769
461.039224	8612.811346
461.411782	8849.745577
461.784280	9016.103654
462.156719	9258.079038
462.529099	9066.515192
462.901419	9200.105769
463.273680	9041.309423
463.645882	9134.570769
464.018024	9205.146923
464.390106	9573.151154
464.762130	10115.075192
465.134094	11067.853269
465.505999	12784.366154
465.877845	15158.749615
466.249631	16991.209038
466.621358	16449.285000
466.993026	15645.220962
467.364634	15567.083077
467.736184	14768.060192
468.107674	14770.580769
468.479105	15241.928654
468.850477	14848.718654
469.221790	14800.827692
469.593043	14657.154808
469.964238	14447.946923
470.335373	14354.685577
470.706449	14954.582885
471.077467	15345.272308
471.448425	17444.912885
471.819324	21016.570385
472.190164	21618.988269
472.560945	18163.277308
472.931667	16963.482692
473.302330	17109.676154
473.672934	16991.209038
474.043479	17361.733846
474.413965	17182.772885
474.784393	17001.291346
475.154761	18042.289615
475.525070	17901.137308
475.895321	17860.808077
476.265513	18591.775385
476.635645	19428.606923
477.005719	19264.769423
477.375734	19607.567885
477.745691	20071.354038
478.115588	21072.023077
478.485427	21596.303077
478.855207	22546.560577
479.224928	24830.203269
479.594591	26690.389038
479.964194	26385.399231
480.333739	26803.815000
480.703226	26405.563846
481.072653	26171.150192
481.442022	27439.000385
481.811333	28250.626154
482.180584	27980.924423
482.549777	26965.131923
482.918912	26846.664808
483.287988	26952.529038
483.657005	26576.963077
484.025964	26183.753077
484.394864	26317.343654
484.763706	25420.018269
485.132489	25311.633462
485.501213	25669.555385
485.869879	25286.427692
486.238487	25115.028462
486.607036	25125.110769
486.975527	25057.055192
487.343959	24883.135385
487.712333	24787.353462
488.080648	24091.674231
488.448905	24736.941923
488.817104	24273.155769
489.185244	24862.970769
489.553326	25193.166346
489.921350	26403.043269
490.289315	28222.899808
490.657222	29589.052500
491.025070	29147.951538
491.392861	29195.842500
491.760593	28011.171346
492.128267	26849.185385
492.495883	25636.787885
492.863440	24605.871923
493.230939	23887.507500
493.598380	23476.653462
493.965763	22780.974231
494.333088	22153.350577
494.700354	21603.864808
495.067563	21883.648846
495.434713	20898.103269
495.801805	21256.025192
496.168839	20658.648462
496.535815	20126.806731
496.902733	20182.259423
497.269593	19995.736731
497.636395	19816.775769
498.003139	19363.071923
498.369825	18919.450385
498.736453	18982.464808
499.103023	18521.199231
499.469535	18322.073654
499.835989	18080.098269
500.202385	18095.221731
500.568723	17742.340962
500.935003	17573.462308
501.301226	17215.540385
501.667390	17326.445769
502.033497	17177.731731
502.399546	16673.616346
502.765537	15995.581154
503.131470	15927.525577
503.497345	16083.801346
503.863163	15367.957500
504.228923	15418.369038
504.594625	15025.159038
504.960269	14510.961346
505.325856	14735.292692
505.691385	13762.350000
506.056856	14100.107308
506.422270	13883.337692
506.787625	13343.934231
507.152924	13341.413654
507.518164	13197.740769
507.883347	12796.969038
508.248472	12471.814615
508.613540	12544.911346
508.978550	12204.633462
509.343503	12013.069615
509.708398	11821.505769
510.073236	11463.583846
510.438016	11398.048846
510.802738	11007.359423
511.167403	10694.807885
511.532010	10629.272885
511.896561	10485.600000
512.261053	10357.050577
512.625488	10170.527885
512.989866	10180.610192
513.354186	9628.603846
513.718449	9462.245769
514.082655	9507.616154
514.446803	9016.103654
514.810894	9036.268269
515.174927	8791.772308
515.538904	8668.264038
515.902822	8580.043846
516.266684	8302.780385
516.630488	8121.298846
516.994235	7783.541538
517.357925	7796.144423
517.721558	7712.965385
518.085133	7413.016731
518.448651	7226.494038
518.812112	7203.808846
519.175516	6976.956923
519.538863	6926.545385
519.902152	6684.570000
520.265385	6455.197500
520.628560	6485.444423
520.991678	6372.018462
521.354739	6215.742692
521.717743	6094.755000
522.080690	5898.150000
522.443580	5852.779615
522.806413	5696.503846
523.169189	5512.501731
523.531908	5457.049038
523.894569	5338.581923
524.257174	5164.662115
524.619722	5106.688846
524.982213	4957.974808
525.344647	4990.742308
525.707025	5053.756731
526.069345	4743.725769
526.431608	4670.629038
526.793815	4741.205192
527.155964	4531.997308
527.518057	4456.380000
527.880093	4327.830577
528.242072	4249.692692
528.603995	4148.869615
528.965860	4090.896346
529.327669	3962.346923
529.689421	3901.853077
530.051117	3939.661731
530.412755	3889.250192
530.774337	3823.715192
531.135862	3821.194615
531.497331	3790.947692
531.858743	3571.657500
532.220098	3601.904423
532.581396	3619.548462
532.942638	3483.437308
533.303824	3523.766538
533.664953	3518.725385
534.026025	3463.272692
534.387040	3473.355000
534.747999	3364.970192
535.108902	3354.887885
535.469748	3261.626538
535.830537	3173.406346
536.191270	3112.912500
536.551947	3238.941346
536.912567	3158.282885
537.273131	3148.200577
537.633638	3017.130577
537.994089	3072.583269
538.354483	3034.774615
538.714821	3070.062692
539.075103	3014.610000
539.435328	2994.445385
539.795497	2991.924808
540.155609	2938.992692
540.515665	2991.924808
540.875665	3044.856923
541.235609	2954.116154
541.595496	2951.595577
541.955328	2850.772500
542.315102	2891.101731
542.674821	2843.210769
543.034483	2858.334231
543.394090	2840.690192
543.753640	2800.360962
544.113134	2780.196346
544.472571	2843.210769
544.831953	2805.402115
545.191278	2765.072885
545.550548	2891.101731
545.909761	2785.237500
546.268918	2727.264231
546.628019	2752.470000
546.987064	2772.634615
547.346053	2749.949423
547.704986	2727.264231
548.063863	2805.402115
548.422684	2712.140769
548.781449	2762.552308
549.140158	2754.990577
549.498811	2780.196346
549.857408	2712.140769
550.215949	2722.223077
550.574434	2782.716923
550.932864	2757.511154
551.291237	2699.537885
551.649555	2691.976154
552.007817	2717.181923
552.366022	2722.223077
552.724173	2714.661346
553.082267	2724.743654
553.440305	2691.976154
553.798288	2749.949423
554.156215	2651.646923
554.514086	2671.811538
554.871902	2656.688077
555.229661	2757.511154
555.587365	2694.496731
555.945014	2727.264231
556.302606	2621.400000
556.660143	2694.496731
557.017625	2749.949423
557.375050	2691.976154
557.732421	2639.044038
558.089735	2666.770385
558.446994	2641.564615
558.804197	2694.496731
559.161345	2601.235385
559.518437	2719.702500
559.875474	2709.620192
560.232455	2581.070769
560.589381	2717.181923
560.946251	2691.976154
561.303065	2729.784808
561.659825	2724.743654
562.016528	2646.605769
562.373177	2628.961731
562.729770	2576.029615
563.086307	2654.167500
563.442789	2656.688077
563.799216	2598.714808
564.155587	2613.838269
564.511904	2639.044038
564.868164	2676.852692
565.224370	2639.044038
565.580520	2684.414423
565.936615	2636.523462
566.292654	2659.208654
566.648638	2684.414423
567.004567	2634.002885
567.360441	2691.976154
567.716260	2644.085192
568.072023	2649.126346
568.427732	2646.605769
568.783385	2460.083077
569.138982	2601.235385
569.494525	2702.058462
569.850013	2724.743654
570.205445	2669.290962
570.560823	2611.317692
570.916145	2510.494615
571.271412	2666.770385
571.626625	2636.523462
571.981782	2628.961731
572.336884	2656.688077
572.691931	2757.511154
573.046923	2674.332115
573.401860	2623.920577
573.756743	2659.208654
574.111570	2699.537885
574.466342	2760.031731
574.821059	2691.976154
575.175722	2661.729231
575.530330	2598.714808
575.884882	2623.920577
576.239380	2593.673654
576.593823	2626.441154
576.948211	2671.811538
577.302544	2704.579038
577.656823	2606.276538
578.011047	2661.729231
578.365216	2598.714808
578.719330	2606.276538
579.073389	2656.688077
579.427394	2644.085192
579.781344	2581.070769
580.135239	2568.467885
580.489080	2649.126346
580.842866	2583.591346
581.196597	2641.564615
581.550273	2676.852692
581.903895	2623.920577
582.257463	2664.249808
582.610975	2621.400000
582.964434	2591.153077
583.317837	2608.797115
583.671186	2586.111923
584.024481	2666.770385
584.377721	2606.276538
584.730906	2676.852692
585.084037	2628.961731
585.437113	2649.126346
585.790135	2568.467885
586.143103	2694.496731
586.496016	2628.961731
586.848874	2684.414423
587.201679	2623.920577
587.554428	2613.838269
587.907124	2697.017308
588.259765	2623.920577
588.612352	2666.770385
588.964884	2631.482308
589.317362	2646.605769
589.669786	2618.879423
590.022155	2626.441154
590.374470	2593.673654
590.726731	2666.770385
591.078937	2603.755962
591.431090	2583.591346
591.783188	2603.755962
592.135232	2636.523462
592.487222	2628.961731
592.839157	2576.029615
593.191038	2646.605769
593.542866	2626.441154
593.894639	2654.167500
594.246358	2608.797115
594.598022	2634.002885
594.949633	2628.961731
595.301190	2634.002885
595.652692	2681.893846
596.004141	2649.126346
596.355535	2581.070769
596.706876	2644.085192
597.058162	2611.317692
597.409395	2606.276538
597.760573	2623.920577
598.111698	2651.646923
598.462768	2646.605769
598.813785	2631.482308
599.164748	2639.044038
599.515657	2621.400000
599.866511	2671.811538
600.217312	2593.673654
600.568060	2601.235385
600.918753	2628.961731
601.269392	2626.441154
601.619978	2621.400000
601.970510	2616.358846
602.320988	2651.646923
602.671412	2573.509038
603.021783	2704.579038
603.372100	2606.276538
603.722363	2618.879423
604.072572	2636.523462
604.422728	2646.605769
604.772830	2591.153077
605.122878	2593.673654
605.472872	2578.550192
605.822813	2628.961731
606.172701	2669.290962
606.522534	2596.194231
606.872314	2530.659231
607.222041	2583.591346
607.571714	2598.714808
607.921333	2654.167500
608.270899	2618.879423
608.620411	2702.058462
608.969870	2641.564615
609.319276	2618.879423
609.668627	2606.276538
610.017926	2644.085192
610.367171	2686.935000
610.716362	2651.646923
611.065500	2654.167500
611.414585	2603.755962
611.763616	2702.058462
612.112594	2628.961731
612.461518	2702.058462
612.810389	2661.729231
613.159207	2606.276538
613.507971	2601.235385
613.856682	2553.344423
614.205340	2676.852692
614.553945	2631.482308
614.902496	2553.344423
615.250994	2596.194231
615.599439	2586.111923
615.947830	2634.002885
616.296169	2611.317692
616.644454	2646.605769
616.992686	2649.126346
617.340864	2714.661346
617.688990	2515.535769
618.037063	2626.441154
618.385082	2684.414423
618.733048	2598.714808
619.080961	2611.317692
619.428821	2578.550192
619.776628	2623.920577
620.124382	2656.688077
620.472083	2578.550192
620.819731	2616.358846
621.167326	2639.044038
621.514868	2646.605769
621.862357	2588.632500
622.209793	2639.044038
622.557176	2639.044038
622.904506	2598.714808
623.251783	2613.838269
623.599007	2588.632500
623.946179	2654.167500
624.293297	2669.290962
624.640363	2603.755962
624.987376	2626.441154
625.334336	2649.126346
625.681243	2686.935000
626.028097	2679.373269
626.374899	2616.358846
626.721647	2724.743654
627.068343	2603.755962
627.414987	2563.426731
627.761577	2694.496731
628.108115	2618.879423
628.454600	2651.646923
628.801032	2717.181923
629.147412	2686.935000
629.493739	2626.441154
629.840014	2558.385577
630.186236	2606.276538
630.532405	2649.126346
630.878521	2684.414423
631.224585	2628.961731
631.570597	2553.344423
631.916556	2674.332115
632.262462	2704.579038
632.608316	2651.646923
632.954117	2628.961731
633.299866	2681.893846
633.645562	2606.276538
633.991206	2545.782692
634.336797	2591.153077
634.682336	2654.167500
635.027823	2601.235385
635.373257	2649.126346
635.718639	2543.262115
636.063968	2596.194231
636.409245	2641.564615
636.754470	2596.194231
637.099642	2543.262115
637.444762	2586.111923
637.789829	2649.126346
638.134845	2576.029615
638.479808	2613.838269
638.824719	2676.852692
639.169577	2664.249808
639.514383	2558.385577
639.859137	2613.838269
640.203839	2646.605769
640.548489	2654.167500
640.893086	2646.605769
641.237632	2634.002885
641.582125	2565.947308
641.926566	2528.138654
642.270955	2641.564615
642.615292	2674.332115
642.959576	2560.906154
643.303809	2548.303269
643.647990	2664.249808
643.992118	2611.317692
644.336195	2550.823846
644.680219	2671.811538
645.024192	2613.838269
645.368112	2596.194231
645.711981	2651.646923
646.055797	2591.153077
646.399562	2616.358846
646.743274	2631.482308
647.086935	2573.509038
647.430544	2601.235385
647.774101	2651.646923
648.117606	2634.002885
648.461059	2631.482308
648.804460	2601.235385
649.147810	2611.317692
649.491108	2626.441154
649.834354	2616.358846
650.177548	2661.729231
650.520690	2601.235385
650.863781	2570.988462
651.206820	2618.879423
651.549807	2659.208654
651.892742	2520.576923
652.235626	2596.194231
652.578458	2626.441154
652.921238	2593.673654
653.263967	2659.208654
653.606644	2565.947308
653.949269	2649.126346
654.291843	2608.797115
654.634365	2666.770385
654.976836	2674.332115
655.319255	2719.702500
655.661622	2588.632500
656.003938	2628.961731
656.346203	2679.373269
656.688416	2656.688077
657.030577	2533.179808
657.372687	2644.085192
657.714746	2679.373269
658.056753	2553.344423
658.398708	2664.249808
658.740612	2581.070769
659.082465	2601.235385
659.424266	2608.797115
659.766016	2636.523462
660.107715	2616.358846
660.449362	2666.770385
660.790958	2636.523462
661.132503	2608.797115
661.473996	2513.015192
661.815438	2558.385577
662.156829	2558.385577
662.498168	2664.249808
662.839456	2628.961731
663.180693	2596.194231
663.521879	2603.755962
663.863013	2659.208654
664.204097	2626.441154
664.545129	2623.920577
664.886110	2664.249808
665.227040	2565.947308
665.567918	2639.044038
665.908746	2679.373269
666.249522	2591.153077
666.590248	2626.441154
666.930922	2613.838269
667.271545	2603.755962
667.612118	2664.249808
667.952639	2565.947308
668.293109	2528.138654
668.633528	2666.770385
668.973896	2581.070769
669.314213	2676.852692
669.654480	2568.467885
669.994695	2628.961731
670.334859	2669.290962
670.674973	2606.276538
671.015035	2639.044038
671.355047	2608.797115
671.695008	2588.632500
672.034918	2588.632500
672.374777	2573.509038
672.714585	2639.044038
673.054342	2694.496731
673.394049	2674.332115
673.733705	2634.002885
674.073310	2586.111923
674.412864	2714.661346
674.752368	2636.523462
675.091820	2631.482308
675.431223	2641.564615
675.770574	2664.249808
676.109875	2611.317692
676.449125	2593.673654
676.788324	2626.441154
677.127473	2656.688077
677.466571	2621.400000
677.805619	2596.194231
678.144616	2555.865000
678.483562	2628.961731
678.822458	2608.797115
679.161303	2656.688077
679.500098	2628.961731
679.838842	2593.673654
680.177535	2548.303269
680.516179	2583.591346
680.854771	2598.714808
681.193314	2613.838269
681.531805	2651.646923
681.870247	2628.961731
682.208638	2631.482308
682.546978	2593.673654
682.885268	2586.111923
683.223508	2651.646923
683.561697	2598.714808
683.899836	2686.935000
684.237925	2601.235385
684.575963	2593.673654
684.913951	2616.358846
685.251889	2669.290962
685.589776	2669.290962
685.927614	2661.729231
686.265401	2686.935000
686.603137	2608.797115
686.940824	2649.126346
687.278460	2603.755962
687.616046	2586.111923
687.953582	2623.920577
688.291068	2593.673654
688.628504	2724.743654
688.965889	2535.700385
689.303224	2608.797115
689.640510	2676.852692
689.977745	2666.770385
690.314930	2646.605769
690.652065	2649.126346
690.989150	2613.838269
691.326185	2588.632500
691.663170	2568.467885
692.000105	2634.002885
692.336990	2578.550192
692.673825	2651.646923
693.010610	2603.755962
693.347345	2684.414423
693.684030	2626.441154
694.020665	2628.961731
694.357251	2661.729231
694.693786	2621.400000
695.030272	2606.276538
695.366707	2613.838269
695.703093	2588.632500
696.039429	2661.729231
696.375716	2581.070769
696.711952	2563.426731
697.048139	2601.235385
697.384276	2618.879423
697.720363	2616.358846
698.056400	2626.441154
698.392388	2641.564615
698.728326	2555.865000
699.064214	2649.126346
699.400053	2618.879423
699.735842	2659.208654
700.071581	2681.893846
700.407270	2598.714808
700.742910	2563.426731
701.078501	2623.920577
701.414042	2664.249808
701.749533	2565.947308
702.084974	2593.673654
702.420366	2656.688077
702.755709	2626.441154
703.091002	2560.906154
703.426246	2714.661346
703.761440	2626.441154
704.096584	2603.755962
704.431679	2598.714808
704.766725	2631.482308
705.101721	2691.976154
705.436668	2513.015192
705.771565	2752.470000
706.106413	2649.126346
706.441212	2616.358846
706.775961	2671.811538
707.110661	2626.441154
707.445311	2570.988462
707.779913	2558.385577
708.114465	2704.579038
708.448967	2686.935000
708.783421	2644.085192
709.117825	2671.811538
709.452180	2608.797115
709.786485	2732.305385
710.120742	2628.961731
710.454949	2646.605769
710.789107	2581.070769
711.123216	2679.373269
711.457275	2596.194231
711.791286	2553.344423
712.125247	2623.920577
712.459159	2666.770385
712.793023	2644.085192
713.126837	2649.126346
713.460602	2702.058462
713.794318	2621.400000
714.127985	2618.879423
714.461602	2596.194231
714.795171	2644.085192
715.128691	2611.317692
715.462162	2621.400000
715.795584	2613.838269
716.128957	2644.085192
716.462281	2636.523462
716.795556	2606.276538
717.128782	2656.688077
717.461960	2611.317692
717.795088	2656.688077
718.128167	2518.056346
718.461198	2689.455577
718.794180	2528.138654
719.127113	2555.865000
719.459997	2694.496731
719.792833	2639.044038
720.125619	2568.467885
720.458357	2613.838269
720.791046	2563.426731
721.123686	2586.111923
721.456278	2598.714808
721.788821	2583.591346
722.121315	2717.181923
722.453761	2631.482308
722.786158	2523.097500
723.118506	2608.797115
723.450805	2606.276538
723.783056	2613.838269
724.115259	2611.317692
724.447412	2611.317692
724.779518	2694.496731
725.111574	2618.879423
725.443582	2636.523462
725.775542	2581.070769
726.107453	2707.099615
726.439315	2626.441154
726.771129	2644.085192
727.102895	2598.714808
727.434612	2636.523462
727.766281	2709.620192
728.097901	2654.167500
728.429473	2565.947308
728.760996	2664.249808
729.092471	2618.879423
729.423897	2608.797115
729.755276	2681.893846
730.086606	2608.797115
730.417887	2646.605769
730.749120	2664.249808
731.080305	2618.879423
731.411442	2661.729231
731.742530	2623.920577
732.073570	2608.797115
732.404562	2611.317692
732.735506	2603.755962
733.066401	2616.358846
733.397249	2676.852692
733.728048	2649.126346
734.058798	2686.935000
734.389501	2555.865000
734.720156	2598.714808
735.050762	2654.167500
735.381320	2613.838269
735.711831	2558.385577
736.042293	2603.755962
736.372707	2623.920577
736.703073	2676.852692
737.033391	2606.276538
737.363661	2729.784808
737.693883	2555.865000
738.024056	2525.618077
738.354182	2598.714808
738.684260	2583.591346
739.014290	2679.373269
739.344272	2598.714808
739.674207	2608.797115
740.004093	2628.961731
740.333931	2616.358846
740.663722	2543.262115
740.993464	2593.673654
741.323159	2639.044038
741.652806	2618.879423
741.982405	2649.126346
742.311956	2691.976154
742.641460	2631.482308
742.970915	2588.632500
743.300323	2538.220962
743.629683	2538.220962
743.958996	2596.194231
744.288260	2550.823846
744.617477	2613.838269
744.946647	2598.714808
745.275768	2538.220962
745.604842	2659.208654
745.933869	2661.729231
746.262847	2576.029615
746.591778	2528.138654
746.920662	2734.825962
747.249498	2679.373269
747.578286	2606.276538
747.907027	2593.673654
748.235720	2664.249808
748.564365	2666.770385
748.892963	2593.673654
749.221514	2573.509038
749.550017	2581.070769
749.878473	2550.823846
750.206881	2618.879423
750.535242	2611.317692
750.863555	2651.646923
751.191821	2535.700385
751.520039	2540.741538
751.848210	2583.591346
752.176334	2565.947308
752.504411	2631.482308
752.832440	2583.591346
753.160421	2611.317692
753.488356	2596.194231
753.816243	2558.385577
754.144082	2525.618077
754.471875	2626.441154
754.799620	2525.618077
755.127318	2578.550192
755.454969	2593.673654
755.782572	2608.797115
756.110129	2598.714808
756.437638	2578.550192
756.765100	2674.332115
757.092515	2636.523462
757.419882	2623.920577
757.747203	2568.467885
758.074477	2618.879423
758.401703	2616.358846
758.728882	2608.797115
759.056014	2576.029615
759.383099	2608.797115
759.710138	2578.550192
760.037129	2598.714808
760.364073	2634.002885
760.690970	2603.755962
761.017820	2664.249808
761.344623	2603.755962
761.671379	2628.961731
761.998088	2596.194231
762.324751	2596.194231
762.651366	2591.153077
762.977935	2646.605769
763.304456	2649.126346
763.630931	2603.755962
763.957359	2634.002885
764.283740	2626.441154
764.610074	2553.344423
764.936362	2704.579038
765.262602	2686.935000
765.588796	2651.646923
765.914943	2538.220962
766.241044	2596.194231
766.567097	2596.194231
766.893104	2639.044038
767.219064	2606.276538
767.544978	2583.591346
767.870845	2593.673654
768.196665	2583.591346
768.522438	2528.138654
768.848165	2593.673654
769.173846	2591.153077
769.499479	2540.741538
769.825066	2591.153077
770.150607	2659.208654
770.476101	2676.852692
770.801548	2586.111923
771.126949	2611.317692
771.452303	2606.276538
771.777611	2659.208654
772.102872	2639.044038
772.428087	2618.879423
772.753256	2555.865000
773.078378	2492.850577
773.403453	2618.879423
773.728482	2593.673654
774.053465	2669.290962
774.378401	2588.632500
774.703291	2601.235385
775.028135	2513.015192
775.352932	2530.659231
775.677683	2634.002885
776.002388	2598.714808
776.327046	2636.523462
776.651658	2601.235385
776.976224	2596.194231
777.300743	2651.646923
777.625216	2664.249808
777.949643	2634.002885
778.274024	2631.482308
778.598359	2628.961731
778.922647	2586.111923
779.246889	2550.823846
779.571086	2535.700385
779.895236	2515.535769
780.219339	2644.085192
780.543397	2649.126346
780.867409	2611.317692
781.191374	2482.768269
781.515294	2568.467885
781.839167	2616.358846
782.162995	2543.262115
782.486776	2570.988462
782.810511	2636.523462
783.134201	2664.249808
783.457844	2613.838269
783.781441	2606.276538
784.104993	2636.523462
784.428498	2603.755962
784.751958	2545.782692
785.075372	2581.070769
785.398739	2628.961731
785.722061	2613.838269
786.045337	2661.729231
786.368568	2578.550192
786.691752	2626.441154
787.014891	2558.385577
787.337983	2586.111923
787.661030	2616.358846
787.984031	2634.002885
788.306987	2507.974038
788.629897	2568.467885
788.952760	2533.179808
789.275579	2528.138654
789.598351	2722.223077
789.921078	2538.220962
790.243759	2618.879423
790.566395	2656.688077
790.888984	2709.620192
791.211529	2581.070769
791.534027	2608.797115
791.856480	2578.550192
792.178888	2644.085192
792.501249	2573.509038
792.823566	2621.400000
793.145836	2618.879423
793.468062	2628.961731
793.790241	2581.070769
794.112375	2611.317692
794.434464	2626.441154
794.756507	2548.303269
795.078505	2563.426731
795.400457	2565.947308
795.722364	2616.358846
796.044226	2618.879423
796.366042	2608.797115
796.687812	2631.482308
797.009538	2543.262115
797.331218	2598.714808
797.652852	2593.673654
797.974442	2608.797115
798.295986	2470.165385
798.617484	2535.700385
798.938938	2538.220962
799.260346	2565.947308
799.581709	2563.426731
799.903026	2621.400000
800.224299	2623.920577
800.545526	2603.755962
800.866708	2548.303269
801.187845	2611.317692
801.508936	2535.700385
801.829983	2631.482308
802.150984	2586.111923
802.471940	2548.303269
802.792851	2565.947308
803.113717	2664.249808
803.434538	2586.111923
803.755314	2583.591346
804.076045	2634.002885
804.396731	2659.208654
804.717372	2666.770385
805.037967	2543.262115
805.358518	2570.988462
805.679024	2611.317692
805.999485	2618.879423
806.319901	2603.755962
806.640272	2651.646923
806.960598	2570.988462
807.280879	2601.235385
807.601115	2588.632500
807.921306	2601.235385
808.241453	2636.523462
808.561554	2581.070769
808.881611	2570.988462
809.201623	2644.085192
809.521590	2586.111923
809.841513	2563.426731
810.161390	2550.823846
810.481223	2626.441154
810.801011	2560.906154
811.120755	2588.632500
811.440453	2666.770385
811.760107	2560.906154
812.079716	2558.385577
812.399281	2581.070769
812.718801	2694.496731
813.038276	2623.920577
813.357707	2596.194231
813.677093	2598.714808
813.996434	2651.646923
814.315731	2535.700385
814.634983	2621.400000
814.954191	2598.714808
815.273354	2573.509038
815.592473	2611.317692
815.911547	2578.550192
816.230577	2591.153077
816.549562	2553.344423
816.868502	2475.206538
817.187399	2646.605769
817.506250	2618.879423
817.825058	2565.947308
818.143821	2641.564615
818.462539	2507.974038
818.781213	2588.632500
819.099843	2689.455577
819.418429	2543.262115
819.736970	2545.782692
820.055466	2654.167500
820.373919	2634.002885
820.692327	2644.085192
821.010691	2686.935000
821.329011	2618.879423
821.647286	2631.482308
821.965517	2702.058462
822.283704	2631.482308
822.601847	2790.278654
822.919945	2719.702500
823.237999	2656.688077
823.556010	2707.099615
823.873976	2555.865000
824.191897	2583.591346
824.509775	2634.002885
824.827609	2679.373269
825.145398	2603.755962
825.463144	2659.208654
825.780845	2555.865000
826.098502	2661.729231
826.416116	2664.249808
826.733685	2636.523462
827.051210	2694.496731
827.368692	2679.373269
827.686129	2631.482308
828.003522	2631.482308
828.320872	2593.673654
828.638177	2586.111923
828.955439	2603.755962
829.272656	2611.317692
829.589830	2581.070769
829.906960	2601.235385
830.224046	2634.002885
830.541088	2596.194231
830.858086	2606.276538
831.175041	2570.988462
831.491952	2591.153077
831.808819	2626.441154
832.125642	2608.797115
832.442421	2613.838269
832.759157	2596.194231
833.075849	2656.688077
833.392497	2684.414423
833.709101	2618.879423
834.025662	2717.181923
834.342179	2613.838269
834.658653	2513.015192
834.975083	2646.605769
835.291469	2603.755962
835.607811	2603.755962
835.924110	2717.181923
836.240366	2616.358846
836.556578	2553.344423
836.872746	2666.770385
837.188871	2686.935000
837.504952	2563.426731
837.820990	2684.414423
838.136984	2656.688077
838.452935	2613.838269
838.768842	2558.385577
839.084706	2702.058462
839.400526	2576.029615
839.716303	2568.467885
840.032037	2545.782692
840.347727	2639.044038
840.663373	2586.111923
840.978977	2628.961731
841.294537	2578.550192
841.610054	2634.002885
841.925527	2538.220962
842.240957	2628.961731
842.556344	2628.961731
842.871687	2628.961731
843.186987	2611.317692
843.502244	2578.550192
843.817458	2528.138654
844.132629	2578.550192
844.447756	2548.303269
844.762840	2530.659231
845.077881	2639.044038
845.392879	2578.550192
845.707833	2513.015192
846.022745	2523.097500
846.337613	2570.988462
846.652438	2618.879423
846.967221	2583.591346
847.281960	2646.605769
847.596656	2576.029615
847.911309	2636.523462
848.225919	2558.385577
848.540485	2702.058462
848.855009	2598.714808
849.169490	2628.961731
849.483928	2573.509038
849.798323	2568.467885
850.112675	2510.494615
850.426984	2528.138654
850.741251	2528.138654
851.055474	2631.482308
851.369654	2568.467885
851.683792	2530.659231
851.997887	2558.385577
852.311938	2538.220962
852.625947	2606.276538
852.939914	2583.591346
853.253837	2621.400000
853.567718	2593.673654
853.881555	2649.126346
854.195350	2502.932885
854.509103	2596.194231
854.822812	2621.400000
855.136479	2606.276538
855.450103	2593.673654
855.763685	2626.441154
856.077224	2568.467885
856.390720	2576.029615
856.704173	2578.550192
857.017584	2641.564615
857.330953	2553.344423
857.644278	2598.714808
857.957561	2568.467885
858.270802	2628.961731
858.584000	2611.317692
858.897155	2681.893846
859.210268	2588.632500
859.523339	2623.920577
859.836367	2573.509038
860.149352	2591.153077
860.462295	2480.247692
860.775195	2644.085192
861.088054	2616.358846
861.400869	2651.646923
861.713642	2601.235385
862.026373	2641.564615
862.339062	2601.235385
862.651708	2593.673654
862.964312	2656.688077
863.276873	2621.400000
863.589392	2565.947308
863.901869	2560.906154
864.214303	2581.070769
864.526696	2588.632500
864.839045	2641.564615
865.151353	2563.426731
865.463619	2631.482308
865.775842	2570.988462
866.088023	2568.467885
866.400162	2576.029615
866.712258	2606.276538
867.024313	2550.823846
867.336325	2636.523462
867.648296	2578.550192
867.960224	2553.344423
868.272110	2568.467885
868.583954	2626.441154
868.895755	2603.755962
869.207515	2618.879423
869.519233	2596.194231
869.830909	2654.167500
870.142542	2528.138654
870.454134	2631.482308
870.765684	2603.755962
871.077191	2608.797115
871.388657	2555.865000
871.700081	2578.550192
872.011463	2616.358846
872.322803	2540.741538
872.634101	2639.044038
872.945357	2563.426731
873.256571	2533.179808
873.567744	2553.344423
873.878874	2520.576923
874.189963	2618.879423
874.501010	2565.947308
874.812015	2606.276538
875.122979	2656.688077
875.433900	2686.935000
875.744780	2628.961731
876.055618	2598.714808
876.366415	2578.550192
876.677169	2598.714808
876.987882	2588.632500
877.298554	2563.426731
877.609183	2568.467885
877.919771	2538.220962
878.230317	2573.509038
878.540822	2593.673654
878.851285	2586.111923
879.161707	2654.167500
879.472087	2588.632500
879.782425	2601.235385
880.092722	2626.441154
880.402977	2583.591346
880.713191	2626.441154
881.023363	2664.249808
881.333494	2581.070769
881.643583	2644.085192
881.953631	2636.523462
882.263637	2739.867115
882.573602	2636.523462
882.883526	2666.770385
883.193408	2576.029615
883.503248	2487.809423
883.813048	2628.961731
884.122806	2553.344423
884.432522	2608.797115
884.742197	2518.056346
885.051831	2628.961731
885.361424	2613.838269
885.670975	2586.111923
885.980485	2598.714808
886.289954	2553.344423
886.599382	2563.426731
886.908768	2671.811538
887.218113	2634.002885
887.527417	2593.673654
887.836680	2550.823846
888.145901	2616.358846
888.455082	2601.235385
888.764221	2480.247692
889.073319	2611.317692
889.382376	2671.811538
889.691392	2538.220962
890.000366	2596.194231
890.309300	2626.441154
890.618193	2596.194231
890.927044	2621.400000
891.235855	2618.879423
891.544625	2588.632500
891.853353	2593.673654
892.162041	2583.591346
892.470687	2576.029615
892.779293	2578.550192
893.087858	2548.303269
893.396381	2581.070769
893.704864	2621.400000
894.013306	2659.208654
894.321707	2639.044038
894.630068	2608.797115
894.938387	2490.330000
895.246665	2697.017308
895.554903	2598.714808
895.863100	2583.591346
896.171256	2679.373269
896.479371	2641.564615
896.787446	2654.167500
897.095480	2553.344423
897.403473	2606.276538
897.711425	2613.838269
898.019336	2676.852692
898.327207	2606.276538
898.635038	2636.523462
898.942827	2603.755962
899.250576	2666.770385
899.558284	2593.673654
899.865952	2593.673654
900.173579	2603.755962
900.481165	2570.988462
900.788711	2578.550192
901.096216	2581.070769
901.403681	2550.823846
901.711105	2560.906154
902.018489	2606.276538
902.325832	2669.290962
902.633135	2596.194231
902.940397	2576.029615
903.247619	2550.823846
903.554800	2659.208654
903.861941	2634.002885
904.169041	2573.509038
904.476101	2538.220962
904.783121	2611.317692
905.090100	2598.714808
905.397039	2591.153077
905.703938	2661.729231
906.010796	2518.056346
906.317614	2651.646923
906.624391	2507.974038
906.931129	2661.729231
907.237826	2636.523462
907.544483	2563.426731
907.851099	2646.605769
908.157675	2538.220962
908.464211	2591.153077
908.770707	2654.167500
909.077163	2641.564615
909.383578	2613.838269
909.689954	2578.550192
909.996289	2611.317692
910.302584	2515.535769
910.608839	2661.729231
910.915054	2586.111923
911.221229	2628.961731
911.527363	2646.605769
911.833458	2634.002885
912.139513	2621.400000
912.445527	2689.455577
912.751502	2679.373269
913.057436	2608.797115
913.363331	2560.906154
913.669186	2560.906154
913.975000	2603.755962
914.280775	2654.167500
914.586510	2603.755962
914.892205	2586.111923
915.197859	2586.111923
915.503475	2570.988462
915.809050	2621.400000
916.114585	2646.605769
916.420081	2664.249808
916.725536	2628.961731
917.030952	2671.811538
917.336328	2591.153077
917.641665	2603.755962
917.946961	2565.947308
918.252218	2573.509038
918.557435	2591.153077
918.862612	2631.482308
919.167750	2596.194231
919.472848	2513.015192
919.777906	2570.988462
920.082925	2520.576923
920.387904	2570.988462
920.692843	2583.591346
920.997743	2586.111923
921.302603	2525.618077
921.607423	2540.741538
921.912204	2631.482308
922.216946	2586.111923
922.521647	2583.591346
922.826310	2568.467885
923.130932	2525.618077
923.435516	2520.576923
923.740059	2623.920577
924.044564	2525.618077
924.349028	2623.920577
924.653454	2644.085192
924.957840	2586.111923
925.262186	2586.111923
925.566493	2634.002885
925.870761	2641.564615
926.174989	2676.852692
926.479178	2588.632500
926.783328	2644.085192
927.087438	2576.029615
927.391509	2586.111923
927.695541	2623.920577
927.999533	2623.920577
928.303486	2606.276538
928.607400	2553.344423
928.911275	2598.714808
929.215110	2565.947308
929.518906	2631.482308
929.822663	2628.961731
930.126381	2626.441154
930.430060	2623.920577
930.733699	2558.385577
931.037299	2616.358846
931.340861	2679.373269
931.644383	2568.467885
931.947866	2591.153077
932.251309	2639.044038
932.554714	2523.097500
932.858080	2588.632500
933.161407	2553.344423
933.464694	2626.441154
933.767943	2528.138654
934.071153	2646.605769
934.374323	2578.550192
934.677455	2591.153077
934.980548	2628.961731
935.283602	2578.550192
935.586617	2603.755962
935.889593	2588.632500
936.192530	2545.782692
936.495428	2628.961731
936.798287	2649.126346
937.101108	2525.618077
937.403890	2538.220962
937.706632	2588.632500
938.009336	2603.755962
938.312002	2578.550192
938.614628	2623.920577
938.917216	2538.220962
939.219765	2573.509038
939.522275	2601.235385
939.824747	2704.579038
940.127179	2520.576923
940.429573	2608.797115
940.731929	2560.906154
941.034246	2606.276538
941.336524	2702.058462
941.638763	2576.029615
941.940964	2659.208654
942.243126	2636.523462
942.545250	2608.797115
942.847335	2616.358846
943.149381	2623.920577
943.451389	2639.044038
943.753359	2548.303269
944.055290	2659.208654
944.357182	2538.220962
944.659036	2601.235385
944.960851	2628.961731
945.262628	2623.920577
945.564367	2583.591346
945.866067	2583.591346
946.167729	2666.770385
946.469352	2513.015192
946.770937	2646.605769
947.072484	2641.564615
947.373992	2616.358846
947.675462	2553.344423
947.976893	2550.823846
948.278286	2634.002885
948.579641	2626.441154
948.880958	2553.344423
949.182236	2586.111923
949.483476	2576.029615
949.784678	2520.576923
950.085841	2618.879423
950.386967	2616.358846
950.688054	2573.509038
950.989103	2578.550192
951.290114	2691.976154
951.591087	2679.373269
951.892021	2603.755962
952.192917	2535.700385
952.493776	2533.179808
952.794596	2591.153077
953.095378	2639.044038
953.396122	2621.400000
953.696828	2563.426731
953.997496	2550.823846
954.298126	2661.729231
954.598718	2568.467885
954.899272	2550.823846
955.199788	2611.317692
955.500266	2555.865000
955.800706	2550.823846
956.101108	2518.056346
956.401472	2485.288846
956.701798	2586.111923
957.002087	2598.714808
957.302337	2606.276538
957.602550	2628.961731
957.902724	2603.755962
958.202861	2664.249808
958.502960	2583.591346
958.803022	2593.673654
959.103045	2603.755962
959.403031	2596.194231
959.702979	2596.194231
960.002889	2555.865000
960.302762	2576.029615
960.602596	2601.235385
960.902393	2558.385577
961.202153	2583.591346
961.501875	2588.632500
961.801559	2558.385577
962.101205	2606.276538
962.400814	2558.385577
962.700385	2591.153077
962.999918	2659.208654
963.299414	2603.755962
963.598873	2628.961731
963.898293	2558.385577
964.197677	2636.523462
964.497022	2613.838269
964.796331	2520.576923
965.095601	2543.262115
965.394835	2618.879423
965.694030	2507.974038
965.993189	2621.400000
966.292309	2550.823846
966.591393	2550.823846
966.890439	2578.550192
967.189447	2644.085192
967.488419	2495.371154
967.787353	2560.906154
968.086249	2671.811538
968.385108	2477.727115
968.683930	2641.564615
968.982714	2608.797115
969.281462	2611.317692
969.580172	2565.947308
969.878844	2573.509038
970.177480	2510.494615
970.476078	2659.208654
970.774639	2611.317692
971.073162	2553.344423
971.371649	2520.576923
971.670098	2601.235385
971.968510	2553.344423
972.266885	2520.576923
972.565223	2596.194231
972.863524	2570.988462
973.161788	2530.659231
973.460014	2641.564615
973.758204	2525.618077
974.056356	2634.002885
974.354471	2570.988462
974.652550	2636.523462
974.950591	2596.194231
975.248595	2618.879423
975.546563	2570.988462
975.844493	2570.988462
976.142386	2613.838269
976.440243	2583.591346
976.738062	2608.797115
977.035845	2626.441154
977.333590	2515.535769
977.631299	2535.700385
977.928971	2621.400000
978.226606	2588.632500
978.524204	2649.126346
978.821765	2518.056346
979.119290	2563.426731
979.416777	2636.523462
979.714228	2618.879423
980.011642	2563.426731
980.309020	2583.591346
980.606360	2606.276538
980.903664	2618.879423
981.200931	2618.879423
981.498162	2611.317692
981.795356	2540.741538
982.092513	2644.085192
982.389633	2472.685962
982.686717	2654.167500
982.983764	2596.194231
983.280775	2631.482308
983.577749	2671.811538
983.874686	2681.893846
984.171587	2596.194231
984.468451	2573.509038
984.765279	2606.276538
985.062070	2646.605769
985.358824	2570.988462
985.655543	2583.591346
985.952224	2565.947308
986.248869	2659.208654
986.545478	2528.138654
986.842050	2591.153077
987.138586	2626.441154
987.435086	2623.920577
987.731549	2573.509038
988.027975	2583.591346
988.324366	2591.153077
988.620719	2513.015192
988.917037	2616.358846
989.213318	2576.029615
989.509563	2550.823846
989.805772	2535.700385
990.101944	2636.523462
990.398080	2634.002885
990.694180	2553.344423
990.990244	2555.865000
991.286271	2492.850577
991.582262	2578.550192
991.878217	2535.700385
992.174136	2651.646923
992.470019	2588.632500
992.765865	2550.823846
993.061676	2603.755962
993.357450	2674.332115
993.653188	2606.276538
993.948890	2563.426731
994.244556	2596.194231
994.540186	2611.317692
994.835780	2586.111923
995.131337	2578.550192
995.426859	2631.482308
995.722345	2502.932885
996.017795	2656.688077
996.313208	2548.303269
996.608586	2608.797115
996.903928	2545.782692
997.199234	2611.317692
997.494504	2639.044038
997.789738	2608.797115
998.084936	2563.426731
998.380099	2528.138654
998.675225	2596.194231
998.970316	2639.044038
999.265371	2573.509038
999.560390	2636.523462
999.855373	2634.002885
1000.150320	2573.509038
1000.445232	2558.385577
1000.740108	2601.235385
1001.034948	2573.509038
1001.329752	2570.988462
1001.624521	2626.441154
1001.919254	2568.467885
1002.213951	2510.494615
1002.508613	2565.947308
1002.803239	2641.564615
1003.097829	2502.932885
1003.392384	2518.056346
1003.686903	2641.564615
1003.981386	2548.303269
1004.275834	2676.852692
1004.570246	2616.358846
1004.864623	2568.467885
1005.158964	2515.535769
1005.453270	2583.591346
1005.747540	2613.838269
1006.041775	2548.303269
1006.335974	2613.838269
1006.630138	2528.138654
1006.924266	2606.276538
1007.218359	2606.276538
1007.512416	2538.220962
1007.806438	2641.564615
1008.100425	2513.015192
1008.394376	2623.920577
1008.688292	2588.632500
1008.982172	2548.303269
1009.276017	2581.070769
1009.569827	2616.358846
1009.863602	2646.605769
1010.157341	2548.303269
1010.451045	2613.838269
1010.744714	2535.700385
1011.038347	2704.579038
1011.331945	2548.303269
1011.625508	2659.208654
1011.919036	2560.906154
1012.212528	2603.755962
1012.505986	2525.618077
1012.799408	2588.632500
1013.092795	2523.097500
1013.386147	2545.782692
1013.679464	2591.153077
1013.972745	2568.467885
1014.265992	2623.920577
1014.559204	2631.482308
1014.852380	2623.920577
1015.145521	2651.646923
1015.438628	2563.426731
1015.731699	2586.111923
1016.024736	2656.688077
1016.317737	2606.276538
1016.610703	2661.729231
1016.903635	2530.659231
1017.196531	2497.891731
1017.489393	2593.673654
1017.782219	2553.344423
1018.075011	2666.770385
1018.367768	2586.111923
1018.660490	2563.426731
1018.953177	2563.426731
1019.245829	2563.426731
