Dividing Wavelength (nm)	Counts (n)	Blue Motor Position (mm): 7.900000	Red Motor Position (mm): 0.000000	
326.493990	2175.257885
326.888308	2175.257885
327.282561	2175.257885
327.676750	2076.955385
328.070874	2104.681731
328.464933	2124.846346
328.858929	2039.146731
329.252859	2132.408077
329.646726	2097.120000
330.040528	2049.229038
330.434265	2145.010962
330.827938	2081.996538
331.221547	2170.216731
331.615091	2177.778462
332.008571	2192.901923
332.401986	2175.257885
332.795338	2180.299038
333.188625	2323.971923
333.581847	2258.436923
333.975006	2245.834038
334.368100	2230.710577
334.761129	2318.930769
335.154095	2296.245577
335.546996	2369.342308
335.939833	2321.451346
336.332606	2359.260000
336.725315	2444.959615
337.117960	2482.768269
337.510540	2455.041923
337.903056	2455.041923
338.295508	2389.506923
338.687896	2386.986346
339.080220	2475.206538
339.472480	2502.932885
339.864676	2497.891731
340.256807	2389.506923
340.648875	2477.727115
341.040879	2543.262115
341.432818	2414.712692
341.824694	2538.220962
342.216506	2470.165385
342.608253	2513.015192
342.999937	2460.083077
343.391557	2497.891731
343.783113	2507.974038
344.174605	2505.453462
344.566033	2414.712692
344.957397	2450.000769
345.348697	2502.932885
345.739934	2437.397885
346.131106	2452.521346
346.522215	2407.150962
346.913260	2545.782692
347.304241	2424.795000
347.695159	2477.727115
348.086012	2505.453462
348.476802	2447.480192
348.867528	2482.768269
349.258191	2442.439038
349.648789	2442.439038
350.039324	2472.685962
350.429796	2487.809423
350.820203	2576.029615
351.210548	2439.918462
351.600828	2409.671538
351.991045	2530.659231
352.381198	2452.521346
352.771288	2472.685962
353.161314	2485.288846
353.551276	2419.753846
353.941175	2480.247692
354.331010	2434.877308
354.720782	2475.206538
355.110490	2492.850577
355.500135	2394.548077
355.889717	2480.247692
356.279235	2497.891731
356.668689	2507.974038
357.058080	2465.124231
357.447408	2533.179808
357.836672	2389.506923
358.225873	2472.685962
358.615010	2477.727115
359.004084	2502.932885
359.393095	2389.506923
359.782043	2424.795000
360.170927	2450.000769
360.559748	2392.027500
360.948505	2404.630385
361.337199	2434.877308
361.725830	2412.192115
362.114398	2404.630385
362.502903	2515.535769
362.891344	2417.233269
363.279722	2472.685962
363.668037	2404.630385
364.056289	2467.644808
364.444478	2462.603654
364.832603	2502.932885
365.220665	2475.206538
365.608665	2472.685962
365.996601	2422.274423
366.384474	2419.753846
366.772284	2419.753846
367.160031	2482.768269
367.547715	2404.630385
367.935336	2404.630385
368.322893	2495.371154
368.710388	2354.218846
369.097820	2455.041923
369.485189	2437.397885
369.872495	2392.027500
370.259738	2437.397885
370.646918	2447.480192
371.034035	2528.138654
371.421090	2442.439038
371.808081	2500.412308
372.195010	2457.562500
372.581875	2548.303269
372.968678	2427.315577
373.355418	2450.000769
373.742096	2434.877308
374.128710	2417.233269
374.515262	2507.974038
374.901751	2452.521346
375.288177	2444.959615
375.674540	2467.644808
376.060841	2452.521346
376.447079	2492.850577
376.833254	2429.836154
377.219367	2528.138654
377.605417	2467.644808
377.991404	2475.206538
378.377329	2490.330000
378.763191	2495.371154
379.148991	2467.644808
379.534727	2462.603654
379.920402	2462.603654
380.306013	2389.506923
380.691563	2427.315577
381.077049	2412.192115
381.462474	2439.918462
381.847835	2460.083077
382.233134	2475.206538
382.618371	2467.644808
383.003545	2419.753846
383.388657	2510.494615
383.773706	2495.371154
384.158693	2528.138654
384.543618	2397.068654
384.928480	2429.836154
385.313280	2500.412308
385.698017	2422.274423
386.082692	2462.603654
386.467305	2412.192115
386.851856	2490.330000
387.236344	2404.630385
387.620770	2555.865000
388.005133	2485.288846
388.389435	2520.576923
388.773674	2530.659231
389.157851	2452.521346
389.541965	2447.480192
389.926018	2578.550192
390.310008	2490.330000
390.693936	2460.083077
391.077802	2369.342308
391.461606	2447.480192
391.845348	2492.850577
392.229027	2434.877308
392.612645	2500.412308
392.996200	2439.918462
393.379694	2502.932885
393.763125	2460.083077
394.146494	2533.179808
394.529801	2424.795000
394.913047	2455.041923
395.296230	2475.206538
395.679351	2409.671538
396.062410	2490.330000
396.445408	2462.603654
396.828343	2422.274423
397.211217	2523.097500
397.594028	2439.918462
397.976778	2429.836154
398.359466	2510.494615
398.742092	2465.124231
399.124656	2369.342308
399.507158	2470.165385
399.889598	2490.330000
400.271977	2414.712692
400.654294	2513.015192
401.036549	2500.412308
401.418742	2414.712692
401.800874	2510.494615
402.182944	2528.138654
402.564952	2485.288846
402.946898	2470.165385
403.328783	2432.356731
403.710606	2540.741538
404.092367	2432.356731
404.474067	2442.439038
404.855705	2429.836154
405.237282	2475.206538
405.618797	2586.111923
406.000250	2485.288846
406.381642	2535.700385
406.762972	2444.959615
407.144240	2462.603654
407.525447	2457.562500
407.906593	2477.727115
408.287677	2482.768269
408.668700	2392.027500
409.049661	2394.548077
409.430560	2538.220962
409.811399	2386.986346
410.192176	2444.959615
410.572891	2419.753846
410.953545	2497.891731
411.334138	2457.562500
411.714669	2523.097500
412.095139	2472.685962
412.475547	2465.124231
412.855894	2417.233269
413.236180	2427.315577
413.616405	2429.836154
413.996568	2429.836154
414.376670	2442.439038
414.756711	2447.480192
415.136691	2447.480192
415.516609	2500.412308
415.896466	2495.371154
416.276262	2424.795000
416.655997	2457.562500
417.035670	2462.603654
417.415283	2465.124231
417.794834	2422.274423
418.174324	2432.356731
418.553753	2518.056346
418.933121	2550.823846
419.312428	2427.315577
419.691674	2485.288846
420.070859	2424.795000
420.449983	2402.109808
420.829045	2475.206538
421.208047	2553.344423
421.586988	2392.027500
421.965867	2523.097500
422.344686	2540.741538
422.723444	2523.097500
423.102141	2429.836154
423.480777	2510.494615
423.859352	2545.782692
424.237866	2485.288846
424.616319	2596.194231
424.994712	2419.753846
425.373044	2480.247692
425.751314	2467.644808
426.129524	2482.768269
426.507673	2497.891731
426.885762	2424.795000
427.263789	2485.288846
427.641756	2472.685962
428.019662	2525.618077
428.397508	2492.850577
428.775292	2492.850577
429.153016	2528.138654
429.530679	2550.823846
429.908282	2457.562500
430.285824	2500.412308
430.663305	2515.535769
431.040726	2457.562500
431.418086	2505.453462
431.795385	2487.809423
432.172624	2500.412308
432.549802	2553.344423
432.926920	2452.521346
433.303977	2482.768269
433.680974	2472.685962
434.057910	2485.288846
434.434786	2465.124231
434.811601	2429.836154
435.188355	2455.041923
435.565050	2460.083077
435.941683	2482.768269
436.318257	2507.974038
436.694770	2490.330000
437.071222	2477.727115
437.447614	2525.618077
437.823946	2485.288846
438.200218	2442.439038
438.576429	2419.753846
438.952580	2523.097500
439.328670	2447.480192
439.704700	2502.932885
440.080670	2394.548077
440.456580	2520.576923
440.832429	2450.000769
441.208218	2432.356731
441.583947	2424.795000
441.959616	2427.315577
442.335224	2419.753846
442.710773	2470.165385
443.086261	2475.206538
443.461689	2507.974038
443.837057	2533.179808
444.212365	2404.630385
444.587612	2495.371154
444.962800	2518.056346
445.337927	2412.192115
445.712995	2555.865000
446.088002	2452.521346
446.462949	2442.439038
446.837837	2513.015192
447.212664	2601.235385
447.587431	2513.015192
447.962139	2465.124231
448.336786	2530.659231
448.711374	2500.412308
449.085901	2495.371154
449.460369	2460.083077
449.834776	2543.262115
450.209124	2540.741538
450.583412	2455.041923
450.957640	2452.521346
451.331808	2424.795000
451.705917	2318.930769
452.079965	2455.041923
452.453954	2477.727115
452.827883	2495.371154
453.201752	2432.356731
453.575562	2450.000769
453.949311	2437.397885
454.323001	2533.179808
454.696632	2477.727115
455.070202	2409.671538
455.443713	2485.288846
455.817164	2477.727115
456.190556	2520.576923
456.563888	2467.644808
456.937160	2485.288846
457.310373	2356.739423
457.683526	2467.644808
458.056619	2495.371154
458.429653	2472.685962
458.802628	2492.850577
459.175542	2497.891731
459.548398	2492.850577
459.921194	2432.356731
460.293930	2490.330000
460.666607	2475.206538
461.039224	2482.768269
461.411782	2520.576923
461.784280	2470.165385
462.156719	2465.124231
462.529099	2397.068654
462.901419	2470.165385
463.273680	2530.659231
463.645882	2480.247692
464.018024	2427.315577
464.390106	2447.480192
464.762130	2515.535769
465.134094	2485.288846
465.505999	2470.165385
465.877845	2528.138654
466.249631	2477.727115
466.621358	2442.439038
466.993026	2462.603654
467.364634	2515.535769
467.736184	2497.891731
468.107674	2487.809423
468.479105	2419.753846
468.850477	2520.576923
469.221790	2487.809423
469.593043	2548.303269
469.964238	2402.109808
470.335373	2490.330000
470.706449	2530.659231
471.077467	2518.056346
471.448425	2482.768269
471.819324	2429.836154
472.190164	2429.836154
472.560945	2450.000769
472.931667	2442.439038
473.302330	2505.453462
473.672934	2480.247692
474.043479	2545.782692
474.413965	2424.795000
474.784393	2515.535769
475.154761	2432.356731
475.525070	2525.618077
475.895321	2442.439038
476.265513	2402.109808
476.635645	2492.850577
477.005719	2480.247692
477.375734	2477.727115
477.745691	2429.836154
478.115588	2434.877308
478.485427	2540.741538
478.855207	2429.836154
479.224928	2412.192115
479.594591	2444.959615
479.964194	2548.303269
480.333739	2470.165385
480.703226	2505.453462
481.072653	2495.371154
481.442022	2412.192115
481.811333	2507.974038
482.180584	2500.412308
482.549777	2487.809423
482.918912	2462.603654
483.287988	2470.165385
483.657005	2477.727115
484.025964	2490.330000
484.394864	2457.562500
484.763706	2480.247692
485.132489	2576.029615
485.501213	2533.179808
485.869879	2465.124231
486.238487	2492.850577
486.607036	2450.000769
486.975527	2477.727115
487.343959	2460.083077
487.712333	2482.768269
488.080648	2450.000769
488.448905	2465.124231
488.817104	2467.644808
489.185244	2495.371154
489.553326	2505.453462
489.921350	2475.206538
490.289315	2432.356731
490.657222	2533.179808
491.025070	2513.015192
491.392861	2507.974038
491.760593	2447.480192
492.128267	2505.453462
492.495883	2520.576923
492.863440	2389.506923
493.230939	2442.439038
493.598380	2432.356731
493.965763	2472.685962
494.333088	2520.576923
494.700354	2414.712692
495.067563	2545.782692
495.434713	2475.206538
495.801805	2475.206538
496.168839	2439.918462
496.535815	2482.768269
496.902733	2472.685962
497.269593	2492.850577
497.636395	2507.974038
498.003139	2495.371154
498.369825	2530.659231
498.736453	2540.741538
499.103023	2550.823846
499.469535	2422.274423
499.835989	2492.850577
500.202385	2540.741538
500.568723	2520.576923
500.935003	2490.330000
501.301226	2399.589231
501.667390	2475.206538
502.033497	2545.782692
502.399546	2465.124231
502.765537	2480.247692
503.131470	2500.412308
503.497345	2482.768269
503.863163	2497.891731
504.228923	2573.509038
504.594625	2520.576923
504.960269	2490.330000
505.325856	2465.124231
505.691385	2462.603654
506.056856	2470.165385
506.422270	2485.288846
506.787625	2530.659231
507.152924	2502.932885
507.518164	2565.947308
507.883347	2444.959615
508.248472	2538.220962
508.613540	2535.700385
508.978550	2475.206538
509.343503	2528.138654
509.708398	2502.932885
510.073236	2523.097500
510.438016	2563.426731
510.802738	2502.932885
511.167403	2472.685962
511.532010	2439.918462
511.896561	2500.412308
512.261053	2515.535769
512.625488	2545.782692
512.989866	2439.918462
513.354186	2460.083077
513.718449	2515.535769
514.082655	2437.397885
514.446803	2497.891731
514.810894	2434.877308
515.174927	2485.288846
515.538904	2548.303269
515.902822	2422.274423
516.266684	2482.768269
516.630488	2407.150962
516.994235	2538.220962
517.357925	2558.385577
517.721558	2450.000769
518.085133	2480.247692
518.448651	2492.850577
518.812112	2548.303269
519.175516	2497.891731
519.538863	2535.700385
519.902152	2485.288846
520.265385	2450.000769
520.628560	2472.685962
520.991678	2467.644808
521.354739	2492.850577
521.717743	2588.632500
522.080690	2530.659231
522.443580	2540.741538
522.806413	2518.056346
523.169189	2525.618077
523.531908	2487.809423
523.894569	2399.589231
524.257174	2490.330000
524.619722	2568.467885
524.982213	2482.768269
525.344647	2492.850577
525.707025	2520.576923
526.069345	2460.083077
526.431608	2513.015192
526.793815	2490.330000
527.155964	2530.659231
527.518057	2540.741538
527.880093	2505.453462
528.242072	2480.247692
528.603995	2470.165385
528.965860	2485.288846
529.327669	2475.206538
529.689421	2523.097500
530.051117	2450.000769
530.412755	2485.288846
530.774337	2497.891731
531.135862	2533.179808
531.497331	2460.083077
531.858743	2480.247692
532.220098	2452.521346
532.581396	2518.056346
532.942638	2596.194231
533.303824	2505.453462
533.664953	2470.165385
534.026025	2414.712692
534.387040	2447.480192
534.747999	2497.891731
535.108902	2538.220962
535.469748	2505.453462
535.830537	2502.932885
536.191270	2518.056346
536.551947	2507.974038
536.912567	2457.562500
537.273131	2502.932885
537.633638	2515.535769
537.994089	2502.932885
538.354483	2518.056346
538.714821	2472.685962
539.075103	2434.877308
539.435328	2533.179808
539.795497	2560.906154
540.155609	2497.891731
540.515665	2480.247692
540.875665	2482.768269
541.235609	2621.400000
541.595496	2500.412308
541.955328	2457.562500
542.315102	2555.865000
542.674821	2450.000769
543.034483	2555.865000
543.394090	2555.865000
543.753640	2472.685962
544.113134	2518.056346
544.472571	2505.453462
544.831953	2452.521346
545.191278	2482.768269
545.550548	2555.865000
545.909761	2533.179808
546.268918	2563.426731
546.628019	2399.589231
546.987064	2490.330000
547.346053	2432.356731
547.704986	2465.124231
548.063863	2444.959615
548.422684	2505.453462
548.781449	2455.041923
549.140158	2540.741538
549.498811	2427.315577
549.857408	2432.356731
550.215949	2432.356731
550.574434	2457.562500
550.932864	2515.535769
551.291237	2578.550192
551.649555	2485.288846
552.007817	2485.288846
552.366022	2497.891731
552.724173	2447.480192
553.082267	2462.603654
553.440305	2407.150962
553.798288	2477.727115
554.156215	2568.467885
554.514086	2432.356731
554.871902	2485.288846
555.229661	2487.809423
555.587365	2533.179808
555.945014	2533.179808
556.302606	2490.330000
556.660143	2447.480192
557.017625	2533.179808
557.375050	2475.206538
557.732421	2530.659231
558.089735	2444.959615
558.446994	2417.233269
558.804197	2379.424615
559.161345	2432.356731
559.518437	2505.453462
559.875474	2518.056346
560.232455	2477.727115
560.589381	2515.535769
560.946251	2439.918462
561.303065	2487.809423
561.659825	2568.467885
562.016528	2502.932885
562.373177	2492.850577
562.729770	2485.288846
563.086307	2437.397885
563.442789	2568.467885
563.799216	2429.836154
564.155587	2470.165385
564.511904	2513.015192
564.868164	2558.385577
565.224370	2523.097500
565.580520	2460.083077
565.936615	2560.906154
566.292654	2455.041923
566.648638	2487.809423
567.004567	2490.330000
567.360441	2495.371154
567.716260	2450.000769
568.072023	2462.603654
568.427732	2477.727115
568.783385	2470.165385
569.138982	2568.467885
569.494525	2404.630385
569.850013	2535.700385
570.205445	2422.274423
570.560823	2545.782692
570.916145	2472.685962
571.271412	2462.603654
571.626625	2523.097500
571.981782	2490.330000
572.336884	2513.015192
572.691931	2480.247692
573.046923	2485.288846
573.401860	2465.124231
573.756743	2429.836154
574.111570	2520.576923
574.466342	2450.000769
574.821059	2507.974038
575.175722	2447.480192
575.530330	2560.906154
575.884882	2475.206538
576.239380	2505.453462
576.593823	2417.233269
576.948211	2513.015192
577.302544	2535.700385
577.656823	2593.673654
578.011047	2533.179808
578.365216	2507.974038
578.719330	2480.247692
579.073389	2457.562500
579.427394	2520.576923
579.781344	2485.288846
580.135239	2467.644808
580.489080	2515.535769
580.842866	2543.262115
581.196597	2480.247692
581.550273	2467.644808
581.903895	2492.850577
582.257463	2502.932885
582.610975	2480.247692
582.964434	2581.070769
583.317837	2588.632500
583.671186	2535.700385
584.024481	2596.194231
584.377721	2460.083077
584.730906	2540.741538
585.084037	2447.480192
585.437113	2432.356731
585.790135	2497.891731
586.143103	2515.535769
586.496016	2505.453462
586.848874	2482.768269
587.201679	2500.412308
587.554428	2492.850577
587.907124	2437.397885
588.259765	2442.439038
588.612352	2530.659231
588.964884	2439.918462
589.317362	2555.865000
589.669786	2477.727115
590.022155	2434.877308
590.374470	2530.659231
590.726731	2465.124231
591.078937	2482.768269
591.431090	2482.768269
591.783188	2603.755962
592.135232	2460.083077
592.487222	2573.509038
592.839157	2565.947308
593.191038	2485.288846
593.542866	2520.576923
593.894639	2495.371154
594.246358	2581.070769
594.598022	2472.685962
594.949633	2513.015192
595.301190	2601.235385
595.652692	2442.439038
596.004141	2505.453462
596.355535	2495.371154
596.706876	2560.906154
597.058162	2480.247692
597.409395	2550.823846
597.760573	2603.755962
598.111698	2482.768269
598.462768	2455.041923
598.813785	2550.823846
599.164748	2525.618077
599.515657	2500.412308
599.866511	2475.206538
600.217312	2487.809423
600.568060	2480.247692
600.918753	2513.015192
601.269392	2495.371154
601.619978	2477.727115
601.970510	2432.356731
602.320988	2545.782692
602.671412	2550.823846
603.021783	2528.138654
603.372100	2507.974038
603.722363	2460.083077
604.072572	2432.356731
604.422728	2485.288846
604.772830	2492.850577
605.122878	2513.015192
605.472872	2444.959615
605.822813	2505.453462
606.172701	2422.274423
606.522534	2525.618077
606.872314	2621.400000
607.222041	2472.685962
607.571714	2543.262115
607.921333	2444.959615
608.270899	2558.385577
608.620411	2520.576923
608.969870	2505.453462
609.319276	2550.823846
609.668627	2538.220962
610.017926	2477.727115
610.367171	2389.506923
610.716362	2513.015192
611.065500	2485.288846
611.414585	2548.303269
611.763616	2472.685962
612.112594	2515.535769
612.461518	2576.029615
612.810389	2427.315577
613.159207	2518.056346
613.507971	2429.836154
613.856682	2407.150962
614.205340	2427.315577
614.553945	2462.603654
614.902496	2518.056346
615.250994	2530.659231
615.599439	2513.015192
615.947830	2523.097500
616.296169	2444.959615
616.644454	2477.727115
616.992686	2500.412308
617.340864	2490.330000
617.688990	2515.535769
618.037063	2518.056346
618.385082	2422.274423
618.733048	2535.700385
619.080961	2611.317692
619.428821	2467.644808
619.776628	2568.467885
620.124382	2475.206538
620.472083	2513.015192
620.819731	2475.206538
621.167326	2492.850577
621.514868	2477.727115
621.862357	2538.220962
622.209793	2545.782692
622.557176	2568.467885
622.904506	2450.000769
623.251783	2528.138654
623.599007	2472.685962
623.946179	2523.097500
624.293297	2472.685962
624.640363	2596.194231
624.987376	2452.521346
625.334336	2495.371154
625.681243	2570.988462
626.028097	2505.453462
626.374899	2568.467885
626.721647	2540.741538
627.068343	2513.015192
627.414987	2525.618077
627.761577	2492.850577
628.108115	2502.932885
628.454600	2586.111923
628.801032	2550.823846
629.147412	2502.932885
629.493739	2525.618077
629.840014	2540.741538
630.186236	2467.644808
630.532405	2490.330000
630.878521	2424.795000
631.224585	2492.850577
631.570597	2576.029615
631.916556	2472.685962
632.262462	2490.330000
632.608316	2538.220962
632.954117	2470.165385
633.299866	2452.521346
633.645562	2409.671538
633.991206	2545.782692
634.336797	2487.809423
634.682336	2480.247692
635.027823	2535.700385
635.373257	2455.041923
635.718639	2437.397885
636.063968	2497.891731
636.409245	2515.535769
636.754470	2447.480192
637.099642	2528.138654
637.444762	2487.809423
637.789829	2553.344423
638.134845	2482.768269
638.479808	2482.768269
638.824719	2553.344423
639.169577	2482.768269
639.514383	2500.412308
639.859137	2535.700385
640.203839	2485.288846
640.548489	2555.865000
640.893086	2485.288846
641.237632	2480.247692
641.582125	2422.274423
641.926566	2492.850577
642.270955	2528.138654
642.615292	2507.974038
642.959576	2444.959615
643.303809	2460.083077
643.647990	2475.206538
643.992118	2507.974038
644.336195	2518.056346
644.680219	2457.562500
645.024192	2485.288846
645.368112	2573.509038
645.711981	2472.685962
646.055797	2492.850577
646.399562	2457.562500
646.743274	2427.315577
647.086935	2444.959615
647.430544	2450.000769
647.774101	2460.083077
648.117606	2422.274423
648.461059	2528.138654
648.804460	2492.850577
649.147810	2470.165385
649.491108	2480.247692
649.834354	2520.576923
650.177548	2523.097500
650.520690	2480.247692
650.863781	2510.494615
651.206820	2535.700385
651.549807	2525.618077
651.892742	2480.247692
652.235626	2505.453462
652.578458	2384.465769
652.921238	2462.603654
653.263967	2442.439038
653.606644	2470.165385
653.949269	2452.521346
654.291843	2523.097500
654.634365	2490.330000
654.976836	2480.247692
655.319255	2470.165385
655.661622	2510.494615
656.003938	2470.165385
656.346203	2475.206538
656.688416	2434.877308
657.030577	2510.494615
657.372687	2465.124231
657.714746	2535.700385
658.056753	2538.220962
658.398708	2457.562500
658.740612	2490.330000
659.082465	2442.439038
659.424266	2518.056346
659.766016	2518.056346
660.107715	2477.727115
660.449362	2465.124231
660.790958	2470.165385
661.132503	2533.179808
661.473996	2518.056346
661.815438	2507.974038
662.156829	2518.056346
662.498168	2434.877308
662.839456	2465.124231
663.180693	2417.233269
663.521879	2447.480192
663.863013	2452.521346
664.204097	2502.932885
664.545129	2487.809423
664.886110	2568.467885
665.227040	2548.303269
665.567918	2419.753846
665.908746	2414.712692
666.249522	2523.097500
666.590248	2613.838269
666.930922	2447.480192
667.271545	2450.000769
667.612118	2563.426731
667.952639	2586.111923
668.293109	2439.918462
668.633528	2533.179808
668.973896	2455.041923
669.314213	2510.494615
669.654480	2452.521346
669.994695	2525.618077
670.334859	2444.959615
670.674973	2548.303269
671.015035	2485.288846
671.355047	2530.659231
671.695008	2523.097500
672.034918	2497.891731
672.374777	2634.002885
672.714585	2502.932885
673.054342	2429.836154
673.394049	2525.618077
673.733705	2482.768269
674.073310	2424.795000
674.412864	2424.795000
674.752368	2495.371154
675.091820	2528.138654
675.431223	2535.700385
675.770574	2437.397885
676.109875	2457.562500
676.449125	2538.220962
676.788324	2618.879423
677.127473	2528.138654
677.466571	2518.056346
677.805619	2492.850577
678.144616	2442.439038
678.483562	2477.727115
678.822458	2502.932885
679.161303	2462.603654
679.500098	2444.959615
679.838842	2394.548077
680.177535	2467.644808
680.516179	2439.918462
680.854771	2500.412308
681.193314	2507.974038
681.531805	2381.945192
681.870247	2497.891731
682.208638	2500.412308
682.546978	2545.782692
682.885268	2528.138654
683.223508	2515.535769
683.561697	2407.150962
683.899836	2495.371154
684.237925	2477.727115
684.575963	2588.632500
684.913951	2467.644808
685.251889	2452.521346
685.589776	2563.426731
685.927614	2447.480192
686.265401	2507.974038
686.603137	2528.138654
686.940824	2565.947308
687.278460	2450.000769
687.616046	2492.850577
687.953582	2412.192115
688.291068	2603.755962
688.628504	2497.891731
688.965889	2404.630385
689.303224	2500.412308
689.640510	2470.165385
689.977745	2480.247692
690.314930	2457.562500
690.652065	2472.685962
690.989150	2495.371154
691.326185	2475.206538
691.663170	2545.782692
692.000105	2457.562500
692.336990	2576.029615
692.673825	2513.015192
693.010610	2543.262115
693.347345	2538.220962
693.684030	2442.439038
694.020665	2502.932885
694.357251	2505.453462
694.693786	2490.330000
695.030272	2422.274423
695.366707	2470.165385
695.703093	2465.124231
696.039429	2523.097500
696.375716	2510.494615
696.711952	2485.288846
697.048139	2550.823846
697.384276	2513.015192
697.720363	2470.165385
698.056400	2475.206538
698.392388	2432.356731
698.728326	2505.453462
699.064214	2500.412308
699.400053	2505.453462
699.735842	2487.809423
700.071581	2490.330000
700.407270	2492.850577
700.742910	2475.206538
701.078501	2467.644808
701.414042	2487.809423
701.749533	2465.124231
702.084974	2576.029615
702.420366	2477.727115
702.755709	2402.109808
703.091002	2442.439038
703.426246	2497.891731
703.761440	2427.315577
704.096584	2467.644808
704.431679	2485.288846
704.766725	2535.700385
705.101721	2502.932885
705.436668	2392.027500
705.771565	2507.974038
706.106413	2492.850577
706.441212	2452.521346
706.775961	2490.330000
707.110661	2495.371154
707.445311	2528.138654
707.779913	2570.988462
708.114465	2525.618077
708.448967	2470.165385
708.783421	2502.932885
709.117825	2507.974038
709.452180	2485.288846
709.786485	2507.974038
710.120742	2450.000769
710.454949	2530.659231
710.789107	2487.809423
711.123216	2523.097500
711.457275	2482.768269
711.791286	2535.700385
712.125247	2485.288846
712.459159	2533.179808
712.793023	2429.836154
713.126837	2475.206538
713.460602	2437.397885
713.794318	2467.644808
714.127985	2389.506923
714.461602	2530.659231
714.795171	2492.850577
715.128691	2507.974038
715.462162	2518.056346
715.795584	2460.083077
716.128957	2485.288846
716.462281	2555.865000
716.795556	2553.344423
717.128782	2543.262115
717.461960	2520.576923
717.795088	2482.768269
718.128167	2417.233269
718.461198	2495.371154
718.794180	2495.371154
719.127113	2444.959615
719.459997	2500.412308
719.792833	2467.644808
720.125619	2563.426731
720.458357	2457.562500
720.791046	2513.015192
721.123686	2510.494615
721.456278	2533.179808
721.788821	2480.247692
722.121315	2502.932885
722.453761	2470.165385
722.786158	2470.165385
723.118506	2434.877308
723.450805	2515.535769
723.783056	2485.288846
724.115259	2475.206538
724.447412	2601.235385
724.779518	2533.179808
725.111574	2447.480192
725.443582	2563.426731
725.775542	2573.509038
726.107453	2490.330000
726.439315	2505.453462
726.771129	2502.932885
727.102895	2404.630385
727.434612	2500.412308
727.766281	2429.836154
728.097901	2482.768269
728.429473	2515.535769
728.760996	2442.439038
729.092471	2505.453462
729.423897	2515.535769
729.755276	2485.288846
730.086606	2477.727115
730.417887	2530.659231
730.749120	2513.015192
731.080305	2482.768269
731.411442	2467.644808
731.742530	2472.685962
732.073570	2460.083077
732.404562	2555.865000
732.735506	2444.959615
733.066401	2507.974038
733.397249	2460.083077
733.728048	2500.412308
734.058798	2457.562500
734.389501	2543.262115
734.720156	2492.850577
735.050762	2525.618077
735.381320	2419.753846
735.711831	2472.685962
736.042293	2444.959615
736.372707	2611.317692
736.703073	2518.056346
737.033391	2490.330000
737.363661	2455.041923
737.693883	2502.932885
738.024056	2470.165385
738.354182	2553.344423
738.684260	2480.247692
739.014290	2487.809423
739.344272	2455.041923
739.674207	2485.288846
740.004093	2510.494615
740.333931	2540.741538
740.663722	2523.097500
740.993464	2502.932885
741.323159	2528.138654
741.652806	2505.453462
741.982405	2525.618077
742.311956	2565.947308
742.641460	2444.959615
742.970915	2497.891731
743.300323	2457.562500
743.629683	2487.809423
743.958996	2472.685962
744.288260	2513.015192
744.617477	2492.850577
744.946647	2482.768269
745.275768	2507.974038
745.604842	2399.589231
745.933869	2505.453462
746.262847	2500.412308
746.591778	2480.247692
746.920662	2513.015192
747.249498	2429.836154
747.578286	2452.521346
747.907027	2500.412308
748.235720	2545.782692
748.564365	2560.906154
748.892963	2470.165385
749.221514	2550.823846
749.550017	2626.441154
749.878473	2497.891731
750.206881	2414.712692
750.535242	2555.865000
750.863555	2596.194231
751.191821	2523.097500
751.520039	2462.603654
751.848210	2422.274423
752.176334	2558.385577
752.504411	2462.603654
752.832440	2565.947308
753.160421	2470.165385
753.488356	2470.165385
753.816243	2467.644808
754.144082	2490.330000
754.471875	2447.480192
754.799620	2525.618077
755.127318	2485.288846
755.454969	2583.591346
755.782572	2495.371154
756.110129	2417.233269
756.437638	2533.179808
756.765100	2432.356731
757.092515	2490.330000
757.419882	2502.932885
757.747203	2507.974038
758.074477	2465.124231
758.401703	2409.671538
758.728882	2470.165385
759.056014	2460.083077
759.383099	2462.603654
759.710138	2507.974038
760.037129	2480.247692
760.364073	2439.918462
760.690970	2414.712692
761.017820	2505.453462
761.344623	2518.056346
761.671379	2570.988462
761.998088	2555.865000
762.324751	2513.015192
762.651366	2482.768269
762.977935	2487.809423
763.304456	2525.618077
763.630931	2437.397885
763.957359	2490.330000
764.283740	2540.741538
764.610074	2518.056346
764.936362	2553.344423
765.262602	2553.344423
765.588796	2465.124231
765.914943	2429.836154
766.241044	2482.768269
766.567097	2475.206538
766.893104	2429.836154
767.219064	2518.056346
767.544978	2515.535769
767.870845	2465.124231
768.196665	2422.274423
768.522438	2490.330000
768.848165	2513.015192
769.173846	2437.397885
769.499479	2482.768269
769.825066	2535.700385
770.150607	2364.301154
770.476101	2480.247692
770.801548	2482.768269
771.126949	2470.165385
771.452303	2452.521346
771.777611	2487.809423
772.102872	2414.712692
772.428087	2455.041923
772.753256	2465.124231
773.078378	2444.959615
773.403453	2558.385577
773.728482	2457.562500
774.053465	2457.562500
774.378401	2573.509038
774.703291	2437.397885
775.028135	2492.850577
775.352932	2472.685962
775.677683	2543.262115
776.002388	2560.906154
776.327046	2533.179808
776.651658	2576.029615
776.976224	2500.412308
777.300743	2515.535769
777.625216	2515.535769
777.949643	2460.083077
778.274024	2492.850577
778.598359	2434.877308
778.922647	2472.685962
779.246889	2543.262115
779.571086	2480.247692
779.895236	2495.371154
780.219339	2538.220962
780.543397	2364.301154
780.867409	2424.795000
781.191374	2475.206538
781.515294	2432.356731
781.839167	2437.397885
782.162995	2523.097500
782.486776	2447.480192
782.810511	2543.262115
783.134201	2495.371154
783.457844	2487.809423
783.781441	2500.412308
784.104993	2497.891731
784.428498	2510.494615
784.751958	2487.809423
785.075372	2457.562500
785.398739	2520.576923
785.722061	2467.644808
786.045337	2515.535769
786.368568	2437.397885
786.691752	2492.850577
787.014891	2500.412308
787.337983	2563.426731
787.661030	2513.015192
787.984031	2507.974038
788.306987	2485.288846
788.629897	2470.165385
788.952760	2525.618077
789.275579	2500.412308
789.598351	2432.356731
789.921078	2543.262115
790.243759	2490.330000
790.566395	2558.385577
790.888984	2545.782692
791.211529	2475.206538
791.534027	2520.576923
791.856480	2480.247692
792.178888	2528.138654
792.501249	2497.891731
792.823566	2518.056346
793.145836	2475.206538
793.468062	2581.070769
793.790241	2502.932885
794.112375	2533.179808
794.434464	2523.097500
794.756507	2497.891731
795.078505	2470.165385
795.400457	2520.576923
795.722364	2485.288846
796.044226	2505.453462
796.366042	2502.932885
796.687812	2535.700385
797.009538	2460.083077
797.331218	2477.727115
797.652852	2563.426731
797.974442	2480.247692
798.295986	2492.850577
798.617484	2470.165385
798.938938	2502.932885
799.260346	2515.535769
799.581709	2490.330000
799.903026	2460.083077
800.224299	2475.206538
800.545526	2419.753846
800.866708	2492.850577
801.187845	2500.412308
801.508936	2515.535769
801.829983	2472.685962
802.150984	2485.288846
802.471940	2455.041923
802.792851	2444.959615
803.113717	2543.262115
803.434538	2505.453462
803.755314	2528.138654
804.076045	2513.015192
804.396731	2432.356731
804.717372	2399.589231
805.037967	2558.385577
805.358518	2502.932885
805.679024	2545.782692
805.999485	2434.877308
806.319901	2500.412308
806.640272	2548.303269
806.960598	2495.371154
807.280879	2477.727115
807.601115	2477.727115
807.921306	2485.288846
808.241453	2452.521346
808.561554	2482.768269
808.881611	2447.480192
809.201623	2553.344423
809.521590	2427.315577
809.841513	2540.741538
810.161390	2450.000769
810.481223	2407.150962
810.801011	2455.041923
811.120755	2518.056346
811.440453	2470.165385
811.760107	2530.659231
812.079716	2452.521346
812.399281	2618.879423
812.718801	2462.603654
813.038276	2525.618077
813.357707	2515.535769
813.677093	2576.029615
813.996434	2467.644808
814.315731	2480.247692
814.634983	2447.480192
814.954191	2528.138654
815.273354	2482.768269
815.592473	2513.015192
815.911547	2515.535769
816.230577	2467.644808
816.549562	2472.685962
816.868502	2450.000769
817.187399	2455.041923
817.506250	2528.138654
817.825058	2452.521346
818.143821	2429.836154
818.462539	2581.070769
818.781213	2472.685962
819.099843	2543.262115
819.418429	2490.330000
819.736970	2535.700385
820.055466	2530.659231
820.373919	2505.453462
820.692327	2540.741538
821.010691	2444.959615
821.329011	2523.097500
821.647286	2434.877308
821.965517	2457.562500
822.283704	2424.795000
822.601847	2482.768269
822.919945	2545.782692
823.237999	2422.274423
823.556010	2457.562500
823.873976	2492.850577
824.191897	2364.301154
824.509775	2472.685962
824.827609	2455.041923
825.145398	2523.097500
825.463144	2530.659231
825.780845	2447.480192
826.098502	2465.124231
826.416116	2427.315577
826.733685	2480.247692
827.051210	2535.700385
827.368692	2543.262115
827.686129	2432.356731
828.003522	2381.945192
828.320872	2470.165385
828.638177	2472.685962
828.955439	2525.618077
829.272656	2500.412308
829.589830	2510.494615
829.906960	2495.371154
830.224046	2419.753846
830.541088	2523.097500
830.858086	2500.412308
831.175041	2450.000769
831.491952	2482.768269
831.808819	2510.494615
832.125642	2419.753846
832.442421	2434.877308
832.759157	2465.124231
833.075849	2550.823846
833.392497	2450.000769
833.709101	2419.753846
834.025662	2497.891731
834.342179	2482.768269
834.658653	2475.206538
834.975083	2570.988462
835.291469	2455.041923
835.607811	2477.727115
835.924110	2409.671538
836.240366	2447.480192
836.556578	2455.041923
836.872746	2487.809423
837.188871	2538.220962
837.504952	2475.206538
837.820990	2422.274423
838.136984	2397.068654
838.452935	2507.974038
838.768842	2487.809423
839.084706	2477.727115
839.400526	2510.494615
839.716303	2563.426731
840.032037	2528.138654
840.347727	2543.262115
840.663373	2462.603654
840.978977	2530.659231
841.294537	2465.124231
841.610054	2523.097500
841.925527	2490.330000
842.240957	2450.000769
842.556344	2455.041923
842.871687	2548.303269
843.186987	2455.041923
843.502244	2515.535769
843.817458	2490.330000
844.132629	2497.891731
844.447756	2477.727115
844.762840	2563.426731
845.077881	2487.809423
845.392879	2545.782692
845.707833	2553.344423
846.022745	2518.056346
846.337613	2460.083077
846.652438	2563.426731
846.967221	2507.974038
847.281960	2495.371154
847.596656	2427.315577
847.911309	2439.918462
848.225919	2480.247692
848.540485	2447.480192
848.855009	2518.056346
849.169490	2533.179808
849.483928	2510.494615
849.798323	2550.823846
850.112675	2482.768269
850.426984	2487.809423
850.741251	2480.247692
851.055474	2434.877308
851.369654	2586.111923
851.683792	2505.453462
851.997887	2447.480192
852.311938	2515.535769
852.625947	2457.562500
852.939914	2568.467885
853.253837	2553.344423
853.567718	2497.891731
853.881555	2528.138654
854.195350	2422.274423
854.509103	2543.262115
854.822812	2470.165385
855.136479	2553.344423
855.450103	2457.562500
855.763685	2450.000769
856.077224	2495.371154
856.390720	2500.412308
856.704173	2480.247692
857.017584	2477.727115
857.330953	2530.659231
857.644278	2427.315577
857.957561	2570.988462
858.270802	2535.700385
858.584000	2452.521346
858.897155	2465.124231
859.210268	2507.974038
859.523339	2384.465769
859.836367	2497.891731
860.149352	2540.741538
860.462295	2507.974038
860.775195	2477.727115
861.088054	2467.644808
861.400869	2472.685962
861.713642	2480.247692
862.026373	2548.303269
862.339062	2553.344423
862.651708	2487.809423
862.964312	2631.482308
863.276873	2591.153077
863.589392	2447.480192
863.901869	2525.618077
864.214303	2467.644808
864.526696	2470.165385
864.839045	2450.000769
865.151353	2523.097500
865.463619	2513.015192
865.775842	2533.179808
866.088023	2515.535769
866.400162	2470.165385
866.712258	2444.959615
867.024313	2450.000769
867.336325	2404.630385
867.648296	2518.056346
867.960224	2500.412308
868.272110	2502.932885
868.583954	2480.247692
868.895755	2507.974038
869.207515	2497.891731
869.519233	2530.659231
869.830909	2510.494615
870.142542	2495.371154
870.454134	2417.233269
870.765684	2533.179808
871.077191	2429.836154
871.388657	2500.412308
871.700081	2432.356731
872.011463	2422.274423
872.322803	2455.041923
872.634101	2424.795000
872.945357	2490.330000
873.256571	2455.041923
873.567744	2490.330000
873.878874	2492.850577
874.189963	2442.439038
874.501010	2485.288846
874.812015	2528.138654
875.122979	2450.000769
875.433900	2500.412308
875.744780	2439.918462
876.055618	2543.262115
876.366415	2568.467885
876.677169	2439.918462
876.987882	2434.877308
877.298554	2480.247692
877.609183	2495.371154
877.919771	2553.344423
878.230317	2429.836154
878.540822	2487.809423
878.851285	2485.288846
879.161707	2452.521346
879.472087	2520.576923
879.782425	2465.124231
880.092722	2467.644808
880.402977	2583.591346
880.713191	2505.453462
881.023363	2530.659231
881.333494	2422.274423
881.643583	2412.192115
881.953631	2515.535769
882.263637	2502.932885
882.573602	2560.906154
882.883526	2535.700385
883.193408	2520.576923
883.503248	2528.138654
883.813048	2520.576923
884.122806	2480.247692
884.432522	2472.685962
884.742197	2581.070769
885.051831	2477.727115
885.361424	2455.041923
885.670975	2450.000769
885.980485	2444.959615
886.289954	2480.247692
886.599382	2558.385577
886.908768	2412.192115
887.218113	2495.371154
887.527417	2548.303269
887.836680	2550.823846
888.145901	2457.562500
888.455082	2460.083077
888.764221	2472.685962
889.073319	2518.056346
889.382376	2455.041923
889.691392	2477.727115
890.000366	2495.371154
890.309300	2470.165385
890.618193	2533.179808
890.927044	2467.644808
891.235855	2462.603654
891.544625	2467.644808
891.853353	2510.494615
892.162041	2480.247692
892.470687	2507.974038
892.779293	2465.124231
893.087858	2513.015192
893.396381	2510.494615
893.704864	2560.906154
894.013306	2432.356731
894.321707	2528.138654
894.630068	2465.124231
894.938387	2394.548077
895.246665	2480.247692
895.554903	2455.041923
895.863100	2487.809423
896.171256	2513.015192
896.479371	2361.780577
896.787446	2414.712692
897.095480	2523.097500
897.403473	2432.356731
897.711425	2465.124231
898.019336	2515.535769
898.327207	2482.768269
898.635038	2500.412308
898.942827	2545.782692
899.250576	2507.974038
899.558284	2543.262115
899.865952	2485.288846
900.173579	2439.918462
900.481165	2513.015192
900.788711	2437.397885
901.096216	2470.165385
901.403681	2513.015192
901.711105	2409.671538
902.018489	2439.918462
902.325832	2467.644808
902.633135	2455.041923
902.940397	2565.947308
903.247619	2450.000769
903.554800	2444.959615
903.861941	2437.397885
904.169041	2528.138654
904.476101	2477.727115
904.783121	2550.823846
905.090100	2538.220962
905.397039	2462.603654
905.703938	2487.809423
906.010796	2502.932885
906.317614	2495.371154
906.624391	2457.562500
906.931129	2560.906154
907.237826	2427.315577
907.544483	2475.206538
907.851099	2528.138654
908.157675	2538.220962
908.464211	2470.165385
908.770707	2477.727115
909.077163	2523.097500
909.383578	2402.109808
909.689954	2502.932885
909.996289	2490.330000
910.302584	2487.809423
910.608839	2495.371154
910.915054	2540.741538
911.221229	2475.206538
911.527363	2570.988462
911.833458	2528.138654
912.139513	2472.685962
912.445527	2520.576923
912.751502	2422.274423
913.057436	2450.000769
913.363331	2518.056346
913.669186	2495.371154
913.975000	2414.712692
914.280775	2505.453462
914.586510	2530.659231
914.892205	2467.644808
915.197859	2472.685962
915.503475	2437.397885
915.809050	2402.109808
916.114585	2515.535769
916.420081	2452.521346
916.725536	2515.535769
917.030952	2543.262115
917.336328	2490.330000
917.641665	2548.303269
917.946961	2465.124231
918.252218	2422.274423
918.557435	2470.165385
918.862612	2409.671538
919.167750	2497.891731
919.472848	2513.015192
919.777906	2495.371154
920.082925	2460.083077
920.387904	2480.247692
920.692843	2432.356731
920.997743	2525.618077
921.302603	2543.262115
921.607423	2485.288846
921.912204	2560.906154
922.216946	2439.918462
922.521647	2442.439038
922.826310	2500.412308
923.130932	2492.850577
923.435516	2439.918462
923.740059	2460.083077
924.044564	2505.453462
924.349028	2394.548077
924.653454	2409.671538
924.957840	2444.959615
925.262186	2450.000769
925.566493	2452.521346
925.870761	2492.850577
926.174989	2485.288846
926.479178	2462.603654
926.783328	2500.412308
927.087438	2545.782692
927.391509	2510.494615
927.695541	2462.603654
927.999533	2455.041923
928.303486	2520.576923
928.607400	2482.768269
928.911275	2535.700385
929.215110	2500.412308
929.518906	2457.562500
929.822663	2485.288846
930.126381	2505.453462
930.430060	2497.891731
930.733699	2389.506923
931.037299	2402.109808
931.340861	2477.727115
931.644383	2447.480192
931.947866	2492.850577
932.251309	2414.712692
932.554714	2601.235385
932.858080	2381.945192
933.161407	2558.385577
933.464694	2465.124231
933.767943	2528.138654
934.071153	2434.877308
934.374323	2515.535769
934.677455	2437.397885
934.980548	2477.727115
935.283602	2558.385577
935.586617	2447.480192
935.889593	2538.220962
936.192530	2502.932885
936.495428	2417.233269
936.798287	2533.179808
937.101108	2467.644808
937.403890	2422.274423
937.706632	2510.494615
938.009336	2487.809423
938.312002	2460.083077
938.614628	2538.220962
938.917216	2485.288846
939.219765	2480.247692
939.522275	2528.138654
939.824747	2505.453462
940.127179	2553.344423
940.429573	2482.768269
940.731929	2455.041923
941.034246	2538.220962
941.336524	2487.809423
941.638763	2485.288846
941.940964	2465.124231
942.243126	2457.562500
942.545250	2518.056346
942.847335	2492.850577
943.149381	2487.809423
943.451389	2563.426731
943.753359	2472.685962
944.055290	2553.344423
944.357182	2424.795000
944.659036	2507.974038
944.960851	2555.865000
945.262628	2510.494615
945.564367	2475.206538
945.866067	2477.727115
946.167729	2467.644808
946.469352	2427.315577
946.770937	2535.700385
947.072484	2482.768269
947.373992	2477.727115
947.675462	2553.344423
947.976893	2402.109808
948.278286	2558.385577
948.579641	2565.947308
948.880958	2487.809423
949.182236	2545.782692
949.483476	2550.823846
949.784678	2548.303269
950.085841	2502.932885
950.386967	2467.644808
950.688054	2502.932885
950.989103	2460.083077
951.290114	2351.698269
951.591087	2470.165385
951.892021	2472.685962
952.192917	2475.206538
952.493776	2515.535769
952.794596	2480.247692
953.095378	2555.865000
953.396122	2424.795000
953.696828	2432.356731
953.997496	2477.727115
954.298126	2520.576923
954.598718	2457.562500
954.899272	2518.056346
955.199788	2429.836154
955.500266	2482.768269
955.800706	2475.206538
956.101108	2381.945192
956.401472	2427.315577
956.701798	2490.330000
957.002087	2439.918462
957.302337	2482.768269
957.602550	2384.465769
957.902724	2543.262115
958.202861	2545.782692
958.502960	2434.877308
958.803022	2460.083077
959.103045	2533.179808
959.403031	2525.618077
959.702979	2457.562500
960.002889	2578.550192
960.302762	2465.124231
960.602596	2455.041923
960.902393	2502.932885
961.202153	2472.685962
961.501875	2497.891731
961.801559	2457.562500
962.101205	2583.591346
962.400814	2444.959615
962.700385	2465.124231
962.999918	2533.179808
963.299414	2492.850577
963.598873	2565.947308
963.898293	2442.439038
964.197677	2502.932885
964.497022	2485.288846
964.796331	2450.000769
965.095601	2598.714808
965.394835	2525.618077
965.694030	2560.906154
965.993189	2487.809423
966.292309	2500.412308
966.591393	2442.439038
966.890439	2487.809423
967.189447	2455.041923
967.488419	2392.027500
967.787353	2560.906154
968.086249	2535.700385
968.385108	2533.179808
968.683930	2487.809423
968.982714	2444.959615
969.281462	2545.782692
969.580172	2507.974038
969.878844	2480.247692
970.177480	2467.644808
970.476078	2457.562500
970.774639	2568.467885
971.073162	2487.809423
971.371649	2545.782692
971.670098	2492.850577
971.968510	2507.974038
972.266885	2447.480192
972.565223	2588.632500
972.863524	2412.192115
973.161788	2505.453462
973.460014	2447.480192
973.758204	2502.932885
974.056356	2568.467885
974.354471	2480.247692
974.652550	2507.974038
974.950591	2487.809423
975.248595	2500.412308
975.546563	2477.727115
975.844493	2490.330000
976.142386	2538.220962
976.440243	2513.015192
976.738062	2444.959615
977.035845	2477.727115
977.333590	2480.247692
977.631299	2447.480192
977.928971	2424.795000
978.226606	2472.685962
978.524204	2538.220962
978.821765	2475.206538
979.119290	2492.850577
979.416777	2523.097500
979.714228	2495.371154
980.011642	2548.303269
980.309020	2558.385577
980.606360	2485.288846
980.903664	2530.659231
981.200931	2432.356731
981.498162	2457.562500
981.795356	2528.138654
982.092513	2558.385577
982.389633	2480.247692
982.686717	2550.823846
982.983764	2472.685962
983.280775	2533.179808
983.577749	2487.809423
983.874686	2535.700385
984.171587	2424.795000
984.468451	2505.453462
984.765279	2394.548077
985.062070	2467.644808
985.358824	2457.562500
985.655543	2417.233269
985.952224	2482.768269
986.248869	2397.068654
986.545478	2392.027500
986.842050	2513.015192
987.138586	2447.480192
987.435086	2490.330000
987.731549	2482.768269
988.027975	2475.206538
988.324366	2460.083077
988.620719	2502.932885
988.917037	2439.918462
989.213318	2510.494615
989.509563	2553.344423
989.805772	2465.124231
990.101944	2570.988462
990.398080	2530.659231
990.694180	2379.424615
990.990244	2525.618077
991.286271	2487.809423
991.582262	2485.288846
991.878217	2485.288846
992.174136	2424.795000
992.470019	2523.097500
992.765865	2507.974038
993.061676	2472.685962
993.357450	2437.397885
993.653188	2538.220962
993.948890	2465.124231
994.244556	2497.891731
994.540186	2475.206538
994.835780	2487.809423
995.131337	2548.303269
995.426859	2523.097500
995.722345	2548.303269
996.017795	2467.644808
996.313208	2492.850577
996.608586	2477.727115
996.903928	2555.865000
997.199234	2462.603654
997.494504	2432.356731
997.789738	2490.330000
998.084936	2583.591346
998.380099	2447.480192
998.675225	2444.959615
998.970316	2470.165385
999.265371	2525.618077
999.560390	2379.424615
999.855373	2452.521346
1000.150320	2447.480192
1000.445232	2490.330000
1000.740108	2427.315577
1001.034948	2525.618077
1001.329752	2434.877308
1001.624521	2427.315577
1001.919254	2550.823846
1002.213951	2487.809423
1002.508613	2518.056346
1002.803239	2497.891731
1003.097829	2497.891731
1003.392384	2424.795000
1003.686903	2457.562500
1003.981386	2513.015192
1004.275834	2412.192115
1004.570246	2467.644808
1004.864623	2492.850577
1005.158964	2422.274423
1005.453270	2465.124231
1005.747540	2495.371154
1006.041775	2513.015192
1006.335974	2475.206538
1006.630138	2475.206538
1006.924266	2427.315577
1007.218359	2523.097500
1007.512416	2555.865000
1007.806438	2472.685962
1008.100425	2507.974038
1008.394376	2452.521346
1008.688292	2444.959615
1008.982172	2528.138654
1009.276017	2399.589231
1009.569827	2528.138654
1009.863602	2424.795000
1010.157341	2457.562500
1010.451045	2513.015192
1010.744714	2490.330000
1011.038347	2477.727115
1011.331945	2487.809423
1011.625508	2507.974038
1011.919036	2434.877308
1012.212528	2399.589231
1012.505986	2427.315577
1012.799408	2497.891731
1013.092795	2487.809423
1013.386147	2533.179808
1013.679464	2530.659231
1013.972745	2507.974038
1014.265992	2482.768269
1014.559204	2492.850577
1014.852380	2540.741538
1015.145521	2480.247692
1015.438628	2518.056346
1015.731699	2495.371154
1016.024736	2444.959615
1016.317737	2485.288846
1016.610703	2439.918462
1016.903635	2412.192115
1017.196531	2452.521346
1017.489393	2507.974038
1017.782219	2492.850577
1018.075011	2409.671538
1018.367768	2515.535769
1018.660490	2490.330000
1018.953177	2490.330000
1019.245829	2490.330000
