Dividing Wavelength (nm)	Counts (n)	Blue Motor Position (mm): 26.800000	Red Motor Position (mm): 0.000000	
326.493990	2055.933773
326.888308	2055.933773
327.282561	2055.933773
327.676750	2029.192972
328.070874	2031.290092
328.464933	2037.581452
328.858929	2047.822557
329.252859	2056.977292
329.646726	2069.980948
330.040528	2084.335634
330.434265	2105.662235
330.827938	2125.547067
331.221547	2147.990283
331.615091	2167.474343
332.008571	2184.032013
332.401986	2206.878522
332.795338	2227.413662
333.188625	2246.076014
333.581847	2265.867584
333.975006	2284.093876
334.368100	2301.851340
334.761129	2318.184678
335.154095	2332.413335
335.546996	2385.930224
335.939833	2486.556696
336.332606	2495.524909
336.725315	2512.816067
337.117960	2518.154649
337.510540	2528.378109
337.903056	2539.700540
338.295508	2548.026006
338.687896	2554.014897
339.080220	2556.064126
339.472480	2561.463201
339.864676	2566.874880
340.256807	2569.186249
340.648875	2569.080385
341.040879	2571.469892
341.432818	2569.955025
341.824694	2575.800243
342.216506	2575.119687
342.608253	2572.110118
342.999937	2570.287741
343.391557	2568.336815
343.783113	2570.444017
344.174605	2568.782957
344.566033	2565.612071
344.957397	2563.583007
345.348697	2562.831875
345.739934	2562.383212
346.131106	2557.836091
346.522215	2555.890206
346.913260	2555.796944
347.304241	2556.356513
347.695159	2552.608415
348.086012	2553.120092
348.476802	2548.494833
348.867528	2549.084648
349.258191	2541.366642
349.648789	2543.809081
350.039324	2538.505787
350.429796	2547.078269
350.820203	2544.098947
351.210548	2546.400234
351.600828	2543.279759
351.991045	2543.859492
352.381198	2539.146013
352.771288	2543.496529
353.161314	2542.654656
353.551276	2538.659542
353.941175	2535.914634
354.331010	2541.182639
354.720782	2542.374872
355.110490	2542.092568
355.500135	2541.510314
355.889717	2540.643236
356.279235	2540.161806
356.668689	2539.834131
357.058080	2542.195911
357.447408	2544.315717
357.836672	2543.824204
358.225873	2541.908566
358.615010	2545.054246
359.004084	2545.752445
359.393095	2545.659184
359.782043	2543.075593
360.170927	2546.864020
360.559748	2546.213711
360.948505	2545.238248
361.337199	2549.896274
361.725830	2548.948537
362.114398	2549.404761
362.502903	2551.716130
362.891344	2549.205636
363.279722	2548.303269
363.668037	2551.123795
364.056289	2549.593805
364.444478	2551.012889
364.832603	2551.736295
365.220665	2551.517005
365.608665	2552.547921
365.996601	2553.475493
366.384474	2552.167314
366.772284	2550.536500
367.160031	2555.791903
367.547715	2554.128322
367.935336	2553.223435
368.322893	2554.879454
368.710388	2549.117416
369.097820	2553.833415
369.485189	2550.319731
369.872495	2558.372974
370.259738	2556.532953
370.646918	2555.817109
371.034035	2554.725699
371.421090	2559.575289
371.808081	2557.026986
372.195010	2558.458674
372.581875	2557.125288
372.968678	2558.483879
373.355418	2557.334496
373.742096	2558.549414
374.128710	2559.930691
374.515262	2562.121072
374.901751	2562.297512
375.288177	2562.564693
375.674540	2559.416493
376.060841	2561.551422
376.447079	2560.502862
376.833254	2561.153170
377.219367	2561.561504
377.605417	2560.835578
377.991404	2561.634601
378.377329	2561.334652
378.763191	2562.975547
379.148991	2563.343552
379.534727	2562.078222
379.920402	2563.217523
380.306013	2566.723645
380.691563	2564.956721
381.077049	2565.997719
381.462474	2562.191648
381.847835	2566.027966
382.233134	2565.823799
382.618371	2566.340518
383.003545	2566.020404
383.388657	2567.023594
383.773706	2566.761454
384.158693	2565.738100
384.543618	2566.980744
384.928480	2567.217678
385.313280	2566.912689
385.698017	2565.211299
386.082692	2565.745662
386.467305	2566.600137
386.851856	2569.365210
387.236344	2570.411249
387.620770	2567.595765
388.005133	2564.064437
388.389435	2567.283213
388.773674	2566.116186
389.157851	2570.383523
389.541965	2569.624829
389.926018	2571.699264
390.310008	2571.706826
390.693936	2572.145406
391.077802	2572.238668
391.461606	2576.158165
391.845348	2572.248750
392.229027	2571.585838
392.612645	2573.791343
392.996200	2572.896538
393.379694	2572.397464
393.763125	2573.705643
394.146494	2573.262022
394.529801	2575.838052
394.913047	2577.148752
395.296230	2575.898545
395.679351	2575.638926
396.062410	2576.551375
396.445408	2575.512897
396.828343	2576.687486
397.211217	2576.228741
397.594028	2576.914338
397.976778	2577.368042
398.359466	2576.329564
398.742092	2578.683783
399.124656	2576.226220
399.507158	2578.887950
399.889598	2579.679411
400.271977	2576.758062
400.654294	2577.413412
401.036549	2581.678228
401.418742	2578.729153
401.800874	2579.820563
402.182944	2580.193608
402.564952	2579.923907
402.946898	2580.085224
403.328783	2581.499267
403.710606	2584.513877
404.092367	2580.831314
404.474067	2582.867941
404.855705	2584.516398
405.237282	2582.356263
405.618797	2584.110585
406.000250	2582.850297
406.381642	2584.413054
406.762972	2583.132601
407.144240	2582.401634
407.525447	2585.378435
407.906593	2581.718557
408.287677	2584.733168
408.668700	2586.684094
409.049661	2585.015472
409.430560	2586.416913
409.811399	2587.467993
410.192176	2588.156111
410.572891	2590.868252
410.953545	2590.427151
411.334138	2586.300966
411.714669	2589.116451
412.095139	2589.421441
412.475547	2590.417068
412.855894	2591.211050
413.236180	2587.944382
413.616405	2591.952100
413.996568	2588.942531
414.376670	2590.036461
414.756711	2590.759867
415.136691	2591.082501
415.516609	2590.492686
415.896466	2595.289344
416.276262	2591.281626
416.655997	2593.247676
417.035670	2594.051740
417.415283	2596.431165
417.794834	2594.318922
418.174324	2591.226174
418.553753	2595.614498
418.933121	2593.008222
419.312428	2592.413365
419.691674	2594.424786
420.070859	2596.100969
420.449983	2593.706421
420.829045	2592.194075
421.208047	2594.386977
421.586988	2592.413365
421.965867	2595.758171
422.344686	2597.641042
422.723444	2598.457709
423.102141	2595.949735
423.480777	2596.388315
423.859352	2595.778336
424.237866	2599.498707
424.616319	2597.215064
424.994712	2598.762699
425.373044	2601.686568
425.751314	2599.891917
426.129524	2595.647266
426.507673	2598.853439
426.885762	2596.506782
427.263789	2603.014912
427.641756	2604.625561
428.019662	2602.682196
428.397508	2603.793770
428.775292	2606.460541
429.153016	2605.946343
429.530679	2602.541043
429.908282	2603.965169
430.285824	2607.264605
430.663305	2607.589759
431.040726	2608.943309
431.418086	2607.617485
431.795385	2608.134204
432.172624	2610.125459
432.549802	2610.571602
432.926920	2610.168309
433.303977	2612.305758
433.680974	2613.566047
434.057910	2613.223248
434.434786	2617.397324
434.811601	2614.246603
435.188355	2614.148300
435.565050	2615.650564
435.941683	2619.141563
436.318257	2620.623662
436.694770	2618.493775
437.071222	2623.456791
437.447614	2624.391925
437.823946	2623.792027
438.200218	2623.330762
438.576429	2627.920732
438.952580	2626.972996
439.328670	2629.826289
439.704700	2632.097328
440.080670	2632.067082
440.456580	2634.081022
440.832429	2638.953298
441.208218	2639.656539
441.583947	2641.612506
441.959616	2643.455048
442.335224	2650.784886
442.710773	2653.522232
443.086261	2656.945176
443.461689	2662.084632
443.837057	2665.321053
444.212365	2672.663493
444.587612	2679.174144
444.962800	2681.102385
445.337927	2688.976667
445.712995	2690.214271
446.088002	2709.226982
446.462949	2718.492623
446.837837	2724.995712
447.212664	2740.824935
447.587431	2769.567073
447.962139	2805.233237
448.336786	2837.098370
448.711374	2844.264370
449.085901	2836.647187
449.460369	2849.600432
449.834776	2870.049872
450.209124	2923.995260
450.583412	2939.559822
450.957640	2966.570324
451.331808	2982.069352
451.705917	2984.274857
452.079965	3012.863240
452.453954	3048.093344
452.827883	3079.797160
453.201752	3108.045266
453.575562	3145.342243
453.949311	3202.791232
454.323001	3248.358222
454.696632	3285.728295
455.070202	3372.176522
455.443713	3419.550765
455.817164	3485.022751
456.190556	3565.842529
456.563888	3598.393259
456.937160	3672.810772
457.310373	3672.467974
457.683526	3729.400245
458.056619	3789.410140
458.429653	3858.665512
458.802628	3944.884366
459.175542	4016.758617
459.548398	4164.819826
459.921194	4327.402079
460.293930	4455.281028
460.666607	4682.001882
461.039224	4892.699427
461.411782	5023.782030
461.784280	5043.150143
462.156719	5106.588023
462.529099	5177.549825
462.901419	5143.464063
463.273680	5160.621631
463.645882	5300.193537
464.018024	5388.088574
464.390106	5583.375313
464.762130	5987.985882
465.134094	6545.666047
465.505999	7267.962570
465.877845	7944.719830
466.249631	8330.458840
466.621358	8295.785784
466.993026	8201.327163
467.364634	8145.756004
467.736184	8076.437618
468.107674	8047.647588
468.479105	8139.293245
468.850477	8191.602778
469.221790	8184.880399
469.593043	8094.691636
469.964238	8105.862833
470.335373	8275.469934
470.706449	8735.273576
471.077467	9328.629987
471.448425	10401.344675
471.819324	11143.190793
472.190164	11093.943761
472.560945	10546.131655
472.931667	10091.616183
473.302330	10132.797369
473.672934	10080.583618
474.043479	10411.807590
474.413965	10462.438419
474.784393	10523.360763
475.154761	10955.458224
475.525070	11161.139821
475.895321	11231.007693
476.265513	11616.345931
476.635645	12064.615413
477.005719	12243.052095
477.375734	12592.608223
477.745691	13080.339858
478.115588	13604.551802
478.485427	14450.144866
478.855207	15682.941395
479.224928	16842.308477
479.594591	17722.277169
479.964194	17592.850585
480.333739	18013.466818
480.703226	18405.035923
481.072653	18910.310773
481.442022	19410.922555
481.811333	19779.428381
482.180584	19648.973402
482.549777	19708.965653
482.918912	19760.236708
483.287988	19918.886861
483.657005	19972.786878
484.025964	19926.945145
484.394864	20228.282637
484.763706	20363.816579
485.132489	20200.611744
485.501213	20423.087945
485.869879	20723.999459
486.238487	20855.243379
486.607036	21211.463913
486.975527	21175.270949
487.343959	21570.441958
487.712333	21959.366977
488.080648	22111.793825
488.448905	22581.140372
488.817104	22697.860727
489.185244	23545.278689
489.553326	24605.456028
489.921350	26280.686904
490.289315	28338.743002
490.657222	29040.378357
491.025070	29537.415961
491.392861	29399.994107
491.760593	28912.300281
492.128267	28258.820549
492.495883	27660.922059
492.863440	27124.959185
493.230939	26550.635651
493.598380	26264.522444
493.965763	26317.542779
494.333088	26071.327784
494.700354	26041.915172
495.067563	26163.762381
495.434713	26206.443310
495.801805	26592.562928
496.168839	26593.364471
496.535815	26596.585768
496.902733	26842.500815
497.269593	26804.891286
497.636395	27059.512405
498.003139	27427.680474
498.369825	27327.548035
498.736453	27798.543039
499.103023	27778.146530
499.469535	27960.711917
499.835989	28188.622482
500.202385	28163.441919
500.568723	28328.280088
500.935003	28733.523322
501.301226	28731.103568
501.667390	29453.571490
502.033497	29713.805934
502.399546	29616.516706
502.765537	29333.103037
503.131470	29853.894558
503.497345	30331.183443
503.863163	29454.667941
504.228923	30252.463305
504.594625	30695.300944
504.960269	30284.593099
505.325856	30988.864977
505.691385	30752.371847
506.056856	31115.062701
506.422270	31629.812400
506.787625	31267.784457
507.152924	31751.112644
507.518164	32000.705212
507.883347	31637.227937
508.248472	31836.978617
508.613540	32539.813766
508.978550	32832.251101
509.343503	32729.487179
509.708398	33120.416057
510.073236	33763.934469
510.438016	33891.657143
510.802738	33636.852022
511.167403	34213.136565
511.532010	34511.898027
511.896561	35008.698698
512.261053	35775.097755
512.625488	35597.881033
512.989866	35578.296150
513.354186	35660.875291
513.718449	35653.495042
514.082655	36536.382562
514.446803	36277.539477
514.810894	36903.393685
515.174927	36956.908054
515.538904	36977.851528
515.902822	37620.490258
516.266684	37350.801130
516.630488	37726.354489
516.994235	37759.681557
517.357925	38366.560863
517.721558	38646.939757
518.085133	39033.964262
518.448651	39235.000436
518.812112	39138.732042
519.175516	39315.263167
519.538863	39776.067478
519.902152	39848.282007
520.265385	40390.006920
520.628560	40438.732193
520.991678	40403.066029
521.354739	40648.376137
521.717743	41016.536643
522.080690	40949.136417
522.443580	41618.581483
522.806413	41654.217399
523.169189	41794.232927
523.531908	42034.501881
523.894569	41915.598706
524.257174	42102.544855
524.619722	42460.582724
524.982213	42619.129533
525.344647	42653.381653
525.707025	42780.890078
526.069345	43225.716452
526.431608	43152.554187
526.793815	43532.568966
527.155964	43101.832617
527.518057	43368.890263
527.880093	43217.239752
528.242072	43846.927758
528.603995	43604.856592
528.965860	43537.022826
529.327669	43763.093370
529.689421	43817.570599
530.051117	43774.231799
530.412755	44072.237088
530.774337	44144.920445
531.135862	44071.392695
531.497331	44234.360596
531.858743	44243.517852
532.220098	44631.331297
532.581396	44375.283531
532.942638	44147.080579
533.303824	44390.974123
533.664953	44456.173886
534.026025	44156.187423
534.387040	44710.061517
534.747999	44797.727182
535.108902	45110.949194
535.469748	44447.016630
535.830537	44696.180700
536.191270	44939.469305
536.551947	44695.222881
536.912567	44977.519934
537.273131	45139.928267
537.633638	44773.847237
537.994089	44971.500797
538.354483	44707.402308
538.714821	45363.813471
539.075103	45651.398695
539.435328	45508.703795
539.795497	45261.538542
540.155609	45390.627369
540.515665	45972.633621
540.875665	45293.693542
541.235609	45576.860195
541.595496	45689.504777
541.955328	46259.298835
542.315102	45700.411314
542.674821	45589.654643
543.034483	45496.436147
543.394090	45510.440472
543.753640	45484.155896
544.113134	46548.295582
544.472571	45653.117729
544.831953	46784.471119
545.191278	46047.605661
545.550548	45733.748464
545.909761	46375.010960
546.268918	46512.921805
546.628019	46932.355888
546.987064	46368.112141
547.346053	45662.267423
547.704986	46578.950838
548.063863	46234.496358
548.422684	46435.855166
548.781449	46019.138266
549.140158	46564.197902
549.498811	46319.076837
549.857408	45719.376134
550.215949	46545.928760
550.574434	46397.968374
550.932864	46313.796228
551.291237	47028.798202
551.649555	46799.952502
552.007817	46973.736199
552.366022	46635.913356
552.724173	46703.139663
553.082267	47113.088815
553.440305	47463.176785
553.798288	46721.239926
554.156215	47104.639841
554.514086	47293.985579
554.871902	46923.990093
555.229661	47095.371680
555.587365	46781.025490
555.945014	46917.343332
556.302606	46927.861699
556.660143	47032.778193
557.017625	47243.213598
557.375050	46939.388297
557.732421	47349.904578
558.089735	47407.247703
558.446994	47273.629400
558.804197	47759.546219
559.161345	47615.021380
559.518437	46962.721278
559.875474	47224.140393
560.232455	47458.317112
560.589381	47495.031836
560.946251	47304.272054
561.303065	47964.285121
561.659825	47658.602155
562.016528	47456.363665
562.373177	47049.073723
562.729770	47667.885440
563.086307	47195.935137
563.442789	47731.411540
563.799216	47589.175384
564.155587	47462.339953
564.511904	47440.259699
564.868164	47490.734252
565.224370	47806.842325
565.580520	47520.872791
565.936615	47727.769306
566.292654	47380.723672
566.648638	47748.319570
567.004567	47681.846915
567.360441	47786.554201
567.716260	47505.998866
568.072023	47865.826345
568.427732	47811.069332
568.783385	47338.574585
569.138982	47736.740039
569.494525	47867.560502
569.850013	47481.715628
570.205445	47601.765666
570.560823	47377.658651
570.916145	47251.498735
571.271412	47473.228846
571.626625	47138.138308
571.981782	47217.216368
572.336884	46805.651527
572.691931	47139.141498
573.046923	46802.178172
573.401860	46635.442008
573.756743	46643.054151
574.111570	46798.966957
574.466342	46718.610965
574.821059	46854.613734
575.175722	46372.613891
575.530330	46471.632235
575.884882	46105.664630
576.239380	46004.052613
576.593823	46096.943434
576.948211	46016.300096
577.302544	45573.059165
577.656823	45568.186889
578.011047	45829.752198
578.365216	45649.193191
578.719330	45388.555454
579.073389	45348.427870
579.427394	45392.318676
579.781344	45326.670250
580.135239	45088.072438
580.489080	45146.149051
580.842866	44644.866795
581.196597	45127.441329
581.550273	45126.793541
581.903895	45074.852012
582.257463	45510.700092
582.610975	44932.633501
582.964434	45261.462925
583.317837	44788.602694
583.671186	44726.926697
584.024481	45004.283420
584.377721	44557.372529
584.730906	44768.606957
585.084037	44887.704217
585.437113	44592.121202
585.790135	44716.778855
586.143103	44261.882776
586.496016	44436.324343
586.848874	44540.182194
587.201679	44560.666923
587.554428	44057.960541
587.907124	44349.465262
588.259765	44107.167243
588.612352	44277.389365
588.964884	43727.848143
589.317362	44042.164085
589.669786	44021.512998
590.022155	43884.655754
590.374470	44337.089229
590.726731	43912.566102
591.078937	43251.343158
591.431090	43583.277933
591.783188	43130.751196
592.135232	42897.111359
592.487222	43170.813246
592.839157	43337.254502
593.191038	42967.069972
593.542866	42774.175261
593.894639	42174.063704
594.246358	42484.495438
594.598022	42476.338851
594.949633	42044.654765
595.301190	42019.857329
595.652692	41966.854637
596.004141	42430.108949
596.355535	41360.043387
596.706876	41360.834848
597.058162	41080.440830
597.409395	41569.699934
597.760573	41784.563994
598.111698	41402.126939
598.462768	41323.379075
598.813785	41336.884326
599.164748	40946.260438
599.515657	41211.994781
599.866511	40732.079455
600.217312	41410.913671
600.568060	40356.485768
600.918753	41172.451970
601.269392	41088.060534
601.619978	40799.550258
601.970510	41007.593637
602.320988	41149.648311
602.671412	41423.617378
603.021783	41283.571604
603.372100	40847.108504
603.722363	40963.571761
604.072572	40996.182985
604.422728	40991.308189
604.772830	40767.150763
605.122878	40934.461618
605.472872	40781.513010
605.822813	41049.268855
606.172701	40795.965998
606.522534	41124.976904
606.872314	41329.904849
607.222041	41171.955417
607.571714	41495.978101
607.921333	40993.564105
608.270899	41197.675383
608.620411	41599.160437
608.969870	41324.412512
609.319276	41338.220232
609.668627	41370.594522
610.017926	41763.529779
610.367171	41892.737073
610.716362	41955.673358
611.065500	41824.225272
611.414585	42042.366081
611.763616	42234.018147
612.112594	42123.193421
612.461518	42260.741304
612.810389	42643.238852
613.159207	42443.246196
613.507971	42422.590068
613.856682	42896.181267
614.205340	42731.456523
614.553945	43399.353955
614.902496	42754.867642
615.250994	43169.691589
615.599439	43238.198349
615.947830	43342.600645
616.296169	43345.776572
616.644454	43393.367585
616.992686	43551.130495
617.340864	44004.509187
617.688990	43548.640165
618.037063	44211.277153
618.385082	44032.520358
618.733048	44368.172984
619.080961	44238.653139
619.428821	44259.130306
619.776628	44276.925579
620.124382	44088.174696
620.472083	44197.726531
620.819731	44286.138287
621.167326	43848.397255
621.514868	43830.501159
621.862357	43309.870954
622.209793	43393.934715
622.557176	42963.132831
622.904506	42704.645147
623.251783	42344.432019
623.599007	42032.016592
623.946179	41956.910961
624.293297	41691.247195
624.640363	41150.654021
624.987376	40999.144663
625.334336	40784.830089
625.681243	40390.170758
626.028097	40292.508484
626.374899	40110.961411
626.721647	40078.869425
627.068343	39878.012212
627.414987	39588.274415
627.761577	39332.065333
628.108115	39666.583699
628.454600	38900.892924
628.801032	39153.653857
629.147412	39047.726612
629.493739	38965.994384
629.840014	38533.917088
630.186236	38952.075759
630.532405	38401.075123
630.878521	38635.266966
631.224585	38407.290865
631.570597	38078.189219
631.916556	38238.323991
632.262462	38120.708831
632.608316	38056.227432
632.954117	37910.427181
633.299866	37889.342555
633.645562	37793.260683
633.991206	37260.335104
634.336797	36858.860132
634.682336	36744.373008
635.027823	36509.533377
635.373257	36390.181539
635.718639	36064.462506
636.063968	35952.909333
636.409245	35295.678983
636.754470	35263.299652
637.099642	35035.963778
637.444762	34480.632791
637.789829	34618.621775
638.134845	34237.568517
638.479808	34167.824154
638.824719	34093.608287
639.169577	33596.265692
639.514383	33703.186045
639.859137	33315.430573
640.203839	33470.516630
640.548489	33180.854451
640.893086	33183.377548
641.237632	32921.204781
641.582125	33022.279915
641.926566	32816.792402
642.270955	32851.803216
642.615292	32770.234826
642.959576	32666.447551
643.303809	32660.279699
643.647990	32770.010495
643.992118	32702.103632
644.336195	32561.848649
644.680219	32645.594818
645.024192	32846.502443
645.368112	33372.861918
645.711981	33396.956113
646.055797	34127.089110
646.399562	33942.363589
646.743274	34819.100901
647.086935	35211.768977
647.430544	35175.523081
647.774101	35206.417793
648.117606	35489.418087
648.461059	35630.608203
648.804460	35206.291764
649.147810	34722.867795
649.491108	34340.060216
649.834354	34204.148188
650.177548	33371.336969
650.520690	32889.765625
650.863781	32853.819677
651.206820	32697.566593
651.549807	32300.684113
651.892742	31721.241287
652.235626	31620.007356
652.578458	31499.312050
652.921238	30810.329992
653.263967	31120.013114
653.606644	30827.328763
653.949269	30735.272253
654.291843	30344.308087
654.634365	30707.205629
654.976836	30265.724060
655.319255	30322.958800
655.661622	30198.706961
656.003938	30069.358515
656.346203	29882.533353
656.688416	30126.341198
657.030577	29893.823018
657.372687	29726.839838
657.714746	29887.088036
658.056753	30065.587732
658.398708	29462.161617
658.740612	29524.016574
659.082465	29726.628109
659.424266	29619.901841
659.766016	29642.375305
660.107715	29491.733025
660.449362	29591.643653
660.790958	29588.752551
661.132503	29502.316927
661.473996	29571.141280
661.815438	29651.555246
662.156829	29785.034918
662.498168	29591.250443
662.839456	29564.053418
663.180693	29680.824185
663.521879	29777.624421
663.863013	29735.855941
664.204097	29700.376300
664.545129	30113.692943
664.886110	30062.399202
665.227040	30164.480047
665.567918	30169.397693
665.908746	30234.887322
666.249522	30326.227989
666.590248	30353.394767
666.930922	30451.399839
667.271545	30445.783993
667.612118	30515.598933
667.952639	30309.682922
668.293109	30331.836272
668.633528	30202.018999
668.973896	30157.775312
669.314213	30141.628497
669.654480	29952.121441
669.994695	29941.212384
670.334859	29855.505207
670.674973	29696.832369
671.015035	29888.393695
671.355047	29810.601129
671.695008	29752.000236
672.034918	29667.331537
672.374777	29756.794374
672.714585	29638.203750
673.054342	29760.981052
673.394049	29627.571957
673.733705	29837.649440
674.073310	29563.836648
674.412864	29613.209709
674.752368	29300.844693
675.091820	29533.493943
675.431223	29133.619538
675.770574	28934.995556
676.109875	28772.249466
676.449125	28569.895030
676.788324	28449.126628
677.127473	27984.738056
677.466571	27885.762562
677.805619	27610.245860
678.144616	27539.742803
678.483562	27484.595101
678.822458	27189.359926
679.161303	27110.289427
679.500098	27043.191670
679.838842	26968.073436
680.177535	27054.952682
680.516179	27302.899313
680.854771	27438.478625
681.193314	28218.909734
681.531805	29240.043337
681.870247	29985.730814
682.208638	30703.427284
682.546978	30979.080097
682.885268	31104.055342
683.223508	30667.685503
683.561697	30382.882996
683.899836	30228.232999
684.237925	29811.813527
684.575963	29677.628094
684.913951	29312.104111
685.251889	29484.244391
685.589776	29511.038124
685.927614	29526.257367
686.265401	29715.560256
686.603137	29833.394706
686.940824	30340.890185
687.278460	30679.413748
687.616046	30846.648985
687.953582	31499.415394
688.291068	31425.428900
688.628504	31739.139903
688.965889	31739.195356
689.303224	31476.795737
689.640510	31175.488492
689.977745	30532.630471
690.314930	29798.910693
690.652065	29341.335241
690.989150	28678.978037
691.326185	27842.355707
691.663170	27193.324793
692.000105	26459.743647
692.336990	25869.729522
692.673825	25437.405209
693.010610	24948.791372
693.347345	24467.507373
693.684030	23833.176464
694.020665	23638.287977
694.357251	22965.024237
694.693786	22974.826761
695.030272	22731.371797
695.366707	22255.239858
695.703093	21980.565029
696.039429	22051.368035
696.375716	21821.993014
696.711952	21822.895381
697.048139	21692.558868
697.384276	21532.678674
697.720363	21650.114874
698.056400	21533.752440
698.392388	21389.973691
698.728326	21389.830018
699.064214	21215.519521
699.400053	21220.583360
699.735842	20836.694454
700.071581	20633.614092
700.407270	20379.592870
700.742910	20213.227231
701.078501	19962.432348
701.414042	19760.425752
701.749533	19450.230953
702.084974	19145.256268
702.420366	19372.753459
702.755709	18961.170974
703.091002	18670.099792
703.426246	18728.312516
703.761440	18667.140635
704.096584	18421.543181
704.431679	18367.186940
704.766725	18309.957241
705.101721	18240.230521
705.436668	18363.048152
705.771565	18092.302903
706.106413	18412.219567
706.441212	18487.352924
706.775961	18586.847657
707.110661	18670.669442
707.445311	19044.828922
707.779913	18920.362833
708.114465	19210.403099
708.448967	19531.151554
708.783421	20156.516771
709.117825	20530.797238
709.452180	20763.610326
709.786485	21224.802806
710.120742	21984.746666
710.454949	22095.606680
710.789107	22601.746088
711.123216	23307.517709
711.457275	23528.070710
711.791286	24085.284568
712.125247	24239.180913
712.459159	23957.324960
712.793023	24700.166706
713.126837	23666.586494
713.460602	23917.008332
713.794318	23577.199275
714.127985	23294.186377
714.461602	22403.664030
714.795171	22372.711345
715.128691	21402.044734
715.462162	20882.105168
715.795584	20457.251845
716.128957	20178.823877
716.462281	19804.964346
716.795556	19520.802065
717.128782	19058.122445
717.461960	18463.946847
717.795088	18422.294313
718.128167	18078.548114
718.461198	17628.730998
718.794180	17495.425246
719.127113	17163.780338
719.459997	16973.431409
719.792833	16614.120648
720.125619	16649.779250
720.458357	16322.525187
720.791046	16192.385279
721.123686	16036.026331
721.456278	15814.397043
721.788821	15815.879143
722.121315	15554.253340
722.453761	15657.294525
722.786158	15548.750921
723.118506	15616.796416
723.450805	15497.116903
723.783056	15687.135635
724.115259	15585.594194
724.447412	15578.987762
724.779518	15788.379648
725.111574	15839.330590
725.443582	16109.785974
725.775542	16065.514561
726.107453	16587.435301
726.439315	16516.236564
726.771129	16922.356959
727.102895	17344.966968
727.434612	17622.583311
727.766281	17786.206562
728.097901	18105.397300
728.429473	18188.878807
728.760996	18200.571764
729.092471	18316.828333
729.423897	18202.326085
729.755276	18076.665243
730.086606	18190.401236
730.417887	18779.807903
730.749120	19328.650925
731.080305	19555.649041
731.411442	19935.436969
731.742530	20060.714683
732.073570	20213.370904
732.404562	20531.056858
732.735506	20370.082733
733.066401	20157.267903
733.397249	19657.145112
733.728048	19032.304175
734.058798	18167.358122
734.389501	17407.298315
734.720156	16906.366419
735.050762	16329.902915
735.381320	15957.991790
735.711831	15675.157854
736.042293	15315.819366
736.372707	15356.251941
736.703073	15153.277443
737.033391	15353.191960
737.363661	15351.588873
737.693883	15480.065200
738.024056	15679.213462
738.354182	15901.576237
738.684260	16268.252124
739.014290	16544.212447
739.344272	16771.462622
739.674207	17116.332998
740.004093	17291.034184
740.333931	17337.904312
740.663722	17419.951611
740.993464	17450.687526
741.323159	17301.265206
741.652806	16996.159452
741.982405	16827.812639
742.311956	16466.888709
742.641460	16358.599683
742.970915	16027.690783
743.300323	15669.655434
743.629683	15459.502333
743.958996	15143.137162
744.288260	14834.132075
744.617477	14522.137584
744.946647	14493.987781
745.275768	14183.367005
745.604842	13976.500736
745.933869	13802.550681
746.262847	13783.086786
746.591778	13697.818190
746.920662	13583.497423
747.249498	13584.114965
747.578286	13755.299946
747.907027	13929.242439
748.235720	14192.173900
748.564365	14273.568370
748.892963	14183.253579
749.221514	14292.296257
749.550017	14144.782013
749.878473	14126.598571
750.206881	13894.972675
750.535242	13830.823993
750.863555	13744.809305
751.191821	13647.399089
751.520039	13672.715764
751.848210	13597.405967
752.176334	13647.315910
752.504411	13572.447214
752.832440	13390.970717
753.160421	13504.008509
753.488356	13396.647056
753.816243	13304.963591
754.144082	13141.254640
754.471875	13086.626177
754.799620	13061.556519
755.127318	13029.787167
755.454969	13014.005835
755.782572	12988.550529
756.110129	13010.454342
756.437638	12914.488417
756.765100	12918.778439
757.092515	12953.191876
757.419882	12982.307060
757.747203	12994.879697
758.074477	13090.165067
758.401703	13072.873909
758.728882	13270.925720
759.056014	13314.256958
759.383099	13484.292557
759.710138	13604.103140
760.037129	13733.494435
760.364073	13789.731027
760.690970	13816.088700
761.017820	13838.209283
761.344623	14060.274631
761.671379	14434.386219
761.998088	15146.610517
762.324751	16926.392403
762.651366	20337.302630
762.977935	24810.497399
763.304456	27748.507066
763.630931	28780.673234
763.957359	27549.288228
764.283740	25289.654031
764.610074	23019.561960
764.936362	20386.436236
765.262602	18517.463736
765.588796	16604.025738
765.914943	15319.045705
766.241044	14231.406680
766.567097	13452.873565
766.893104	12729.410015
767.219064	12270.470931
767.544978	11795.921913
767.870845	11412.763974
768.196665	11196.775738
768.522438	10957.204983
768.848165	10759.269119
769.173846	10554.779754
769.499479	10424.102964
769.825066	10256.270350
770.150607	10035.087204
770.476101	9956.488054
770.801548	9830.232356
771.126949	9666.379732
771.452303	9557.785717
771.777611	9357.924132
772.102872	9346.503397
772.428087	9203.266573
772.753256	9049.604642
773.078378	8962.392680
773.403453	8780.790154
773.728482	8671.145058
774.053465	8603.293648
774.378401	8493.459508
774.703291	8375.690593
775.028135	8251.751305
775.352932	8218.169658
775.677683	8107.712937
776.002388	8005.059921
776.327046	8019.366715
776.651658	7918.896519
776.976224	7819.401786
777.300743	7817.155952
777.625216	7730.677479
777.949643	7687.936056
778.274024	7698.257818
778.598359	7618.083308
778.922647	7638.510063
779.246889	7585.993843
779.571086	7591.271931
779.895236	7607.401103
780.219339	7614.798996
780.543397	7621.460881
780.867409	7696.672375
781.191374	7707.140331
781.515294	7673.815784
781.839167	7764.538909
782.162995	7737.351966
782.486776	7681.385076
782.810511	7636.637274
783.134201	7548.222998
783.457844	7539.055659
783.781441	7485.690005
784.104993	7419.703821
784.428498	7401.840493
784.751958	7381.118830
785.075372	7358.146292
785.398739	7298.751417
785.722061	7347.017945
786.045337	7347.257399
786.368568	7504.430494
786.691752	7530.604165
787.014891	7875.436732
787.337983	8232.536947
787.661030	8830.556425
787.984031	9456.748391
788.306987	9859.889464
788.629897	10066.213809
788.952760	10005.629222
789.275579	9778.931054
789.598351	9382.497236
789.921078	9031.365747
790.243759	8617.736553
790.566395	8322.347623
790.888984	8072.676917
791.211529	7861.432407
791.534027	7643.841083
791.856480	7447.853624
792.178888	7370.882767
792.501249	7272.839886
792.823566	7123.248687
793.145836	7125.328163
793.468062	7095.151816
793.790241	7048.982409
794.112375	7116.382636
794.434464	7266.825790
794.756507	7312.218860
795.078505	7472.978735
795.400457	7782.787886
795.722364	8142.733832
796.044226	8428.481556
796.366042	8699.738482
796.687812	8645.835945
797.009538	8723.494920
797.331218	8613.270091
797.652852	8533.665231
797.974442	8375.970377
798.295986	8291.891492
798.617484	8098.101977
798.938938	7954.136705
799.260346	7849.792382
799.581709	7653.845253
799.903026	7574.459683
800.224299	7467.814073
800.545526	7296.679503
800.866708	7202.684669
801.187845	7133.094061
801.508936	7027.880139
801.829983	6992.965107
802.150984	6840.145049
802.471940	6800.062835
802.792851	6781.602129
803.113717	6752.683550
803.434538	6714.438837
803.755314	6661.723491
804.076045	6661.783985
804.396731	6612.090811
804.717372	6647.482231
805.037967	6642.907384
805.358518	6685.038827
805.679024	6771.779441
805.999485	6783.810155
806.319901	6827.048131
806.640272	6848.115113
806.960598	6930.777433
807.280879	6933.900428
807.601115	7012.875144
807.921306	6953.903727
808.241453	6962.743390
808.561554	6986.867832
808.881611	6949.772501
809.201623	6958.443286
809.521590	6902.909935
809.841513	6884.514764
810.161390	6923.855929
810.481223	6786.698736
810.801011	6775.008300
811.120755	6749.381594
811.440453	6671.329409
811.760107	6634.960005
812.079716	6610.190296
812.399281	6541.832249
812.718801	6529.471340
813.038276	6486.445092
813.357707	6424.506955
813.677093	6463.407019
813.996434	6376.926025
814.315731	6414.026397
814.634983	6406.510036
814.954191	6420.874804
815.273354	6523.815166
815.592473	6589.297233
815.911547	6715.379012
816.230577	6799.402443
816.549562	6938.818074
816.868502	7046.792027
817.187399	7140.401213
817.506250	7290.488966
817.825058	7325.343504
818.143821	7594.720080
818.462539	7868.558077
818.781213	8232.804128
819.099843	8784.785268
819.418429	9783.014388
819.736970	10755.873902
820.055466	11933.676483
820.373919	13457.806334
820.692327	15802.298274
821.010691	19952.549166
821.329011	28934.070504
821.647286	41917.090887
821.965517	55362.133020
822.283704	60744.424268
822.601847	62710.481829
822.919945	59974.345168
823.237999	55730.578352
823.556010	49507.677221
823.873976	42792.698981
824.191897	36283.185569
824.509775	31476.828504
824.827609	26959.997508
825.145398	24392.217741
825.463144	23043.230177
825.780845	23355.330532
826.098502	25151.465922
826.416116	28942.355641
826.733685	32585.844542
827.051210	33756.952471
827.368692	31973.924082
827.686129	27994.104520
828.003522	23883.358630
828.320872	20174.039822
828.638177	17327.466603
828.955439	15190.922259
829.272656	13376.961350
829.589830	11910.973647
829.906960	10642.919288
830.224046	9710.275580
830.541088	8965.261097
830.858086	8502.629367
831.175041	8136.888614
831.491952	8013.597115
831.808819	8065.326915
832.125642	8464.510682
832.442421	9348.850055
832.759157	11155.876857
833.075849	14088.124485
833.392497	17302.790155
833.709101	19474.425970
834.025662	19317.651127
834.342179	17598.027850
834.658653	15403.149795
834.975083	13479.848780
835.291469	11869.295908
835.607811	10557.048273
835.924110	9640.027101
836.240366	8774.970142
836.556578	7977.469686
836.872746	7341.749939
837.188871	6836.875861
837.504952	6422.873622
837.820990	6113.893741
838.136984	5897.744187
838.452935	5800.991842
838.768842	5835.768242
839.084706	6261.907059
839.400526	7475.247254
839.716303	9052.485661
840.032037	10141.516044
840.347727	10068.300846
840.663373	9087.017565
840.978977	8039.158285
841.294537	7232.455203
841.610054	6639.925542
841.925527	6208.095262
842.240957	5848.817268
842.556344	5520.738976
842.871687	5230.595367
843.186987	4950.886945
843.502244	4730.770004
843.817458	4569.236311
844.132629	4432.527781
844.447756	4345.585521
844.762840	4264.032254
845.077881	4188.926624
845.392879	4132.011997
845.707833	4077.678441
846.022745	4035.242008
846.337613	4005.022811
846.652438	3963.997901
846.967221	3946.726908
847.281960	3913.553595
847.596656	3896.907705
847.911309	3878.205024
848.225919	3853.997403
848.540485	3836.287830
848.855009	3824.224349
849.169490	3802.459167
849.483928	3791.930717
849.798323	3783.058287
850.112675	3763.226387
850.426984	3770.223509
850.741251	3754.142228
851.055474	3751.951847
851.369654	3758.119698
851.683792	3748.765838
851.997887	3760.592384
852.311938	3760.635234
852.625947	3765.936008
852.939914	3753.305397
853.253837	3764.731172
853.567718	3763.854011
853.881555	3750.379007
854.195350	3763.687653
854.509103	3761.988784
854.822812	3760.405862
855.136479	3749.700972
855.450103	3762.686984
855.763685	3747.563522
856.077224	3752.143411
856.390720	3766.866100
856.704173	3790.015079
857.017584	3806.088798
857.330953	3814.449552
857.644278	3836.736493
857.957561	3842.178418
858.270802	3843.763861
858.584000	3845.591279
858.897155	3832.985874
859.210268	3820.236796
859.523339	3796.709731
859.836367	3793.062456
860.149352	3789.997435
860.462295	3780.588121
860.775195	3769.500103
861.088054	3765.787293
861.400869	3763.811161
861.713642	3765.625977
862.026373	3775.257101
862.339062	3779.723563
862.651708	3802.746513
862.964312	3838.226154
863.276873	3848.003472
863.589392	3903.662851
863.901869	3948.947536
864.214303	3996.823374
864.526696	4027.493754
864.839045	4075.621650
865.151353	4098.916822
865.463619	4112.273359
865.775842	4113.629429
866.088023	4134.497286
866.400162	4126.655771
866.712258	4129.347747
867.024313	4133.758757
867.336325	4131.921256
867.648296	4139.619098
867.960224	4137.010301
868.272110	4148.108401
868.583954	4147.848782
868.895755	4164.444260
869.207515	4160.295391
869.519233	4202.686453
869.830909	4215.937126
870.142542	4244.427207
870.454134	4256.672170
870.765684	4284.055718
871.077191	4318.317920
871.388657	4342.661652
871.700081	4379.981313
872.011463	4427.781534
872.322803	4458.358653
872.634101	4490.430474
872.945357	4533.595353
873.256571	4584.435390
873.567744	4616.295482
873.878874	4635.096466
874.189963	4672.965613
874.501010	4681.757386
874.812015	4676.905275
875.122979	4721.675762
875.433900	4715.356676
875.744780	4734.233277
876.055618	4757.662039
876.366415	4759.333182
876.677169	4776.037045
876.987882	4821.278880
877.298554	4876.106469
877.609183	4956.117143
877.919771	5067.314914
878.230317	5206.702818
878.540822	5424.400006
878.851285	5745.438327
879.161707	6200.319282
879.472087	6958.891948
879.782425	8193.871297
880.092722	10370.472649
880.402977	13666.696626
880.713191	17412.541115
881.023363	21120.072835
881.333494	23314.809738
881.643583	24534.602611
881.953631	24521.359499
882.263637	23677.634183
882.573602	22190.423222
882.883526	20640.860750
883.193408	18960.649214
883.503248	17267.255061
883.813048	15731.008797
884.122806	14320.884640
884.432522	12842.541069
884.742197	11593.456572
885.051831	10500.710859
885.361424	9514.623358
885.670975	8695.957617
885.980485	8009.743153
886.289954	7435.464989
886.599382	6975.217725
886.908768	6593.511638
887.218113	6233.764817
887.527417	5947.036589
887.836680	5681.723183
888.145901	5462.866530
888.455082	5301.423578
888.764221	5156.949150
889.073319	5019.459241
889.382376	4946.226399
889.691392	4884.827665
890.000366	4864.998287
890.309300	4849.143858
890.618193	4850.709136
890.927044	4837.796221
891.235855	4858.606104
891.544625	4890.524169
891.853353	4947.587510
892.162041	5069.873300
892.470687	5255.765848
892.779293	5501.862376
893.087858	5875.192585
893.396381	6450.970492
893.704864	7253.363388
894.013306	8406.154285
894.321707	9586.669008
894.630068	10399.381146
894.938387	10607.202713
895.246665	10367.639521
895.554903	9754.526828
895.863100	9058.144356
896.171256	8503.622474
896.479371	7993.898806
896.787446	7497.733321
897.095480	7072.471665
897.403473	6753.734631
897.711425	6435.925169
898.019336	6168.597822
898.327207	5897.499691
898.635038	5669.266492
898.942827	5425.277166
899.250576	5227.444645
899.558284	5039.328948
899.865952	4915.442593
900.173579	4765.269140
900.481165	4661.733922
900.788711	4571.156991
901.096216	4500.535467
901.403681	4431.995939
901.711105	4412.053134
902.018489	4400.014859
902.325832	4466.966423
902.633135	4587.679373
902.940397	4932.133853
903.247619	5721.744903
903.554800	7161.879049
903.861941	9075.395185
904.169041	10587.769065
904.476101	11211.153108
904.783121	10855.721515
905.090100	10110.084450
905.397039	9274.462788
905.703938	8521.079990
906.010796	7830.600710
906.317614	7279.607635
906.624391	6743.307004
906.931129	6326.721174
907.237826	5924.926089
907.544483	5556.884049
907.851099	5182.994271
908.157675	4828.621321
908.464211	4507.139378
908.770707	4277.101446
909.077163	4074.865477
909.383578	3935.167542
909.689954	3818.593380
909.996289	3751.011672
910.302584	3687.230993
910.608839	3654.884429
910.915054	3621.020478
911.221229	3611.964046
911.527363	3618.941002
911.833458	3632.519350
912.139513	3665.180986
912.445527	3692.521684
912.751502	3771.655197
913.057436	3877.302658
913.363331	4009.597658
913.669186	4211.609296
913.975000	4468.072956
914.280775	4888.046442
914.586510	5463.819308
914.892205	6260.508138
915.197859	7302.565050
915.503475	8514.062704
915.809050	9570.602851
916.114585	10215.351304
916.420081	10480.967180
916.725536	10437.351117
917.030952	9998.576648
917.336328	9585.675901
917.641665	9173.508642
917.946961	8697.404428
918.252218	8275.159903
918.557435	7768.236595
918.862612	7341.071904
919.167750	6967.056097
919.472848	6542.732095
919.777906	6169.681670
920.082925	5813.587165
920.387904	5450.603923
920.692843	5181.507131
920.997743	4938.029483
921.302603	4706.040624
921.607423	4545.827713
921.912204	4379.751941
922.216946	4265.136267
922.521647	4143.261332
922.826310	4037.593706
923.130932	3949.272691
923.435516	3848.570601
923.740059	3781.475364
924.044564	3702.432593
924.349028	3645.782626
924.653454	3578.110177
924.957840	3512.628109
925.262186	3466.448619
925.566493	3405.042324
925.870761	3348.067203
926.174989	3312.703509
926.479178	3275.376286
926.783328	3232.027404
927.087438	3208.807849
927.391509	3170.142199
927.695541	3141.884011
927.999533	3116.663118
928.303486	3095.384408
928.607400	3077.775658
928.911275	3070.788618
929.215110	3050.709703
929.518906	3041.388609
929.822663	3043.228630
930.126381	3039.931716
930.430060	3044.032694
930.733699	3047.926986
931.037299	3057.643810
931.340861	3054.727502
931.644383	3063.151270
931.947866	3065.112279
932.251309	3056.925445
932.554714	3058.102555
932.858080	3050.563509
933.161407	3042.505225
933.464694	3034.076416
933.767943	3025.622401
934.071153	3023.079138
934.374323	3014.869619
934.677455	3007.191942
934.980548	3002.060048
935.283602	2994.178203
935.586617	2989.999087
935.889593	3002.239008
936.192530	3004.280676
936.495428	3021.985208
936.798287	3041.393650
937.101108	3075.544947
937.403890	3129.674337
937.706632	3186.183151
938.009336	3269.599123
938.312002	3341.518745
938.614628	3406.083323
938.917216	3458.307156
939.219765	3489.554748
939.522275	3518.871578
939.824747	3525.427599
940.127179	3522.697814
940.429573	3516.378728
940.731929	3514.639529
941.034246	3499.150584
941.336524	3482.756752
941.638763	3469.763178
941.940964	3455.779017
942.243126	3413.493819
942.545250	3392.078997
942.847335	3350.739015
943.149381	3318.193326
943.451389	3284.165537
943.753359	3251.103130
944.055290	3225.587330
944.357182	3202.597147
944.659036	3188.313038
944.960851	3177.867767
945.262628	3162.381343
945.564367	3164.682629
945.866067	3162.378822
946.167729	3157.498985
946.469352	3153.798778
946.770937	3151.016061
947.072484	3134.470994
947.373992	3137.387302
947.675462	3131.131230
947.976893	3112.330247
948.278286	3105.859926
948.579641	3099.268617
948.880958	3090.597833
949.182236	3094.487083
949.483476	3088.031885
949.784678	3086.534662
950.085841	3087.381576
950.386967	3098.875407
950.688054	3118.941720
950.989103	3136.003505
951.290114	3157.892195
951.591087	3185.464786
951.892021	3214.413612
952.192917	3245.623396
952.493776	3269.478136
952.794596	3276.162706
953.095378	3277.929630
953.396122	3274.602468
953.696828	3268.079215
953.997496	3257.863317
954.298126	3234.578227
954.598718	3215.802450
954.899272	3187.607277
955.199788	3158.633245
955.500266	3127.466311
955.800706	3093.942638
956.101108	3055.342523
956.401472	3022.398583
956.701798	2991.781135
957.002087	2950.930145
957.302337	2922.399734
957.602550	2897.624984
957.902724	2864.403780
958.202861	2841.698423
958.502960	2819.194712
958.803022	2800.406332
959.103045	2778.747014
959.403031	2763.726897
959.702979	2748.923548
960.002889	2734.077350
960.302762	2722.407079
960.602596	2714.613455
960.902393	2702.676003
961.202153	2698.196938
961.501875	2686.125895
961.801559	2682.135822
962.101205	2673.540654
962.400814	2669.623678
962.700385	2663.097904
962.999918	2656.662871
963.299414	2650.605925
963.598873	2646.585605
963.898293	2640.508494
964.197677	2642.227527
964.497022	2643.167702
964.796331	2637.816517
965.095601	2632.344345
965.394835	2634.275107
965.694030	2631.898203
965.993189	2629.601957
966.292309	2627.956021
966.591393	2627.741772
966.890439	2627.522481
967.189447	2629.249077
967.488419	2628.185393
967.787353	2628.505506
968.086249	2628.936525
968.385108	2631.031124
968.683930	2634.128913
968.982714	2637.887094
969.281462	2642.000675
969.580172	2649.665750
969.878844	2654.512819
970.177480	2663.521361
970.476078	2669.217865
970.774639	2677.472754
971.073162	2683.012982
971.371649	2687.242510
971.670098	2696.374561
971.968510	2699.910930
972.266885	2707.018957
972.565223	2708.450645
972.863524	2710.101622
973.161788	2712.244113
973.460014	2718.399362
973.758204	2721.383725
974.056356	2725.141905
974.354471	2724.879765
974.652550	2722.727192
974.950591	2724.020248
975.248595	2718.459856
975.546563	2718.661502
975.844493	2719.158055
976.142386	2708.012064
976.440243	2702.113914
976.738062	2701.629963
977.035845	2690.965402
977.333590	2688.742254
977.631299	2682.450894
977.928971	2676.860254
978.226606	2668.562515
978.524204	2668.570077
978.821765	2664.466577
979.119290	2669.343894
979.416777	2667.347597
979.714228	2668.567556
980.011642	2671.083092
980.309020	2678.022240
980.606360	2694.287523
980.903664	2716.075390
981.200931	2751.161821
981.498162	2802.863894
981.795356	2873.480377
982.092513	2965.163843
982.389633	3065.457598
982.686717	3163.240859
982.983764	3233.141499
983.280775	3283.061525
983.577749	3293.327834
983.874686	3280.094806
984.171587	3245.265474
984.468451	3206.244422
984.765279	3163.737413
985.062070	3116.343005
985.358824	3073.412539
985.655543	3013.596728
985.952224	2964.584110
986.248869	2902.048596
986.545478	2841.920234
986.842050	2788.557100
987.138586	2741.465161
987.435086	2705.365458
987.731549	2673.815397
988.027975	2649.690955
988.324366	2633.851650
988.620719	2617.341871
988.917037	2607.531786
989.213318	2599.602051
989.509563	2593.809765
989.805772	2585.731316
990.101944	2581.342992
990.398080	2579.245872
990.694180	2580.528845
990.990244	2579.485326
991.286271	2579.641602
991.582262	2579.417271
991.878217	2581.960533
992.174136	2585.880030
992.470019	2590.129723
992.765865	2592.196596
993.061676	2596.542070
993.357450	2604.930550
993.653188	2611.093361
993.948890	2630.781587
994.244556	2650.694145
994.540186	2670.067299
994.835780	2701.488811
995.131337	2739.239492
995.426859	2782.152314
995.722345	2827.447081
996.017795	2879.612941
996.313208	2912.473703
996.608586	2939.683330
996.903928	2955.981381
997.199234	2956.026751
997.494504	2953.080197
997.789738	2938.360028
998.084936	2914.086872
998.380099	2880.474978
998.675225	2856.990763
998.970316	2821.700166
999.265371	2788.804116
999.560390	2751.305493
999.855373	2722.001266
1000.150320	2693.909436
1000.445232	2667.818945
1000.740108	2650.013589
1001.034948	2627.618263
1001.329752	2615.476644
1001.624521	2599.413007
1001.919254	2589.242480
1002.213951	2582.618403
1002.508613	2571.490056
1002.803239	2567.391598
1003.097829	2563.189797
1003.392384	2557.190823
1003.686903	2552.510112
1003.981386	2550.407951
1004.275834	2549.248486
1004.570246	2540.552495
1004.864623	2542.483257
1005.158964	2537.061496
1005.453270	2535.622247
1005.747540	2536.065868
1006.041775	2534.074613
1006.335974	2530.336597
1006.630138	2531.289375
1006.924266	2530.361803
1007.218359	2529.938346
1007.512416	2527.458098
1007.806438	2526.444826
1008.100425	2525.166894
1008.394376	2523.412572
1008.688292	2525.607995
1008.982172	2526.807789
1009.276017	2529.008253
1009.569827	2524.806451
1009.863602	2525.640762
1010.157341	2521.932993
1010.451045	2520.760925
1010.744714	2521.098683
1011.038347	2519.477952
1011.331945	2521.922911
1011.625508	2522.883251
1011.919036	2519.649351
1012.212528	2518.474762
1012.505986	2515.891171
1012.799408	2516.874196
1013.092795	2514.343536
1013.386147	2513.879750
1013.679464	2515.152642
1013.972745	2514.945954
1014.265992	2514.774555
1014.559204	2515.155162
1014.852380	2514.504853
1015.145521	2514.310769
1015.438628	2514.514936
1015.731699	2513.070645
1016.024736	2513.151303
1016.317737	2514.041067
1016.610703	2516.712879
1016.903635	2519.546007
1017.196531	2521.791841
1017.489393	2522.648837
1017.782219	2521.305370
1018.075011	2525.537418
1018.367768	2522.013652
1018.660490	2525.285361
1018.953177	2525.285361
1019.245829	2525.285361
