Dividing Wavelength (nm)	Counts (n)	Blue Motor Position (mm): 10.600000	Red Motor Position (mm): 0.000000	
326.493990	2138.888480
326.888308	2138.888480
327.282561	2138.888480
327.676750	2105.692482
328.070874	2103.983531
328.464933	2107.325816
328.858929	2116.888885
329.252859	2122.552621
329.646726	2136.080558
330.040528	2145.807464
330.434265	2167.776812
330.827938	2183.144770
331.221547	2198.240505
331.615091	2220.434185
332.008571	2241.120560
332.401986	2259.936666
332.795338	2278.924172
333.188625	2295.565021
333.581847	2316.450522
333.975006	2335.017091
334.368100	2352.225070
334.761129	2370.264839
335.154095	2389.527088
335.546996	2407.708009
335.939833	2423.471697
336.332606	2436.878646
336.725315	2449.748712
337.117960	2459.294136
337.510540	2467.589355
337.903056	2479.161324
338.295508	2484.779690
338.687896	2495.207316
339.080220	2503.351300
339.472480	2510.555109
339.864676	2513.685666
340.256807	2518.981398
340.648875	2518.084072
341.040879	2524.446009
341.432818	2526.457429
341.824694	2526.631349
342.216506	2527.016997
342.608253	2525.860052
342.999937	2527.410207
343.391557	2529.570342
343.783113	2525.285361
344.174605	2524.650175
344.566033	2520.312262
344.957397	2522.805113
345.348697	2521.814526
345.739934	2518.767149
346.131106	2515.399658
346.522215	2517.106089
346.913260	2514.701458
347.304241	2512.090141
347.695159	2509.559481
348.086012	2508.427742
348.476802	2508.425222
348.867528	2506.509583
349.258191	2502.869870
349.648789	2503.247957
350.039324	2501.400374
350.429796	2500.500528
350.820203	2494.725886
351.210548	2497.395177
351.600828	2495.398880
351.991045	2495.338386
352.381198	2493.218581
352.771288	2493.911740
353.161314	2491.305463
353.551276	2497.846360
353.941175	2494.914929
354.331010	2493.987357
354.720782	2493.132882
355.110490	2493.823520
355.500135	2496.376864
355.889717	2493.836123
356.279235	2493.092552
356.668689	2495.267810
357.058080	2493.253869
357.447408	2492.941318
357.836672	2492.636328
358.225873	2495.230002
358.615010	2491.335710
359.004084	2496.268479
359.393095	2496.013901
359.782043	2498.262256
360.170927	2499.131855
360.559748	2499.457009
360.948505	2498.539519
361.337199	2502.580004
361.725830	2499.131855
362.114398	2497.775784
362.502903	2501.113028
362.891344	2502.469098
363.279722	2500.311485
363.668037	2502.879953
364.056289	2503.789881
364.444478	2501.125631
364.832603	2505.685355
365.220665	2505.675272
365.608665	2504.049500
365.996601	2503.195025
366.384474	2507.600993
366.772284	2506.693585
367.160031	2503.484891
367.547715	2507.684172
367.935336	2505.198883
368.322893	2505.680313
368.710388	2507.227948
369.097820	2511.064266
369.485189	2505.251815
369.872495	2509.410767
370.259738	2506.035715
370.646918	2509.589728
371.034035	2509.567043
371.421090	2511.578463
371.808081	2509.380520
372.195010	2507.810201
372.581875	2509.854389
372.968678	2510.673576
373.355418	2510.028309
373.742096	2511.376817
374.128710	2509.330109
374.515262	2512.541324
374.901751	2512.334637
375.288177	2512.967301
375.674540	2510.950840
376.060841	2510.038391
376.447079	2511.369256
376.833254	2511.016375
377.219367	2508.601662
377.605417	2512.821108
377.991404	2508.851199
378.377329	2509.990500
378.763191	2509.277177
379.148991	2510.179543
379.534727	2515.807992
379.920402	2514.469565
380.306013	2514.797240
380.691563	2514.530059
381.077049	2515.934020
381.462474	2512.977384
381.847835	2515.147600
382.233134	2512.183402
382.618371	2515.598784
383.003545	2518.179854
383.388657	2514.693897
383.773706	2514.646006
384.158693	2515.876047
384.543618	2517.675739
384.928480	2515.722292
385.313280	2516.836387
385.698017	2516.725482
386.082692	2515.656757
386.467305	2516.455780
386.851856	2520.246727
387.236344	2516.493588
387.620770	2518.991480
388.005133	2520.269413
388.389435	2520.637417
388.773674	2517.274967
389.157851	2516.838908
389.541965	2521.754033
389.926018	2518.489885
390.310008	2518.573064
390.693936	2518.046264
391.077802	2519.966943
391.461606	2520.266892
391.845348	2519.614063
392.229027	2521.650689
392.612645	2521.252438
392.996200	2521.214629
393.379694	2521.254958
393.763125	2518.905781
394.146494	2524.007428
394.529801	2520.657582
394.913047	2522.948786
395.296230	2522.893333
395.679351	2521.454084
396.062410	2522.805113
396.445408	2521.940555
396.828343	2523.057171
397.211217	2520.821419
397.594028	2521.214629
397.976778	2517.574916
398.359466	2521.998528
398.742092	2519.281347
399.124656	2524.435926
399.507158	2524.750998
399.889598	2522.306039
400.271977	2523.183200
400.654294	2525.421472
401.036549	2525.514733
401.418742	2525.645803
401.800874	2527.788294
402.182944	2523.664630
402.564952	2525.310567
402.946898	2526.170083
403.328783	2524.035155
403.710606	2527.362316
404.092367	2524.574558
404.474067	2527.677388
404.855705	2526.293592
405.237282	2526.051616
405.618797	2524.909795
406.000250	2527.805938
406.381642	2528.388191
406.762972	2525.570186
407.144240	2523.805782
407.525447	2528.894827
407.906593	2529.141843
408.287677	2527.543798
408.668700	2527.057326
409.049661	2528.768798
409.430560	2527.127902
409.811399	2529.063706
410.192176	2527.495907
410.572891	2527.947090
410.953545	2526.427182
411.334138	2527.200999
411.714669	2529.391381
412.095139	2529.913140
412.475547	2531.796011
412.855894	2528.131092
413.236180	2529.459436
413.616405	2529.484642
413.996568	2531.314581
414.376670	2530.215609
414.756711	2532.693336
415.136691	2529.414066
415.516609	2532.370702
415.896466	2529.628315
416.276262	2531.397760
416.655997	2526.039013
417.035670	2530.122348
417.415283	2531.813655
417.794834	2527.919364
418.174324	2531.385157
418.553753	2530.772657
418.933121	2531.770805
419.312428	2530.800383
419.691674	2534.906403
420.070859	2532.274921
420.449983	2530.671834
420.829045	2531.049920
421.208047	2532.358100
421.586988	2532.242153
421.965867	2530.848274
422.344686	2532.022863
422.723444	2535.039993
423.102141	2534.321629
423.480777	2534.954294
423.859352	2531.659900
424.237866	2534.198121
424.616319	2531.916999
424.994712	2535.594520
425.373044	2534.626619
425.751314	2535.662576
426.129524	2533.255425
426.507673	2533.696526
426.885762	2534.119983
427.263789	2534.687113
427.641756	2535.579397
428.019662	2534.409849
428.397508	2535.518903
428.775292	2535.597041
429.153016	2535.276928
429.530679	2536.605272
429.908282	2532.859694
430.285824	2535.856660
430.663305	2535.319778
431.040726	2536.017977
431.418086	2535.322298
431.795385	2536.706095
432.172624	2533.973789
432.549802	2536.595189
432.926920	2539.151054
433.303977	2535.460930
433.680974	2537.913451
434.057910	2536.164171
434.434786	2537.656352
434.811601	2536.040662
435.188355	2539.229192
435.565050	2537.298430
435.941683	2538.914120
436.318257	2533.469674
436.694770	2532.499252
437.071222	2534.482946
437.447614	2531.475898
437.823946	2535.395395
438.200218	2539.491332
438.576429	2539.703061
438.952580	2536.643080
439.328670	2536.317926
439.704700	2536.683410
440.080670	2537.641229
440.456580	2538.813297
440.832429	2540.199614
441.208218	2539.934954
441.583947	2537.676517
441.959616	2538.137783
442.335224	2540.028215
442.710773	2539.282124
443.086261	2540.718853
443.461689	2541.099460
443.837057	2538.714995
444.212365	2539.471168
444.587612	2537.356404
444.962800	2537.787422
445.337927	2540.302958
445.712995	2538.969573
446.088002	2543.244471
446.462949	2537.719367
446.837837	2539.511497
447.212664	2538.016795
447.587431	2541.278421
447.962139	2538.876312
448.336786	2540.413863
448.711374	2538.815818
449.085901	2540.184491
449.460369	2537.711805
449.834776	2538.924202
450.209124	2539.219110
450.583412	2540.365973
450.957640	2540.527289
451.331808	2541.422094
451.705917	2542.427804
452.079965	2541.459903
452.453954	2541.217927
452.827883	2540.688606
453.201752	2539.037628
453.575562	2544.038453
453.949311	2541.250695
454.323001	2541.545602
454.696632	2539.690458
455.070202	2544.167002
455.443713	2541.028884
455.817164	2541.164995
456.190556	2537.545447
456.563888	2539.604758
456.937160	2536.045704
457.310373	2545.366797
457.683526	2542.087527
458.056619	2540.970911
458.429653	2545.518032
458.802628	2541.701878
459.175542	2542.395037
459.548398	2539.778678
459.921194	2542.778165
460.293930	2544.179605
460.666607	2545.023999
461.039224	2543.635161
461.411782	2543.335212
461.784280	2542.629451
462.156719	2545.023999
462.529099	2546.027188
462.901419	2545.094575
463.273680	2544.766900
463.645882	2542.876467
464.018024	2543.204142
464.390106	2542.024512
464.762130	2544.293031
465.134094	2543.632640
465.505999	2546.339740
465.877845	2544.645912
466.249631	2544.940820
466.621358	2546.589277
466.993026	2545.225645
467.364634	2545.094575
467.736184	2541.691796
468.107674	2543.360418
468.479105	2544.018288
468.850477	2543.945192
469.221790	2543.105840
469.593043	2546.954761
469.964238	2545.288659
470.335373	2544.363607
470.706449	2548.298228
471.077467	2543.816642
471.448425	2542.692465
471.819324	2544.829914
472.190164	2544.174564
472.560945	2548.162117
472.931667	2547.093392
473.302330	2543.010058
473.672934	2544.582898
474.043479	2544.542568
474.413965	2544.025850
474.784393	2541.752290
475.154761	2543.156251
475.525070	2541.913607
475.895321	2540.048380
476.265513	2540.786909
476.635645	2545.049204
477.005719	2544.083823
477.375734	2547.060625
477.745691	2548.709082
478.115588	2545.659184
478.485427	2544.948381
478.855207	2546.732950
479.224928	2547.915100
479.594591	2548.240255
479.964194	2545.903680
480.333739	2546.165820
480.703226	2547.108516
481.072653	2547.894936
481.442022	2544.996272
481.811333	2546.155738
482.180584	2546.543907
482.549777	2548.159596
482.918912	2546.677497
483.287988	2548.701520
483.657005	2547.637837
484.025964	2548.061294
484.394864	2549.301418
484.763706	2546.891746
485.132489	2548.189843
485.501213	2546.556509
485.869879	2547.380738
486.238487	2545.649102
486.607036	2547.153886
486.975527	2549.377035
487.343959	2545.694472
487.712333	2548.182282
488.080648	2548.527601
488.448905	2550.279402
488.817104	2549.223280
489.185244	2550.047508
489.553326	2549.558517
489.921350	2548.842673
490.289315	2550.672612
490.657222	2552.792417
491.025070	2547.468958
491.392861	2550.622200
491.760593	2546.586756
492.128267	2549.248486
492.495883	2551.433826
492.863440	2550.289484
493.230939	2548.154555
493.598380	2548.502395
493.965763	2547.269833
494.333088	2546.513660
494.700354	2543.158772
495.067563	2547.859648
495.434713	2541.517876
495.801805	2545.848227
496.168839	2547.171530
496.535815	2548.935934
496.902733	2548.487271
497.269593	2549.908877
497.636395	2548.273022
498.003139	2550.796120
498.369825	2548.978784
498.736453	2548.552806
499.103023	2549.717313
499.469535	2548.741850
499.835989	2549.271171
500.202385	2550.012220
500.568723	2547.244627
500.935003	2551.390976
501.301226	2548.751932
501.667390	2551.224618
502.033497	2550.198743
502.399546	2549.626572
502.765537	2548.968702
503.131470	2553.092365
503.497345	2550.642365
503.863163	2551.421223
504.228923	2551.028013
504.594625	2551.597663
504.960269	2547.680687
505.325856	2551.141439
505.691385	2550.019782
506.056856	2549.694628
506.422270	2548.709082
506.787625	2551.365770
507.152924	2548.429298
507.518164	2549.578681
507.883347	2549.818136
508.248472	2550.231511
508.613540	2550.102961
508.978550	2549.339226
509.343503	2551.559855
509.708398	2549.475337
510.073236	2550.841490
510.438016	2552.424413
510.802738	2548.925852
511.167403	2551.116233
511.532010	2553.578837
511.896561	2554.672767
512.261053	2551.567416
512.625488	2548.492313
512.989866	2546.982487
513.354186	2548.381407
513.718449	2546.725388
514.082655	2549.687066
514.446803	2553.291491
514.810894	2549.316541
515.174927	2552.346275
515.538904	2550.660009
515.902822	2550.672612
516.266684	2551.935421
516.630488	2552.265616
516.994235	2551.726213
517.357925	2551.390976
517.721558	2551.532128
518.085133	2551.539690
518.448651	2552.948693
518.812112	2552.089176
519.175516	2552.575647
519.538863	2551.549772
519.902152	2551.428785
520.265385	2551.365770
520.628560	2555.693601
520.991678	2553.846018
521.354739	2551.302756
521.717743	2552.474824
522.080690	2553.719989
522.443580	2555.612942
522.806413	2554.387942
523.169189	2553.084804
523.531908	2555.532284
523.894569	2555.628066
524.257174	2553.135215
524.619722	2556.250648
524.982213	2557.705021
525.344647	2553.142777
525.707025	2555.978426
526.069345	2552.164793
526.431608	2555.023127
526.793815	2553.089845
527.155964	2556.043961
527.518057	2555.807027
527.880093	2555.809547
528.242072	2555.280226
528.603995	2554.277037
528.965860	2555.529763
529.327669	2558.115875
529.689421	2556.028838
530.051117	2557.795762
530.412755	2558.501523
530.774337	2556.774928
531.135862	2561.420352
531.497331	2557.765515
531.858743	2553.732592
532.220098	2556.747202
532.581396	2552.983981
532.942638	2558.279713
533.303824	2554.894578
533.664953	2559.318190
534.026025	2560.759960
534.387040	2559.908005
534.747999	2559.963458
535.108902	2559.663509
535.469748	2559.618139
535.830537	2559.129147
536.191270	2561.211144
536.551947	2560.838098
536.912567	2562.486556
537.273131	2563.454457
537.633638	2561.165773
537.994089	2564.316494
538.354483	2564.044272
538.714821	2558.617470
539.075103	2559.666030
539.435328	2563.209961
539.795497	2564.946639
540.155609	2560.800290
540.515665	2562.758778
540.875665	2563.683830
541.235609	2561.448078
541.595496	2566.781619
541.955328	2566.642987
542.315102	2565.783470
542.674821	2564.198027
543.034483	2563.353634
543.394090	2566.579972
543.753640	2564.805486
544.113134	2564.994530
544.472571	2565.871690
544.831953	2566.456464
545.191278	2565.150805
545.550548	2567.429407
545.909761	2564.858418
546.268918	2567.873028
546.628019	2570.612896
546.987064	2565.395301
547.346053	2565.763306
547.704986	2567.719273
548.063863	2569.037535
548.422684	2566.554767
548.781449	2567.870508
549.140158	2566.141392
549.498811	2569.546692
549.857408	2569.587021
550.215949	2564.334138
550.574434	2562.879766
550.932864	2567.683985
551.291237	2561.425393
551.649555	2569.937381
552.007817	2567.305899
552.366022	2566.191804
552.724173	2568.460323
553.082267	2568.099880
553.440305	2566.627863
553.798288	2568.094839
554.156215	2568.513255
554.514086	2566.958059
554.871902	2565.949828
555.229661	2569.029973
555.587365	2566.390929
555.945014	2566.953018
556.302606	2566.088460
556.660143	2569.677762
557.017625	2568.404870
557.375050	2568.566187
557.732421	2566.217009
558.089735	2566.867318
558.446994	2568.203224
558.804197	2567.668862
559.161345	2568.341856
559.518437	2569.687844
559.875474	2567.736917
560.232455	2568.309088
560.589381	2569.178687
560.946251	2572.331929
561.303065	2566.393450
561.659825	2565.652400
562.016528	2566.809345
562.373177	2567.472257
562.729770	2566.887483
563.086307	2566.398491
563.442789	2567.386557
563.799216	2568.241033
564.155587	2564.190466
564.511904	2567.061403
564.868164	2568.886300
565.224370	2567.391598
565.580520	2566.065775
565.936615	2566.985785
566.292654	2566.920250
566.648638	2566.179201
567.004567	2567.063923
567.360441	2567.820096
567.716260	2564.387071
568.072023	2566.282544
568.427732	2559.303067
568.783385	2565.370096
569.138982	2564.263562
569.494525	2564.871021
569.850013	2561.528736
570.205445	2567.797411
570.560823	2566.637946
570.916145	2564.775239
571.271412	2564.339180
571.626625	2564.266083
571.981782	2565.004612
572.336884	2567.931002
572.691931	2563.124262
573.046923	2565.937225
573.401860	2562.138716
573.756743	2566.280024
574.111570	2563.963614
574.466342	2563.772050
574.821059	2564.145095
575.175722	2566.716084
575.530330	2565.360013
575.884882	2567.343707
576.239380	2567.562998
576.593823	2564.051834
576.948211	2560.490259
577.302544	2562.284909
577.656823	2565.352452
578.011047	2566.325394
578.365216	2566.050651
578.719330	2564.611402
579.073389	2562.670558
579.427394	2563.898079
579.781344	2562.552091
580.135239	2564.639128
580.489080	2565.138202
580.842866	2563.668706
581.196597	2566.577452
581.550273	2563.562842
581.903895	2562.773901
582.257463	2563.487225
582.610975	2563.076371
582.964434	2564.112328
583.317837	2564.455126
583.671186	2564.129972
584.024481	2565.186093
584.377721	2564.104766
584.730906	2565.813717
585.084037	2562.247101
585.437113	2562.877245
585.790135	2565.299519
586.143103	2564.344221
586.496016	2565.024777
586.848874	2562.090825
587.201679	2566.264900
587.554428	2561.705177
587.907124	2562.300033
588.259765	2560.820454
588.612352	2564.820610
588.964884	2567.124417
589.317362	2568.283882
589.669786	2564.911351
590.022155	2567.928481
590.374470	2565.632236
590.726731	2563.943449
591.078937	2566.753892
591.431090	2567.605847
591.783188	2565.639797
592.135232	2566.635425
592.487222	2564.621484
592.839157	2566.446382
593.191038	2565.365054
593.542866	2565.544015
593.894639	2566.360682
594.246358	2565.579303
594.598022	2567.537792
594.949633	2569.334963
595.301190	2568.495611
595.652692	2569.357648
596.004141	2568.281362
596.355535	2572.520972
596.706876	2570.585169
597.058162	2567.643656
597.409395	2568.941753
597.760573	2570.391085
598.111698	2567.323543
598.462768	2568.820765
598.813785	2569.163564
599.164748	2567.502504
599.515657	2570.396126
599.866511	2571.081723
600.217312	2570.111301
600.568060	2571.966445
600.918753	2572.440314
601.269392	2568.346897
601.619978	2569.939902
601.970510	2572.296641
602.320988	2571.762279
602.671412	2574.330747
603.021783	2571.278328
603.372100	2571.512742
603.722363	2572.581466
604.072572	2575.109605
604.422728	2574.328226
604.772830	2570.280179
605.122878	2570.756568
605.472872	2570.774212
605.822813	2571.923596
606.172701	2572.450396
606.522534	2575.916189
606.872314	2579.576067
607.222041	2579.172775
607.571714	2576.677404
607.921333	2578.688824
608.270899	2580.170923
608.620411	2581.249730
608.969870	2584.352560
609.319276	2584.508836
609.668627	2585.983374
610.017926	2589.320618
610.367171	2591.208530
610.716362	2591.984867
611.065500	2591.170721
611.414585	2591.657192
611.763616	2591.657192
612.112594	2591.473190
612.461518	2591.140474
612.810389	2596.297574
613.159207	2596.501741
613.507971	2598.432503
613.856682	2596.012749
614.205340	2594.928901
614.553945	2599.410487
614.902496	2600.849736
615.250994	2601.159767
615.599439	2602.576332
615.947830	2604.199583
616.296169	2604.315530
616.644454	2606.853751
616.992686	2610.826180
617.340864	2611.882302
617.688990	2612.857765
618.037063	2614.977570
618.385082	2620.369084
618.733048	2621.178189
619.080961	2622.398148
619.428821	2626.284878
619.776628	2627.419138
620.124382	2631.585651
620.472083	2631.293264
620.819731	2633.380302
621.167326	2631.046248
621.514868	2632.669499
621.862357	2633.902062
622.209793	2635.419449
622.557176	2638.149234
622.904506	2634.935498
623.251783	2632.344345
623.599007	2639.263329
623.946179	2638.605458
624.293297	2639.575880
624.640363	2643.623927
624.987376	2645.658032
625.334336	2644.831283
625.681243	2650.308497
626.028097	2647.772796
626.374899	2654.069197
626.721647	2656.496513
627.068343	2658.555824
627.414987	2662.369457
627.761577	2663.022287
628.108115	2664.988337
628.454600	2666.828358
628.801032	2673.853206
629.147412	2674.528720
629.493739	2675.499142
629.840014	2679.133814
630.186236	2683.708662
630.532405	2687.151770
630.878521	2690.196627
631.224585	2693.765763
631.570597	2692.379446
631.916556	2703.321271
632.262462	2703.656507
632.608316	2706.555171
632.954117	2711.170347
633.299866	2714.132025
633.645562	2718.863148
633.991206	2721.177037
634.336797	2720.688046
634.682336	2721.431616
635.027823	2724.211812
635.373257	2726.339179
635.718639	2728.010322
636.063968	2729.111814
636.409245	2727.533932
636.754470	2731.672720
637.099642	2733.999212
637.444762	2736.628174
637.789829	2742.473392
638.134845	2742.390213
638.479808	2746.947416
638.824719	2748.547982
639.169577	2750.549320
639.514383	2754.337747
639.859137	2756.351688
640.203839	2762.547267
640.548489	2766.902823
640.893086	2765.430807
641.237632	2769.521703
641.582125	2773.461365
641.926566	2775.918927
642.270955	2787.221194
642.615292	2790.581123
642.959576	2800.285344
643.303809	2800.466826
643.647990	2809.203145
643.992118	2808.063845
644.336195	2809.291366
644.680219	2820.533139
645.024192	2819.935762
645.368112	2838.202383
645.711981	2843.238496
646.055797	2859.912112
646.399562	2867.171373
646.743274	2886.763818
647.086935	2899.671692
647.430544	2906.154616
647.774101	2919.135587
648.117606	2920.922676
648.461059	2929.797628
648.804460	2930.213523
649.147810	2923.077770
649.491108	2927.012390
649.834354	2928.154212
650.177548	2926.737647
650.520690	2924.809406
650.863781	2928.650765
651.206820	2936.446910
651.549807	2931.698143
651.892742	2935.405911
652.235626	2940.749534
652.578458	2942.118208
652.921238	2938.917075
653.263967	2949.145576
653.606644	2946.211625
653.949269	2952.807974
654.291843	2952.795372
654.634365	2964.430355
654.976836	2972.954946
655.319255	2971.591314
655.661622	2974.802529
656.003938	2985.794765
656.346203	2981.955926
656.688416	2996.161898
657.030577	2992.663337
657.372687	2996.489573
657.714746	2997.061743
658.056753	3009.901562
658.398708	3008.623630
658.740612	3009.291583
659.082465	3026.585261
659.424266	3029.299922
659.766016	3031.560880
660.107715	3041.630585
660.449362	3050.046791
660.790958	3058.858728
661.132503	3064.623287
661.473996	3081.337233
661.815438	3080.371852
662.156829	3085.014755
662.498168	3089.030034
662.839456	3089.050198
663.180693	3103.427569
663.521879	3108.758589
663.863013	3113.915690
664.204097	3132.573000
664.545129	3144.296203
664.886110	3154.174344
665.227040	3170.721932
665.567918	3164.047444
665.908746	3185.167358
666.249522	3187.950075
666.590248	3190.231197
666.930922	3204.336346
667.271545	3214.862275
667.612118	3220.568861
667.952639	3219.353943
668.293109	3238.709453
668.633528	3234.278279
668.973896	3238.250708
669.314213	3244.635329
669.654480	3255.652771
669.994695	3256.807195
670.334859	3258.634614
670.674973	3271.655914
671.015035	3273.465688
671.355047	3286.567647
671.695008	3291.124850
672.034918	3285.937503
672.374777	3298.774801
672.714585	3305.703867
673.054342	3312.406081
673.394049	3322.427895
673.733705	3338.622602
674.073310	3349.912266
674.412864	3334.463650
674.752368	3350.499560
675.091820	3360.735623
675.431223	3342.915144
675.770574	3354.149356
676.109875	3344.566122
676.449125	3355.530632
676.788324	3350.555013
677.127473	3345.405474
677.466571	3344.104857
677.805619	3355.210518
678.144616	3357.284953
678.483562	3362.074049
678.822458	3357.065663
679.161303	3366.845502
679.500098	3366.195193
679.838842	3368.889689
680.177535	3377.961246
680.516179	3384.416443
680.854771	3393.422465
681.193314	3429.880089
681.531805	3464.608598
681.870247	3526.335006
682.208638	3561.928073
682.546978	3568.481573
682.885268	3572.572469
683.223508	3554.885581
683.561697	3543.721946
683.899836	3545.405691
684.237925	3541.723128
684.575963	3532.253321
684.913951	3525.735109
685.251889	3561.214750
685.589776	3543.555588
685.927614	3537.904454
686.265401	3576.617995
686.603137	3578.788212
686.940824	3619.036784
687.278460	3627.395017
687.616046	3640.302892
687.953582	3669.090401
688.291068	3667.522602
688.628504	3707.486349
688.965889	3689.587732
689.303224	3677.972914
689.640510	3675.308664
689.977745	3653.172958
690.314930	3629.726551
690.652065	3615.228193
690.989150	3584.414140
691.326185	3568.748754
691.663170	3563.763053
692.000105	3545.196483
692.336990	3516.885363
692.673825	3521.198071
693.010610	3496.750995
693.347345	3465.611788
693.684030	3486.988801
694.020665	3468.782673
694.357251	3432.330090
694.693786	3446.674693
695.030272	3439.556584
695.366707	3435.753033
695.703093	3422.056218
696.039429	3438.026594
696.375716	3444.101184
696.711952	3434.689350
697.048139	3431.720110
697.384276	3429.837239
697.720363	3440.277469
698.056400	3456.194912
698.392388	3439.329732
698.728326	3428.019903
699.064214	3423.941610
699.400053	3428.924791
699.735842	3425.096034
700.071581	3415.243099
700.407270	3413.435845
700.742910	3406.963004
701.078501	3385.129767
701.414042	3395.706107
701.749533	3393.674522
702.084974	3356.067515
702.420366	3395.547311
702.755709	3370.298692
703.091002	3343.371369
703.426246	3382.762945
703.761440	3357.781507
704.096584	3337.707632
704.431679	3361.723689
704.766725	3359.044316
705.101721	3355.938965
705.436668	3376.857233
705.771565	3347.628623
706.106413	3364.952548
706.441212	3394.405490
706.775961	3402.945204
707.110661	3387.877195
707.445311	3402.030235
707.779913	3429.877569
708.114465	3429.275151
708.448967	3440.670679
708.783421	3477.544199
709.117825	3500.123527
709.452180	3502.336593
709.786485	3524.348792
710.120742	3571.778488
710.454949	3559.399934
710.789107	3599.474587
711.123216	3640.111328
711.457275	3633.595637
711.791286	3675.225485
712.125247	3692.395655
712.459159	3629.572796
712.793023	3668.251049
713.126837	3680.992565
713.460602	3671.185000
713.794318	3622.915952
714.127985	3644.093840
714.461602	3614.938326
714.795171	3596.265892
715.128691	3572.264959
715.462162	3552.637227
715.795584	3531.449257
716.128957	3530.705687
716.462281	3500.627642
716.795556	3493.270078
717.128782	3480.011844
717.461960	3448.527317
717.795088	3461.929225
718.128167	3439.667489
718.461198	3407.593148
718.794180	3410.496853
719.127113	3409.289496
719.459997	3401.344638
719.792833	3379.120711
720.125619	3375.760782
720.458357	3361.345603
720.791046	3366.898434
721.123686	3352.730271
721.456278	3333.505831
721.788821	3347.000999
722.121315	3337.594206
722.453761	3319.103254
722.786158	3335.214782
723.118506	3354.361084
723.450805	3320.310610
723.783056	3333.528516
724.115259	3353.105837
724.447412	3358.663709
724.779518	3351.505270
725.111574	3356.586753
725.443582	3378.500649
725.775542	3369.809700
726.107453	3403.840009
726.439315	3408.964342
726.771129	3409.733118
727.102895	3430.469904
727.434612	3465.994915
727.766281	3474.189311
728.097901	3468.891058
728.429473	3482.955878
728.760996	3491.616580
729.092471	3483.023933
729.423897	3485.300014
729.755276	3498.475070
730.086606	3497.431551
730.417887	3513.830424
730.749120	3558.280798
731.080305	3612.447996
731.411442	3626.681694
731.742530	3604.062037
732.073570	3614.235085
732.404562	3653.704799
732.735506	3650.123060
733.066401	3622.744553
733.397249	3592.258175
733.728048	3551.634037
734.058798	3509.149713
734.389501	3471.925833
734.720156	3432.128444
735.050762	3409.201276
735.381320	3408.881163
735.711831	3375.463354
736.042293	3356.052391
736.372707	3380.509549
736.703073	3362.041282
737.033391	3351.149869
737.363661	3364.430789
737.693883	3387.516753
738.024056	3391.479100
738.354182	3386.695045
738.684260	3431.362188
739.014290	3441.038683
739.344272	3438.013991
739.674207	3469.632108
740.004093	3473.395329
740.333931	3468.364258
740.663722	3471.459526
740.993464	3477.619816
741.323159	3462.766056
741.652806	3446.082358
741.982405	3429.985953
742.311956	3414.849889
742.641460	3413.299734
742.970915	3399.670975
743.300323	3376.065772
743.629683	3355.089531
743.958996	3355.702031
744.288260	3342.237109
744.617477	3317.409426
744.946647	3312.393478
745.275768	3301.507107
745.604842	3300.516520
745.933869	3265.314142
746.262847	3262.337341
746.591778	3298.825213
746.920662	3272.366717
747.249498	3249.227821
747.578286	3290.091414
747.907027	3297.511992
748.235720	3286.640744
748.564365	3316.491936
748.892963	3323.194150
749.221514	3307.692602
749.550017	3289.998152
749.878473	3292.498565
750.206881	3272.845626
750.535242	3275.396450
750.863555	3278.831997
751.191821	3277.667490
751.520039	3259.244593
751.848210	3242.190370
752.176334	3272.681789
752.504411	3281.304683
752.832440	3247.087851
753.160421	3233.653176
753.488356	3245.872933
753.816243	3261.452619
754.144082	3220.228583
754.471875	3214.373283
754.799620	3234.749627
755.127318	3223.253275
755.454969	3228.468349
755.782572	3233.673340
756.110129	3211.983776
756.437638	3205.679813
756.765100	3221.652709
757.092515	3232.695357
757.419882	3234.598392
757.747203	3212.029146
758.074477	3215.147100
758.401703	3229.854666
758.728882	3246.084661
759.056014	3254.485744
759.383099	3256.363574
759.710138	3250.853593
760.037129	3266.488731
760.364073	3292.468318
760.690970	3277.060031
761.017820	3261.286261
761.344623	3280.626647
761.671379	3315.619817
761.998088	3357.277392
762.324751	3458.750777
762.651366	3634.838281
762.977935	3973.646669
763.304456	4303.307884
763.630931	4393.347933
763.957359	4130.098879
764.283740	3880.491187
764.610074	3750.167278
764.936362	3597.911829
765.262602	3474.680823
765.588796	3389.238307
765.914943	3326.085252
766.241044	3257.414654
766.567097	3236.594689
766.893104	3202.619833
767.219064	3176.597397
767.544978	3159.598626
767.870845	3114.165227
768.196665	3102.366406
768.522438	3113.683797
768.848165	3109.121552
769.173846	3083.409147
769.499479	3069.477918
769.825066	3057.074159
770.150607	3043.170657
770.476101	3054.810681
770.801548	3055.420661
771.126949	3017.609487
771.452303	3004.593227
771.777611	3012.714526
772.102872	3022.108716
772.428087	2998.425376
772.753256	2990.656958
773.078378	2985.777121
773.403453	2957.879375
773.728482	2950.221863
774.053465	2971.339256
774.378401	2957.345013
774.703291	2930.742844
775.028135	2935.995726
775.352932	2931.219233
775.677683	2922.281267
776.002388	2919.450659
776.327046	2921.038623
776.651658	2910.026222
776.976224	2903.339132
777.300743	2905.892476
777.625216	2894.819582
777.949643	2893.345044
778.274024	2894.653224
778.598359	2884.888509
778.922647	2891.260527
779.246889	2890.983264
779.571086	2879.257540
779.895236	2871.221941
780.219339	2881.866337
780.543397	2892.856052
780.867409	2897.201527
781.191374	2888.853376
781.515294	2886.030330
781.839167	2889.241545
782.162995	2882.435987
782.486776	2889.183572
782.810511	2889.375136
783.134201	2877.752755
783.457844	2884.898591
783.781441	2875.670759
784.104993	2860.900178
784.428498	2859.612163
784.751958	2875.310316
785.075372	2868.363606
785.398739	2854.031606
785.722061	2871.053062
786.045337	2882.625031
786.368568	2863.082998
786.691752	2859.781042
787.014891	2902.948442
787.337983	2927.299736
787.661030	2945.084927
787.984031	3001.888648
788.306987	3039.946839
788.629897	3036.377702
788.952760	3027.026362
789.275579	3016.016482
789.598351	2960.707463
789.921078	2925.111875
790.243759	2924.020465
790.566395	2907.712333
790.888984	2886.945299
791.211529	2873.114894
791.534027	2865.255735
791.856480	2856.900022
792.178888	2844.836541
792.501249	2836.616940
792.823566	2835.722135
793.145836	2836.087619
793.468062	2828.367092
793.790241	2826.958089
794.112375	2833.357834
794.434464	2842.270594
794.756507	2848.128415
795.078505	2852.100844
795.400457	2863.539222
795.722364	2892.873696
796.044226	2913.981008
796.366042	2916.367994
796.687812	2905.779050
797.009538	2925.545414
797.331218	2918.540731
797.652852	2900.858884
797.974442	2889.967471
798.295986	2888.666853
798.617484	2882.567057
798.938938	2869.707074
799.260346	2857.404138
799.581709	2849.860051
799.903026	2846.300997
800.224299	2844.942406
800.545526	2834.991168
800.866708	2820.437357
801.187845	2807.532003
801.508936	2810.922179
801.829983	2818.476348
802.150984	2804.545119
802.471940	2798.692340
802.792851	2796.060857
803.113717	2793.923408
803.434538	2801.144861
803.755314	2793.928449
804.076045	2789.567851
804.396731	2786.991822
804.717372	2787.601801
805.037967	2782.593415
805.358518	2789.381328
805.679024	2801.699388
805.999485	2796.070940
806.319901	2800.459264
806.640272	2791.594395
806.960598	2795.753347
807.280879	2806.485963
807.601115	2814.135914
807.921306	2799.496404
808.241453	2796.847277
808.561554	2803.110911
808.881611	2805.386992
809.201623	2801.265849
809.521590	2800.441620
809.841513	2796.451547
810.161390	2800.905406
810.481223	2795.236629
810.801011	2788.544497
811.120755	2785.232459
811.440453	2786.429733
811.760107	2788.413427
812.079716	2783.294135
812.399281	2775.840789
812.718801	2769.264604
813.038276	2768.538678
813.357707	2773.111004
813.677093	2779.301541
813.996434	2772.806015
814.315731	2771.094543
814.634983	2765.645056
814.954191	2767.575817
815.273354	2781.900256
815.592473	2788.695732
815.911547	2787.639610
816.230577	2795.891979
816.549562	2804.769451
816.868502	2803.781384
817.187399	2813.026861
817.506250	2829.178717
817.825058	2823.119251
818.143821	2835.381857
818.462539	2848.267047
818.781213	2873.170347
819.099843	2907.745100
819.418429	2955.071453
819.736970	3010.388034
820.055466	3076.611151
820.373919	3173.665966
820.692327	3303.785708
821.010691	3452.986218
821.329011	3844.978779
821.647286	4602.049182
821.965517	5740.384570
822.283704	6351.669844
822.601847	6349.976016
822.919945	5846.100087
823.237999	5449.399087
823.556010	4956.091937
823.873976	4475.707784
824.191897	4115.920634
824.509775	3859.976212
824.827609	3621.615335
825.145398	3512.295393
825.463144	3505.051255
825.780845	3589.848504
826.098502	3680.740507
826.416116	3936.054785
826.733685	4205.519582
827.051210	4256.430194
827.368692	4162.364784
827.686129	3934.245011
828.003522	3641.449754
828.320872	3408.734969
828.638177	3233.068402
828.955439	3111.541306
829.272656	3035.987013
829.589830	2975.987200
829.906960	2933.097063
830.224046	2889.866648
830.541088	2863.143492
830.858086	2849.103878
831.175041	2831.492607
831.491952	2833.433451
831.808819	2845.469206
832.125642	2867.284799
832.442421	2908.319792
832.759157	2983.382573
833.075849	3143.335863
833.392497	3400.908578
833.709101	3585.732402
834.025662	3535.114176
834.342179	3388.283008
834.658653	3232.246694
834.975083	3095.344079
835.291469	3011.013137
835.607811	2931.942639
835.924110	2878.587066
836.240366	2829.070333
836.556578	2793.305867
836.872746	2773.796601
837.188871	2755.189702
837.504952	2738.967269
837.820990	2731.087946
838.136984	2716.670246
838.452935	2711.770244
838.768842	2707.765048
839.084706	2724.194168
839.400526	2797.079170
839.716303	2917.293046
840.032037	2989.557986
840.347727	2979.218579
840.663373	2924.280085
840.978977	2851.498426
841.294537	2786.278498
841.610054	2744.590677
841.925527	2724.047975
842.240957	2705.380582
842.556344	2685.253775
842.871687	2669.480005
843.186987	2661.202430
843.502244	2658.003818
843.817458	2656.320073
844.132629	2641.743576
844.447756	2637.667803
844.762840	2628.064405
845.077881	2632.314098
845.392879	2629.773357
845.707833	2627.829992
846.022745	2617.283898
846.337613	2621.659619
846.652438	2619.597787
846.967221	2619.446553
847.281960	2617.339351
847.596656	2618.753394
847.911309	2617.238527
848.225919	2616.227776
848.540485	2611.496653
848.855009	2612.023454
849.169490	2611.345419
849.483928	2611.960439
849.798323	2611.128649
850.112675	2610.715274
850.426984	2613.014041
850.741251	2606.833586
851.055474	2609.013885
851.369654	2614.024792
851.683792	2610.495984
851.997887	2609.076899
852.311938	2607.708226
852.625947	2608.179574
852.939914	2612.948506
853.253837	2613.220728
853.567718	2608.010695
853.881555	2608.524893
854.195350	2610.374997
854.509103	2609.323916
854.822812	2609.039091
855.136479	2611.778958
855.450103	2612.136880
855.763685	2611.491612
856.077224	2609.954060
856.390720	2608.403905
856.704173	2609.439862
857.017584	2613.026643
857.330953	2613.540841
857.644278	2617.634258
857.957561	2618.518981
858.270802	2610.473299
858.584000	2610.649739
858.897155	2615.448918
859.210268	2617.901439
859.523339	2610.871550
859.836367	2608.499687
860.149352	2607.927516
860.462295	2611.990686
860.775195	2605.114552
861.088054	2605.225458
861.400869	2605.790067
861.713642	2601.820158
862.026373	2603.844182
862.339062	2606.452979
862.651708	2611.874740
862.964312	2611.625203
863.276873	2609.737291
863.589392	2612.759462
863.901869	2617.692231
864.214303	2622.292284
864.526696	2622.254476
864.839045	2627.209930
865.151353	2627.945938
865.463619	2629.765795
865.775842	2627.731689
866.088023	2626.620115
866.400162	2630.211937
866.712258	2630.108593
867.024313	2626.983078
867.336325	2621.551235
867.648296	2626.428551
867.960224	2630.181690
868.272110	2628.724797
868.583954	2624.250772
868.895755	2623.164404
869.207515	2624.255814
869.519233	2634.186887
869.830909	2629.407873
870.142542	2625.274127
870.454134	2627.971144
870.765684	2634.968266
871.077191	2636.662093
871.388657	2640.074954
871.700081	2637.103194
872.011463	2634.086064
872.322803	2636.720067
872.634101	2640.891621
872.945357	2648.904535
873.256571	2649.688435
873.567744	2650.913435
873.878874	2647.397230
874.189963	2647.382107
874.501010	2656.204126
874.812015	2658.838129
875.122979	2658.150012
875.433900	2649.136428
875.744780	2648.521408
876.055618	2654.260761
876.366415	2657.938283
876.677169	2657.804692
876.987882	2653.955772
877.298554	2653.829743
877.609183	2664.033038
877.919771	2667.899603
878.230317	2672.971004
878.540822	2684.648837
878.851285	2696.044365
879.161707	2720.380535
879.472087	2754.060484
879.782425	2796.370888
880.092722	2901.161353
880.402977	3075.043352
880.713191	3305.953404
881.023363	3559.188206
881.333494	3724.185171
881.643583	3885.330695
881.953631	3887.148031
882.263637	3726.914956
882.573602	3528.790048
882.883526	3414.653284
883.193408	3312.582522
883.503248	3221.970302
883.813048	3118.510701
884.122806	3018.804240
884.432522	2935.849533
884.742197	2878.145965
885.051831	2846.502643
885.361424	2814.892087
885.670975	2782.873199
885.980485	2752.270874
886.289954	2738.783267
886.599382	2728.673233
886.908768	2717.166800
887.218113	2697.685261
887.527417	2685.692356
887.836680	2677.447548
888.145901	2676.804801
888.455082	2668.552432
888.764221	2653.998621
889.073319	2651.084834
889.382376	2647.372025
889.691392	2648.806233
890.000366	2649.695997
890.309300	2649.418733
890.618193	2650.356388
890.927044	2652.302273
891.235855	2651.551141
891.544625	2651.810761
891.853353	2653.940648
892.162041	2658.896102
892.470687	2679.479133
892.779293	2689.730320
893.087858	2693.667461
893.396381	2716.171172
893.704864	2752.986718
894.013306	2822.181596
894.321707	2902.681261
894.630068	2946.786316
894.938387	2964.384984
895.246665	2960.100003
895.554903	2919.122984
895.863100	2880.878271
896.171256	2828.674602
896.479371	2772.886673
896.787446	2736.542474
897.095480	2718.059084
897.403473	2714.704196
897.711425	2699.789942
898.019336	2683.355781
898.327207	2669.066630
898.635038	2668.373472
898.942827	2670.904131
899.250576	2659.196051
899.558284	2647.530821
899.865952	2642.146869
900.173579	2642.973618
900.481165	2641.519245
900.788711	2631.280662
901.096216	2626.978037
901.403681	2624.386884
901.711105	2625.087604
902.018489	2622.045268
902.325832	2624.840587
902.633135	2627.797224
902.940397	2640.659728
903.247619	2676.956036
903.554800	2738.195973
903.861941	2854.268540
904.169041	2966.212403
904.476101	3020.248531
904.783121	3015.078827
905.090100	2964.768112
905.397039	2895.316135
905.703938	2830.229798
906.010796	2772.175870
906.317614	2724.710886
906.624391	2693.859025
906.931129	2671.519152
907.237826	2647.520739
907.544483	2634.045734
907.851099	2619.922942
908.157675	2613.709720
908.464211	2605.906014
908.770707	2595.526278
909.077163	2592.917481
909.383578	2588.917325
909.689954	2589.048395
909.996289	2585.259968
910.302584	2584.057653
910.608839	2581.826942
910.915054	2580.314596
911.221229	2585.154104
911.527363	2588.453539
911.833458	2587.289032
912.139513	2589.270206
912.445527	2589.444126
912.751502	2591.642069
913.057436	2599.024839
913.363331	2604.076075
913.669186	2613.828187
913.975000	2625.080042
914.280775	2639.432207
914.586510	2655.982315
914.892205	2691.729137
915.197859	2749.430184
915.503475	2828.246104
915.809050	2885.826163
916.114585	2895.018707
916.420081	2904.299472
916.725536	2917.270360
917.030952	2897.211609
917.336328	2853.285515
917.641665	2809.828248
917.946961	2762.993409
918.252218	2730.876217
918.557435	2710.701520
918.862612	2691.686287
919.167750	2673.094512
919.472848	2662.871052
919.777906	2646.353712
920.082925	2634.040693
920.387904	2624.560803
920.692843	2622.173817
920.997743	2616.557972
921.302603	2609.397013
921.607423	2606.992382
921.912204	2598.069540
922.216946	2597.265476
922.521647	2595.889241
922.826310	2590.452357
923.130932	2589.234918
923.435516	2583.114957
923.740059	2580.894329
924.044564	2579.520614
924.349028	2577.058011
924.653454	2571.202711
924.957840	2569.198852
925.262186	2567.542833
925.566493	2566.758933
925.870761	2564.031669
926.174989	2568.341856
926.479178	2564.800445
926.783328	2562.650393
927.087438	2562.300033
927.391509	2562.904971
927.695541	2561.974878
927.999533	2559.242573
928.303486	2557.586554
928.607400	2555.025648
928.911275	2556.502706
929.215110	2557.490772
929.518906	2554.760987
929.822663	2557.871379
930.126381	2557.367264
930.430060	2558.415824
930.733699	2554.826522
931.037299	2555.202088
931.340861	2554.723179
931.644383	2556.487582
931.947866	2556.134702
932.251309	2557.778118
932.554714	2555.532284
932.858080	2559.119065
933.161407	2554.884496
933.464694	2558.315001
933.767943	2553.735113
934.071153	2553.788045
934.374323	2552.063970
934.677455	2554.365257
934.980548	2551.378373
935.283602	2555.222253
935.586617	2553.417520
935.889593	2555.880123
936.192530	2553.830894
936.495428	2553.160421
936.798287	2551.769063
937.101108	2558.385577
937.403890	2560.497820
937.706632	2559.734086
938.009336	2562.375650
938.312002	2569.201372
938.614628	2571.941240
938.917216	2575.328895
939.219765	2572.024419
939.522275	2575.641447
939.824747	2575.147413
940.127179	2567.696588
940.429573	2563.779612
940.731929	2568.021743
941.034246	2566.194324
941.336524	2566.915209
941.638763	2567.464695
941.940964	2566.590055
942.243126	2564.873542
942.545250	2560.104610
942.847335	2561.672409
943.149381	2557.039589
943.451389	2559.240052
943.753359	2558.378015
944.055290	2556.245607
944.357182	2556.112017
944.659036	2557.062274
944.960851	2557.183262
945.262628	2556.477500
945.564367	2553.967006
945.866067	2555.728889
946.167729	2558.103272
946.469352	2559.277861
946.770937	2558.675443
947.072484	2555.774259
947.373992	2558.448591
947.675462	2556.283416
947.976893	2553.853580
948.278286	2552.973898
948.579641	2555.494475
948.880958	2554.529094
949.182236	2554.755946
949.483476	2552.283260
949.784678	2555.940617
950.085841	2550.518856
950.386967	2555.106306
950.688054	2554.496327
950.989103	2556.699311
951.290114	2557.125288
951.591087	2556.621173
951.892021	2556.931204
952.192917	2557.972202
952.493776	2556.860628
952.794596	2560.157543
953.095378	2563.086453
953.396122	2562.995712
953.696828	2559.766853
953.997496	2556.628735
954.298126	2556.724517
954.598718	2558.793910
954.899272	2557.992367
955.199788	2554.345092
955.500266	2554.912222
955.800706	2550.826367
956.101108	2548.656150
956.401472	2548.711603
956.701798	2545.381921
957.002087	2545.197918
957.302337	2547.055584
957.602550	2546.911911
957.902724	2546.017106
958.202861	2548.769576
958.502960	2548.469627
958.803022	2544.073741
959.103045	2542.553833
959.403031	2544.194729
959.702979	2545.719678
960.002889	2545.374359
960.302762	2543.229348
960.602596	2546.246478
960.902393	2544.663556
961.202153	2543.947712
961.501875	2545.341591
961.801559	2545.565923
962.101205	2545.172713
962.400814	2543.123484
962.700385	2540.330684
962.999918	2544.819832
963.299414	2540.297917
963.598873	2541.956457
963.898293	2543.824204
964.197677	2541.212886
964.497022	2543.763710
964.796331	2541.875798
965.095601	2542.248843
965.394835	2543.783875
965.694030	2542.178267
965.993189	2543.005017
966.292309	2540.335726
966.591393	2542.730274
966.890439	2541.979142
967.189447	2542.710109
967.488419	2540.247505
967.787353	2541.999306
968.086249	2540.890253
968.385108	2541.255736
968.683930	2540.953267
968.982714	2541.966539
969.281462	2544.373690
969.580172	2541.245654
969.878844	2542.548792
970.177480	2539.897145
970.476078	2540.355890
970.774639	2544.197249
971.073162	2540.497043
971.371649	2539.287166
971.670098	2537.421939
971.968510	2540.161806
972.266885	2540.136600
972.565223	2545.278577
972.863524	2543.438556
973.161788	2543.436035
973.460014	2539.680376
973.758204	2543.494008
974.056356	2543.037784
974.354471	2543.075593
974.652550	2542.148020
974.950591	2544.093906
975.248595	2544.666077
975.546563	2542.604245
975.844493	2541.641384
976.142386	2543.569626
976.440243	2541.137269
976.738062	2543.332692
977.035845	2538.858667
977.333590	2537.807587
977.631299	2541.578370
977.928971	2541.996786
978.226606	2540.474357
978.524204	2541.797660
978.821765	2541.268339
979.119290	2544.575336
979.416777	2539.879501
979.714228	2539.700540
980.011642	2542.029553
980.309020	2543.504091
980.606360	2544.134235
980.903664	2542.780685
981.200931	2542.919317
981.498162	2543.118442
981.795356	2545.356715
982.092513	2547.403423
982.389633	2548.673794
982.686717	2551.824515
982.983764	2553.137736
983.280775	2556.926163
983.577749	2553.982129
983.874686	2552.409289
984.171587	2550.299566
984.468451	2549.561037
984.765279	2549.160265
985.062070	2544.469472
985.358824	2547.161448
985.655543	2543.199101
985.952224	2543.925027
986.248869	2541.966539
986.545478	2537.187525
986.842050	2539.052752
987.138586	2537.915972
987.435086	2540.222300
987.731549	2535.246681
988.027975	2540.587783
988.324366	2540.484440
988.620719	2541.056611
988.917037	2544.527445
989.213318	2539.561908
989.509563	2542.024512
989.805772	2540.857485
990.101944	2539.803884
990.398080	2540.587783
990.694180	2540.199614
990.990244	2540.307999
991.286271	2540.043339
991.582262	2540.003009
991.878217	2537.923533
992.174136	2540.234902
992.470019	2537.928575
992.765865	2536.660724
993.061676	2542.150541
993.357450	2538.631816
993.653188	2538.823379
993.948890	2540.499563
994.244556	2538.346990
994.540186	2541.563247
994.835780	2541.548123
995.131337	2539.962680
995.426859	2540.441590
995.722345	2539.042670
996.017795	2541.618699
996.313208	2543.347815
996.608586	2542.999975
996.903928	2544.638350
997.199234	2542.609286
997.494504	2543.539379
997.789738	2544.290511
998.084936	2538.588966
998.380099	2541.976621
998.675225	2539.299768
998.970316	2539.423277
999.265371	2544.257743
999.560390	2539.451003
999.855373	2541.449821
1000.150320	2538.841023
1000.445232	2542.715150
1000.740108	2539.947557
1001.034948	2538.702392
1001.329752	2540.776827
1001.624521	2539.514018
1001.919254	2535.269366
1002.213951	2536.592669
1002.508613	2534.109901
1002.803239	2538.087371
1003.097829	2535.644932
1003.392384	2536.622916
1003.686903	2537.497556
1003.981386	2542.319420
1004.275834	2538.341949
1004.570246	2538.651980
1004.864623	2538.518390
1005.158964	2539.950077
1005.453270	2538.616692
1005.747540	2537.583256
1006.041775	2536.567463
1006.335974	2538.437731
1006.630138	2536.106197
1006.924266	2537.432021
1007.218359	2539.476209
1007.512416	2538.294058
1007.806438	2538.667104
1008.100425	2539.138452
1008.394376	2538.266332
1008.688292	2537.772299
1008.982172	2538.004192
1009.276017	2536.048224
1009.569827	2538.029398
1009.863602	2539.932433
1010.157341	2537.570653
1010.451045	2538.246167
1010.744714	2538.654501
1011.038347	2538.825900
1011.331945	2536.753986
1011.625508	2537.429500
1011.919036	2537.535365
1012.212528	2536.680889
1012.505986	2538.588966
1012.799408	2537.467309
1013.092795	2538.654501
1013.386147	2536.479243
1013.679464	2535.397915
1013.972745	2539.259439
1014.265992	2537.182484
1014.559204	2541.154913
1014.852380	2536.292720
1015.145521	2538.445293
1015.438628	2534.480425
1015.731699	2541.230530
1016.024736	2537.127031
1016.317737	2539.282124
1016.610703	2538.462937
1016.903635	2534.016639
1017.196531	2531.584282
1017.489393	2535.962525
1017.782219	2531.581762
1018.075011	2537.696682
1018.367768	2537.787422
1018.660490	2537.739531
1018.953177	2537.739531
1019.245829	2537.739531
