Dividing Wavelength (nm)	Counts (n)	Blue Motor Position (mm): 0.500000	Red Motor Position (mm): 0.000000	
326.493990	2165.914106
326.888308	2165.914106
327.282561	2165.914106
327.676750	2126.910699
328.070874	2121.277209
328.464933	2121.713269
328.858929	2124.896758
329.252859	2133.320526
329.646726	2138.457462
330.040528	2153.354071
330.434265	2165.848571
330.827938	2183.043947
331.221547	2200.256967
331.615091	2217.394369
332.008571	2239.585528
332.401986	2252.400141
332.795338	2272.504263
333.188625	2291.302726
333.581847	2311.512711
333.975006	2329.108859
334.368100	2344.703668
334.761129	2365.206041
335.154095	2380.228679
335.546996	2400.549571
335.939833	2415.005079
336.332606	2430.118458
336.725315	2442.973401
337.117960	2454.300873
337.510540	2466.941567
337.903056	2477.706951
338.295508	2487.685915
338.687896	2494.821668
339.080220	2502.879953
339.472480	2508.783144
339.864676	2513.841942
340.256807	2521.408713
340.648875	2523.737727
341.040879	2526.286030
341.432818	2528.199148
341.824694	2533.235260
342.216506	2533.210055
342.608253	2534.750127
342.999937	2535.105528
343.391557	2535.831455
343.783113	2534.785415
344.174605	2536.108718
344.566033	2533.222657
344.957397	2533.343645
345.348697	2534.220806
345.739934	2530.760054
346.131106	2526.563293
346.522215	2526.853160
346.913260	2523.110103
347.304241	2521.461646
347.695159	2519.409896
348.086012	2518.051305
348.476802	2516.342354
348.867528	2512.745491
349.258191	2508.636950
349.648789	2508.122753
350.039324	2504.440190
350.429796	2508.604183
350.820203	2507.089316
351.210548	2506.842299
351.600828	2505.599655
351.991045	2504.939264
352.381198	2502.902638
352.771288	2502.040600
353.161314	2504.029336
353.551276	2504.561177
353.941175	2503.595796
354.331010	2498.020280
354.720782	2497.619508
355.110490	2499.920795
355.500135	2502.764006
355.889717	2502.443893
356.279235	2498.166474
356.668689	2501.695281
357.058080	2498.161432
357.447408	2501.223933
357.836672	2497.995074
358.225873	2503.691578
358.615010	2503.494973
359.004084	2503.741990
359.393095	2501.612102
359.782043	2503.560508
360.170927	2500.472802
360.559748	2503.797442
360.948505	2503.343739
361.337199	2505.508914
361.725830	2507.800119
362.114398	2504.309120
362.502903	2504.770385
362.891344	2509.193998
363.279722	2506.083606
363.668037	2507.968997
364.056289	2504.646877
364.444478	2511.800274
364.832603	2508.266425
365.220665	2508.599142
365.608665	2508.268946
365.996601	2508.455469
366.384474	2509.340191
366.772284	2510.313134
367.160031	2510.824811
367.547715	2512.858917
367.935336	2510.048473
368.322893	2509.884636
368.710388	2509.181395
369.097820	2509.352794
369.485189	2509.279697
369.872495	2511.311282
370.259738	2513.821777
370.646918	2514.499812
371.034035	2515.321520
371.421090	2514.202384
371.808081	2518.464680
372.195010	2516.400327
372.581875	2516.206243
372.968678	2514.986283
373.355418	2516.770852
373.742096	2515.969308
374.128710	2518.764628
374.515262	2516.954854
374.901751	2516.639782
375.288177	2517.136336
375.674540	2518.479803
376.060841	2516.841428
376.447079	2516.324710
376.833254	2516.677591
377.219367	2518.482324
377.605417	2518.762108
377.991404	2516.574247
378.377329	2517.872344
378.763191	2517.348064
379.148991	2519.798065
379.534727	2515.644154
379.920402	2518.920904
380.306013	2517.584998
380.691563	2521.217150
381.077049	2520.871831
381.462474	2520.148425
381.847835	2520.372756
382.233134	2519.845956
382.618371	2523.422654
383.003545	2520.478621
383.388657	2522.270751
383.773706	2520.828981
384.158693	2522.520288
384.543618	2521.373425
384.928480	2523.243693
385.313280	2523.336955
385.698017	2520.554238
386.082692	2521.365864
386.467305	2523.921729
386.851856	2524.141019
387.236344	2523.730165
387.620770	2520.650020
388.005133	2519.714886
388.389435	2522.789990
388.773674	2521.257479
389.157851	2525.948273
389.541965	2521.615401
389.926018	2525.393746
390.310008	2528.736031
390.693936	2527.233767
391.077802	2524.909795
391.461606	2528.360465
391.845348	2526.419620
392.229027	2527.117820
392.612645	2526.545649
392.996200	2525.784435
393.379694	2523.616739
393.763125	2526.706966
394.146494	2527.546318
394.529801	2527.818541
394.913047	2526.984230
395.296230	2527.541277
395.679351	2524.650175
396.062410	2528.158818
396.445408	2527.967255
396.828343	2528.085722
397.211217	2528.131092
397.594028	2528.342821
397.976778	2531.002029
398.359466	2527.047244
398.742092	2530.104704
399.124656	2527.395084
399.507158	2532.030425
399.889598	2530.197965
400.271977	2530.858356
400.654294	2530.916330
401.036549	2531.047400
401.418742	2532.438758
401.800874	2529.285516
402.182944	2528.294930
402.564952	2530.112266
402.946898	2533.061341
403.328783	2532.307688
403.710606	2533.799870
404.092367	2534.392205
404.474067	2532.892462
404.855705	2530.550846
405.237282	2529.809796
405.618797	2531.191072
406.000250	2532.597554
406.381642	2533.051258
406.762972	2530.639066
407.144240	2530.752492
407.525447	2529.043541
407.906593	2526.931297
408.287677	2534.125024
408.668700	2531.465815
409.049661	2534.651825
409.430560	2531.458254
409.811399	2533.479756
410.192176	2535.491177
410.572891	2534.510672
410.953545	2531.090249
411.334138	2534.314067
411.714669	2536.693492
412.095139	2533.998995
412.475547	2536.537216
412.855894	2534.127545
413.236180	2533.620909
413.616405	2536.985879
413.996568	2535.818852
414.376670	2536.673327
414.756711	2539.617361
415.136691	2535.264325
415.516609	2535.942360
415.896466	2538.578883
416.276262	2539.267001
416.655997	2536.517052
417.035670	2534.608975
417.415283	2539.826569
417.794834	2536.905220
418.174324	2538.868750
418.553753	2536.746424
418.933121	2540.466796
419.312428	2538.513348
419.691674	2534.487987
420.070859	2538.563760
420.449983	2537.006043
420.829045	2540.323123
421.208047	2535.700385
421.586988	2536.622916
421.965867	2540.151723
422.344686	2540.834800
422.723444	2538.672145
423.102141	2542.349667
423.480777	2538.296579
423.859352	2542.954605
424.237866	2541.296065
424.616319	2540.126518
424.994712	2541.477547
425.373044	2541.107022
425.751314	2538.024357
426.129524	2535.962525
426.507673	2538.730118
426.885762	2534.203162
427.263789	2540.270191
427.641756	2540.239944
428.019662	2540.187012
428.397508	2543.299924
428.775292	2539.380427
429.153016	2541.011240
429.530679	2541.956457
429.908282	2540.827238
430.285824	2540.499563
430.663305	2542.700027
431.040726	2543.214224
431.418086	2542.727753
431.795385	2543.612476
432.172624	2541.979142
432.549802	2544.436704
432.926920	2542.858823
433.303977	2542.773123
433.680974	2544.030891
434.057910	2540.222300
434.434786	2544.960984
434.811601	2541.853113
435.188355	2542.596683
435.565050	2543.032743
435.941683	2541.127187
436.318257	2542.117773
436.694770	2541.724563
437.071222	2543.753628
437.447614	2541.570808
437.823946	2540.557536
438.200218	2542.586601
438.576429	2543.108360
438.952580	2543.844369
439.328670	2544.701365
439.704700	2544.245140
440.080670	2546.740512
440.456580	2542.818494
440.832429	2542.652136
441.208218	2546.556509
441.583947	2541.177598
441.959616	2543.940151
442.335224	2541.906045
442.710773	2546.226314
443.086261	2544.492157
443.461689	2546.417878
443.837057	2543.597352
444.212365	2543.937630
444.587612	2543.388144
444.962800	2542.216076
445.337927	2541.659028
445.712995	2541.333874
446.088002	2549.424926
446.462949	2546.057435
446.837837	2546.201108
447.212664	2545.303783
447.587431	2547.791592
447.962139	2544.197249
448.336786	2547.126160
448.711374	2548.885522
449.085901	2549.135060
449.460369	2547.428629
449.834776	2546.793444
450.209124	2546.737991
450.583412	2548.078938
450.957640	2547.690769
451.331808	2547.176571
451.705917	2544.839997
452.079965	2547.226983
452.453954	2546.261602
452.827883	2546.957281
453.201752	2545.893598
453.575562	2547.330327
453.949311	2547.831921
454.323001	2547.794113
454.696632	2547.826880
455.070202	2548.300749
455.443713	2546.702703
455.817164	2548.469627
456.190556	2545.679349
456.563888	2547.337888
456.937160	2550.410472
457.310373	2549.445091
457.683526	2548.409133
458.056619	2549.654298
458.429653	2545.775131
458.802628	2549.003990
459.175542	2549.810574
459.548398	2548.852755
459.921194	2550.352498
460.293930	2547.637837
460.666607	2549.813095
461.039224	2546.916952
461.411782	2547.262271
461.784280	2549.608928
462.156719	2547.292518
462.529099	2550.430636
462.901419	2549.813095
463.273680	2546.226314
463.645882	2545.054246
464.018024	2548.467107
464.390106	2544.189688
464.762130	2548.852755
465.134094	2549.180430
465.505999	2549.593805
465.877845	2549.893753
466.249631	2552.275698
466.621358	2549.775286
466.993026	2550.763352
467.364634	2551.645554
467.736184	2551.648075
468.107674	2550.407951
468.479105	2547.637837
468.850477	2552.489947
469.221790	2551.592622
469.593043	2550.463404
469.964238	2551.829556
470.335373	2552.071532
470.706449	2551.627910
471.077467	2550.735626
471.448425	2549.843342
471.819324	2549.122457
472.190164	2551.927859
472.560945	2550.254196
472.931667	2550.110523
473.302330	2550.488609
473.672934	2551.101110
474.043479	2551.320400
474.413965	2549.704710
474.784393	2550.748229
475.154761	2551.390976
475.525070	2549.487940
475.895321	2550.574309
476.265513	2551.945503
476.635645	2551.585060
477.005719	2550.798640
477.375734	2552.729402
477.745691	2550.065152
478.115588	2551.433826
478.485427	2552.552962
478.855207	2554.019938
479.224928	2552.063970
479.594591	2552.310987
479.964194	2552.603373
480.333739	2551.945503
480.703226	2551.128836
481.072653	2552.961295
481.442022	2551.723692
481.811333	2550.239072
482.180584	2547.516849
482.549777	2547.942827
482.918912	2546.342260
483.287988	2552.119423
483.657005	2552.215205
484.025964	2555.827191
484.394864	2550.985163
484.763706	2552.588250
485.132489	2554.067829
485.501213	2550.720502
485.869879	2553.634289
486.238487	2553.253682
486.607036	2553.420040
486.975527	2553.412479
487.343959	2552.568085
487.712333	2550.571788
488.080648	2553.490617
488.448905	2550.463404
488.817104	2553.246121
489.185244	2554.513971
489.553326	2554.519012
489.921350	2551.184289
490.289315	2552.976419
490.657222	2550.385266
491.025070	2554.110678
491.392861	2551.711089
491.760593	2554.582026
492.128267	2553.200750
492.495883	2553.324258
492.863440	2550.854093
493.230939	2551.287632
493.598380	2553.387273
493.965763	2554.274516
494.333088	2553.810730
494.700354	2554.284598
495.067563	2554.312325
495.434713	2552.220246
495.801805	2553.238559
496.168839	2551.743857
496.535815	2554.582026
496.902733	2554.501368
497.269593	2554.151008
497.636395	2554.818961
498.003139	2552.310987
498.369825	2554.070349
498.736453	2553.898950
499.103023	2554.440874
499.469535	2554.221584
499.835989	2551.275029
500.202385	2551.597663
500.568723	2550.203784
500.935003	2550.922149
501.301226	2549.611449
501.667390	2556.759805
502.033497	2553.830894
502.399546	2555.781821
502.765537	2554.912222
503.131470	2557.899106
503.497345	2555.701162
503.863163	2553.452808
504.228923	2555.091183
504.594625	2553.911553
504.960269	2556.795093
505.325856	2553.795606
505.691385	2553.500699
506.056856	2552.676470
506.422270	2552.573127
506.787625	2554.798796
507.152924	2555.933056
507.518164	2557.921791
507.883347	2557.868859
508.248472	2551.816953
508.613540	2555.653272
508.978550	2552.850390
509.343503	2552.729402
509.708398	2557.082439
510.073236	2554.050185
510.438016	2556.298539
510.802738	2553.246121
511.167403	2553.132695
511.532010	2555.940617
511.896561	2555.156718
512.261053	2555.108827
512.625488	2557.367264
512.989866	2556.036399
513.354186	2553.026830
513.718449	2557.188303
514.082655	2555.809547
514.446803	2556.744681
514.810894	2555.030689
515.174927	2559.066133
515.538904	2556.419527
515.902822	2556.999260
516.266684	2554.546738
516.630488	2556.308622
516.994235	2553.714948
517.357925	2555.456667
517.721558	2555.560010
518.085133	2554.241748
518.448651	2552.931048
518.812112	2554.075390
519.175516	2556.066646
519.538863	2550.032385
519.902152	2555.164280
520.265385	2556.112017
520.628560	2557.120247
520.991678	2556.280895
521.354739	2556.303580
521.717743	2555.272664
522.080690	2556.621173
522.443580	2557.687377
522.806413	2555.169321
523.169189	2557.624363
523.531908	2556.356513
523.894569	2557.768036
524.257174	2555.570092
524.619722	2555.870041
524.982213	2557.848694
525.344647	2556.452294
525.707025	2557.551266
526.069345	2558.378015
526.431608	2553.833415
526.793815	2557.400031
527.155964	2556.338868
527.518057	2555.456667
527.880093	2555.698642
528.242072	2556.369115
528.603995	2557.715103
528.965860	2555.892726
529.327669	2556.112017
529.689421	2556.054043
530.051117	2555.141594
530.412755	2554.849207
530.774337	2557.238714
531.135862	2554.100596
531.497331	2555.028168
531.858743	2557.480690
532.220098	2557.989846
532.581396	2556.951369
532.942638	2555.915412
533.303824	2556.495144
533.664953	2556.749723
534.026025	2558.622511
534.387040	2558.151163
534.747999	2557.644527
535.108902	2558.635114
535.469748	2556.812737
535.830537	2558.095711
536.191270	2556.348951
536.551947	2551.358208
536.912567	2552.182437
537.273131	2554.609753
537.633638	2554.208981
537.994089	2554.498847
538.354483	2555.519681
538.714821	2556.117058
539.075103	2558.065464
539.435328	2556.104455
539.795497	2557.558828
540.155609	2556.255689
540.515665	2558.665361
540.875665	2558.504044
541.235609	2556.830381
541.595496	2558.758622
541.955328	2559.585372
542.315102	2557.178221
542.674821	2554.445915
543.034483	2555.413817
543.394090	2556.497665
543.753640	2554.904660
544.113134	2557.198385
544.472571	2556.873231
544.831953	2557.488252
545.191278	2556.096893
545.550548	2557.057233
545.909761	2554.350133
546.268918	2556.049002
546.628019	2556.931204
546.987064	2556.648899
547.346053	2556.101934
547.704986	2556.288457
548.063863	2556.762325
548.422684	2557.054712
548.781449	2557.405073
549.140158	2557.725186
549.498811	2559.260217
549.857408	2554.718138
550.215949	2558.491441
550.574434	2556.427089
550.932864	2558.136040
551.291237	2556.938766
551.649555	2558.012532
552.007817	2558.173848
552.366022	2556.805175
552.724173	2559.013201
553.082267	2557.551266
553.440305	2557.233673
553.798288	2558.257028
554.156215	2554.788714
554.514086	2554.781152
554.871902	2552.532797
555.229661	2552.706717
555.587365	2552.086655
555.945014	2556.628735
556.302606	2556.979095
556.660143	2557.813406
557.017625	2557.846173
557.375050	2558.120916
557.732421	2557.609239
558.089735	2556.898437
558.446994	2557.125288
558.804197	2559.419013
559.161345	2559.232491
559.518437	2557.611760
559.875474	2558.010011
560.232455	2556.895916
560.589381	2558.327604
560.946251	2558.851884
561.303065	2556.343910
561.659825	2556.545556
562.016528	2558.027655
562.373177	2557.561348
562.729770	2557.228632
563.086307	2556.974054
563.442789	2558.740978
563.799216	2559.507234
564.155587	2558.357851
564.511904	2558.995557
564.868164	2558.211657
565.224370	2558.060423
565.580520	2559.688715
565.936615	2558.990515
566.292654	2558.453632
566.648638	2554.771070
567.004567	2556.848025
567.360441	2559.255176
567.716260	2559.320711
568.072023	2557.717624
568.427732	2557.705021
568.783385	2558.133519
569.138982	2558.670402
569.494525	2558.529250
569.850013	2554.022458
570.205445	2559.078736
570.560823	2558.993036
570.916145	2558.793910
571.271412	2556.338868
571.626625	2555.703683
571.981782	2557.339538
572.336884	2556.749722
572.691931	2554.760987
573.046923	2556.293498
573.401860	2550.407951
573.756743	2557.329455
574.111570	2555.723848
574.466342	2557.984805
574.821059	2556.353992
575.175722	2555.693601
575.530330	2558.367933
575.884882	2558.095711
576.239380	2557.984805
576.593823	2557.132850
576.948211	2560.371792
577.302544	2559.028324
577.656823	2557.793241
578.011047	2561.566545
578.365216	2558.219219
578.719330	2555.751574
579.073389	2558.065464
579.427394	2557.732748
579.781344	2558.781308
580.135239	2558.040258
580.489080	2559.756771
580.842866	2556.558159
581.196597	2559.015721
581.550273	2558.993036
581.903895	2560.084446
582.257463	2557.518498
582.610975	2561.332131
582.964434	2559.691236
583.317837	2557.800803
583.671186	2558.957748
584.024481	2557.420196
584.377721	2557.881462
584.730906	2557.505896
585.084037	2560.573438
585.437113	2559.388767
585.790135	2558.279713
586.143103	2557.944476
586.496016	2560.381874
586.848874	2560.157542
587.201679	2559.229970
587.554428	2561.102759
587.907124	2559.918088
588.259765	2559.814744
588.612352	2558.037737
588.964884	2558.700649
589.317362	2562.607543
589.669786	2558.292316
590.022155	2557.306770
590.374470	2557.150494
590.726731	2556.807696
591.078937	2555.270144
591.431090	2557.836091
591.783188	2559.764333
592.135232	2560.517985
592.487222	2557.241235
592.839157	2559.048489
593.191038	2560.366750
593.542866	2559.572769
593.894639	2559.517316
594.246358	2561.753068
594.598022	2559.850032
594.949633	2558.002449
595.301190	2556.888354
595.652692	2558.771225
596.004141	2557.417675
596.355535	2558.783828
596.706876	2559.345917
597.058162	2558.335165
597.409395	2558.735937
597.760573	2558.735937
598.111698	2559.779456
598.462768	2561.710218
598.813785	2559.761812
599.164748	2559.368602
599.515657	2559.401369
599.866511	2558.032696
600.217312	2560.805331
600.568060	2559.499672
600.918753	2560.437327
601.269392	2558.307439
601.619978	2557.321893
601.970510	2556.893395
602.320988	2558.713252
602.671412	2557.742830
603.021783	2557.271482
603.372100	2558.753581
603.722363	2558.824157
604.072572	2558.703170
604.422728	2559.575289
604.772830	2559.403890
605.122878	2556.931204
605.472872	2559.479507
605.822813	2558.176369
606.172701	2559.393808
606.522534	2557.576472
606.872314	2559.426575
607.222041	2560.553273
607.571714	2557.826009
607.921333	2557.019424
608.270899	2556.270813
608.620411	2555.693601
608.969870	2559.446740
609.319276	2563.719118
609.668627	2563.961093
610.017926	2571.495097
610.367171	2571.046435
610.716362	2570.776733
611.065500	2570.786815
611.414585	2567.109294
611.763616	2567.242884
612.112594	2563.265414
612.461518	2564.616443
612.810389	2563.136864
613.159207	2563.421690
613.507971	2560.807851
613.856682	2561.609395
614.205340	2564.467729
614.553945	2560.260886
614.902496	2560.830537
615.250994	2556.860628
615.599439	2560.807851
615.947830	2561.090156
616.296169	2560.840619
616.644454	2560.762481
616.992686	2557.672254
617.340864	2561.667368
617.688990	2559.222408
618.037063	2558.559497
618.385082	2558.037737
618.733048	2563.449416
619.080961	2561.990002
619.428821	2559.262738
619.776628	2559.812223
620.124382	2561.695094
620.472083	2559.839950
620.819731	2558.874569
621.167326	2558.332645
621.514868	2560.376833
621.862357	2557.546225
622.209793	2560.031514
622.557176	2561.155691
622.904506	2556.832902
623.251783	2560.591082
623.599007	2557.016904
623.946179	2560.495300
624.293297	2558.627552
624.640363	2558.617470
624.987376	2557.039589
625.334336	2553.820812
625.681243	2555.048333
626.028097	2552.744526
626.374899	2558.579661
626.721647	2560.066802
627.068343	2558.340207
627.414987	2557.868859
627.761577	2559.950855
628.108115	2558.473797
628.454600	2558.375495
628.801032	2560.356668
629.147412	2561.301884
629.493739	2559.119065
629.840014	2558.592264
630.186236	2557.490772
630.532405	2558.609908
630.878521	2560.225598
631.224585	2561.758109
631.570597	2557.853735
631.916556	2557.939435
632.262462	2561.720300
632.608316	2556.588406
632.954117	2556.860628
633.299866	2557.589075
633.645562	2557.609239
633.991206	2556.550597
634.336797	2559.018242
634.682336	2559.706359
635.027823	2556.021276
635.373257	2558.536812
635.718639	2559.023283
636.063968	2561.332131
636.409245	2557.470608
636.754470	2557.392470
637.099642	2556.144784
637.444762	2561.183417
637.789829	2556.006152
638.134845	2556.409445
638.479808	2559.454302
638.824719	2554.556821
639.169577	2559.308108
639.514383	2557.838612
639.859137	2559.406411
640.203839	2557.180741
640.548489	2559.086297
640.893086	2556.069167
641.237632	2555.600339
641.582125	2559.426575
641.926566	2556.744681
642.270955	2552.739485
642.615292	2554.529094
642.959576	2557.208467
643.303809	2552.116902
643.647990	2558.534291
643.992118	2555.549928
644.336195	2557.551266
644.680219	2559.908005
645.024192	2557.737789
645.368112	2559.353478
645.711981	2556.704352
646.055797	2557.841132
646.399562	2560.560835
646.743274	2558.577141
647.086935	2557.188303
647.430544	2559.171997
647.774101	2558.188972
648.117606	2558.589744
648.461059	2558.067984
648.804460	2559.693756
649.147810	2560.097049
649.491108	2557.936914
649.834354	2555.333158
650.177548	2562.078222
650.520690	2559.781977
650.863781	2556.301060
651.206820	2555.953220
651.549807	2556.797613
651.892742	2557.306770
652.235626	2557.652089
652.578458	2558.536812
652.921238	2556.996739
653.263967	2561.730382
653.606644	2556.422047
653.949269	2558.700649
654.291843	2558.443550
654.634365	2557.747871
654.976836	2556.926163
655.319255	2557.972202
655.661622	2558.188972
656.003938	2558.340207
656.346203	2557.702501
656.688416	2559.776935
657.030577	2557.291647
657.372687	2556.651420
657.714746	2558.672923
658.056753	2557.952038
658.398708	2558.274672
658.740612	2559.797100
659.082465	2554.887016
659.424266	2555.953220
659.766016	2553.742674
660.107715	2554.786193
660.449362	2555.796944
660.790958	2558.541853
661.132503	2555.706204
661.473996	2556.101934
661.815438	2557.412634
662.156829	2557.780638
662.498168	2555.980947
662.839456	2557.495813
663.180693	2558.962789
663.521879	2556.260731
663.863013	2560.344065
664.204097	2559.348437
664.545129	2555.002963
664.886110	2556.558159
665.227040	2556.590926
665.567918	2559.575289
665.908746	2557.180741
666.249522	2556.182593
666.590248	2560.195351
666.930922	2560.414641
667.271545	2558.577141
667.612118	2556.485062
667.952639	2555.486913
668.293109	2556.752243
668.633528	2556.235525
668.973896	2557.899106
669.314213	2555.905329
669.654480	2556.457336
669.994695	2558.158725
670.334859	2558.851884
670.674973	2555.494475
671.015035	2556.543035
671.355047	2556.525391
671.695008	2560.379353
672.034918	2556.734599
672.374777	2557.805844
672.714585	2557.110165
673.054342	2557.578992
673.394049	2556.472459
673.733705	2557.483210
674.073310	2558.773746
674.412864	2557.430278
674.752368	2558.667882
675.091820	2559.701318
675.431223	2553.150339
675.770574	2557.251317
676.109875	2557.823488
676.449125	2553.997253
676.788324	2552.245452
677.127473	2553.989691
677.466571	2553.906512
677.805619	2558.443550
678.144616	2554.791234
678.483562	2556.694270
678.822458	2557.762994
679.161303	2559.454302
679.500098	2556.495144
679.838842	2558.173848
680.177535	2555.101265
680.516179	2556.936245
680.854771	2558.907336
681.193314	2557.911708
681.531805	2555.890206
681.870247	2555.829712
682.208638	2555.572613
682.546978	2557.488252
682.885268	2559.177038
683.223508	2560.573438
683.561697	2557.667213
683.899836	2556.691749
684.237925	2558.420865
684.575963	2560.092007
684.913951	2556.807696
685.251889	2556.754764
685.589776	2557.231153
685.927614	2555.794424
686.265401	2557.044630
686.603137	2555.849877
686.940824	2558.186451
687.278460	2556.573282
687.616046	2558.877089
687.953582	2557.727706
688.291068	2556.709393
688.628504	2556.316183
688.965889	2556.280895
689.303224	2556.991698
689.640510	2556.238045
689.977745	2558.108313
690.314930	2556.716955
690.652065	2555.446584
690.989150	2555.282747
691.326185	2558.022614
691.663170	2556.449774
692.000105	2557.276523
692.336990	2554.110678
692.673825	2557.929352
693.010610	2556.628735
693.347345	2555.733930
693.684030	2554.970195
694.020665	2553.460370
694.357251	2555.222253
694.693786	2557.531101
695.030272	2557.042109
695.366707	2556.076728
695.703093	2559.272820
696.039429	2556.883313
696.375716	2557.886503
696.711952	2553.838456
697.048139	2556.769887
697.384276	2555.554969
697.720363	2557.238714
698.056400	2554.377860
698.392388	2556.764846
698.728326	2558.955227
699.064214	2555.688560
699.400053	2558.751061
699.735842	2557.342058
700.071581	2557.102603
700.407270	2556.598488
700.742910	2559.373643
701.078501	2556.792572
701.414042	2558.564538
701.749533	2556.225443
702.084974	2559.081256
702.420366	2553.200750
702.755709	2557.551266
703.091002	2556.195196
703.426246	2557.762994
703.761440	2556.948848
704.096584	2555.360885
704.431679	2555.433981
704.766725	2556.406924
705.101721	2554.627397
705.436668	2557.722665
705.771565	2557.155535
706.106413	2560.308777
706.441212	2556.611091
706.775961	2560.896072
707.110661	2557.684857
707.445311	2556.512788
707.779913	2557.634445
708.114465	2561.173335
708.448967	2555.756615
708.783421	2557.402552
709.117825	2555.207129
709.452180	2556.827860
709.786485	2558.284754
710.120742	2554.418189
710.454949	2551.189330
710.789107	2557.810885
711.123216	2551.012889
711.457275	2558.902295
711.791286	2558.042778
712.125247	2556.326266
712.459159	2556.290977
712.793023	2556.848025
713.126837	2557.324414
713.460602	2556.570762
713.794318	2557.762994
714.127985	2557.659651
714.461602	2557.470608
714.795171	2557.707542
715.128691	2555.416337
715.462162	2555.537325
715.795584	2556.883313
716.128957	2557.977243
716.462281	2554.703014
716.795556	2559.754250
717.128782	2555.633107
717.461960	2557.299208
717.795088	2555.091183
718.128167	2557.392470
718.461198	2554.002294
718.794180	2556.585885
719.127113	2554.236707
719.459997	2557.432799
719.792833	2556.011193
720.125619	2555.799465
720.458357	2553.561193
720.791046	2557.127809
721.123686	2555.277706
721.456278	2557.153015
721.788821	2556.714434
722.121315	2556.601008
722.453761	2555.073539
722.786158	2556.588406
723.118506	2556.427089
723.450805	2554.720658
723.783056	2556.492624
724.115259	2555.408776
724.447412	2557.337017
724.779518	2556.807696
725.111574	2554.201419
725.443582	2555.834753
725.775542	2554.337530
726.107453	2554.471121
726.439315	2554.806358
726.771129	2556.734599
727.102895	2552.003476
727.434612	2553.979608
727.766281	2551.282591
728.097901	2554.788714
728.429473	2555.872562
728.760996	2558.216698
729.092471	2555.381049
729.423897	2553.654454
729.755276	2557.369784
730.086606	2554.614794
730.417887	2553.972047
730.749120	2557.271482
731.080305	2555.537325
731.411442	2558.577141
731.742530	2554.599670
732.073570	2555.882644
732.404562	2556.613611
732.735506	2554.277037
733.066401	2555.925494
733.397249	2555.464228
733.728048	2555.910370
734.058798	2555.539846
734.389501	2554.728220
734.720156	2558.194013
735.050762	2555.837274
735.381320	2555.514640
735.711831	2556.230484
736.042293	2558.292316
736.372707	2554.818961
736.703073	2557.095042
737.033391	2555.839794
737.363661	2555.169321
737.693883	2553.732592
738.024056	2557.062274
738.354182	2559.580330
738.684260	2555.862479
739.014290	2557.770556
739.344272	2552.938610
739.674207	2553.926676
740.004093	2555.330638
740.333931	2554.677808
740.663722	2555.643189
740.993464	2555.002963
741.323159	2555.827191
741.652806	2554.398024
741.982405	2554.065308
742.311956	2555.481872
742.641460	2555.708724
742.970915	2554.511450
743.300323	2554.987839
743.629683	2552.437015
743.958996	2552.918446
744.288260	2551.416182
744.617477	2556.598488
744.946647	2556.122099
745.275768	2556.477500
745.604842	2556.227963
745.933869	2557.294167
746.262847	2553.931717
746.591778	2556.129661
746.920662	2556.177552
747.249498	2555.507078
747.578286	2557.836091
747.907027	2555.081101
748.235720	2554.725699
748.564365	2553.173024
748.892963	2555.476831
749.221514	2559.545042
749.550017	2553.876265
749.878473	2556.303580
750.206881	2555.040771
750.535242	2555.955741
750.863555	2555.870041
751.191821	2553.929197
751.520039	2553.745195
751.848210	2556.623694
752.176334	2556.447253
752.504411	2554.050185
752.832440	2554.889537
753.160421	2555.242417
753.488356	2556.555638
753.816243	2559.729044
754.144082	2555.519681
754.471875	2554.355174
754.799620	2553.498178
755.127318	2556.744681
755.454969	2556.369115
755.782572	2554.266954
756.110129	2554.415668
756.437638	2555.991029
756.765100	2555.736451
757.092515	2556.278375
757.419882	2555.741492
757.747203	2555.242418
758.074477	2551.554813
758.401703	2553.785524
758.728882	2554.017417
759.056014	2556.638817
759.383099	2556.815257
759.710138	2553.039433
760.037129	2553.374670
760.364073	2552.603373
760.690970	2553.031872
761.017820	2556.802655
761.344623	2556.127140
761.671379	2553.125133
761.998088	2552.825184
762.324751	2556.641338
762.651366	2553.220915
762.977935	2552.621018
763.304456	2554.539177
763.630931	2557.069836
763.957359	2555.000442
764.283740	2556.527912
764.610074	2554.667726
764.936362	2554.740823
765.262602	2557.160577
765.588796	2553.132695
765.914943	2555.602860
766.241044	2555.615463
766.567097	2556.419527
766.893104	2555.658313
767.219064	2554.450956
767.544978	2552.878116
767.870845	2555.958261
768.196665	2557.180741
768.522438	2556.278375
768.848165	2552.237890
769.173846	2557.573951
769.499479	2557.735268
769.825066	2553.324258
770.150607	2555.610422
770.476101	2552.805020
770.801548	2555.630586
771.126949	2554.997922
771.452303	2557.137891
771.777611	2554.350133
772.102872	2556.790052
772.428087	2555.015566
772.753256	2556.633776
773.078378	2554.957592
773.403453	2558.962789
773.728482	2556.908519
774.053465	2555.290308
774.378401	2550.838970
774.703291	2552.615976
775.028135	2553.669578
775.352932	2554.319886
775.677683	2554.430792
776.002388	2550.677653
776.327046	2552.482386
776.651658	2551.514484
776.976224	2548.693959
777.300743	2555.091183
777.625216	2554.377860
777.949643	2554.637479
778.274024	2554.188816
778.598359	2555.887685
778.922647	2554.897098
779.246889	2558.297357
779.571086	2555.255020
779.895236	2554.569423
780.219339	2553.059598
780.543397	2553.470452
780.867409	2555.736451
781.191374	2554.982798
781.515294	2554.163611
781.839167	2555.454146
782.162995	2553.311656
782.486776	2554.748384
782.810511	2555.673436
783.134201	2555.252500
783.457844	2553.548590
783.781441	2554.193857
784.104993	2555.086142
784.428498	2552.832746
784.751958	2554.035061
785.075372	2554.821481
785.398739	2554.241748
785.722061	2553.936759
786.045337	2555.146636
786.368568	2554.075390
786.691752	2554.148487
787.014891	2557.271482
787.337983	2554.271995
787.661030	2553.974567
787.984031	2554.602191
788.306987	2554.854249
788.629897	2551.995914
788.952760	2557.286605
789.275579	2555.121430
789.598351	2554.972716
789.921078	2554.173693
790.243759	2553.455328
790.566395	2554.755946
790.888984	2551.133877
791.211529	2554.297201
791.534027	2554.564382
791.856480	2554.269475
792.178888	2551.653116
792.501249	2549.571119
792.823566	2549.515667
793.145836	2548.285625
793.468062	2554.211502
793.790241	2551.862324
794.112375	2552.953734
794.434464	2555.058415
794.756507	2554.017417
795.078505	2553.195709
795.400457	2553.941800
795.722364	2553.437684
796.044226	2552.258054
796.366042	2556.263251
796.687812	2552.832746
797.009538	2554.985319
797.331218	2555.807027
797.652852	2553.783003
797.974442	2553.072201
798.295986	2553.107489
798.617484	2553.425082
798.938938	2555.350802
799.260346	2554.551779
799.581709	2554.980277
799.903026	2551.983312
800.224299	2555.824671
800.545526	2554.350133
800.866708	2551.799309
801.187845	2552.386604
801.508936	2551.821995
801.829983	2554.642520
802.150984	2551.998435
802.471940	2555.645710
802.792851	2552.951213
803.113717	2553.929197
803.434538	2556.235525
803.755314	2553.384752
804.076045	2552.431974
804.396731	2555.237376
804.717372	2551.360729
805.037967	2556.830381
805.358518	2552.101779
805.679024	2553.208312
805.999485	2554.377860
806.319901	2552.268137
806.640272	2553.457849
806.960598	2553.611604
807.280879	2553.190668
807.601115	2554.110678
807.921306	2550.337375
808.241453	2551.403579
808.561554	2549.419885
808.881611	2550.793599
809.201623	2547.103475
809.521590	2552.222766
809.841513	2552.928528
810.161390	2553.173024
810.481223	2554.866852
810.801011	2556.903478
811.120755	2552.094217
811.440453	2553.309135
811.760107	2552.474824
812.079716	2554.869372
812.399281	2552.386604
812.718801	2553.946841
813.038276	2553.099927
813.357707	2552.794937
813.677093	2554.153528
813.996434	2553.989691
814.315731	2555.315514
814.634983	2552.323589
814.954191	2553.357026
815.273354	2551.602704
815.592473	2554.183775
815.911547	2555.267623
816.230577	2553.384752
816.549562	2554.544218
816.868502	2553.261244
817.187399	2554.917263
817.506250	2552.111861
817.825058	2553.089845
818.143821	2556.258210
818.462539	2555.985988
818.781213	2552.857952
819.099843	2552.752088
819.418429	2553.843497
819.736970	2552.653785
820.055466	2555.144115
820.373919	2555.905329
820.692327	2551.141439
821.010691	2552.868034
821.329011	2553.314176
821.647286	2553.384752
821.965517	2554.869372
822.283704	2553.316697
822.601847	2549.533311
822.919945	2551.988353
823.237999	2552.101779
823.556010	2553.629248
823.873976	2552.084135
824.191897	2552.089176
824.509775	2549.414844
824.827609	2550.526418
825.145398	2547.325285
825.463144	2553.851059
825.780845	2553.455328
826.098502	2554.793755
826.416116	2553.465411
826.733685	2551.552293
827.051210	2553.291491
827.368692	2553.188147
827.686129	2552.920966
828.003522	2553.674619
828.320872	2553.672098
828.638177	2553.087324
828.955439	2551.010369
829.272656	2552.585729
829.589830	2551.695966
829.906960	2551.743857
830.224046	2552.472303
830.541088	2554.677808
830.858086	2550.576830
831.175041	2552.368960
831.491952	2552.749567
831.808819	2552.643703
832.125642	2551.721172
832.442421	2552.568085
832.759157	2552.714279
833.075849	2553.639331
833.392497	2550.297046
833.709101	2553.543549
834.025662	2553.435164
834.342179	2554.493806
834.658653	2554.002294
834.975083	2554.030020
835.291469	2558.259548
835.607811	2554.181255
835.924110	2551.597663
836.240366	2552.978939
836.556578	2553.470452
836.872746	2554.713096
837.188871	2551.269988
837.504952	2552.091696
837.820990	2551.547252
838.136984	2554.274516
838.452935	2552.253013
838.768842	2551.590102
839.084706	2551.945503
839.400526	2551.645554
839.716303	2551.438867
840.032037	2551.239741
840.347727	2546.869061
840.663373	2550.619679
840.978977	2551.012889
841.294537	2555.338199
841.610054	2551.832077
841.925527	2550.934752
842.240957	2552.522715
842.556344	2554.123281
842.871687	2554.012376
843.186987	2551.627910
843.502244	2549.689587
843.817458	2551.433826
844.132629	2551.988353
844.447756	2554.203940
844.762840	2553.535987
845.077881	2551.559855
845.392879	2554.130843
845.707833	2555.917932
846.022745	2551.771583
846.337613	2552.989022
846.652438	2548.676315
846.967221	2552.013558
847.281960	2552.328631
847.596656	2551.708569
847.911309	2551.433826
848.225919	2553.929197
848.540485	2552.363919
848.855009	2552.535318
849.169490	2554.430792
849.483928	2551.290153
849.798323	2553.044474
850.112675	2553.967006
850.426984	2553.669577
850.741251	2555.680998
851.055474	2552.968857
851.369654	2553.800647
851.683792	2553.299053
851.997887	2552.623538
852.311938	2553.019269
852.625947	2552.792417
852.939914	2552.240410
853.253837	2553.069680
853.567718	2554.017417
853.881555	2551.872406
854.195350	2552.900802
854.509103	2550.140770
854.822812	2549.987015
855.136479	2551.980791
855.450103	2551.237221
855.763685	2550.070194
856.077224	2548.472148
856.390720	2549.266130
856.704173	2547.915100
857.017584	2552.366439
857.330953	2552.739485
857.644278	2550.778476
857.957561	2556.091852
858.270802	2552.709238
858.584000	2551.537169
858.897155	2552.313507
859.210268	2551.343085
859.523339	2552.787376
859.836367	2550.269319
860.149352	2548.872920
860.462295	2550.904505
860.775195	2548.787220
861.088054	2551.310317
861.400869	2553.702345
861.713642	2552.941131
862.026373	2550.090358
862.339062	2551.663198
862.651708	2552.363919
862.964312	2550.370142
863.276873	2550.748229
863.589392	2549.011551
863.901869	2552.731923
864.214303	2552.220246
864.526696	2552.658826
864.839045	2552.356357
865.151353	2551.932900
865.463619	2552.328631
865.775842	2553.397355
866.088023	2553.404917
866.400162	2553.137736
866.712258	2553.099927
867.024313	2552.946172
867.336325	2549.792930
867.648296	2550.672612
867.960224	2549.379556
868.272110	2553.036913
868.583954	2552.734443
868.895755	2554.297201
869.207515	2551.698486
869.519233	2553.039433
869.830909	2551.950544
870.142542	2551.965667
870.454134	2551.479196
870.765684	2552.106820
871.077191	2549.780327
871.388657	2550.574309
871.700081	2546.617003
872.011463	2549.371994
872.322803	2547.625234
872.634101	2550.508774
872.945357	2552.532797
873.256571	2552.419371
873.567744	2548.797302
873.878874	2551.650595
874.189963	2551.819474
874.501010	2553.538507
874.812015	2550.947354
875.122979	2554.445915
875.433900	2553.107489
875.744780	2552.142108
876.055618	2551.108671
876.366415	2550.967519
876.677169	2551.743857
876.987882	2552.215205
877.298554	2552.545400
877.609183	2553.127653
877.919771	2552.157231
878.230317	2552.716799
878.540822	2555.139074
878.851285	2551.423743
879.161707	2550.370142
879.472087	2551.872406
879.782425	2554.760987
880.092722	2551.670760
880.402977	2552.777293
880.713191	2551.438867
881.023363	2552.845349
881.333494	2552.379042
881.643583	2552.742005
881.953631	2551.514484
882.263637	2552.348795
882.573602	2551.574978
882.883526	2551.398538
883.193408	2553.175544
883.503248	2550.859134
883.813048	2551.658157
884.122806	2553.188147
884.432522	2553.830894
884.742197	2552.333672
885.051831	2551.232180
885.361424	2552.663867
885.670975	2554.037582
885.980485	2552.374001
886.289954	2550.975081
886.599382	2552.623538
886.908768	2552.048847
887.218113	2547.781510
887.527417	2549.931562
887.836680	2546.937117
888.145901	2550.647406
888.455082	2553.493137
888.764221	2551.040616
889.073319	2553.203271
889.382376	2552.016079
889.691392	2552.295863
890.000366	2550.576830
890.309300	2550.949875
890.618193	2549.571119
890.927044	2552.303425
891.235855	2553.120092
891.544625	2551.222097
891.853353	2552.079093
892.162041	2550.750749
892.470687	2550.657488
892.779293	2551.713610
893.087858	2550.909546
893.396381	2550.261758
893.704864	2550.347457
894.013306	2550.685214
894.321707	2551.973229
894.630068	2551.030533
894.938387	2550.443239
895.246665	2551.985832
895.554903	2552.305945
895.863100	2551.590102
896.171256	2552.305945
896.479371	2550.097920
896.787446	2551.680842
897.095480	2550.115564
897.403473	2553.034392
897.711425	2552.016079
898.019336	2550.957437
898.327207	2550.261758
898.635038	2549.132539
898.942827	2551.000287
899.250576	2552.356357
899.558284	2548.683876
899.865952	2549.460214
900.173579	2550.160934
900.481165	2550.672612
900.788711	2550.579350
901.096216	2550.377704
901.403681	2549.994576
901.711105	2550.486089
902.018489	2550.952396
902.325832	2546.276725
902.633135	2544.136756
902.940397	2547.705892
903.247619	2545.974256
903.554800	2550.244113
903.861941	2551.552293
904.169041	2550.886861
904.476101	2547.116077
904.783121	2551.257385
905.090100	2549.341747
905.397039	2551.544731
905.703938	2550.448280
906.010796	2551.229659
906.317614	2548.419216
906.624391	2551.048177
906.931129	2551.411141
907.237826	2550.841490
907.544483	2550.808723
907.851099	2549.835780
908.157675	2551.275029
908.464211	2549.712272
908.770707	2549.795451
909.077163	2550.231511
909.383578	2549.001469
909.689954	2548.656150
909.996289	2551.378373
910.302584	2549.339226
910.608839	2551.136398
910.915054	2548.376366
911.221229	2550.160934
911.527363	2549.056922
911.833458	2550.297046
912.139513	2551.426264
912.445527	2551.476676
912.751502	2549.273691
913.057436	2548.857796
913.363331	2551.489278
913.669186	2549.790410
913.975000	2548.215049
914.280775	2548.169679
914.586510	2549.545914
914.892205	2547.668084
915.197859	2551.063301
915.503475	2549.336706
915.809050	2550.763352
916.114585	2551.882488
916.420081	2548.807385
916.725536	2549.984494
917.030952	2549.835780
917.336328	2548.822508
917.641665	2547.741181
917.946961	2543.700696
918.252218	2547.015254
918.557435	2544.466951
918.862612	2548.590615
919.167750	2548.580533
919.472848	2551.126315
919.777906	2553.619166
920.082925	2550.039947
920.387904	2548.416695
920.692843	2548.814946
920.997743	2549.238403
921.302603	2551.617828
921.607423	2549.949206
921.912204	2550.349978
922.216946	2550.226469
922.521647	2551.464073
922.826310	2548.699000
923.130932	2553.011707
923.435516	2551.239741
923.740059	2549.608928
924.044564	2545.369318
924.349028	2551.726213
924.653454	2549.871068
924.957840	2549.006510
925.262186	2551.325441
925.566493	2549.790410
925.870761	2554.355174
926.174989	2552.447098
926.479178	2549.838301
926.783328	2548.880481
927.087438	2552.232849
927.391509	2550.198743
927.695541	2550.647406
927.999533	2548.348640
928.303486	2550.430636
928.607400	2549.913918
928.911275	2549.593805
929.215110	2550.660009
929.518906	2547.912580
929.822663	2552.142108
930.126381	2549.283774
930.430060	2550.297046
930.733699	2550.123126
931.037299	2549.056922
931.340861	2548.283105
931.644383	2547.957950
931.947866	2549.515667
932.251309	2551.625390
932.554714	2548.212528
932.858080	2546.974925
933.161407	2545.089534
933.464694	2547.804195
933.767943	2546.344781
934.071153	2548.719164
934.374323	2550.397869
934.677455	2551.804351
934.980548	2549.124977
935.283602	2549.646737
935.586617	2548.958619
935.889593	2548.991387
936.192530	2546.579195
936.495428	2547.221942
936.798287	2550.692776
937.101108	2550.440718
937.403890	2548.048691
937.706632	2550.929710
938.009336	2549.707231
938.312002	2549.994576
938.614628	2547.965512
938.917216	2547.658002
939.219765	2551.038095
939.522275	2552.522715
939.824747	2550.665050
940.127179	2548.877961
940.429573	2549.341747
940.731929	2549.276212
941.034246	2549.934082
941.336524	2548.000800
941.638763	2549.293856
941.940964	2548.146993
942.243126	2548.789741
942.545250	2549.808054
942.847335	2552.222766
943.149381	2550.589432
943.451389	2548.572971
943.753359	2551.539690
944.055290	2549.069525
944.357182	2549.568599
944.659036	2549.334185
944.960851	2549.245965
945.262628	2551.973229
945.564367	2551.007848
945.866067	2550.148332
946.167729	2549.296377
946.469352	2551.138918
946.770937	2549.465255
947.072484	2548.026006
947.373992	2552.399207
947.675462	2548.351160
947.976893	2546.846376
948.278286	2545.442414
948.579641	2549.384597
948.880958	2543.098278
949.182236	2547.410985
949.483476	2547.650440
949.784678	2549.780327
950.085841	2549.840821
950.386967	2549.339226
950.688054	2549.051881
950.989103	2548.245296
951.290114	2550.609597
951.591087	2548.615821
951.892021	2547.410985
952.192917	2551.232180
952.493776	2552.457180
952.794596	2549.467776
953.095378	2548.726726
953.396122	2548.008362
953.696828	2553.551110
953.997496	2549.059442
954.298126	2549.825698
954.598718	2548.590615
954.899272	2549.245965
955.199788	2550.516336
955.500266	2546.753114
955.800706	2548.517518
956.101108	2549.659340
956.401472	2551.451470
956.701798	2547.905018
957.002087	2549.714792
957.302337	2549.964329
957.602550	2548.376366
957.902724	2546.427960
958.202861	2551.224618
958.502960	2550.009700
958.803022	2549.737477
959.103045	2549.160265
959.403031	2548.726726
959.702979	2548.948537
960.002889	2549.293856
960.302762	2549.099772
960.602596	2549.714792
960.902393	2547.630275
961.202153	2552.295863
961.501875	2549.639175
961.801559	2546.029709
962.101205	2550.564227
962.400814	2546.763197
962.700385	2552.028682
962.999918	2545.243289
963.299414	2544.716488
963.598873	2546.619524
963.898293	2545.339071
964.197677	2548.018444
964.497022	2550.869217
964.796331	2549.860986
965.095601	2549.946685
965.394835	2546.843855
965.694030	2547.741181
965.993189	2546.818649
966.292309	2551.496840
966.591393	2549.495502
966.890439	2548.948537
967.189447	2548.232693
967.488419	2550.087838
967.787353	2548.343598
968.086249	2549.215718
968.385108	2545.901159
968.683930	2549.056922
968.982714	2547.625234
969.281462	2547.289997
969.580172	2546.949719
969.878844	2548.630944
970.177480	2549.624052
970.476078	2549.200595
970.774639	2549.981973
971.073162	2548.111705
971.371649	2549.987015
971.670098	2549.530790
971.968510	2547.267312
972.266885	2550.251675
972.565223	2547.695810
972.863524	2549.079607
973.161788	2549.679504
973.460014	2547.020296
973.758204	2547.630275
974.056356	2550.196222
974.354471	2546.906870
974.652550	2545.399565
974.950591	2549.782848
975.248595	2547.625234
975.546563	2549.772766
975.844493	2548.144473
976.142386	2547.945347
976.440243	2547.015254
976.738062	2548.857796
977.035845	2547.690769
977.333590	2548.630944
977.631299	2547.940306
977.928971	2548.399051
978.226606	2544.303114
978.524204	2547.015254
978.821765	2542.195911
979.119290	2548.232693
979.416777	2550.236552
979.714228	2549.954247
980.011642	2546.906870
980.309020	2548.981304
980.606360	2549.031716
980.903664	2547.363094
981.200931	2550.120605
981.498162	2545.732281
981.795356	2549.480379
982.092513	2548.018444
982.389633	2548.893084
982.686717	2548.497354
982.983764	2551.343085
983.280775	2548.663712
983.577749	2546.183464
983.874686	2548.220090
984.171587	2547.773948
984.468451	2549.011551
984.765279	2546.995090
985.062070	2547.025337
985.358824	2548.875440
985.655543	2547.685728
985.952224	2547.622713
986.248869	2548.273022
986.545478	2550.833928
986.842050	2547.209339
987.138586	2549.366953
987.435086	2547.211859
987.731549	2548.353681
988.027975	2549.132539
988.324366	2548.877961
988.620719	2549.361912
988.917037	2549.155224
989.213318	2549.578681
989.509563	2548.779658
989.805772	2546.264122
990.101944	2548.136911
990.398080	2549.011551
990.694180	2547.973074
990.990244	2547.602549
991.286271	2549.997097
991.582262	2548.658671
991.878217	2547.340409
992.174136	2546.543907
992.470019	2549.263609
992.765865	2547.413506
993.061676	2545.588608
993.357450	2547.048022
993.653188	2544.497198
993.948890	2547.937786
994.244556	2549.261088
994.540186	2548.492313
994.835780	2547.766386
995.131337	2550.486089
995.426859	2548.971222
995.722345	2546.634647
996.017795	2547.358053
996.313208	2548.749411
996.608586	2548.273022
996.903928	2549.533311
997.199234	2550.203784
997.494504	2549.356870
997.789738	2545.991900
998.084936	2546.004503
998.380099	2548.756973
998.675225	2549.296377
998.970316	2552.437015
999.265371	2547.458876
999.560390	2546.344781
999.855373	2547.327806
1000.150320	2548.527601
1000.445232	2546.261602
1000.740108	2548.948537
1001.034948	2547.842004
1001.329752	2547.930224
1001.624521	2548.086500
1001.919254	2547.602549
1002.213951	2548.411654
1002.508613	2546.556509
1002.803239	2549.407282
1003.097829	2546.856458
1003.392384	2548.608259
1003.686903	2547.509288
1003.981386	2547.179092
1004.275834	2546.778320
1004.570246	2547.879812
1004.864623	2547.098433
1005.158964	2548.678835
1005.453270	2548.146993
1005.747540	2548.885522
1006.041775	2548.860317
1006.335974	2546.047353
1006.630138	2547.279915
1006.924266	2549.319062
1007.218359	2546.450645
1007.512416	2543.141128
1007.806438	2545.263453
1008.100425	2543.972918
1008.394376	2543.350336
1008.688292	2548.033567
1008.982172	2545.412167
1009.276017	2549.412323
1009.569827	2549.177909
1009.863602	2548.348640
1010.157341	2548.467107
1010.451045	2548.641027
1010.744714	2547.794113
1011.038347	2546.546427
1011.331945	2545.772610
1011.625508	2545.419729
1011.919036	2545.147507
1012.212528	2546.097764
1012.505986	2545.944009
1012.799408	2546.243958
1013.092795	2545.240768
1013.386147	2545.641540
1013.679464	2544.466951
1013.972745	2547.133722
1014.265992	2545.417209
1014.559204	2546.652291
1014.852380	2546.803526
1015.145521	2547.756304
1015.438628	2549.314021
1015.731699	2546.964843
1016.024736	2546.276725
1016.317737	2546.637168
1016.610703	2546.405275
1016.903635	2546.611962
1017.196531	2549.039278
1017.489393	2546.528783
1017.782219	2547.436191
1018.075011	2548.983825
1018.367768	2546.929555
1018.660490	2547.988197
1018.953177	2547.988197
1019.245829	2547.988197
