Dividing Wavelength (nm)	Counts (n)	Blue Motor Position (mm): 3.700000	Red Motor Position (mm): 0.000000	
326.493990	2160.903199
326.888308	2160.903199
327.282561	2160.903199
327.676750	2118.968361
328.070874	2116.215891
328.464933	2117.844183
328.858929	2120.319390
329.252859	2125.340379
329.646726	2132.672738
330.040528	2146.908956
330.434265	2160.046203
330.827938	2176.828204
331.221547	2196.150947
331.615091	2212.146528
332.008571	2229.190669
332.401986	2249.032651
332.795338	2268.463778
333.188625	2284.245110
333.581847	2302.731021
333.975006	2321.763898
334.368100	2341.195025
334.761129	2359.910309
335.154095	2376.697351
335.546996	2392.314846
335.939833	2407.516445
336.332606	2425.508323
336.725315	2436.979469
337.117960	2447.999431
337.510540	2457.587706
337.903056	2469.152113
338.295508	2480.577888
338.687896	2490.539208
339.080220	2495.958448
339.472480	2503.739469
339.864676	2508.457989
340.256807	2514.945954
340.648875	2517.693383
341.040879	2522.356450
341.432818	2525.368540
341.824694	2527.992460
342.216506	2527.931967
342.608253	2530.528161
342.999937	2528.667975
343.391557	2528.635208
343.783113	2529.051103
344.174605	2527.848788
344.566033	2525.822244
344.957397	2524.456091
345.348697	2523.450381
345.739934	2524.168745
346.131106	2518.966274
346.522215	2517.572395
346.913260	2516.047446
347.304241	2514.751870
347.695159	2513.461334
348.086012	2512.730367
348.476802	2510.063597
348.867528	2506.418842
349.258191	2502.398522
349.648789	2502.428769
350.039324	2499.522544
350.429796	2502.408605
350.820203	2499.414159
351.210548	2498.721001
351.600828	2496.182780
351.991045	2495.484580
352.381198	2494.826709
352.771288	2493.367295
353.161314	2495.855105
353.551276	2496.245794
353.941175	2491.471821
354.331010	2492.900988
354.720782	2491.242449
355.110490	2494.236894
355.500135	2494.453664
355.889717	2493.531133
356.279235	2494.380567
356.668689	2493.843684
357.058080	2492.311173
357.447408	2492.376708
357.836672	2494.037769
358.225873	2492.515340
358.615010	2493.334528
359.004084	2496.404590
359.393095	2494.861997
359.782043	2496.823006
360.170927	2496.545743
360.559748	2495.968531
360.948505	2498.625219
361.337199	2500.031701
361.725830	2498.302585
362.114398	2496.260918
362.502903	2499.162102
362.891344	2501.617143
363.279722	2500.520693
363.668037	2501.957421
364.056289	2502.761485
364.444478	2502.993378
364.832603	2500.858450
365.220665	2503.583193
365.608665	2502.781650
365.996601	2502.466578
366.384474	2505.692916
366.772284	2503.147134
367.160031	2503.074037
367.547715	2507.094357
367.935336	2506.832217
368.322893	2501.657473
368.710388	2505.277021
369.097820	2504.447751
369.485189	2501.982627
369.872495	2507.054028
370.259738	2508.573936
370.646918	2509.234327
371.034035	2506.998575
371.421090	2507.664008
371.808081	2505.675272
372.195010	2510.834893
372.581875	2510.192146
372.968678	2509.912362
373.355418	2508.820952
373.742096	2507.142248
374.128710	2511.316323
374.515262	2508.901611
374.901751	2510.154337
375.288177	2511.308762
375.674540	2510.890346
376.060841	2510.666015
376.447079	2512.838752
376.833254	2512.380007
377.219367	2511.459996
377.605417	2513.796571
377.991404	2510.184584
378.377329	2508.641991
378.763191	2513.113495
379.148991	2511.318844
379.534727	2512.727847
379.920402	2511.354132
380.306013	2512.188443
380.691563	2517.637930
381.077049	2511.162568
381.462474	2514.807322
381.847835	2515.200532
382.233134	2517.632889
382.618371	2512.216169
383.003545	2516.438136
383.388657	2511.187774
383.773706	2517.438805
384.158693	2515.956706
384.543618	2518.013496
384.928480	2518.326048
385.313280	2514.751870
385.698017	2516.687673
386.082692	2515.011489
386.467305	2519.419978
386.851856	2518.273116
387.236344	2516.546521
387.620770	2516.125584
388.005133	2513.557116
388.389435	2517.073321
388.773674	2510.628206
389.157851	2518.550379
389.541965	2517.043074
389.926018	2520.100534
390.310008	2520.589526
390.693936	2514.459483
391.077802	2519.014165
391.461606	2517.837056
391.845348	2519.974505
392.229027	2519.397293
392.612645	2520.982736
392.996200	2520.622293
393.379694	2519.861079
393.763125	2522.366533
394.146494	2518.661285
394.529801	2520.765966
394.913047	2524.141019
395.296230	2523.306708
395.679351	2521.033147
396.062410	2522.263189
396.445408	2520.644979
396.828343	2525.358457
397.211217	2520.468538
397.594028	2522.938704
397.976778	2523.828467
398.359466	2520.803775
398.742092	2524.027593
399.124656	2522.732016
399.507158	2524.148581
399.889598	2523.485669
400.271977	2520.728158
400.654294	2523.969620
401.036549	2522.427027
401.418742	2521.330576
401.800874	2527.069929
402.182944	2524.007428
402.564952	2522.865607
402.946898	2524.098169
403.328783	2525.416431
403.710606	2525.544980
404.092367	2528.577234
404.474067	2524.995494
404.855705	2524.130937
405.237282	2527.649662
405.618797	2527.357275
406.000250	2527.195958
406.381642	2524.299815
406.762972	2521.849814
407.144240	2522.769825
407.525447	2527.107738
407.906593	2523.573889
408.287677	2527.531195
408.668700	2526.336441
409.049661	2525.035824
409.430560	2529.222502
409.811399	2527.521113
410.192176	2528.788963
410.572891	2526.810310
410.953545	2527.324507
411.334138	2528.110928
411.714669	2527.939528
412.095139	2528.725948
412.475547	2529.058664
412.855894	2528.766277
413.236180	2530.157636
413.616405	2529.671165
413.996568	2526.845598
414.376670	2529.550177
414.756711	2528.186545
415.136691	2528.862059
415.516609	2530.820548
415.896466	2530.755013
416.276262	2528.315094
416.655997	2531.518748
417.035670	2530.165198
417.415283	2529.696370
417.794834	2529.003212
418.174324	2530.235774
418.553753	2534.487987
418.933121	2532.189221
419.312428	2529.943387
419.691674	2531.508665
420.070859	2529.358613
420.449983	2531.959848
420.829045	2532.358100
421.208047	2531.057482
421.586988	2532.615198
421.965867	2532.380785
422.344686	2533.608306
422.723444	2532.622760
423.102141	2531.584282
423.480777	2529.898017
423.859352	2533.104190
424.237866	2533.071423
424.616319	2534.467823
424.994712	2534.392205
425.373044	2533.356248
425.751314	2529.671165
426.129524	2531.087729
426.507673	2530.795342
426.885762	2525.847449
427.263789	2533.910775
427.641756	2536.451517
428.019662	2533.961187
428.397508	2533.772143
428.775292	2534.223327
429.153016	2530.954138
429.530679	2531.627132
429.908282	2530.775177
430.285824	2534.961856
430.663305	2535.105528
431.040726	2537.048893
431.418086	2532.670651
431.795385	2536.995961
432.172624	2535.586959
432.549802	2534.682072
432.926920	2535.269366
433.303977	2534.674510
433.680974	2533.469674
434.057910	2536.660724
434.434786	2535.758358
434.811601	2535.866743
435.188355	2535.970086
435.565050	2536.930426
435.941683	2536.169212
436.318257	2538.450334
436.694770	2535.395395
437.071222	2534.495549
437.447614	2536.907741
437.823946	2539.382948
438.200218	2534.379602
438.576429	2538.457896
438.952580	2536.209541
439.328670	2537.542926
439.704700	2539.261960
440.080670	2536.638039
440.456580	2536.597710
440.832429	2539.990407
441.208218	2537.366486
441.583947	2538.220962
441.959616	2537.371527
442.335224	2539.652649
442.710773	2537.832793
443.086261	2536.665766
443.461689	2536.128883
443.837057	2538.727598
444.212365	2538.301620
444.587612	2537.928575
444.962800	2533.202493
445.337927	2538.357073
445.712995	2532.942873
446.088002	2538.997299
446.462949	2537.177443
446.837837	2540.376055
447.212664	2539.589635
447.587431	2539.826569
447.962139	2538.667104
448.336786	2538.543595
448.711374	2540.113915
449.085901	2542.936961
449.460369	2538.077289
449.834776	2541.931251
450.209124	2539.871939
450.583412	2542.715150
450.957640	2539.219110
451.331808	2540.081147
451.705917	2540.998637
452.079965	2537.129552
452.453954	2539.871939
452.827883	2537.318595
453.201752	2539.657690
453.575562	2536.673327
453.949311	2540.681045
454.323001	2542.296734
454.696632	2539.738349
455.070202	2540.865047
455.443713	2543.365459
455.817164	2543.264636
456.190556	2539.914789
456.563888	2538.944367
456.937160	2541.396888
457.310373	2543.201622
457.683526	2541.580891
458.056619	2541.091899
458.429653	2541.588452
458.802628	2544.829914
459.175542	2540.615510
459.548398	2541.348998
459.921194	2542.493339
460.293930	2541.918648
460.666607	2543.617517
461.039224	2542.425284
461.411782	2543.889739
461.784280	2542.422763
462.156719	2542.384955
462.529099	2543.713299
462.901419	2541.129707
463.273680	2536.832124
463.645882	2537.918492
464.018024	2540.118956
464.390106	2537.023688
464.762130	2543.625078
465.134094	2542.654656
465.505999	2544.598021
465.877845	2541.573329
466.249631	2543.879657
466.621358	2543.236910
466.993026	2541.459903
467.364634	2549.671943
467.736184	2543.108360
468.107674	2539.821528
468.479105	2544.343443
468.850477	2543.262115
469.221790	2546.264123
469.593043	2541.427135
469.964238	2545.334030
470.335373	2540.882691
470.706449	2543.025181
471.077467	2542.180788
471.448425	2542.251364
471.819324	2544.565254
472.190164	2544.842517
472.560945	2542.974770
472.931667	2543.912424
473.302330	2542.999975
473.672934	2542.760521
474.043479	2544.330840
474.413965	2543.620037
474.784393	2545.394523
475.154761	2546.944678
475.525070	2545.313865
475.895321	2540.572660
476.265513	2541.462423
476.635645	2547.295038
477.005719	2544.751776
477.375734	2544.013247
477.745691	2542.836138
478.115588	2546.478372
478.485427	2545.734801
478.855207	2547.894936
479.224928	2545.840666
479.594591	2543.496529
479.964194	2546.102806
480.333739	2544.688762
480.703226	2544.797147
481.072653	2547.206818
481.442022	2547.302600
481.811333	2546.062476
482.180584	2541.885880
482.549777	2543.494008
482.918912	2539.130890
483.287988	2544.807229
483.657005	2546.054915
484.025964	2546.042312
484.394864	2542.962167
484.763706	2547.537014
485.132489	2548.136911
485.501213	2547.405944
485.869879	2546.672456
486.238487	2546.758156
486.607036	2543.819163
486.975527	2544.499719
487.343959	2546.254040
487.712333	2545.853268
488.080648	2545.190357
488.448905	2546.622044
488.817104	2545.631458
489.185244	2548.051212
489.553326	2547.095913
489.921350	2543.005017
490.289315	2545.770089
490.657222	2547.116077
491.025070	2546.296890
491.392861	2545.240768
491.760593	2546.165820
492.128267	2546.851417
492.495883	2546.231355
492.863440	2548.605738
493.230939	2548.028526
493.598380	2548.502395
493.965763	2546.617003
494.333088	2546.138094
494.700354	2545.119781
495.067563	2549.361912
495.434713	2546.962322
495.801805	2549.051881
496.168839	2547.350491
496.535815	2547.995759
496.902733	2547.945347
497.269593	2547.927703
497.636395	2548.338557
498.003139	2547.557178
498.369825	2547.368135
498.736453	2546.740512
499.103023	2547.975594
499.469535	2547.521890
499.835989	2548.572971
500.202385	2546.155738
500.568723	2545.487785
500.935003	2544.925696
501.301226	2540.870088
501.667390	2547.544576
502.033497	2549.777807
502.399546	2548.797302
502.765537	2547.163968
503.131470	2547.100954
503.497345	2549.157745
503.863163	2549.205636
504.228923	2546.054915
504.594625	2550.833928
504.960269	2548.038609
505.325856	2546.596839
505.691385	2548.424257
506.056856	2545.913762
506.422270	2549.009031
506.787625	2546.957281
507.152924	2548.212528
507.518164	2551.900133
507.883347	2548.951057
508.248472	2547.416026
508.613540	2547.912580
508.978550	2547.201777
509.343503	2549.949206
509.708398	2549.089689
510.073236	2549.908877
510.438016	2548.472148
510.802738	2546.561551
511.167403	2550.521377
511.532010	2550.523897
511.896561	2550.284443
512.261053	2549.087169
512.625488	2548.396531
512.989866	2550.201264
513.354186	2547.831921
513.718449	2549.256047
514.082655	2549.177909
514.446803	2549.641696
514.810894	2550.546583
515.174927	2551.580019
515.538904	2547.660522
515.902822	2550.559186
516.266684	2549.140101
516.630488	2550.859134
516.994235	2549.407282
517.357925	2550.095399
517.721558	2549.656819
518.085133	2548.666232
518.448651	2546.866540
518.812112	2545.523073
519.175516	2547.060625
519.538863	2543.509132
519.902152	2550.433157
520.265385	2548.633465
520.628560	2550.067673
520.991678	2549.167827
521.354739	2550.783517
521.717743	2548.925852
522.080690	2549.901315
522.443580	2549.876109
522.806413	2551.459032
523.169189	2548.472148
523.531908	2548.459545
523.894569	2548.855276
524.257174	2547.960471
524.619722	2549.359391
524.982213	2551.728733
525.344647	2546.354863
525.707025	2549.666901
526.069345	2549.079607
526.431608	2547.806716
526.793815	2548.701520
527.155964	2550.085317
527.518057	2547.607590
527.880093	2548.847714
528.242072	2549.140101
528.603995	2552.376522
528.965860	2547.592467
529.327669	2551.955585
529.689421	2550.292004
530.051117	2550.312169
530.412755	2551.549772
530.774337	2550.352498
531.135862	2548.003321
531.497331	2550.692776
531.858743	2550.155893
532.220098	2550.125646
532.581396	2548.940975
532.942638	2551.252344
533.303824	2547.821839
533.664953	2550.844011
534.026025	2546.964843
534.387040	2550.027344
534.747999	2549.717313
535.108902	2550.478527
535.469748	2550.332334
535.830537	2551.020451
536.191270	2549.893753
536.551947	2547.819318
536.912567	2547.048022
537.273131	2547.927703
537.633638	2546.400234
537.994089	2549.611449
538.354483	2550.302087
538.714821	2550.289484
539.075103	2548.504915
539.435328	2550.551624
539.795497	2551.292673
540.155609	2551.232180
540.515665	2553.599001
540.875665	2550.246634
541.235609	2548.867878
541.595496	2550.478527
541.955328	2552.464742
542.315102	2550.846531
542.674821	2550.130687
543.034483	2550.622200
543.394090	2549.450132
543.753640	2550.241593
544.113134	2550.959957
544.472571	2548.436860
544.831953	2551.922818
545.191278	2552.709238
545.550548	2550.896943
545.909761	2550.130687
546.268918	2550.203784
546.628019	2551.421223
546.987064	2551.905174
547.346053	2551.028013
547.704986	2550.985163
548.063863	2551.242262
548.422684	2550.987684
548.781449	2551.133877
549.140158	2549.699669
549.498811	2550.939793
549.857408	2552.497509
550.215949	2550.886861
550.574434	2551.998435
550.932864	2550.528939
551.291237	2550.944834
551.649555	2551.912735
552.007817	2548.862837
552.366022	2551.413661
552.724173	2550.044988
553.082267	2551.015410
553.440305	2548.797302
553.798288	2551.522046
554.156215	2551.378373
554.514086	2550.415513
554.871902	2546.861499
555.229661	2550.115564
555.587365	2547.131201
555.945014	2551.849721
556.302606	2550.849052
556.660143	2556.169990
557.017625	2550.203784
557.375050	2550.791079
557.732421	2551.133877
558.089735	2552.278219
558.446994	2551.816953
558.804197	2549.001469
559.161345	2550.453321
559.518437	2549.356870
559.875474	2551.340564
560.232455	2549.835780
560.589381	2547.368135
560.946251	2552.255534
561.303065	2553.077242
561.659825	2554.307283
562.016528	2555.144115
562.373177	2550.949875
562.729770	2552.111861
563.086307	2553.039433
563.442789	2552.585729
563.799216	2549.626572
564.155587	2551.471634
564.511904	2550.153373
564.868164	2552.565565
565.224370	2549.888712
565.580520	2551.484237
565.936615	2550.468445
566.292654	2549.475337
566.648638	2550.440718
567.004567	2550.082797
567.360441	2553.031872
567.716260	2552.084135
568.072023	2552.999104
568.427732	2549.924000
568.783385	2552.585729
569.138982	2554.221584
569.494525	2552.873075
569.850013	2551.998435
570.205445	2553.193188
570.560823	2549.853424
570.916145	2549.616490
571.271412	2550.165976
571.626625	2552.457180
571.981782	2551.247303
572.336884	2548.880481
572.691931	2546.725388
573.046923	2549.533311
573.401860	2547.390820
573.756743	2550.072714
574.111570	2549.906356
574.466342	2553.374670
574.821059	2553.956923
575.175722	2549.329144
575.530330	2552.295863
575.884882	2553.256203
576.239380	2552.661347
576.593823	2552.842828
576.948211	2550.806202
577.302544	2553.016748
577.656823	2554.602191
578.011047	2550.586912
578.365216	2549.987015
578.719330	2554.027499
579.073389	2549.369473
579.427394	2549.671942
579.781344	2552.071532
580.135239	2550.667570
580.489080	2550.964998
580.842866	2553.228477
581.196597	2553.730071
581.550273	2555.436502
581.903895	2550.516336
582.257463	2551.080945
582.610975	2554.077911
582.964434	2554.234187
583.317837	2553.651933
583.671186	2551.585060
584.024481	2552.184958
584.377721	2552.772252
584.730906	2554.060267
585.084037	2553.034392
585.437113	2549.901315
585.790135	2552.973898
586.143103	2550.491130
586.496016	2550.455842
586.848874	2553.765359
587.201679	2551.703528
587.554428	2552.527756
587.907124	2552.132026
588.259765	2552.868034
588.612352	2551.980791
588.964884	2551.164124
589.317362	2552.341233
589.669786	2552.411810
590.022155	2550.775955
590.374470	2550.392827
590.726731	2550.105482
591.078937	2547.370656
591.431090	2551.678322
591.783188	2551.814433
592.135232	2553.967006
592.487222	2551.897612
592.839157	2553.382232
593.191038	2551.269988
593.542866	2553.861141
593.894639	2551.658157
594.246358	2553.793086
594.598022	2551.156562
594.949633	2551.567416
595.301190	2551.408620
595.652692	2552.331151
596.004141	2552.870555
596.355535	2551.360729
596.706876	2552.275698
597.058162	2551.542211
597.409395	2552.348795
597.760573	2552.426933
598.111698	2550.297046
598.462768	2557.037068
598.813785	2552.868034
599.164748	2553.278888
599.515657	2551.922818
599.866511	2551.012889
600.217312	2549.288815
600.568060	2555.028168
600.918753	2553.480534
601.269392	2554.516491
601.619978	2551.348126
601.970510	2551.078424
602.320988	2553.609084
602.671412	2552.608415
603.021783	2551.353167
603.372100	2550.944834
603.722363	2550.105482
604.072572	2552.444577
604.422728	2550.576830
604.772830	2551.149001
605.122878	2549.397200
605.472872	2552.144628
605.822813	2552.482386
606.172701	2551.171686
606.522534	2550.962478
606.872314	2552.187478
607.222041	2553.714948
607.571714	2551.484237
607.921333	2546.934596
608.270899	2552.260575
608.620411	2549.112374
608.969870	2553.793086
609.319276	2555.895247
609.668627	2563.227605
610.017926	2562.191648
610.367171	2567.661300
610.716362	2568.697257
611.065500	2566.040569
611.414585	2559.527398
611.763616	2560.439847
612.112594	2556.999260
612.461518	2555.890206
612.810389	2557.505896
613.159207	2552.270657
613.507971	2554.380380
613.856682	2556.248128
614.205340	2555.958261
614.553945	2554.556821
614.902496	2553.921635
615.250994	2557.082439
615.599439	2553.798127
615.947830	2554.758467
616.296169	2552.999104
616.644454	2555.963302
616.992686	2552.472303
617.340864	2550.849052
617.688990	2552.986501
618.037063	2553.021789
618.385082	2551.292673
618.733048	2552.192519
619.080961	2554.511450
619.428821	2553.833415
619.776628	2552.247972
620.124382	2550.665050
620.472083	2552.376522
620.819731	2554.544218
621.167326	2550.765873
621.514868	2553.946841
621.862357	2552.762170
622.209793	2553.344423
622.557176	2552.399207
622.904506	2552.810061
623.251783	2553.039433
623.599007	2554.811399
623.946179	2552.799978
624.293297	2552.222766
624.640363	2553.044474
624.987376	2549.873589
625.334336	2547.156407
625.681243	2549.326623
626.028097	2548.197405
626.374899	2554.980277
626.721647	2549.525749
627.068343	2553.107489
627.414987	2553.515822
627.761577	2553.147818
628.108115	2550.899463
628.454600	2549.863506
628.801032	2553.752757
629.147412	2555.383570
629.493739	2552.777293
629.840014	2553.835936
630.186236	2553.193188
630.532405	2552.046326
630.878521	2552.595812
631.224585	2551.522046
631.570597	2550.153373
631.916556	2552.558003
632.262462	2549.656819
632.608316	2552.379042
632.954117	2550.954916
633.299866	2552.762170
633.645562	2553.054557
633.991206	2550.501212
634.336797	2550.060111
634.682336	2553.319217
635.027823	2554.385421
635.373257	2550.549103
635.718639	2552.144628
636.063968	2551.935421
636.409245	2553.349464
636.754470	2553.815771
637.099642	2552.865513
637.444762	2552.162272
637.789829	2549.823177
638.134845	2549.457693
638.479808	2552.048847
638.824719	2550.811243
639.169577	2551.441387
639.514383	2552.802499
639.859137	2552.310987
640.203839	2549.737477
640.548489	2551.837118
640.893086	2550.259237
641.237632	2549.684545
641.582125	2553.304094
641.926566	2549.981973
642.270955	2548.966181
642.615292	2548.235214
642.959576	2548.167158
643.303809	2545.888557
643.647990	2550.360060
643.992118	2550.922149
644.336195	2552.172355
644.680219	2551.955585
645.024192	2551.612787
645.368112	2551.338044
645.711981	2551.554813
646.055797	2552.298384
646.399562	2552.527756
646.743274	2554.445915
647.086935	2553.452808
647.430544	2549.994576
647.774101	2550.047508
648.117606	2552.595812
648.461059	2548.020965
648.804460	2552.011038
649.147810	2551.837118
649.491108	2553.107489
649.834354	2552.515153
650.177548	2549.399720
650.520690	2551.378373
650.863781	2552.000956
651.206820	2552.005997
651.549807	2553.659495
651.892742	2551.481717
652.235626	2549.374514
652.578458	2552.371480
652.921238	2549.248486
653.263967	2553.351985
653.606644	2551.847200
653.949269	2549.971891
654.291843	2549.419885
654.634365	2549.941644
654.976836	2549.838301
655.319255	2550.942313
655.661622	2553.041954
656.003938	2548.880481
656.346203	2550.740667
656.688416	2552.621018
657.030577	2553.263765
657.372687	2551.005328
657.714746	2552.389124
658.056753	2550.763352
658.398708	2551.615307
658.740612	2552.951213
659.082465	2550.241593
659.424266	2548.424257
659.766016	2546.155738
660.107715	2550.044988
660.449362	2547.542055
660.790958	2550.092879
661.132503	2549.598846
661.473996	2552.293342
661.815438	2551.731254
662.156829	2551.196892
662.498168	2548.366284
662.839456	2551.948023
663.180693	2551.413661
663.521879	2552.260575
663.863013	2549.603887
664.204097	2552.621018
664.545129	2550.322251
664.886110	2549.319062
665.227040	2550.279402
665.567918	2551.141439
665.908746	2549.669422
666.249522	2553.891388
666.590248	2548.719164
666.930922	2551.484237
667.271545	2550.002138
667.612118	2550.128167
667.952639	2550.234031
668.293109	2550.571788
668.633528	2551.461552
668.973896	2550.533980
669.314213	2552.532797
669.654480	2549.624052
669.994695	2552.079093
670.334859	2549.059442
670.674973	2550.465924
671.015035	2550.443239
671.355047	2553.611604
671.695008	2550.297046
672.034918	2548.139432
672.374777	2551.960626
672.714585	2549.424926
673.054342	2550.266799
673.394049	2550.841490
673.733705	2552.721841
674.073310	2551.557334
674.412864	2551.227138
674.752368	2553.956923
675.091820	2550.982642
675.431223	2549.089689
675.770574	2551.040616
676.109875	2547.262271
676.449125	2548.819988
676.788324	2547.421067
677.127473	2547.897456
677.466571	2546.838814
677.805619	2552.689073
678.144616	2549.775286
678.483562	2554.249310
678.822458	2548.913249
679.161303	2548.971222
679.500098	2549.316541
679.838842	2549.581202
680.177535	2551.015410
680.516179	2548.963660
680.854771	2551.635472
681.193314	2550.682694
681.531805	2551.025492
681.870247	2551.809392
682.208638	2550.012220
682.546978	2549.361912
682.885268	2549.382076
683.223508	2551.234700
683.561697	2548.056253
683.899836	2548.774617
684.237925	2549.860986
684.575963	2549.835780
684.913951	2552.255534
685.251889	2551.761501
685.589776	2549.646737
685.927614	2549.866027
686.265401	2549.281253
686.603137	2550.065153
686.940824	2548.673794
687.278460	2553.120092
687.616046	2549.021634
687.953582	2551.776624
688.291068	2551.179248
688.628504	2551.469114
688.965889	2549.719833
689.303224	2549.808054
689.640510	2550.198743
689.977745	2549.830739
690.314930	2551.864844
690.652065	2549.092210
690.989150	2547.446273
691.326185	2551.542211
691.663170	2549.893753
692.000105	2552.310987
692.336990	2549.692107
692.673825	2550.173537
693.010610	2549.051881
693.347345	2549.578681
693.684030	2544.083823
694.020665	2549.402241
694.357251	2545.991900
694.693786	2549.878630
695.030272	2551.554813
695.366707	2549.490461
695.703093	2551.640513
696.039429	2551.542211
696.375716	2549.639175
696.711952	2549.896274
697.048139	2550.032385
697.384276	2550.687735
697.720363	2548.812426
698.056400	2551.552293
698.392388	2546.523742
698.728326	2549.523228
699.064214	2550.415513
699.400053	2550.208825
699.735842	2550.108002
700.071581	2547.584905
700.407270	2550.009700
700.742910	2548.260419
701.078501	2551.751418
701.414042	2551.446429
701.749533	2548.537683
702.084974	2549.692107
702.420366	2549.316541
702.755709	2551.327962
703.091002	2550.690256
703.426246	2551.950544
703.761440	2548.673794
704.096584	2550.677653
704.431679	2551.214536
704.766725	2551.045657
705.101721	2551.257385
705.436668	2551.491799
705.771565	2550.823846
706.106413	2552.210163
706.441212	2551.975750
706.775961	2550.733105
707.110661	2549.639175
707.445311	2548.497354
707.779913	2551.335523
708.114465	2551.053219
708.448967	2550.937272
708.783421	2550.884340
709.117825	2548.651109
709.452180	2550.352498
709.786485	2549.152704
710.120742	2547.201777
710.454949	2546.377548
710.789107	2548.482230
711.123216	2545.855789
711.457275	2551.113712
711.791286	2551.191850
712.125247	2549.818136
712.459159	2550.566747
712.793023	2550.218908
713.126837	2546.019627
713.460602	2549.251006
713.794318	2549.674463
714.127985	2549.271171
714.461602	2548.681356
714.795171	2547.340409
715.128691	2545.639019
715.462162	2552.167314
715.795584	2549.558517
716.128957	2552.242931
716.462281	2550.266799
716.795556	2549.987015
717.128782	2548.119267
717.461960	2549.687066
717.795088	2549.182951
718.128167	2550.435677
718.461198	2550.410472
718.794180	2552.031202
719.127113	2551.007848
719.459997	2549.936603
719.792833	2551.612787
720.125619	2548.555327
720.458357	2547.917621
720.791046	2549.790410
721.123686	2548.520039
721.456278	2547.743701
721.788821	2549.699669
722.121315	2549.210677
722.453761	2548.578012
722.786158	2546.788403
723.118506	2549.689587
723.450805	2548.605738
723.783056	2551.983312
724.115259	2549.684545
724.447412	2545.429812
724.779518	2549.437529
725.111574	2548.830070
725.443582	2548.895605
725.775542	2547.277394
726.107453	2548.968702
726.439315	2550.130688
726.771129	2550.576830
727.102895	2545.248330
727.434612	2546.697662
727.766281	2544.202291
728.097901	2551.965667
728.429473	2547.824360
728.760996	2552.061449
729.092471	2551.327962
729.423897	2548.066335
729.755276	2548.678835
730.086606	2549.903836
730.417887	2552.074052
730.749120	2548.028526
731.080305	2549.082128
731.411442	2548.061294
731.742530	2547.365615
732.073570	2547.229503
732.404562	2547.378217
732.735506	2550.604556
733.066401	2547.801674
733.397249	2551.179248
733.728048	2549.659340
734.058798	2548.825029
734.389501	2548.262940
734.720156	2547.617672
735.050762	2547.796633
735.381320	2550.352498
735.711831	2548.073897
736.042293	2549.951727
736.372707	2550.271840
736.703073	2550.561706
737.033391	2549.407282
737.363661	2549.606408
737.693883	2547.088351
738.024056	2549.871068
738.354182	2546.881664
738.684260	2548.661191
739.014290	2550.191181
739.344272	2548.648588
739.674207	2547.801674
740.004093	2550.554144
740.333931	2547.983156
740.663722	2550.017262
740.993464	2549.359391
741.323159	2548.242775
741.652806	2548.431819
741.982405	2549.674463
742.311956	2550.082797
742.641460	2547.857127
742.970915	2547.907539
743.300323	2546.470810
743.629683	2544.477033
743.958996	2546.864020
744.288260	2544.537527
744.617477	2548.514998
744.946647	2550.768393
745.275768	2550.596994
745.604842	2549.561037
745.933869	2549.397200
746.262847	2549.636654
746.591778	2552.857952
746.920662	2546.773279
747.249498	2548.343598
747.578286	2546.206149
747.907027	2549.878630
748.235720	2548.157076
748.564365	2550.246634
748.892963	2547.534493
749.221514	2551.012889
749.550017	2549.124977
749.878473	2550.415513
750.206881	2547.055584
750.535242	2549.067004
750.863555	2549.399720
751.191821	2546.049873
751.520039	2548.981304
751.848210	2549.583722
752.176334	2549.581202
752.504411	2547.133722
752.832440	2549.505584
753.160421	2548.394010
753.488356	2549.823177
753.816243	2548.756973
754.144082	2550.639844
754.471875	2551.234700
754.799620	2550.730585
755.127318	2550.208825
755.454969	2549.916438
755.782572	2548.169679
756.110129	2550.360060
756.437638	2549.334185
756.765100	2548.492312
757.092515	2548.613300
757.419882	2549.447611
757.747203	2547.141283
758.074477	2549.293856
758.401703	2545.679349
758.728882	2549.104813
759.056014	2547.952909
759.383099	2548.139432
759.710138	2543.834286
760.037129	2542.468134
760.364073	2544.993752
760.690970	2542.921838
761.017820	2547.166489
761.344623	2548.915769
761.671379	2547.300080
761.998088	2547.000131
762.324751	2550.024823
762.651366	2547.670604
762.977935	2548.323434
763.304456	2549.659340
763.630931	2549.283774
763.957359	2547.799154
764.283740	2547.564740
764.610074	2544.887887
764.936362	2548.877961
765.262602	2548.918290
765.588796	2550.241593
765.914943	2548.608259
766.241044	2546.705223
766.567097	2548.409133
766.893104	2546.117929
767.219064	2547.083310
767.544978	2548.782179
767.870845	2550.173537
768.196665	2546.564071
768.522438	2548.812426
768.848165	2547.473999
769.173846	2551.212015
769.499479	2546.720347
769.825066	2548.472148
770.150607	2551.249824
770.476101	2548.537683
770.801548	2544.618186
771.126949	2549.114895
771.452303	2548.235214
771.777611	2546.775800
772.102872	2548.514998
772.428087	2548.583053
772.753256	2548.928372
773.078378	2549.077086
773.403453	2548.817467
773.728482	2548.275543
774.053465	2548.721685
774.378401	2547.688248
774.703291	2546.543907
775.028135	2548.935934
775.352932	2548.605738
775.677683	2548.262940
776.002388	2543.688093
776.327046	2543.045346
776.651658	2544.285470
776.976224	2543.120963
777.300743	2548.295707
777.625216	2548.482230
777.949643	2547.549617
778.274024	2548.109185
778.598359	2546.886705
778.922647	2546.236396
779.246889	2547.305121
779.571086	2551.040616
779.895236	2549.200595
780.219339	2546.743032
780.543397	2549.450132
780.867409	2549.162786
781.191374	2549.142621
781.515294	2547.194215
781.839167	2546.889226
782.162995	2548.169679
782.486776	2547.088351
782.810511	2549.543393
783.134201	2547.274874
783.457844	2546.140614
783.781441	2548.852755
784.104993	2548.961140
784.428498	2546.450645
784.751958	2546.465769
785.075372	2549.203115
785.398739	2547.703372
785.722061	2545.870913
786.045337	2545.291180
786.368568	2551.239741
786.691752	2549.009031
787.014891	2546.422919
787.337983	2545.780172
787.661030	2546.990049
787.984031	2548.436860
788.306987	2548.126829
788.629897	2549.374514
788.952760	2547.274874
789.275579	2547.506767
789.598351	2547.824360
789.921078	2550.493651
790.243759	2546.007024
790.566395	2547.330327
790.888984	2549.815615
791.211529	2546.702703
791.534027	2549.989535
791.856480	2546.541386
792.178888	2543.231868
792.501249	2544.252702
792.823566	2544.477033
793.145836	2542.536189
793.468062	2549.031716
793.790241	2546.732950
794.112375	2546.778320
794.434464	2545.117260
794.756507	2548.910728
795.078505	2545.936447
795.400457	2549.818136
795.722364	2548.111705
796.044226	2550.594474
796.366042	2547.955430
796.687812	2545.891077
797.009538	2547.463917
797.331218	2547.171530
797.652852	2547.864689
797.974442	2547.726057
798.295986	2548.026006
798.617484	2547.040460
798.938938	2547.141283
799.260346	2546.420398
799.581709	2546.382590
799.903026	2547.277394
800.224299	2545.752445
800.545526	2550.118085
800.866708	2547.514329
801.187845	2546.909390
801.508936	2547.257230
801.829983	2546.004503
802.150984	2545.908721
802.471940	2546.899308
802.792851	2547.605069
803.113717	2545.908721
803.434538	2546.430481
803.755314	2546.758156
804.076045	2546.559030
804.396731	2546.536345
804.717372	2546.959802
805.037967	2546.443083
805.358518	2549.102292
805.679024	2546.138094
805.999485	2547.940306
806.319901	2548.310831
806.640272	2546.400234
806.960598	2546.896787
807.280879	2546.833773
807.601115	2547.587425
807.921306	2546.191026
808.241453	2545.956612
808.561554	2541.051569
808.881611	2544.892929
809.201623	2545.770089
809.521590	2548.096582
809.841513	2548.164637
810.161390	2548.066335
810.481223	2544.376210
810.801011	2547.693290
811.120755	2545.707075
811.440453	2546.019627
811.760107	2547.824360
812.079716	2546.251520
812.399281	2545.127342
812.718801	2547.642878
813.038276	2548.308310
813.357707	2547.355532
813.677093	2548.106664
813.996434	2547.562220
814.315731	2546.735470
814.634983	2546.843855
814.954191	2544.083823
815.273354	2548.883002
815.592473	2547.554658
815.911547	2549.198074
816.230577	2547.612631
816.549562	2550.201264
816.868502	2545.878474
817.187399	2546.344781
817.506250	2546.327137
817.825058	2545.815460
818.143821	2543.665408
818.462539	2548.701520
818.781213	2544.734132
819.099843	2544.592980
819.418429	2548.091541
819.736970	2547.325285
820.055466	2545.444935
820.373919	2546.801005
820.692327	2547.582384
821.010691	2546.029709
821.329011	2549.235883
821.647286	2546.017106
821.965517	2546.735470
822.283704	2546.896787
822.601847	2546.014585
822.919945	2547.650440
823.237999	2546.957281
823.556010	2548.394010
823.873976	2547.791592
824.191897	2544.827394
824.509775	2543.073072
824.827609	2541.379244
825.145398	2541.243133
825.463144	2547.007693
825.780845	2543.925027
826.098502	2546.952240
826.416116	2544.633309
826.733685	2547.400903
827.051210	2546.165820
827.368692	2546.483413
827.686129	2548.111705
828.003522	2545.999462
828.320872	2547.209339
828.638177	2545.936447
828.955439	2547.295038
829.272656	2545.253371
829.589830	2542.947043
829.906960	2548.658671
830.224046	2546.952240
830.541088	2548.827549
830.858086	2546.901828
831.175041	2546.838814
831.491952	2547.403423
831.808819	2547.234545
832.125642	2545.313865
832.442421	2545.855789
832.759157	2548.126829
833.075849	2545.276056
833.392497	2547.027857
833.709101	2546.188505
834.025662	2549.457693
834.342179	2547.995759
834.658653	2545.802857
834.975083	2547.466438
835.291469	2551.529608
835.607811	2547.962991
835.924110	2544.794626
836.240366	2546.695141
836.556578	2547.456355
836.872746	2545.074410
837.188871	2543.393185
837.504952	2547.226983
837.820990	2544.993752
838.136984	2546.465769
838.452935	2548.497354
838.768842	2546.901828
839.084706	2546.375028
839.400526	2544.361087
839.716303	2546.760676
840.032037	2543.960315
840.347727	2544.610624
840.663373	2541.001158
840.978977	2540.542413
841.294537	2546.296890
841.610054	2544.908052
841.925527	2546.377548
842.240957	2545.152548
842.556344	2545.538196
842.871687	2543.357897
843.186987	2543.030222
843.502244	2544.771941
843.817458	2547.070707
844.132629	2545.681869
844.447756	2546.405275
844.762840	2545.762528
845.077881	2546.480892
845.392879	2546.236396
845.707833	2545.351674
846.022745	2547.088351
846.337613	2544.081303
846.652438	2548.116747
846.967221	2544.648433
847.281960	2545.467620
847.596656	2546.934596
847.911309	2545.913762
848.225919	2544.681200
848.540485	2544.865202
848.855009	2546.238917
849.169490	2545.671787
849.483928	2544.527445
849.798323	2545.717157
850.112675	2545.631458
850.426984	2548.071376
850.741251	2546.460727
851.055474	2545.142466
851.369654	2545.762528
851.683792	2541.328833
851.997887	2547.403423
852.311938	2544.373690
852.625947	2544.353525
852.939914	2544.635830
853.253837	2548.623383
853.567718	2547.131201
853.881555	2546.090203
854.195350	2547.854607
854.509103	2546.586756
854.822812	2544.592980
855.136479	2547.915100
855.450103	2543.960315
855.763685	2540.320602
856.077224	2541.228010
856.390720	2542.445448
856.704173	2540.123997
857.017584	2547.063145
857.330953	2543.060469
857.644278	2546.622044
857.957561	2545.626417
858.270802	2546.059956
858.584000	2545.157589
858.897155	2544.212373
859.210268	2544.051056
859.523339	2545.903680
859.836367	2542.551313
860.149352	2548.424257
860.462295	2542.813453
860.775195	2544.948381
861.088054	2547.549617
861.400869	2546.160779
861.713642	2548.741850
862.026373	2545.833104
862.339062	2546.004503
862.651708	2544.514842
862.964312	2544.771941
863.276873	2545.477703
863.589392	2544.769420
863.901869	2546.843855
864.214303	2545.167672
864.526696	2546.443083
864.839045	2544.159441
865.151353	2548.066335
865.463619	2545.644061
865.775842	2544.726571
866.088023	2544.943340
866.400162	2545.303783
866.712258	2546.985008
867.024313	2546.057435
867.336325	2546.256561
867.648296	2545.553320
867.960224	2544.847558
868.272110	2545.202960
868.583954	2548.225131
868.895755	2543.748587
869.207515	2545.712116
869.519233	2545.462579
869.830909	2544.071221
870.142542	2545.069369
870.454134	2542.947043
870.765684	2543.715819
871.077191	2545.936448
871.388657	2543.388144
871.700081	2541.127187
872.011463	2545.399565
872.322803	2539.690458
872.634101	2544.298073
872.945357	2542.362269
873.256571	2544.691282
873.567744	2543.534338
873.878874	2543.635161
874.189963	2541.986703
874.501010	2546.312013
874.812015	2544.880326
875.122979	2544.204811
875.433900	2543.872095
875.744780	2545.016437
876.055618	2544.522404
876.366415	2545.712116
876.677169	2544.950902
876.987882	2545.639019
877.298554	2546.241437
877.609183	2546.092723
877.919771	2544.174564
878.230317	2544.318237
878.540822	2547.973074
878.851285	2548.961140
879.161707	2544.973587
879.472087	2547.138763
879.782425	2544.177085
880.092722	2542.858823
880.402977	2542.745397
880.713191	2542.049718
881.023363	2543.572146
881.333494	2545.570964
881.643583	2545.344112
881.953631	2544.381252
882.263637	2544.719009
882.573602	2544.557692
882.883526	2545.530635
883.193408	2544.754297
883.503248	2546.221273
883.813048	2541.590973
884.122806	2546.624565
884.432522	2542.891591
884.742197	2546.637168
885.051831	2544.892929
885.361424	2544.668597
885.670975	2547.136242
885.980485	2546.175902
886.289954	2544.086344
886.599382	2543.297403
886.908768	2541.717002
887.218113	2543.930068
887.527417	2540.887732
887.836680	2537.996630
888.145901	2547.111036
888.455082	2543.758669
888.764221	2544.711447
889.073319	2543.120963
889.382376	2544.981149
889.691392	2543.206663
890.000366	2545.691952
890.309300	2544.003165
890.618193	2546.188505
890.927044	2542.909235
891.235855	2546.974925
891.544625	2543.609955
891.853353	2543.093237
892.162041	2543.158772
892.470687	2544.703885
892.779293	2544.277908
893.087858	2544.706406
893.396381	2544.000644
893.704864	2541.520397
894.013306	2544.502239
894.321707	2544.345963
894.630068	2545.283618
894.938387	2542.702547
895.246665	2542.871426
895.554903	2545.263453
895.863100	2543.567105
896.171256	2541.727084
896.479371	2543.894780
896.787446	2546.634647
897.095480	2546.034750
897.403473	2545.649102
897.711425	2542.510983
898.019336	2544.832435
898.327207	2544.968546
898.635038	2543.768751
898.942827	2542.490819
899.250576	2544.093906
899.558284	2546.685059
899.865952	2545.913762
900.173579	2542.533669
900.481165	2544.572815
900.788711	2541.172557
901.096216	2543.400747
901.403681	2539.428318
901.711105	2545.510470
902.018489	2545.044163
902.325832	2542.425284
902.633135	2540.023174
902.940397	2541.618699
903.247619	2539.635005
903.554800	2544.197249
903.861941	2543.274718
904.169041	2543.252033
904.476101	2543.191539
904.783121	2546.536345
905.090100	2541.462423
905.397039	2545.704554
905.703938	2543.899821
906.010796	2545.180274
906.317614	2545.235727
906.624391	2544.456869
906.931129	2542.463093
907.237826	2547.138763
907.544483	2543.834286
907.851099	2544.285470
908.157675	2542.170706
908.464211	2545.155069
908.770707	2542.117773
909.077163	2545.049204
909.383578	2543.783875
909.689954	2543.103319
909.996289	2545.941489
910.302584	2544.416540
910.608839	2541.696837
910.915054	2544.519883
911.221229	2544.913093
911.527363	2543.050387
911.833458	2543.146169
912.139513	2545.296221
912.445527	2542.561395
912.751502	2541.293545
913.057436	2542.148020
913.363331	2544.792106
913.669186	2543.897301
913.975000	2543.632640
914.280775	2545.906201
914.586510	2542.992414
914.892205	2547.307641
915.197859	2544.809750
915.503475	2542.107691
915.809050	2542.516025
916.114585	2543.413350
916.420081	2542.962167
916.725536	2544.250182
917.030952	2542.800850
917.336328	2545.233207
917.641665	2539.234233
917.946961	2541.530479
918.252218	2541.903524
918.557435	2540.996117
918.862612	2545.833104
919.167750	2542.148020
919.472848	2544.580377
919.777906	2546.299411
920.082925	2542.689944
920.387904	2541.409491
920.692843	2544.025850
920.997743	2543.630120
921.302603	2542.831097
921.607423	2543.282280
921.912204	2544.414019
922.216946	2541.933771
922.521647	2544.761859
922.826310	2543.932589
923.130932	2543.279759
923.435516	2544.230017
923.740059	2542.700027
924.044564	2544.797147
924.349028	2544.482075
924.653454	2545.525593
924.957840	2542.024512
925.262186	2545.754966
925.566493	2540.754141
925.870761	2543.168854
926.174989	2544.623227
926.479178	2542.931920
926.783328	2544.655994
927.087438	2543.630120
927.391509	2542.758000
927.695541	2543.678011
927.999533	2543.786395
928.303486	2541.762372
928.607400	2544.474513
928.911275	2543.756148
929.215110	2544.046015
929.518906	2544.161961
929.822663	2543.418391
930.126381	2541.454862
930.430060	2544.252702
930.733699	2542.974770
931.037299	2541.038967
931.340861	2542.805891
931.644383	2545.041643
931.947866	2542.594162
932.251309	2545.528114
932.554714	2542.571477
932.858080	2541.212886
933.161407	2538.775488
933.464694	2538.084850
933.767943	2539.763555
934.071153	2543.360418
934.374323	2543.690613
934.677455	2541.769934
934.980548	2541.863195
935.283602	2540.897814
935.586617	2540.580222
935.889593	2540.227341
936.192530	2542.389996
936.495428	2541.447300
936.798287	2541.094419
937.101108	2544.850079
937.403890	2542.566436
937.706632	2542.392516
938.009336	2541.931251
938.312002	2544.784544
938.614628	2541.449821
938.917216	2545.989380
939.219765	2543.741025
939.522275	2542.677342
939.824747	2541.928730
940.127179	2542.848741
940.429573	2540.633154
940.731929	2544.172044
941.034246	2543.877136
941.336524	2542.253885
941.638763	2543.589790
941.940964	2545.928886
942.243126	2543.453679
942.545250	2545.276056
942.847335	2544.648433
943.149381	2540.580222
943.451389	2545.414688
943.753359	2543.599873
944.055290	2540.444110
944.357182	2544.595501
944.659036	2543.453679
944.960851	2542.788247
945.262628	2543.428473
945.564367	2543.020140
945.866067	2543.735984
946.167729	2546.783361
946.469352	2540.476878
946.770937	2543.700696
947.072484	2543.481406
947.373992	2543.352856
947.675462	2544.219935
947.976893	2539.418236
948.278286	2537.084181
948.579641	2541.482588
948.880958	2537.484953
949.182236	2545.371838
949.483476	2541.164995
949.784678	2544.169523
950.085841	2541.837989
950.386967	2542.127856
950.688054	2540.413863
950.989103	2543.541899
951.290114	2544.794626
951.591087	2543.126004
951.892021	2542.901673
952.192917	2543.277239
952.493776	2544.603062
952.794596	2543.315047
953.095378	2543.466282
953.396122	2542.974770
953.696828	2543.186498
953.997496	2542.478216
954.298126	2541.260777
954.598718	2542.395037
954.899272	2540.991076
955.199788	2542.889070
955.500266	2544.550130
955.800706	2543.428473
956.101108	2540.398740
956.401472	2540.403781
956.701798	2541.553164
957.002087	2542.379913
957.302337	2543.690613
957.602550	2544.391334
957.902724	2542.722712
958.202861	2544.477033
958.502960	2544.371169
958.803022	2543.337733
959.103045	2543.499050
959.403031	2541.205325
959.702979	2541.964018
960.002889	2542.097609
960.302762	2542.674821
960.602596	2542.581560
960.902393	2541.548123
961.202153	2542.873947
961.501875	2543.050387
961.801559	2541.850592
962.101205	2542.266488
962.400814	2542.871426
962.700385	2542.163144
962.999918	2538.667104
963.299414	2540.297917
963.598873	2540.761703
963.898293	2539.405633
964.197677	2541.149872
964.497022	2543.423432
964.796331	2544.527445
965.095601	2544.139276
965.394835	2540.726415
965.694030	2541.265818
965.993189	2541.996786
966.292309	2543.400747
966.591393	2544.265305
966.890439	2538.561239
967.189447	2542.009389
967.488419	2541.800181
967.787353	2541.021322
968.086249	2541.951415
968.385108	2542.717671
968.683930	2543.985521
968.982714	2542.170706
969.281462	2541.749769
969.580172	2542.142979
969.878844	2544.535007
970.177480	2541.548123
970.476078	2541.475026
970.774639	2542.001827
971.073162	2540.504604
971.371649	2540.252547
971.670098	2540.267670
971.968510	2541.437218
972.266885	2543.115922
972.565223	2541.235572
972.863524	2542.190870
973.161788	2538.508307
973.460014	2540.476878
973.758204	2542.324461
974.056356	2539.536703
974.354471	2540.681045
974.652550	2540.537372
974.950591	2544.920655
975.248595	2541.054090
975.546563	2543.083154
975.844493	2540.832279
976.142386	2539.685417
976.440243	2540.076106
976.738062	2542.505942
977.035845	2540.350849
977.333590	2541.651467
977.631299	2540.791950
977.928971	2542.377393
978.226606	2536.456558
978.524204	2538.835982
978.821765	2537.202648
979.119290	2540.781868
979.416777	2540.305479
979.714228	2541.684234
980.011642	2540.602907
980.309020	2544.207332
980.606360	2542.193391
980.903664	2541.464944
981.200931	2542.029553
981.498162	2541.664070
981.795356	2539.324974
982.092513	2541.744728
982.389633	2540.978473
982.686717	2544.172044
982.983764	2542.407640
983.280775	2541.613658
983.577749	2542.228679
983.874686	2544.192208
984.171587	2543.599873
984.468451	2543.257074
984.765279	2542.604245
985.062070	2542.919317
985.358824	2537.527803
985.655543	2541.795140
985.952224	2540.754141
986.248869	2542.208514
986.545478	2542.846220
986.842050	2540.081147
987.138586	2539.899666
987.435086	2543.196580
987.731549	2541.326312
988.027975	2542.526107
988.324366	2541.580891
988.620719	2541.480067
988.917037	2543.826725
989.213318	2542.710109
989.509563	2542.342105
989.805772	2542.263967
990.101944	2543.738504
990.398080	2542.001827
990.694180	2542.117773
990.990244	2540.958308
991.286271	2538.392361
991.582262	2541.235572
991.878217	2543.234389
992.174136	2542.503422
992.470019	2542.236241
992.765865	2540.310520
993.061676	2537.416898
993.357450	2537.522762
993.653188	2537.777340
993.948890	2542.039636
994.244556	2540.071065
994.540186	2540.948226
994.835780	2540.244985
995.131337	2540.118956
995.426859	2540.504604
995.722345	2540.731456
996.017795	2541.336395
996.313208	2543.252033
996.608586	2540.933102
996.903928	2541.701878
997.199234	2541.699358
997.494504	2542.851261
997.789738	2542.758000
998.084936	2540.645757
998.380099	2542.886549
998.675225	2540.739018
998.970316	2540.562578
999.265371	2540.938143
999.560390	2540.746580
999.855373	2540.948226
1000.150320	2539.277083
1000.445232	2538.815818
1000.740108	2541.500232
1001.034948	2541.507794
1001.329752	2541.764893
1001.624521	2542.150541
1001.919254	2541.401930
1002.213951	2542.957126
1002.508613	2540.335726
1002.803239	2540.020653
1003.097829	2539.410674
1003.392384	2541.404450
1003.686903	2542.309337
1003.981386	2541.706919
1004.275834	2541.157434
1004.570246	2540.822197
1004.864623	2540.923020
1005.158964	2542.004348
1005.453270	2541.898483
1005.747540	2539.352701
1006.041775	2542.286652
1006.335974	2540.683565
1006.630138	2542.266488
1006.924266	2542.989893
1007.218359	2539.105684
1007.512416	2538.465457
1007.806438	2539.375386
1008.100425	2541.054090
1008.394376	2535.458409
1008.688292	2541.520397
1008.982172	2541.855633
1009.276017	2540.650798
1009.569827	2542.957126
1009.863602	2542.112732
1010.157341	2541.553164
1010.451045	2541.837989
1010.744714	2539.632485
1011.038347	2542.697506
1011.331945	2541.222969
1011.625508	2541.240613
1011.919036	2539.357742
1012.212528	2540.063503
1012.505986	2541.966539
1012.799408	2540.676003
1013.092795	2539.224151
1013.386147	2541.162475
1013.679464	2542.692465
1013.972745	2542.838658
1014.265992	2539.813966
1014.559204	2542.180788
1014.852380	2543.546941
1015.145521	2542.135418
1015.438628	2540.655839
1015.731699	2540.242464
1016.024736	2542.853782
1016.317737	2543.564585
1016.610703	2542.112732
1016.903635	2542.228679
1017.196531	2541.139790
1017.489393	2539.824048
1017.782219	2544.885367
1018.075011	2541.522917
1018.367768	2538.147865
1018.660490	2542.657177
1018.953177	2542.657177
1019.245829	2542.657177
