Dividing Wavelength (nm)	Counts (n)	Blue Motor Position (mm): 14.000000	Red Motor Position (mm): 0.000000	
326.493990	2136.453603
326.888308	2136.453603
327.282561	2136.453603
327.676750	2106.214242
328.070874	2101.959508
328.464933	2106.105857
328.858929	2112.684563
329.252859	2124.226284
329.646726	2132.080402
330.040528	2144.849645
330.434265	2163.867398
330.827938	2181.561848
331.221547	2199.006760
331.615091	2217.774976
332.008571	2236.278531
332.401986	2255.697056
332.795338	2274.629109
333.188625	2294.105607
333.581847	2314.212249
333.975006	2332.244457
334.368100	2349.717096
334.761129	2368.253418
335.154095	2383.293701
335.546996	2406.309089
335.939833	2420.429361
336.332606	2437.007195
336.725315	2449.080759
337.117960	2458.727007
337.510540	2466.744962
337.903056	2477.026395
338.295508	2484.605770
338.687896	2494.945176
339.080220	2502.834582
339.472480	2506.544871
339.864676	2512.773217
340.256807	2517.937879
340.648875	2518.343692
341.040879	2523.029444
341.432818	2523.899043
341.824694	2526.908612
342.216506	2525.857532
342.608253	2524.887110
342.999937	2525.681091
343.391557	2527.745444
343.783113	2525.454239
344.174605	2523.712521
344.566033	2522.704290
344.957397	2520.975174
345.348697	2521.164217
345.739934	2516.211284
346.131106	2515.631551
346.522215	2514.424195
346.913260	2511.465038
347.304241	2511.467558
347.695159	2508.576456
348.086012	2504.641836
348.476802	2506.010509
348.867528	2505.271980
349.258191	2501.922133
349.648789	2501.150837
350.039324	2498.458861
350.429796	2500.326608
350.820203	2496.606237
351.210548	2497.750578
351.600828	2494.436020
351.991045	2494.607419
352.381198	2496.437358
352.771288	2494.062974
353.161314	2493.858808
353.551276	2491.073570
353.941175	2492.127171
354.331010	2491.534836
354.720782	2494.388129
355.110490	2491.928046
355.500135	2491.890237
355.889717	2494.060454
356.279235	2493.642038
356.668689	2494.713283
357.058080	2493.493324
357.447408	2492.535505
357.836672	2490.040134
358.225873	2491.892758
358.615010	2491.416369
359.004084	2495.908037
359.393095	2498.317708
359.782043	2498.635301
360.170927	2498.090856
360.559748	2496.608757
360.948505	2500.853409
361.337199	2500.482884
361.725830	2501.498676
362.114398	2500.669407
362.502903	2502.398522
362.891344	2501.970024
363.279722	2500.813079
363.668037	2501.957421
364.056289	2503.414315
364.444478	2503.114366
364.832603	2501.037411
365.220665	2503.568070
365.608665	2502.965652
365.996601	2502.990858
366.384474	2504.445231
366.772284	2502.602689
367.160031	2506.023112
367.547715	2502.630415
367.935336	2504.120076
368.322893	2506.617968
368.710388	2505.408091
369.097820	2509.294821
369.485189	2506.824655
369.872495	2505.728204
370.259738	2507.525376
370.646918	2507.946312
371.034035	2508.957063
371.421090	2506.907834
371.808081	2506.116373
372.195010	2508.072341
372.581875	2510.280366
372.968678	2508.657115
373.355418	2508.374810
373.742096	2509.902280
374.128710	2510.310613
374.515262	2510.043432
374.901751	2509.088133
375.288177	2508.498318
375.674540	2513.819256
376.060841	2510.338340
376.447079	2510.570233
376.833254	2509.864471
377.219367	2509.607372
377.605417	2508.707526
377.991404	2510.474451
378.377329	2509.821621
378.763191	2509.052845
379.148991	2513.345388
379.534727	2512.453104
379.920402	2515.704648
380.306013	2512.097702
380.691563	2513.138701
381.077049	2513.967970
381.462474	2514.199863
381.847835	2513.408402
382.233134	2513.645337
382.618371	2513.156345
383.003545	2516.387724
383.388657	2513.799092
383.773706	2517.090965
384.158693	2514.819925
384.543618	2514.729185
384.928480	2516.206243
385.313280	2517.852179
385.698017	2516.241531
386.082692	2517.569875
386.467305	2515.223218
386.851856	2516.506191
387.236344	2515.991994
387.620770	2517.736233
388.005133	2515.949144
388.389435	2520.912160
388.773674	2515.497961
389.157851	2517.012827
389.541965	2519.288908
389.926018	2516.770852
390.310008	2518.179854
390.693936	2520.476100
391.077802	2518.197498
391.461606	2516.826305
391.845348	2520.821419
392.229027	2518.452077
392.612645	2520.254289
392.996200	2518.794875
393.379694	2518.936027
393.763125	2521.108765
394.146494	2520.264372
394.529801	2520.075328
394.913047	2520.700431
395.296230	2522.787469
395.679351	2519.140194
396.062410	2522.263189
396.445408	2518.799916
396.828343	2519.321676
397.211217	2515.762621
397.594028	2522.174969
397.976778	2516.906963
398.359466	2521.335617
398.742092	2518.704134
399.124656	2523.679753
399.507158	2524.564476
399.889598	2522.464835
400.271977	2523.921729
400.654294	2526.104548
401.036549	2523.717562
401.418742	2521.025586
401.800874	2521.857376
402.182944	2524.244363
402.564952	2523.523477
402.946898	2523.621780
403.328783	2525.048427
403.710606	2526.452388
404.092367	2523.780576
404.474067	2523.026924
404.855705	2526.152439
405.237282	2526.071781
405.618797	2525.292923
406.000250	2526.785104
406.381642	2524.438447
406.762972	2525.383663
407.144240	2528.080681
407.525447	2528.262162
407.906593	2526.835516
408.287677	2527.765608
408.668700	2525.406348
409.049661	2526.069260
409.430560	2525.101359
409.811399	2528.131092
410.192176	2530.707122
410.572891	2528.831813
410.953545	2527.107738
411.334138	2528.209230
411.714669	2527.919364
412.095139	2527.836185
412.475547	2527.440454
412.855894	2528.688140
413.236180	2528.494055
413.616405	2529.638397
413.996568	2529.487163
414.376670	2528.529343
414.756711	2530.145033
415.136691	2531.838861
415.516609	2527.216123
415.896466	2528.826771
416.276262	2528.012625
416.655997	2527.531195
417.035670	2528.176463
417.415283	2524.977850
417.794834	2527.884076
418.174324	2528.443644
418.553753	2529.943387
418.933121	2532.070754
419.312428	2531.254087
419.691674	2529.719056
420.070859	2531.289375
420.449983	2529.961031
420.829045	2529.109076
421.208047	2532.295085
421.586988	2531.579241
421.965867	2533.013450
422.344686	2530.182842
422.723444	2534.823224
423.102141	2529.814837
423.480777	2531.614529
423.859352	2532.043028
424.237866	2533.429345
424.616319	2530.734848
424.994712	2535.657535
425.373044	2533.880528
425.751314	2532.252235
426.129524	2531.919519
426.507673	2532.600075
426.885762	2530.734848
427.263789	2532.194262
427.641756	2532.224509
428.019662	2535.092926
428.397508	2533.699047
428.775292	2533.565456
429.153016	2536.093595
429.530679	2536.121321
429.908282	2533.830117
430.285824	2531.448171
430.663305	2532.403470
431.040726	2535.476053
431.418086	2533.731814
431.795385	2535.503780
432.172624	2531.957328
432.549802	2537.500077
432.926920	2533.646114
433.303977	2537.323636
433.680974	2534.286341
434.057910	2534.051927
434.434786	2535.985210
434.811601	2535.004705
435.188355	2532.998326
435.565050	2537.931095
435.941683	2537.114428
436.318257	2533.701567
436.694770	2532.295085
437.071222	2535.115611
437.447614	2533.958666
437.823946	2531.760723
438.200218	2534.850950
438.576429	2537.134593
438.952580	2536.857329
439.328670	2536.731301
439.704700	2537.984027
440.080670	2537.096784
440.456580	2535.770961
440.832429	2540.401261
441.208218	2538.082330
441.583947	2538.813297
441.959616	2538.263811
442.335224	2536.892617
442.710773	2536.610313
443.086261	2538.168029
443.461689	2537.535365
443.837057	2538.548637
444.212365	2537.305992
444.587612	2537.734490
444.962800	2537.323636
445.337927	2538.047042
445.712995	2537.379089
446.088002	2538.387320
446.462949	2537.275745
446.837837	2537.379089
447.212664	2539.093081
447.587431	2540.323123
447.962139	2540.083668
448.336786	2540.779347
448.711374	2540.920499
449.085901	2542.473175
449.460369	2540.103833
449.834776	2537.023688
450.209124	2540.686086
450.583412	2539.123328
450.957640	2540.086188
451.331808	2543.282280
451.705917	2539.579553
452.079965	2541.369162
452.453954	2540.408822
452.827883	2541.202804
453.201752	2541.774975
453.575562	2540.549975
453.949311	2539.740869
454.323001	2539.980324
454.696632	2537.767258
455.070202	2541.679193
455.443713	2540.434028
455.817164	2539.937474
456.190556	2536.413708
456.563888	2538.374717
456.937160	2535.007226
457.310373	2541.684234
457.683526	2542.621889
458.056619	2543.257074
458.429653	2539.050231
458.802628	2540.189532
459.175542	2543.395706
459.548398	2543.110881
459.921194	2539.347659
460.293930	2541.107022
460.666607	2540.378575
461.039224	2544.532486
461.411782	2543.098278
461.784280	2544.935778
462.156719	2542.586601
462.529099	2544.406457
462.901419	2542.016950
463.273680	2541.313709
463.645882	2540.791950
464.018024	2546.133052
464.390106	2541.933771
464.762130	2543.405788
465.134094	2542.057280
465.505999	2541.878319
465.877845	2542.326981
466.249631	2544.091385
466.621358	2544.686241
466.993026	2544.595501
467.364634	2550.443239
467.736184	2545.104657
468.107674	2546.064997
468.479105	2545.621375
468.850477	2542.586601
469.221790	2544.046015
469.593043	2543.347815
469.964238	2544.340922
470.335373	2545.016437
470.706449	2544.161961
471.077467	2544.260264
471.448425	2545.880995
471.819324	2546.760676
472.190164	2546.894267
472.560945	2544.603062
472.931667	2543.667928
473.302330	2545.190357
473.672934	2547.320244
474.043479	2544.789585
474.413965	2545.150028
474.784393	2539.889583
475.154761	2543.761190
475.525070	2541.336395
475.895321	2542.082485
476.265513	2540.945705
476.635645	2544.318237
477.005719	2543.914945
477.375734	2546.944678
477.745691	2546.095244
478.115588	2547.516849
478.485427	2544.061138
478.855207	2547.191695
479.224928	2546.170861
479.594591	2548.199926
479.964194	2543.849410
480.333739	2547.111036
480.703226	2547.307641
481.072653	2546.682538
481.442022	2547.789072
481.811333	2549.684545
482.180584	2547.443752
482.549777	2546.826211
482.918912	2548.262940
483.287988	2547.789072
483.657005	2546.238917
484.025964	2550.118085
484.394864	2546.879143
484.763706	2547.665563
485.132489	2547.978115
485.501213	2550.163455
485.869879	2549.147663
486.238487	2548.361242
486.607036	2550.108002
486.975527	2548.341078
487.343959	2549.150183
487.712333	2548.091541
488.080648	2547.189174
488.448905	2549.102292
488.817104	2545.843186
489.185244	2549.311500
489.553326	2548.441901
489.921350	2550.720503
490.289315	2551.196892
490.657222	2549.624052
491.025070	2552.956254
491.392861	2550.881819
491.760593	2547.811757
492.128267	2552.144628
492.495883	2549.929041
492.863440	2550.097920
493.230939	2549.303938
493.598380	2549.666901
493.965763	2547.708413
494.333088	2545.263453
494.700354	2546.276725
495.067563	2546.054915
495.434713	2545.200439
495.801805	2549.346788
496.168839	2550.039947
496.535815	2549.097251
496.902733	2550.385266
497.269593	2550.420554
497.636395	2548.686397
498.003139	2551.411141
498.369825	2551.151521
498.736453	2548.124308
499.103023	2550.120605
499.469535	2551.325441
499.835989	2549.253527
500.202385	2549.684545
500.568723	2550.319731
500.935003	2552.530277
501.301226	2550.871737
501.667390	2551.499361
502.033497	2553.112530
502.399546	2552.091696
502.765537	2550.468445
503.131470	2551.015410
503.497345	2551.703527
503.863163	2553.742674
504.228923	2551.975750
504.594625	2553.984650
504.960269	2551.953065
505.325856	2551.184289
505.691385	2550.165976
506.056856	2554.667726
506.422270	2553.722510
506.787625	2551.864844
507.152924	2551.585060
507.518164	2554.415668
507.883347	2552.275698
508.248472	2553.578837
508.613540	2554.118240
508.978550	2554.166131
509.343503	2552.903322
509.708398	2555.486913
510.073236	2554.919784
510.438016	2554.584547
510.802738	2553.679660
511.167403	2554.569423
511.532010	2555.355843
511.896561	2558.055381
512.261053	2555.328117
512.625488	2553.372149
512.989866	2551.751418
513.354186	2554.715617
513.718449	2552.253013
514.082655	2553.281409
514.446803	2556.885834
514.810894	2557.498334
515.174927	2559.643345
515.538904	2558.740978
515.902822	2557.863818
516.266684	2557.964641
516.630488	2557.962120
516.994235	2558.269630
517.357925	2558.047820
517.721558	2561.322049
518.085133	2560.989333
518.448651	2558.499003
518.812112	2560.908674
519.175516	2558.483879
519.538863	2559.494631
519.902152	2560.649055
520.265385	2561.256514
520.628560	2562.728531
520.991678	2559.355999
521.354739	2563.434293
521.717743	2559.666030
522.080690	2565.037379
522.443580	2561.468242
522.806413	2563.877914
523.169189	2565.130641
523.531908	2564.893707
523.894569	2563.716597
524.257174	2565.957390
524.619722	2565.632236
524.982213	2566.650549
525.344647	2565.173491
525.707025	2568.278841
526.069345	2564.447564
526.431608	2565.551577
526.793815	2564.873542
527.155964	2565.619633
527.518057	2567.300857
527.880093	2568.268759
528.242072	2567.066444
528.603995	2569.524006
528.965860	2566.993347
529.327669	2570.297823
529.689421	2571.197669
530.051117	2570.968297
530.412755	2568.946794
530.774337	2570.784295
531.135862	2570.799418
531.497331	2568.586352
531.858743	2564.813048
532.220098	2571.900910
532.581396	2566.983265
532.942638	2567.182390
533.303824	2572.150447
533.664953	2572.001733
534.026025	2568.916547
534.387040	2574.164388
534.747999	2574.514749
535.108902	2574.182032
535.469748	2572.344532
535.830537	2574.323185
536.191270	2572.284038
536.551947	2573.448545
536.912567	2574.229923
537.273131	2574.441652
537.633638	2574.078689
537.994089	2574.418967
538.354483	2573.922413
538.714821	2576.639595
539.075103	2577.080696
539.435328	2579.394586
539.795497	2578.945923
540.155609	2579.117322
540.515665	2577.007599
540.875665	2578.545151
541.235609	2578.028433
541.595496	2577.468865
541.955328	2581.186716
542.315102	2581.264854
542.674821	2581.350553
543.034483	2580.523804
543.394090	2582.250399
543.753640	2580.284349
544.113134	2581.083372
544.472571	2583.666963
544.831953	2584.859196
545.191278	2583.571182
545.550548	2580.738053
545.909761	2585.343147
546.268918	2584.130750
546.628019	2585.552355
546.987064	2587.296594
547.346053	2588.357757
547.704986	2587.823395
548.063863	2588.642582
548.422684	2590.152408
548.781449	2589.597881
549.140158	2592.972933
549.498811	2589.870103
549.857408	2594.334045
550.215949	2592.105855
550.574434	2590.154928
550.932864	2593.741709
551.291237	2593.862697
551.649555	2599.876794
552.007817	2597.898141
552.366022	2599.965014
552.724173	2601.086671
553.082267	2600.380909
553.440305	2605.122114
553.798288	2605.863164
554.156215	2607.476333
554.514086	2608.938268
554.871902	2607.030191
555.229661	2608.648401
555.587365	2613.306427
555.945014	2614.271808
556.302606	2615.748867
556.660143	2616.772221
557.017625	2619.675925
557.375050	2621.374794
557.732421	2624.805299
558.089735	2626.572224
558.446994	2628.495424
558.804197	2631.847791
559.161345	2633.047586
559.518437	2630.259828
559.875474	2635.149747
560.232455	2638.391209
560.589381	2637.960190
560.946251	2648.276912
561.303065	2648.531490
561.659825	2648.796151
562.016528	2652.093065
562.373177	2651.692293
562.729770	2659.664878
563.086307	2662.382060
563.442789	2664.746361
563.799216	2670.226096
564.155587	2670.906651
564.511904	2674.858916
564.868164	2679.146417
565.224370	2681.803105
565.580520	2683.837211
565.936615	2687.156811
566.292654	2691.600588
566.648638	2697.133254
567.004567	2701.319932
567.360441	2706.469471
567.716260	2710.986345
568.072023	2716.516491
568.427732	2716.670246
568.783385	2721.199723
569.138982	2726.026627
569.494525	2733.447206
569.850013	2735.209089
570.205445	2746.748290
570.560823	2750.176275
570.916145	2756.366812
571.271412	2765.211516
571.626625	2771.263422
571.981782	2772.690068
572.336884	2782.379166
572.691931	2785.275309
573.046923	2794.873666
573.401860	2797.079170
573.756743	2805.563432
574.111570	2814.907211
574.466342	2820.775114
574.821059	2827.585713
575.175722	2835.772547
575.530330	2842.384020
575.884882	2851.117819
576.239380	2858.009076
576.593823	2861.096783
576.948211	2872.391488
577.302544	2869.545757
577.656823	2886.216853
578.011047	2895.086763
578.365216	2908.077816
578.719330	2912.178795
579.073389	2925.071546
579.427394	2928.234870
579.781344	2937.218206
580.135239	2949.359825
580.489080	2957.697894
580.842866	2965.199131
581.196597	2979.745380
581.550273	2988.539673
581.903895	3003.529544
582.257463	3018.438756
582.610975	3028.475694
582.964434	3039.316695
583.317837	3049.870351
583.671186	3056.658264
584.024481	3071.368351
584.377721	3078.935123
584.730906	3087.787389
585.084037	3108.030143
585.437113	3114.404682
585.790135	3131.922691
586.143103	3133.896303
586.496016	3146.002634
586.848874	3166.308402
587.201679	3180.718540
587.554428	3184.824560
587.907124	3209.672407
588.259765	3211.983776
588.612352	3240.350349
588.964884	3236.655183
589.317362	3260.734254
589.669786	3274.242026
590.022155	3291.709624
590.374470	3313.691575
590.726731	3319.307421
591.078937	3320.179540
591.431090	3354.774459
591.783188	3350.960826
592.135232	3374.011502
592.487222	3380.476782
592.839157	3409.365114
593.191038	3417.115888
593.542866	3423.800458
593.894639	3428.826488
594.246358	3452.923203
594.598022	3473.536482
594.949633	3476.183087
595.301190	3488.523832
595.652692	3508.612830
596.004141	3549.446176
596.355535	3527.635624
596.706876	3539.043755
597.058162	3553.058163
597.409395	3580.323243
597.760573	3612.198459
598.111698	3607.454733
598.462768	3625.872589
598.813785	3635.849032
599.164748	3654.939882
599.515657	3665.059998
599.866511	3673.355217
600.217312	3707.952656
600.568060	3703.864280
600.918753	3742.509766
601.269392	3758.845625
601.619978	3759.947117
601.970510	3795.898105
602.320988	3810.013336
602.671412	3851.950695
603.021783	3851.018082
603.372100	3866.368395
603.722363	3890.379411
604.072572	3903.277203
604.422728	3927.293260
604.772830	3926.143877
605.122878	3949.948205
605.472872	3964.295329
605.822813	3997.904702
606.172701	4001.443592
606.522534	4043.723749
606.872314	4065.647727
607.222041	4079.687341
607.571714	4113.450468
607.921333	4122.186788
608.270899	4152.743742
608.620411	4194.900391
608.969870	4193.451059
609.319276	4212.151220
609.668627	4236.164756
610.017926	4266.877986
610.367171	4314.050583
610.716362	4319.467303
611.065500	4343.826158
611.414585	4378.912589
611.763616	4390.575298
612.112594	4409.898041
612.461518	4434.498872
612.810389	4480.431345
613.159207	4480.779185
613.507971	4482.982169
613.856682	4553.336512
614.205340	4559.073345
614.553945	4606.641673
614.902496	4601.202268
615.250994	4638.973113
615.599439	4656.173530
615.947830	4686.801060
616.296169	4696.535528
616.644454	4723.800609
616.992686	4746.858846
617.340864	4796.907422
617.688990	4782.398981
618.037063	4836.162887
618.385082	4842.040872
618.733048	4903.863062
619.080961	4894.841917
619.428821	4928.809212
619.776628	4957.780723
620.124382	4960.306341
620.472083	4972.778156
620.819731	5002.601622
621.167326	4987.720136
621.514868	5010.780894
621.862357	4986.003623
622.209793	5009.233260
622.557176	5002.493237
622.904506	5015.421276
623.251783	4997.157176
623.599007	5001.253113
623.946179	5021.561402
624.293297	5025.783368
624.640363	5005.938866
624.987376	5020.795146
625.334336	5014.299620
625.681243	5016.729456
626.028097	5024.749932
626.374899	5034.592784
626.721647	5053.892842
627.068343	5037.952713
627.414987	5044.014701
627.761577	5041.748702
628.108115	5078.735648
628.454600	5041.179052
628.801032	5095.870530
629.147412	5078.536523
629.493739	5102.204740
629.840014	5084.036421
630.186236	5136.406448
630.532405	5088.649077
630.878521	5134.614318
631.224585	5126.883708
631.570597	5102.045943
631.916556	5136.837467
632.262462	5151.093850
632.608316	5148.606040
632.954117	5147.658303
633.299866	5157.254140
633.645562	5173.602602
633.991206	5140.870390
634.336797	5128.280108
634.682336	5121.434221
635.027823	5115.445330
635.373257	5125.996465
635.718639	5101.541828
636.063968	5127.102999
636.409245	5078.574331
636.754470	5095.747022
637.099642	5085.200928
637.444762	5066.760387
637.789829	5091.295683
638.134845	5067.740892
638.479808	5073.754988
638.824719	5087.557667
639.169577	5053.492070
639.514383	5081.956945
639.859137	5052.020053
640.203839	5068.053443
640.548489	5078.566769
640.893086	5071.622580
641.237632	5066.800716
641.582125	5092.934058
641.926566	5084.167491
642.270955	5109.625318
642.615292	5117.822234
642.959576	5141.049351
643.303809	5140.514988
643.647990	5162.234800
643.992118	5167.076828
644.336195	5138.632118
644.680219	5168.624462
645.024192	5170.714021
645.368112	5249.686216
645.711981	5279.325680
646.055797	5338.256769
646.399562	5323.329912
646.743274	5421.763482
647.086935	5467.711079
647.430544	5475.119054
647.774101	5510.175238
648.117606	5512.484087
648.461059	5524.416498
648.804460	5513.890569
649.147810	5455.632474
649.491108	5451.929747
649.834354	5444.778870
650.177548	5393.495212
650.520690	5343.348334
650.863781	5341.069733
651.206820	5362.053535
651.549807	5315.649714
651.892742	5287.633502
652.235626	5306.573117
652.578458	5303.145132
652.921238	5243.412500
653.263967	5282.123521
653.606644	5239.649279
653.949269	5258.717443
654.291843	5214.756061
654.634365	5262.674749
654.976836	5239.407303
655.319255	5243.777984
655.661622	5240.539042
656.003938	5247.679837
656.346203	5220.669335
656.688416	5257.361373
657.030577	5226.174275
657.372687	5209.465370
657.714746	5207.093507
658.056753	5248.027677
658.398708	5205.432447
658.740612	5203.347930
659.082465	5255.818780
659.424266	5251.677472
659.766016	5261.893370
660.107715	5245.953242
660.449362	5264.739102
660.790958	5273.263693
661.132503	5265.366725
661.473996	5306.570596
661.815438	5301.254699
662.156829	5305.217046
662.498168	5308.040092
662.839456	5287.232730
663.180693	5327.410726
663.521879	5333.702086
663.863013	5329.452393
664.204097	5355.137072
664.545129	5395.138628
664.886110	5400.686418
665.227040	5436.271923
665.567918	5403.098610
665.908746	5435.241007
666.249522	5444.541936
666.590248	5442.714518
666.930922	5468.802489
667.271545	5486.043235
667.612118	5490.885263
667.952639	5474.360361
668.293109	5509.807234
668.633528	5471.970854
668.973896	5482.542153
669.314213	5482.781608
669.654480	5467.080935
669.994695	5470.385411
670.334859	5469.669567
670.674973	5468.963806
671.015035	5475.502182
671.355047	5481.155836
671.695008	5467.917766
672.034918	5455.481240
672.374777	5469.407427
672.714585	5457.868226
673.054342	5463.854596
673.394049	5459.990552
673.733705	5498.383979
674.073310	5490.595397
674.412864	5461.003824
674.752368	5458.886539
675.091820	5460.207321
675.431223	5412.896092
675.770574	5420.319192
676.109875	5379.435434
676.449125	5386.528337
676.788324	5362.683680
677.127473	5317.056196
677.466571	5315.611906
677.805619	5307.664527
678.144616	5302.187313
678.483562	5283.023367
678.822458	5261.757259
679.161303	5258.858596
679.500098	5250.596144
679.838842	5244.294702
680.177535	5247.052213
680.516179	5267.476448
680.854771	5280.477584
681.193314	5359.885839
681.531805	5458.352177
681.870247	5598.559268
682.208638	5686.451785
682.546978	5704.287388
682.885268	5694.673907
683.223508	5612.848419
683.561697	5570.049022
683.899836	5546.476587
684.237925	5504.672819
684.575963	5470.251820
684.913951	5435.016676
685.251889	5499.702241
685.589776	5467.360719
685.927614	5440.541780
686.265401	5508.027707
686.603137	5500.619731
686.940824	5573.023303
687.278460	5590.785809
687.616046	5601.987253
687.953582	5662.776006
688.291068	5645.827647
688.628504	5713.484973
688.965889	5676.422410
689.303224	5626.043639
689.640510	5590.594245
689.977745	5518.911558
690.314930	5432.806130
690.652065	5382.810486
690.989150	5300.599349
691.326185	5233.496551
691.663170	5186.896124
692.000105	5120.620075
692.336990	5044.410432
692.673825	5028.056928
693.010610	4958.254592
693.347345	4896.261002
693.684030	4890.370414
694.020665	4847.036656
694.357251	4765.609418
694.693786	4776.218526
695.030272	4747.284824
695.366707	4714.839958
695.703093	4679.181356
696.039429	4703.610787
696.375716	4690.133263
696.711952	4667.400179
697.048139	4654.273015
697.384276	4639.288185
697.720363	4647.953928
698.056400	4659.258716
698.392388	4613.926140
698.728326	4590.522583
699.064214	4571.459460
699.400053	4568.802772
699.735842	4542.878638
700.071581	4515.974000
700.407270	4491.617665
700.742910	4477.149554
701.078501	4427.027882
701.414042	4422.911780
701.749533	4397.942945
702.084974	4336.632432
702.420366	4388.921800
702.755709	4335.286443
703.091002	4281.532620
703.426246	4331.891226
703.761440	4284.305255
704.096584	4253.695368
704.431679	4272.942494
704.766725	4262.834980
705.101721	4252.150255
705.436668	4274.333852
705.771565	4226.770566
706.106413	4255.547993
706.441212	4291.385555
706.775961	4296.630876
707.110661	4277.580355
707.445311	4306.433399
707.779913	4330.325948
708.114465	4340.199048
708.448967	4364.414230
708.783421	4423.552006
709.117825	4463.372080
709.452180	4467.674705
709.786485	4513.675234
710.120742	4597.986012
710.454949	4581.617385
710.789107	4643.734483
711.123216	4716.770720
711.457275	4705.685222
711.791286	4780.896717
712.125247	4798.674346
712.459159	4697.652144
712.793023	4772.777939
713.126837	4737.948607
713.460602	4728.814036
713.794318	4654.520031
714.127985	4664.579654
714.461602	4581.972786
714.795171	4552.373652
715.128691	4489.359228
715.462162	4433.672122
715.795584	4386.381058
716.128957	4370.035117
716.462281	4320.094926
716.795556	4290.402530
717.128782	4258.275257
717.461960	4192.641954
717.795088	4200.170918
718.128167	4164.166997
718.461198	4102.919498
718.794180	4099.950258
719.127113	4084.214297
719.459997	4062.585226
719.792833	4020.237013
720.125619	4010.255529
720.458357	3975.348059
720.791046	3980.230416
721.123686	3957.953557
721.456278	3913.956887
721.788821	3932.904064
722.121315	3904.497162
722.453761	3877.358110
722.786158	3896.791758
723.118506	3918.496446
723.450805	3868.641955
723.783056	3891.932086
724.115259	3907.584869
724.447412	3907.199221
724.779518	3902.631935
725.111574	3909.626536
725.443582	3938.668623
725.775542	3925.218825
726.107453	3974.448213
726.439315	3975.579952
726.771129	3988.576047
727.102895	4021.169627
727.434612	4069.683171
727.766281	4080.869491
728.097901	4081.272783
728.429473	4088.068259
728.760996	4094.969598
729.092471	4088.708485
729.423897	4075.868667
729.755276	4082.180191
730.086606	4076.087957
730.417887	4115.194708
730.749120	4179.666024
731.080305	4241.979727
731.411442	4268.574334
731.742530	4240.192638
732.073570	4242.844285
732.404562	4299.756391
732.735506	4288.179381
733.066401	4250.839555
733.397249	4188.425029
733.728048	4113.425263
734.058798	4034.213612
734.389501	3966.737768
734.720156	3900.451636
735.050762	3859.537632
735.381320	3853.757949
735.711831	3804.795742
736.042293	3773.913633
736.372707	3796.402221
736.703073	3771.740896
737.033391	3756.365377
737.363661	3778.266670
737.693883	3802.300371
738.024056	3811.132472
738.354182	3803.507727
738.684260	3869.319991
739.014290	3885.169378
739.344272	3882.154768
739.674207	3926.365687
740.004093	3936.904220
740.333931	3925.652364
740.663722	3925.019699
740.993464	3924.414761
741.323159	3901.936256
741.652806	3870.948283
741.982405	3845.739993
742.311956	3813.385868
742.641460	3802.161739
742.970915	3779.111063
743.300323	3739.255701
743.629683	3706.722614
743.958996	3694.928835
744.288260	3672.374713
744.617477	3641.888335
744.946647	3624.554327
745.275768	3600.049278
745.604842	3600.205554
745.933869	3552.216290
746.262847	3545.244374
746.591778	3584.315837
746.920662	3553.227042
747.249498	3521.182947
747.578286	3570.167839
747.907027	3583.075713
748.235720	3581.611258
748.564365	3610.799539
748.892963	3608.972121
749.221514	3589.460335
749.550017	3570.082139
749.878473	3567.070050
750.206881	3536.762633
750.535242	3534.710883
750.863555	3533.954710
751.191821	3530.496479
751.520039	3508.436390
751.848210	3490.701610
752.176334	3522.072711
752.504411	3533.269113
752.832440	3490.769666
753.160421	3471.058754
753.488356	3484.538800
753.816243	3494.825274
754.144082	3449.437246
754.471875	3434.044082
754.799620	3454.523770
755.127318	3446.641926
755.454969	3446.354580
755.782572	3452.343471
756.110129	3432.062909
756.437638	3418.119077
756.765100	3433.907971
757.092515	3441.797377
757.419882	3449.109571
757.747203	3422.285591
758.074477	3428.639965
758.401703	3437.996347
758.728882	3460.711786
759.056014	3471.373827
759.383099	3471.474650
759.710138	3470.048003
760.037129	3485.249603
760.364073	3517.104654
760.690970	3502.233250
761.017820	3479.517811
761.344623	3497.940707
761.671379	3541.372768
761.998088	3589.777927
762.324751	3719.436404
762.651366	3959.765852
762.977935	4428.262964
763.304456	4861.981156
763.630931	4945.366882
763.957359	4594.250517
764.283740	4255.253085
764.610074	4068.788366
764.936362	3876.090260
765.262602	3723.315572
765.588796	3614.318264
765.914943	3525.034389
766.241044	3441.807459
766.567097	3411.333684
766.893104	3365.726365
767.219064	3334.277127
767.544978	3308.678148
767.870845	3252.751587
768.196665	3235.553691
768.522438	3244.423601
768.848165	3237.232395
769.173846	3200.971375
769.499479	3185.371525
769.825066	3171.180677
770.150607	3152.793068
770.476101	3167.914009
770.801548	3163.384532
771.126949	3117.981380
771.452303	3103.394802
771.777611	3111.306892
772.102872	3113.368724
772.428087	3090.423913
772.753256	3080.392017
773.078378	3073.420101
773.403453	3037.814431
773.728482	3026.736496
774.053465	3048.529404
774.378401	3037.297713
774.703291	3004.782271
775.028135	3005.286386
775.352932	3002.533916
775.677683	2987.412975
776.002388	2988.544714
776.327046	2990.553614
776.651658	2980.249495
776.976224	2968.788432
777.300743	2965.549491
777.625216	2959.716876
777.949643	2954.068263
778.274024	2953.871658
778.598359	2944.031326
778.922647	2950.151286
779.246889	2949.826132
779.571086	2932.257711
779.895236	2928.181938
780.219339	2936.998916
780.543397	2951.091462
780.867409	2954.688325
781.191374	2948.507870
781.515294	2942.297169
781.839167	2942.955039
782.162995	2937.349276
782.486776	2944.739608
782.810511	2940.351283
783.134201	2928.844850
783.457844	2935.910027
783.781441	2928.139088
784.104993	2903.669327
784.428498	2905.423649
784.751958	2922.558531
785.075372	2915.561409
785.398739	2898.489542
785.722061	2916.118457
786.045337	2929.202772
786.368568	2909.675862
786.691752	2905.244688
787.014891	2953.894343
787.337983	2979.798312
787.661030	3007.426356
787.984031	3072.890780
788.306987	3118.442646
788.629897	3110.858230
788.952760	3093.325097
789.275579	3079.582911
789.598351	3021.297091
789.921078	2974.857981
790.243759	2969.174080
790.566395	2950.322686
790.888984	2926.039448
791.211529	2912.556882
791.534027	2903.389543
791.856480	2894.534757
792.178888	2875.922817
792.501249	2871.902496
792.823566	2870.390150
793.145836	2866.122813
793.468062	2860.391022
793.790241	2860.612832
794.112375	2864.534850
794.434464	2877.939278
794.756507	2878.400544
795.078505	2888.016545
795.400457	2902.083884
795.722364	2937.190480
796.044226	2959.729479
796.366042	2962.638224
796.687812	2949.891667
797.009538	2971.306488
797.331218	2957.768470
797.652852	2943.559978
797.974442	2927.382915
798.295986	2926.541042
798.617484	2917.376225
798.938938	2901.277300
799.260346	2886.897408
799.581709	2883.474465
799.903026	2878.032539
800.224299	2871.728577
800.545526	2862.294057
800.866708	2845.789319
801.187845	2834.978565
801.508936	2837.710870
801.829983	2846.681604
802.150984	2833.471260
802.471940	2818.441060
802.792851	2821.559013
803.113717	2819.630772
803.434538	2825.390290
803.755314	2819.091369
804.076045	2813.485606
804.396731	2812.449648
804.717372	2811.945533
805.037967	2805.749955
805.358518	2814.181285
805.679024	2825.375167
805.999485	2820.754949
806.319901	2827.023624
806.640272	2818.302428
806.960598	2821.765701
807.280879	2830.340703
807.601115	2840.995182
807.921306	2825.375167
808.241453	2819.391317
808.561554	2825.246617
808.881611	2828.752740
809.201623	2822.410968
809.521590	2822.201761
809.841513	2820.770073
810.161390	2823.572954
810.481223	2817.886533
810.801011	2808.706592
811.120755	2804.731642
811.440453	2805.941519
811.760107	2807.925213
812.079716	2806.790953
812.399281	2796.627987
812.718801	2788.821760
813.038276	2784.388066
813.357707	2791.238994
813.677093	2800.330715
813.996434	2792.463994
814.315731	2786.180196
814.634983	2782.200205
814.954191	2783.412602
815.273354	2797.074129
815.592473	2804.293062
815.911547	2807.292548
816.230577	2815.807057
816.549562	2823.061277
816.868502	2822.539518
817.187399	2834.361024
817.506250	2849.093796
817.825058	2842.101715
818.143821	2852.917511
818.462539	2867.526775
818.781213	2896.379819
819.099843	2932.376178
819.418429	2985.459528
819.736970	3047.279198
820.055466	3116.128756
820.373919	3221.201526
820.692327	3356.390148
821.010691	3518.871578
821.329011	3953.930717
821.647286	4834.796734
821.965517	6174.261558
822.283704	6884.144240
822.601847	6851.636359
822.919945	6237.530559
823.237999	5751.301188
823.556010	5185.325805
823.873976	4649.892252
824.191897	4252.397271
824.509775	3967.579641
824.827609	3705.674054
825.145398	3588.671394
825.463144	3574.835947
825.780845	3669.476049
826.098502	3769.497583
826.416116	4046.735838
826.733685	4352.217159
827.051210	4410.210592
827.368692	4296.083911
827.686129	4036.847615
828.003522	3721.369687
828.320872	3472.218220
828.638177	3281.279477
828.955439	3152.039416
829.272656	3071.965728
829.589830	3004.663803
829.906960	2958.645631
830.224046	2911.105029
830.541088	2882.746018
830.858086	2861.648789
831.175041	2848.506501
831.491952	2850.419619
831.808819	2861.227853
832.125642	2885.311966
832.442421	2929.250663
832.759157	3009.082375
833.075849	3181.139476
833.392497	3455.390848
833.709101	3650.750683
834.025662	3601.201182
834.342179	3444.305351
834.658653	3274.390740
834.975083	3129.908750
835.291469	3033.957948
835.607811	2954.005248
835.924110	2898.081208
836.240366	2846.623630
836.556578	2806.735501
836.872746	2783.064763
837.188871	2762.464087
837.504952	2748.026223
837.820990	2740.391395
838.136984	2724.993191
838.452935	2719.881461
838.768842	2714.603373
839.084706	2735.007443
839.400526	2812.376552
839.716303	2939.978238
840.032037	3014.884743
840.347727	3002.047445
840.663373	2943.585183
840.978977	2871.378216
841.294537	2799.912299
841.610054	2755.643406
841.925527	2730.969479
842.240957	2711.976932
842.556344	2690.504137
842.871687	2677.034174
843.186987	2665.454643
843.502244	2664.811896
843.817458	2658.117244
844.132629	2646.704072
844.447756	2638.635705
844.762840	2630.937863
845.077881	2634.053296
845.392879	2632.006588
845.707833	2629.412914
846.022745	2620.903446
846.337613	2625.644652
846.652438	2624.550721
846.967221	2624.553242
847.281960	2618.967643
847.596656	2619.436471
847.911309	2621.591564
848.225919	2616.116871
848.540485	2614.304576
848.855009	2613.145111
849.169490	2612.555296
849.483928	2615.010337
849.798323	2613.319030
850.112675	2612.741818
850.426984	2611.234513
850.741251	2608.769389
851.055474	2610.448093
851.369654	2615.942951
851.683792	2615.776593
851.997887	2609.883484
852.311938	2609.447424
852.625947	2610.821139
852.939914	2615.484206
853.253837	2614.826335
853.567718	2610.574122
853.881555	2611.433639
854.195350	2613.795419
854.509103	2612.358691
854.822812	2607.559512
855.136479	2609.202928
855.450103	2613.908845
855.763685	2614.995214
856.077224	2611.915069
856.390720	2607.320057
856.704173	2612.504884
857.017584	2615.043105
857.330953	2616.348764
857.644278	2616.240379
857.957561	2618.803806
858.270802	2615.199381
858.584000	2614.039915
858.897155	2616.731892
859.210268	2618.277005
859.523339	2613.419853
859.836367	2607.758638
860.149352	2607.723350
860.462295	2609.533124
860.775195	2607.559512
861.088054	2604.126486
861.400869	2604.532299
861.713642	2604.454161
862.026373	2606.422732
862.339062	2607.085644
862.651708	2614.392796
862.964312	2615.758949
863.276873	2614.453290
863.589392	2614.110492
863.901869	2620.706841
864.214303	2623.144239
864.526696	2626.935187
864.839045	2628.775208
865.151353	2629.107924
865.463619	2630.038017
865.775842	2629.032307
866.088023	2629.841412
866.400162	2631.013480
866.712258	2630.080867
867.024313	2627.073819
867.336325	2622.100720
867.648296	2628.873511
867.960224	2631.953656
868.272110	2629.506175
868.583954	2625.291771
868.895755	2624.996863
869.207515	2631.172277
869.519233	2637.781229
869.830909	2633.745786
870.142542	2628.419807
870.454134	2632.046917
870.765684	2636.042031
871.077191	2638.489512
871.388657	2641.771303
871.700081	2640.281642
872.011463	2638.812145
872.322803	2637.241826
872.634101	2644.987559
872.945357	2648.705410
873.256571	2656.524239
873.567744	2653.093734
873.878874	2652.231697
874.189963	2653.804537
874.501010	2657.018273
874.812015	2661.396515
875.122979	2661.779642
875.433900	2652.103147
875.744780	2652.640030
876.055618	2656.534322
876.366415	2665.013542
876.677169	2664.942966
876.987882	2654.832932
877.298554	2654.911070
877.609183	2665.956238
877.919771	2670.856240
878.230317	2679.307734
878.540822	2685.654547
878.851285	2700.072247
879.161707	2723.974878
879.472087	2760.044334
879.782425	2805.853299
880.092722	2915.581574
880.402977	3095.757453
880.713191	3344.293900
881.023363	3624.461066
881.333494	3804.223571
881.643583	3970.306905
881.953631	3967.050320
882.263637	3796.397180
882.573602	3580.368614
882.883526	3460.658854
883.193408	3347.598376
883.503248	3254.788213
883.813048	3146.221924
884.122806	3034.562887
884.432522	2953.057512
884.742197	2892.964437
885.051831	2857.363809
885.361424	2823.855259
885.670975	2788.819240
885.980485	2760.261103
886.289954	2743.564802
886.599382	2732.741444
886.908768	2721.797099
887.218113	2702.993596
887.527417	2690.458767
887.836680	2682.092972
888.145901	2677.243382
888.455082	2670.820952
888.764221	2659.962306
889.073319	2651.699855
889.382376	2651.420071
889.691392	2651.029382
890.000366	2650.855462
890.309300	2649.945534
890.618193	2653.103817
890.927044	2654.449805
891.235855	2653.862510
891.544625	2655.049702
891.853353	2655.793272
892.162041	2660.168994
892.470687	2679.499298
892.779293	2692.349199
893.087858	2704.316898
893.396381	2721.960937
893.704864	2759.658685
894.013306	2830.799448
894.321707	2918.881009
894.630068	2964.944552
894.938387	2981.343426
895.246665	2973.960656
895.554903	2934.566559
895.863100	2892.866135
896.171256	2837.889831
896.479371	2778.840276
896.787446	2742.163361
897.095480	2725.250290
897.403473	2719.699979
897.711425	2703.565767
898.019336	2686.758560
898.327207	2674.206087
898.635038	2672.444203
898.942827	2670.803308
899.250576	2659.496000
899.558284	2651.861172
899.865952	2647.591315
900.173579	2647.195584
900.481165	2644.276756
900.788711	2633.831485
901.096216	2628.566000
901.403681	2625.306894
901.711105	2627.348562
902.018489	2623.703807
902.325832	2628.296298
902.633135	2628.442492
902.940397	2643.994452
903.247619	2679.312775
903.554800	2743.751324
903.861941	2864.746578
904.169041	2982.137408
904.476101	3038.830224
904.783121	3032.952238
905.090100	2975.961994
905.397039	2909.222158
905.703938	2839.263546
906.010796	2779.616613
906.317614	2733.938718
906.624391	2698.416228
906.931129	2673.606189
907.237826	2653.665905
907.544483	2636.047072
907.851099	2621.039557
908.157675	2612.134359
908.464211	2608.368617
908.770707	2595.012080
909.077163	2593.073757
909.383578	2590.885896
909.689954	2591.828592
909.996289	2587.856162
910.302584	2587.359609
910.608839	2583.858527
910.915054	2584.667632
911.221229	2585.517067
911.527363	2588.362798
911.833458	2587.926738
912.139513	2587.765422
912.445527	2589.466811
912.751502	2595.243973
913.057436	2600.295209
913.363331	2605.381734
913.669186	2614.216356
913.975000	2629.765795
914.280775	2643.833135
914.586510	2660.431134
914.892205	2692.770136
915.197859	2760.245980
915.503475	2837.605006
915.809050	2897.982906
916.114585	2909.743918
916.420081	2919.778334
916.725536	2934.334666
917.030952	2905.819379
917.336328	2861.989067
917.641665	2818.834270
917.946961	2769.521703
918.252218	2737.268401
918.557435	2716.478682
918.862612	2692.888603
919.167750	2677.039215
919.472848	2662.881134
919.777906	2648.932262
920.082925	2637.617392
920.387904	2627.305712
920.692843	2625.453088
920.997743	2617.712396
921.302603	2612.550254
921.607423	2605.797629
921.912204	2601.968872
922.216946	2599.246649
922.521647	2595.249014
922.826310	2591.785742
923.130932	2590.147367
923.435516	2581.781572
923.740059	2582.641089
924.044564	2579.732343
924.349028	2579.016499
924.653454	2573.196487
924.957840	2567.880590
925.262186	2567.721794
925.566493	2570.300344
925.870761	2563.550239
926.174989	2566.169118
926.479178	2563.474622
926.783328	2561.516133
927.087438	2562.196689
927.391509	2560.318859
927.695541	2558.383056
927.999533	2557.498334
928.303486	2559.171997
928.607400	2556.893395
928.911275	2555.824671
929.215110	2554.244269
929.518906	2555.310473
929.822663	2554.357695
930.126381	2557.581513
930.430060	2554.987839
930.733699	2553.188147
931.037299	2556.316183
931.340861	2556.159907
931.644383	2557.795762
931.947866	2556.507747
932.251309	2556.961451
932.554714	2555.058415
932.858080	2555.582695
933.161407	2556.369115
933.464694	2553.120092
933.767943	2552.673950
934.071153	2556.217881
934.374323	2551.446429
934.677455	2554.861810
934.980548	2552.868034
935.283602	2555.786862
935.586617	2552.326110
935.889593	2553.568754
936.192530	2553.621687
936.495428	2550.859134
936.798287	2554.090514
937.101108	2555.411296
937.403890	2558.592264
937.706632	2564.087122
938.009336	2561.795918
938.312002	2568.447720
938.614628	2570.595252
938.917216	2574.728998
939.219765	2571.764799
939.522275	2575.422156
939.824747	2574.897876
940.127179	2569.997875
940.429573	2566.985785
940.731929	2568.377144
941.034246	2563.078891
941.336524	2563.401525
941.638763	2562.068140
941.940964	2567.051320
942.243126	2562.262224
942.545250	2561.319528
942.847335	2561.967317
943.149381	2558.970351
943.451389	2557.016904
943.753359	2557.412634
944.055290	2558.612429
944.357182	2557.699980
944.659036	2557.289126
944.960851	2557.836091
945.262628	2554.488765
945.564367	2555.711245
945.866067	2556.525391
946.167729	2558.251986
946.469352	2554.944989
946.770937	2555.731409
947.072484	2557.465566
947.373992	2554.526574
947.675462	2553.170503
947.976893	2553.057077
948.278286	2552.041285
948.579641	2553.959444
948.880958	2555.008004
949.182236	2552.268137
949.483476	2553.775442
949.784678	2553.011707
950.085841	2553.064639
950.386967	2552.242931
950.688054	2551.847200
950.989103	2554.597150
951.290114	2556.255689
951.591087	2557.805844
951.892021	2557.684857
952.192917	2558.093190
952.493776	2558.279713
952.794596	2559.063612
953.095378	2558.597305
953.396122	2565.465877
953.696828	2558.340207
953.997496	2555.854918
954.298126	2555.628066
954.598718	2554.294681
954.899272	2556.706873
955.199788	2554.057746
955.500266	2551.726213
955.800706	2549.059442
956.101108	2543.234389
956.401472	2546.367466
956.701798	2542.117773
957.002087	2543.378062
957.302337	2545.449976
957.602550	2549.377035
957.902724	2543.085675
958.202861	2544.517363
958.502960	2543.713299
958.803022	2545.896118
959.103045	2540.585263
959.403031	2542.488298
959.702979	2542.274049
960.002889	2544.000644
960.302762	2540.199614
960.602596	2543.877136
960.902393	2540.396219
961.202153	2540.194573
961.501875	2540.383617
961.801559	2543.148689
962.101205	2542.508463
962.400814	2540.872608
962.700385	2540.902855
962.999918	2542.642053
963.299414	2538.165509
963.598873	2541.656508
963.898293	2542.057280
964.197677	2540.086188
964.497022	2542.228679
964.796331	2537.923533
965.095601	2540.431508
965.394835	2543.476364
965.694030	2542.253885
965.993189	2541.285983
966.292309	2536.917823
966.591393	2540.194573
966.890439	2538.029398
967.189447	2541.487629
967.488419	2540.494522
967.787353	2541.679193
968.086249	2539.007382
968.385108	2542.324461
968.683930	2539.445962
968.982714	2540.136600
969.281462	2539.761034
969.580172	2541.348997
969.878844	2539.813966
970.177480	2540.048380
970.476078	2542.505942
970.774639	2539.773637
971.073162	2542.629451
971.371649	2533.890610
971.670098	2537.159799
971.968510	2538.722556
972.266885	2537.479912
972.565223	2541.278421
972.863524	2541.149872
973.161788	2541.646426
973.460014	2544.149358
973.758204	2538.349511
974.056356	2539.372865
974.354471	2539.007382
974.652550	2544.708927
974.950591	2540.423946
975.248595	2543.700696
975.546563	2538.125180
975.844493	2535.662576
976.142386	2541.636343
976.440243	2541.875798
976.738062	2542.016950
977.035845	2539.957639
977.333590	2541.361600
977.631299	2538.704912
977.928971	2537.409336
978.226606	2542.891591
978.524204	2538.720036
978.821765	2538.185673
979.119290	2538.770447
979.416777	2538.162988
979.714228	2539.312371
980.011642	2540.829759
980.309020	2541.817825
980.606360	2539.672814
980.903664	2540.615510
981.200931	2542.442928
981.498162	2541.515356
981.795356	2545.717157
982.092513	2549.956768
982.389633	2546.435522
982.686717	2549.445091
982.983764	2554.090514
983.280775	2553.049516
983.577749	2551.443908
983.874686	2555.033210
984.171587	2551.554813
984.468451	2548.235214
984.765279	2546.163299
985.062070	2541.906045
985.358824	2542.611807
985.655543	2542.730274
985.952224	2539.660211
986.248869	2540.285314
986.545478	2534.891279
986.842050	2538.936805
987.138586	2534.528316
987.435086	2536.277597
987.731549	2534.016639
988.027975	2537.401774
988.324366	2537.666435
988.620719	2537.507638
988.917037	2534.450178
989.213318	2534.235929
989.509563	2536.159130
989.805772	2537.227854
990.101944	2537.084181
990.398080	2539.456044
990.694180	2534.810621
990.990244	2538.304141
991.286271	2536.272556
991.582262	2539.592155
991.878217	2536.741383
992.174136	2538.079809
992.470019	2539.766075
992.765865	2535.188707
993.061676	2534.253573
993.357450	2538.339429
993.653188	2538.956970
993.948890	2535.402957
994.244556	2536.154088
994.540186	2540.640715
994.835780	2537.921013
995.131337	2538.868750
995.426859	2540.290355
995.722345	2540.194573
996.017795	2542.286652
996.313208	2541.013761
996.608586	2540.781868
996.903928	2545.041643
997.199234	2539.811446
997.494504	2544.179605
997.789738	2539.307330
998.084936	2539.503935
998.380099	2537.283307
998.675225	2539.105684
998.970316	2536.227185
999.265371	2538.412525
999.560390	2536.809438
999.855373	2539.738349
1000.150320	2537.346321
1000.445232	2539.335057
1000.740108	2536.297761
1001.034948	2535.105528
1001.329752	2537.190046
1001.624521	2535.299613
1001.919254	2534.276259
1002.213951	2535.423121
1002.508613	2532.857174
1002.803239	2532.587472
1003.097829	2533.464633
1003.392384	2536.106198
1003.686903	2535.783564
1003.981386	2537.127031
1004.275834	2537.190046
1004.570246	2535.912113
1004.864623	2536.380940
1005.158964	2533.709129
1005.453270	2538.714995
1005.747540	2536.708615
1006.041775	2536.756506
1006.335974	2533.585621
1006.630138	2536.842206
1006.924266	2532.993285
1007.218359	2534.503111
1007.512416	2535.264325
1007.806438	2534.498069
1008.100425	2535.886907
1008.394376	2537.104346
1008.688292	2533.862884
1008.982172	2535.748276
1009.276017	2536.038142
1009.569827	2536.932947
1009.863602	2539.720705
1010.157341	2534.747607
1010.451045	2537.154757
1010.744714	2534.551002
1011.038347	2536.413708
1011.331945	2533.431865
1011.625508	2535.995292
1011.919036	2534.591331
1012.212528	2534.399767
1012.505986	2535.304654
1012.799408	2535.002185
1013.092795	2533.343645
1013.386147	2536.751465
1013.679464	2537.374048
1013.972745	2535.755837
1014.265992	2534.563604
1014.559204	2536.489325
1014.852380	2536.552340
1015.145521	2535.619726
1015.438628	2536.534696
1015.731699	2535.571835
1016.024736	2535.211393
1016.317737	2536.517052
1016.610703	2536.864891
1016.903635	2531.894313
1017.196531	2530.581093
1017.489393	2531.911957
1017.782219	2530.893644
1018.075011	2534.987061
1018.367768	2532.748789
1018.660490	2533.205013
1018.953177	2533.205013
1019.245829	2533.205013
