Dividing Wavelength (nm)	Counts (n)	Blue Motor Position (mm): 33.600000	Red Motor Position (mm): 0.000000	
326.493990	2130.752058
326.888308	2130.752058
327.282561	2130.752058
327.676750	2098.375247
328.070874	2096.318457
328.464933	2100.769795
328.858929	2107.592997
329.252859	2115.479882
329.646726	2126.898096
330.040528	2138.996865
330.434265	2158.193579
330.827938	2174.216886
331.221547	2193.592561
331.615091	2211.231558
332.008571	2230.992882
332.401986	2250.844945
332.795338	2269.169540
333.188625	2289.472787
333.581847	2310.592701
333.975006	2324.632314
334.368100	2342.021774
334.761129	2362.604806
335.154095	2377.229193
335.546996	2400.168963
335.939833	2421.954310
336.332606	2442.713781
336.725315	2449.612600
337.117960	2462.976699
337.510540	2468.978193
337.903056	2482.571664
338.295508	2487.617859
338.687896	2495.671103
339.080220	2504.394819
339.472480	2513.163906
339.864676	2516.206243
340.256807	2520.007273
340.648875	2524.274609
341.040879	2525.895340
341.432818	2527.942049
341.824694	2529.648479
342.216506	2528.920033
342.608253	2528.647810
342.999937	2530.124868
343.391557	2529.608150
343.783113	2529.209899
344.174605	2527.717717
344.566033	2523.374763
344.957397	2521.892664
345.348697	2521.292767
345.739934	2517.247241
346.131106	2518.535256
346.522215	2516.039885
346.913260	2515.021572
347.304241	2511.013854
347.695159	2513.393279
348.086012	2509.670387
348.476802	2508.455469
348.867528	2507.863133
349.258191	2507.076713
349.648789	2504.737618
350.039324	2502.136382
350.429796	2503.547905
350.820203	2499.409118
351.210548	2501.571773
351.600828	2498.605054
351.991045	2497.874087
352.381198	2494.637666
352.771288	2497.364930
353.161314	2496.477687
353.551276	2500.651763
353.941175	2495.086329
354.331010	2496.800321
354.720782	2495.613129
355.110490	2496.923829
355.500135	2496.195383
355.889717	2498.471463
356.279235	2497.453150
356.668689	2497.974910
357.058080	2496.568428
357.447408	2493.334528
357.836672	2494.425938
358.225873	2494.864518
358.615010	2493.243787
359.004084	2497.856443
359.393095	2497.770743
359.782043	2499.152019
360.170927	2501.055055
360.559748	2502.476660
360.948505	2501.075219
361.337199	2503.316012
361.725830	2501.677637
362.114398	2503.426918
362.502903	2501.314674
362.891344	2502.937926
363.279722	2503.167298
363.668037	2507.507732
364.056289	2503.361383
364.444478	2507.984121
364.832603	2505.816425
365.220665	2504.021774
365.608665	2509.201559
365.996601	2505.030005
366.384474	2509.945130
366.772284	2510.086282
367.160031	2509.430932
367.547715	2508.359687
367.935336	2512.604338
368.322893	2509.017557
368.710388	2510.098885
369.097820	2513.547034
369.485189	2510.920593
369.872495	2507.633761
370.259738	2512.367404
370.646918	2511.011334
371.034035	2514.139370
371.421090	2513.514267
371.808081	2511.097033
372.195010	2511.374297
372.581875	2512.511077
372.968678	2511.908659
373.355418	2513.622651
373.742096	2513.640295
374.128710	2514.172137
374.515262	2517.174144
374.901751	2513.231962
375.288177	2515.074504
375.674540	2512.460665
376.060841	2515.492919
376.447079	2514.242713
376.833254	2515.480317
377.219367	2513.781448
377.605417	2513.559637
377.991404	2513.763804
378.377329	2510.615603
378.763191	2513.458814
379.148991	2515.918897
379.534727	2516.753208
379.920402	2519.374608
380.306013	2516.922087
380.691563	2515.558454
381.077049	2517.249762
381.462474	2517.642972
381.847835	2519.997190
382.233134	2517.456449
382.618371	2518.368898
383.003545	2519.561131
383.388657	2517.673218
383.773706	2520.884433
384.158693	2519.402334
384.543618	2519.893847
384.928480	2520.854187
385.313280	2519.256141
385.698017	2523.452901
386.082692	2521.693539
386.467305	2519.697242
386.851856	2521.640607
387.236344	2521.383508
387.620770	2523.347037
388.005133	2523.639424
388.389435	2523.594054
388.773674	2522.553055
389.157851	2521.993487
389.541965	2523.820906
389.926018	2525.572707
390.310008	2522.636234
390.693936	2525.728982
391.077802	2524.977850
391.461606	2526.462470
391.845348	2525.769312
392.229027	2523.909126
392.612645	2526.785104
392.996200	2528.105886
393.379694	2528.541946
393.763125	2527.609333
394.146494	2530.608819
394.529801	2528.317615
394.913047	2529.356093
395.296230	2530.540764
395.679351	2526.381812
396.062410	2530.185362
396.445408	2527.727800
396.828343	2530.238294
397.211217	2526.664116
397.594028	2528.781401
397.976778	2528.017666
398.359466	2528.632687
398.742092	2527.783252
399.124656	2534.361958
399.507158	2530.306350
399.889598	2534.182997
400.271977	2534.288862
400.654294	2536.849768
401.036549	2535.392874
401.418742	2532.617719
401.800874	2535.055117
402.182944	2535.954963
402.564952	2536.408667
402.946898	2534.503111
403.328783	2536.988399
403.710606	2537.185004
404.092367	2537.550488
404.474067	2536.217103
404.855705	2539.929913
405.237282	2539.657690
405.618797	2539.796322
406.000250	2541.739687
406.381642	2540.270191
406.762972	2540.406302
407.144240	2546.594318
407.525447	2546.763197
407.906593	2548.036088
408.287677	2550.160934
408.668700	2551.748898
409.049661	2556.419527
409.430560	2561.536298
409.811399	2564.477811
410.192176	2571.724470
410.572891	2577.725964
410.953545	2588.209043
411.334138	2590.711976
411.714669	2600.932915
412.095139	2606.710078
412.475547	2620.903446
412.855894	2629.818727
413.236180	2645.025367
413.616405	2654.878303
413.996568	2669.936229
414.376670	2682.644978
414.756711	2693.254086
415.136691	2710.351160
415.516609	2733.495097
415.896466	2753.523601
416.276262	2775.440017
416.655997	2791.924591
417.035670	2830.350786
417.415283	2866.329501
417.794834	2883.325751
418.174324	2902.464492
418.553753	2915.591656
418.933121	2970.240284
419.312428	3008.381654
419.691674	3030.003163
420.070859	3083.363777
420.449983	3098.091508
420.829045	3159.533091
421.208047	3171.672189
421.586988	3224.546331
421.965867	3267.834719
422.344686	3348.848582
422.723444	3343.794826
423.102141	3325.823112
423.480777	3456.048719
423.859352	3430.122065
424.237866	3558.190057
424.616319	3597.017024
424.994712	3679.676824
425.373044	3685.582536
425.751314	3789.543731
426.129524	3754.878237
426.507673	3885.978483
426.885762	3964.232315
427.263789	3992.800533
427.641756	3980.739573
428.019662	4092.043209
428.397508	4144.287207
428.775292	4176.023791
429.153016	4272.829068
429.530679	4280.572280
429.908282	4380.200604
430.285824	4347.312116
430.663305	4566.110796
431.040726	4450.643167
431.418086	4497.667050
431.795385	4611.309781
432.172624	4663.392462
432.549802	4702.398390
432.926920	4761.160600
433.303977	4806.435202
433.680974	4877.530595
434.057910	4932.108647
434.434786	4976.271676
434.811601	4990.580991
435.188355	5215.529878
435.565050	5153.848840
435.941683	5174.676368
436.318257	5386.687134
436.694770	5412.470115
437.071222	5476.205423
437.447614	5455.859326
437.823946	5411.696298
438.200218	5571.624383
438.576429	5485.385364
438.952580	5607.086380
439.328670	5669.269012
439.704700	5611.260455
440.080670	5622.862671
440.456580	5898.817953
440.832429	5811.185055
441.208218	5688.884142
441.583947	5853.445048
441.959616	5880.725252
442.335224	5822.872970
442.710773	5970.414940
443.086261	6010.287947
443.461689	5824.229041
443.837057	5984.305840
444.212365	6146.262989
444.587612	6052.570625
444.962800	6212.168514
445.337927	6205.304983
445.712995	5836.952913
446.088002	6406.305869
446.462949	6249.841057
446.837837	6185.894020
447.212664	6364.572677
447.587431	6510.405696
447.962139	7053.206896
448.336786	7966.326215
448.711374	7710.122174
449.085901	6804.289842
449.460369	6733.784264
449.834776	6669.030643
450.209124	7063.879018
450.583412	7215.680763
450.957640	7352.003646
451.331808	7128.332691
451.705917	6684.781728
452.079965	6605.295335
452.453954	6828.308420
452.827883	6702.191353
453.201752	6797.817001
453.575562	6595.654128
453.949311	6803.357229
454.323001	6692.159457
454.696632	6763.622854
455.070202	6907.144504
455.443713	7062.588483
455.817164	7161.198493
456.190556	7243.449959
456.563888	7315.180537
456.937160	7362.375820
457.310373	7018.269179
457.683526	7043.837911
458.056619	6937.971160
458.429653	6924.967503
458.802628	6862.419387
459.175542	6962.531661
459.548398	7322.535581
459.921194	7485.427865
460.293930	7484.422154
460.666607	8015.883278
461.039224	8321.712438
461.411782	8447.164072
461.784280	8469.077968
462.156719	8357.698715
462.529099	8234.387050
462.901419	7822.270203
463.273680	7716.564768
463.645882	7728.572797
464.018024	7595.002385
464.390106	7765.549660
464.762130	8146.116447
465.134094	8625.721741
465.505999	9642.409046
465.877845	10856.661691
466.249631	11507.099086
466.621358	11125.796292
466.993026	10493.517132
467.364634	10235.165559
467.736184	9877.110046
468.107674	9550.609634
468.479105	9577.970497
468.850477	9343.539199
469.221790	9106.398281
469.593043	8784.379456
469.964238	8651.219897
470.335373	8658.532091
470.706449	8719.149445
471.077467	8701.064306
471.448425	10007.234829
471.819324	11069.007693
472.190164	11090.697258
472.560945	9848.488895
472.931667	9063.349348
473.302330	8934.502497
473.672934	8575.544616
474.043479	8937.892672
474.413965	8875.641984
474.784393	8752.065659
475.154761	8909.684896
475.525070	9000.279472
475.895321	8824.330600
476.265513	9006.288527
476.635645	9167.348352
477.005719	9171.598044
477.375734	9284.161968
477.745691	9520.256847
478.115588	9657.557713
478.485427	9896.299198
478.855207	10434.727196
479.224928	11247.305743
479.594591	11876.038451
479.964194	11684.436796
480.333739	11619.269800
480.703226	11537.855166
481.072653	11632.759928
481.442022	11867.246679
481.811333	12060.201883
482.180584	11853.418794
482.549777	11565.803323
482.918912	11397.746377
483.287988	11419.440983
483.657005	11427.000193
484.025964	11110.340114
484.394864	11245.276679
484.763706	11208.985412
485.132489	10971.342899
485.501213	10930.633062
485.869879	11011.369661
486.238487	10849.488129
486.607036	10961.444594
486.975527	10743.757488
487.343959	10931.111971
487.712333	10984.374282
488.080648	10911.045658
488.448905	10958.180447
488.817104	10892.983204
489.185244	11164.305666
489.553326	11318.224696
489.921350	11854.371572
490.289315	12919.446392
490.657222	13254.904933
491.025070	13163.604596
491.392861	13030.808001
491.760593	12661.916527
492.128267	12313.446767
492.495883	11978.590644
492.863440	11645.635035
493.230939	11308.752367
493.598380	11245.241391
493.965763	11120.389654
494.333088	11007.435040
494.700354	10931.616087
495.067563	10993.453400
495.434713	10826.308903
495.801805	10948.859353
496.168839	10879.588858
496.535815	10811.608899
496.902733	10813.713580
497.269593	10743.003836
497.636395	10844.504948
498.003139	10839.252066
498.369825	10707.720800
498.736453	10857.687565
499.103023	10787.146700
499.469535	10820.587194
499.835989	10802.817126
500.202385	10767.912177
500.568723	10622.192584
500.935003	10839.262148
501.301226	10644.963476
501.667390	10901.054091
502.033497	11004.579227
502.399546	10861.813750
502.765537	10770.894020
503.131470	10844.953611
503.497345	11018.150013
503.863163	10627.445466
504.228923	10941.355596
504.594625	11002.202323
504.960269	10751.175546
505.325856	10972.262910
505.691385	10762.629048
506.056856	10919.789540
506.422270	10942.636049
506.787625	10839.937663
507.152924	10948.035125
507.518164	10931.308576
507.883347	10852.900990
508.248472	10769.101889
508.613540	11001.199133
508.978550	10881.812007
509.343503	10862.113698
509.708398	10983.398819
510.073236	11091.004768
510.438016	11098.155645
510.802738	11051.875332
511.167403	11101.641603
511.532010	10997.080510
511.896561	11222.841024
512.261053	11297.709720
512.625488	11165.200471
512.989866	11148.244550
513.354186	11143.848663
513.718449	11039.857221
514.082655	11238.196378
514.446803	11130.424071
514.810894	11253.566856
515.174927	11119.847730
515.538904	11143.505865
515.902822	11293.654112
516.266684	11181.508603
516.630488	11120.215734
516.994235	11170.934783
517.357925	11239.113868
517.721558	11327.830614
518.085133	11340.257058
518.448651	11349.285765
518.812112	11237.611604
519.175516	11249.365055
519.538863	11369.510874
519.902152	11289.154882
520.265385	11453.735952
520.628560	11353.028822
520.991678	11340.844353
521.354739	11401.214691
521.717743	11330.678866
522.080690	11315.779736
522.443580	11445.440733
522.806413	11401.980946
523.169189	11442.917636
523.531908	11487.373051
523.894569	11311.719087
524.257174	11316.545991
524.619722	11434.183837
524.982213	11383.300951
525.344647	11431.154103
525.707025	11382.572504
526.069345	11476.368212
526.431608	11398.862993
526.793815	11506.915084
527.155964	11289.694285
527.518057	11346.079591
527.880093	11298.987652
528.242072	11364.507529
528.603995	11270.122006
528.965860	11186.968173
529.327669	11245.168294
529.689421	11192.936899
530.051117	11161.230562
530.412755	11266.192426
530.774337	11155.861733
531.135862	11136.624690
531.497331	11161.044039
531.858743	11015.919302
532.220098	11181.606906
532.581396	11046.297295
532.942638	11035.642817
533.303824	10992.712351
533.664953	11005.307673
534.026025	10924.555951
534.387040	11018.855774
534.747999	11024.022957
535.108902	11081.051010
535.469748	10843.776501
535.830537	10949.008067
536.191270	10920.744838
536.551947	10946.248036
536.912567	10950.747265
537.273131	10870.164421
537.633638	10850.186328
537.994089	10836.406334
538.354483	10790.869592
538.714821	10936.432909
539.075103	10945.690988
539.435328	10903.420913
539.795497	10736.967054
540.155609	10892.572350
540.515665	10979.638118
540.875665	10718.140865
541.235609	10785.586463
541.595496	10779.826944
541.955328	10930.905284
542.315102	10817.136524
542.674821	10765.310942
543.034483	10765.895716
543.394090	10763.518812
543.753640	10697.225118
544.113134	10920.003789
544.472571	10769.820254
544.831953	10917.636967
545.191278	10731.404141
545.550548	10755.324416
545.909761	10886.369210
546.268918	10866.522187
546.628019	10945.764085
546.987064	10815.732562
547.346053	10738.234904
547.704986	10832.610346
548.063863	10818.875722
548.422684	10811.651748
548.781449	10731.419264
549.140158	10830.397279
549.498811	10709.644000
549.857408	10570.561086
550.215949	10796.797989
550.574434	10647.756275
550.932864	10740.402601
551.291237	10802.900305
551.649555	10752.685372
552.007817	10763.680128
552.366022	10731.961188
552.724173	10718.453417
553.082267	10705.323732
553.440305	10845.616523
553.798288	10635.959975
554.156215	10797.617176
554.514086	10767.864286
554.871902	10617.224527
555.229661	10657.336988
555.587365	10636.910233
555.945014	10529.475682
556.302606	10655.111319
556.660143	10543.306088
557.017625	10703.042609
557.375050	10600.064439
557.732421	10734.083514
558.089735	10650.813735
558.446994	10646.616974
558.804197	10686.520228
559.161345	10687.747749
559.518437	10534.577330
559.875474	10622.162337
560.232455	10646.085133
560.589381	10601.992681
560.946251	10600.140057
561.303065	10707.932529
561.659825	10645.999433
562.016528	10577.001160
562.373177	10455.506832
562.729770	10561.164376
563.086307	10482.293003
563.442789	10572.207023
563.799216	10460.522780
564.155587	10503.060036
564.511904	10462.254417
564.868164	10439.397825
565.224370	10460.205187
565.580520	10387.539475
565.936615	10388.474609
566.292654	10265.551114
566.648638	10392.121884
567.004567	10348.407519
567.360441	10337.339665
567.716260	10249.792467
568.072023	10338.320170
568.427732	10295.120002
568.783385	10199.138953
569.138982	10270.476321
569.494525	10286.058528
569.850013	10165.022945
570.205445	10246.286345
570.560823	10145.969904
570.916145	10053.598321
571.271412	10130.584302
571.626625	10075.250077
571.981782	10051.811232
572.336884	10020.775368
572.691931	10026.010607
573.046923	9975.203338
573.401860	9926.783055
573.756743	9860.988436
574.111570	9911.694882
574.466342	9898.275330
574.821059	9928.633158
575.175722	9811.363317
575.530330	9823.628444
575.884882	9817.763062
576.239380	9747.317978
576.593823	9724.103465
576.948211	9741.712215
577.302544	9616.431980
577.656823	9630.083425
578.011047	9637.957707
578.365216	9613.702195
578.719330	9533.462150
579.073389	9549.903873
579.427394	9491.169389
579.781344	9467.349937
580.135239	9416.257843
580.489080	9429.788300
580.842866	9327.634359
581.196597	9328.478752
581.550273	9375.820228
581.903895	9344.121452
582.257463	9413.094519
582.610975	9284.719016
582.964434	9309.118201
583.317837	9235.023321
583.671186	9218.218635
584.024481	9209.051297
584.377721	9133.176890
584.730906	9105.448023
585.084037	9141.343559
585.437113	9074.175226
585.790135	9097.379657
586.143103	8994.948452
586.496016	8976.674269
586.848874	9025.833081
587.201679	9011.836317
587.554428	8901.591324
587.907124	8946.767624
588.259765	8918.401051
588.612352	8922.469262
588.964884	8793.579561
589.317362	8808.970204
589.669786	8805.481726
590.022155	8860.568934
590.374470	8876.753559
590.726731	8806.459709
591.078937	8661.808841
591.431090	8782.957850
591.783188	8652.117223
592.135232	8642.070203
592.487222	8642.770923
592.839157	8698.218575
593.191038	8630.606619
593.542866	8572.232578
593.894639	8472.924368
594.246358	8521.047223
594.598022	8538.713946
594.949633	8442.062424
595.301190	8413.317765
595.652692	8445.369421
596.004141	8551.009321
596.355535	8332.409766
596.706876	8316.162128
597.058162	8249.986901
597.409395	8321.162952
597.760573	8388.094352
598.111698	8289.759084
598.462768	8280.427908
598.813785	8241.613544
599.164748	8216.606901
599.515657	8203.946043
599.866511	8113.709389
600.217312	8236.365703
600.568060	8099.289168
600.918753	8201.191052
601.269392	8173.578132
601.619978	8080.505829
601.970510	8150.643403
602.320988	8137.969942
602.671412	8202.562246
603.021783	8133.614385
603.372100	8106.182946
603.722363	8109.474820
604.072572	8087.258455
604.422728	8100.294879
604.772830	8027.790483
605.122878	8037.212400
605.472872	8033.028242
605.822813	8056.235194
606.172701	8005.642174
606.522534	8072.979387
606.872314	8075.736898
607.222041	8051.723361
607.571714	8098.911082
607.921333	8061.195689
608.270899	8069.543840
608.620411	8159.427613
608.969870	8062.841626
609.319276	8057.316522
609.668627	8075.807474
610.017926	8108.441383
610.367171	8154.918301
610.716362	8129.944425
611.065500	8122.813713
611.414585	8148.019482
611.763616	8137.609499
612.112594	8121.934032
612.461518	8130.390567
612.810389	8194.624949
613.159207	8135.189746
613.507971	8081.183864
613.856682	8203.346146
614.205340	8155.906367
614.553945	8234.041731
614.902496	8134.456258
615.250994	8191.431378
615.599439	8166.656628
615.947830	8181.233124
616.296169	8154.053743
616.644454	8167.806011
616.992686	8167.322060
617.340864	8226.117037
617.688990	8128.646328
618.037063	8219.934062
618.385082	8170.555960
618.733048	8256.648786
619.080961	8188.701594
619.428821	8213.171354
619.776628	8212.213535
620.124382	8169.325919
620.472083	8150.456880
620.819731	8181.593567
621.167326	8071.230106
621.514868	8075.782268
621.862357	7962.126934
622.209793	7981.835325
622.557176	7915.546672
622.904506	7886.834781
623.251783	7823.976633
623.599007	7772.713140
623.946179	7778.805374
624.293297	7736.431956
624.640363	7656.219636
624.987376	7637.146431
625.334336	7585.595592
625.681243	7535.579784
626.028097	7528.229781
626.374899	7499.464958
626.721647	7487.648493
627.068343	7426.368227
627.414987	7395.894452
627.761577	7351.910384
628.108115	7393.762044
628.454600	7288.409490
628.801032	7338.473189
629.147412	7296.792929
629.493739	7279.138808
629.840014	7218.604633
630.186236	7278.233921
630.532405	7161.742938
630.878521	7212.288067
631.224585	7168.442631
631.570597	7089.477998
631.916556	7124.597196
632.262462	7121.635518
632.608316	7081.074394
632.954117	7059.006743
633.299866	7048.788324
633.645562	7037.418002
633.991206	6960.076619
634.336797	6902.761221
634.682336	6862.008533
635.027823	6826.014695
635.373257	6817.424568
635.718639	6746.233394
636.063968	6761.490446
636.409245	6657.803994
636.754470	6656.069837
637.099642	6614.140040
637.444762	6555.697943
637.789829	6566.362504
638.134845	6506.418144
638.479808	6493.893397
638.824719	6502.251630
639.169577	6428.933088
639.514383	6451.446882
639.859137	6375.663216
640.203839	6387.585545
640.548489	6375.698504
640.893086	6349.240008
641.237632	6318.667930
641.582125	6344.697928
641.926566	6311.549821
642.270955	6325.022305
642.615292	6318.463764
642.959576	6335.888512
643.303809	6320.654145
643.647990	6331.848027
643.992118	6322.340411
644.336195	6273.295025
644.680219	6294.810670
645.024192	6285.308095
645.368112	6384.147478
645.711981	6400.367390
646.055797	6474.449667
646.399562	6434.319561
646.743274	6560.454272
647.086935	6610.666685
647.430544	6604.420695
647.774101	6628.401464
648.117606	6636.673997
648.461059	6627.985569
648.804460	6590.320588
649.147810	6498.569067
649.491108	6465.978007
649.834354	6446.020079
650.177548	6362.420105
650.520690	6275.198061
650.863781	6251.663434
651.206820	6273.327793
651.549807	6190.675555
651.892742	6136.180682
652.235626	6144.551518
652.578458	6129.196163
652.921238	6032.569847
653.263967	6070.552420
653.606644	6013.201734
653.949269	6015.258524
654.291843	5962.913703
654.634365	6008.284088
654.976836	5964.494105
655.319255	5963.218693
655.661622	5937.990239
656.003938	5934.716009
656.346203	5896.254526
656.688416	5931.736688
657.030577	5882.078802
657.372687	5849.081929
657.714746	5837.018448
658.056753	5881.778853
658.398708	5822.300799
658.740612	5812.591537
659.082465	5856.568043
659.424266	5848.504717
659.766016	5850.944635
660.107715	5824.586963
660.449362	5841.653789
660.790958	5835.226318
661.132503	5827.223486
661.473996	5861.389906
661.815438	5847.940108
662.156829	5843.163614
662.498168	5836.199260
662.839456	5814.489531
663.180693	5846.740313
663.521879	5847.481363
663.863013	5839.176062
664.204097	5854.460840
664.545129	5896.100771
664.886110	5887.505604
665.227040	5925.725112
665.567918	5888.977621
665.908746	5920.026087
666.249522	5921.114976
666.590248	5908.660806
666.930922	5939.558038
667.271545	5951.455161
667.612118	5952.070182
667.952639	5926.778713
668.293109	5949.650428
668.633528	5907.425723
668.973896	5911.327576
669.314213	5898.654115
669.654480	5881.927567
669.994695	5874.421289
670.334859	5868.555906
670.674973	5862.960226
671.015035	5861.107602
671.355047	5863.416450
671.695008	5844.504561
672.034918	5821.325336
672.374777	5834.379404
672.714585	5814.534902
673.054342	5822.205017
673.394049	5811.285878
673.733705	5841.621021
674.073310	5835.233879
674.412864	5793.467920
674.752368	5784.953411
675.091820	5785.394512
675.431223	5723.489143
675.770574	5725.440069
676.109875	5675.764539
676.449125	5676.132543
676.788324	5645.951155
677.127473	5591.511735
677.466571	5584.070992
677.805619	5571.475669
678.144616	5558.918155
678.483562	5537.294125
678.822458	5508.340258
679.161303	5500.796172
679.500098	5492.722764
679.838842	5477.818592
680.177535	5481.508717
680.516179	5494.587991
680.854771	5506.674157
681.193314	5586.314305
681.531805	5694.499987
681.870247	5848.179563
682.208638	5946.882834
682.546978	5958.419515
682.885268	5936.808088
683.223508	5849.853226
683.561697	5802.257172
683.899836	5767.311893
684.237925	5726.160954
684.575963	5690.877918
684.913951	5646.525847
685.251889	5709.971289
685.589776	5675.701525
685.927614	5650.946939
686.265401	5722.390171
686.603137	5702.717068
686.940824	5779.130878
687.278460	5808.677081
687.616046	5817.521785
687.953582	5881.302464
688.291068	5862.917376
688.628504	5925.785605
688.965889	5890.860492
689.303224	5836.710938
689.640510	5785.757475
689.977745	5707.745619
690.314930	5612.437565
690.652065	5552.646959
690.989150	5464.073886
691.326185	5387.791146
691.663170	5332.706458
692.000105	5255.796095
692.336990	5181.247512
692.673825	5154.199201
693.010610	5089.097740
693.347345	5017.576370
693.684030	5003.246890
694.020665	4965.113082
694.357251	4873.633783
694.693786	4884.739445
695.030272	4848.785936
695.366707	4815.615144
695.703093	4782.898055
696.039429	4800.837001
696.375716	4783.208086
696.711952	4760.253192
697.048139	4746.256428
697.384276	4729.837390
697.720363	4738.445161
698.056400	4748.950925
698.392388	4702.295046
698.728326	4677.119524
699.064214	4658.177388
699.400053	4654.308303
699.735842	4616.706336
700.071581	4592.002162
700.407270	4566.677926
700.742910	4547.897107
701.078501	4493.094723
701.414042	4492.063808
701.749533	4462.789827
702.084974	4399.949324
702.420366	4454.643323
702.755709	4398.094179
703.091002	4338.200230
703.426246	4388.785689
703.761440	4345.416642
704.096584	4312.742403
704.431679	4333.461546
704.766725	4314.395902
705.101721	4305.402483
705.436668	4332.087831
705.771565	4277.426600
706.106413	4306.385508
706.441212	4342.210468
706.775961	4349.321016
707.110661	4328.949713
707.445311	4355.103219
707.779913	4382.698495
708.114465	4390.655957
708.448967	4415.047580
708.783421	4474.477742
709.117825	4521.090771
709.452180	4522.283004
709.786485	4567.113985
710.120742	4656.632275
710.454949	4637.427999
710.789107	4704.359399
711.123216	4774.771715
711.457275	4768.518164
711.791286	4842.605481
712.125247	4862.679356
712.459159	4761.717647
712.793023	4838.612887
713.126837	4796.700734
713.460602	4787.825783
713.794318	4712.203434
714.127985	4716.818611
714.461602	4635.557731
714.795171	4603.851394
715.128691	4536.367988
715.462162	4482.536027
715.795584	4433.770425
716.128957	4413.651180
716.462281	4364.237790
716.795556	4338.195189
717.128782	4299.131288
717.461960	4229.165114
717.795088	4242.090632
718.128167	4201.090928
718.461198	4139.563645
718.794180	4133.519302
719.127113	4115.625726
719.459997	4094.868775
719.792833	4050.047877
720.125619	4040.000857
720.458357	4003.880990
720.791046	4012.158564
721.123686	3986.249554
721.456278	3943.956794
721.788821	3959.221408
722.121315	3931.542952
722.453761	3905.364241
722.786158	3921.102723
723.118506	3941.595013
723.450805	3891.982498
723.783056	3916.727001
724.115259	3932.341975
724.447412	3937.620063
724.779518	3930.567489
725.111574	3936.773150
725.443582	3965.532932
725.775542	3949.154223
726.107453	4001.546935
726.439315	4001.735979
726.771129	4018.918752
727.102895	4051.827404
727.434612	4101.218109
727.766281	4113.768061
728.097901	4111.373513
728.429473	4115.771920
728.760996	4124.888847
729.092471	4122.595122
729.423897	4102.128037
729.755276	4110.362762
730.086606	4110.418214
730.417887	4148.360459
730.749120	4209.502093
731.080305	4277.650932
731.411442	4300.888130
731.742530	4270.613481
732.073570	4280.012712
732.404562	4333.764015
732.735506	4322.683559
733.066401	4287.511428
733.397249	4219.481057
733.728048	4137.070795
734.058798	4056.838311
734.389501	3987.088906
734.720156	3927.784772
735.050762	3881.779202
735.381320	3876.531361
735.711831	3827.435564
736.042293	3795.041109
736.372707	3819.163030
736.703073	3792.679329
737.033391	3779.829428
737.363661	3798.658137
737.693883	3823.816015
738.024056	3834.639373
738.354182	3829.484793
738.684260	3892.957961
739.014290	3912.502514
739.344272	3907.794077
739.674207	3950.558185
740.004093	3957.109164
740.333931	3952.287301
740.663722	3953.434163
740.993464	3948.753452
741.323159	3923.726643
741.652806	3893.625914
741.982405	3868.377295
742.311956	3840.461905
742.641460	3830.893795
742.970915	3803.122079
743.300323	3763.402828
743.629683	3730.317735
743.958996	3718.060169
744.288260	3695.541335
744.617477	3656.421981
744.946647	3645.023932
745.275768	3620.866723
745.604842	3620.440746
745.933869	3572.375864
746.262847	3561.739030
746.591778	3602.484156
746.920662	3571.007191
747.249498	3541.806307
747.578286	3582.657298
747.907027	3604.765278
748.235720	3602.895010
748.564365	3627.319400
748.892963	3626.691777
749.221514	3609.945063
749.550017	3586.901949
749.878473	3582.344746
750.206881	3550.920714
750.535242	3552.465827
750.863555	3551.709654
751.191821	3548.445507
751.520039	3529.672250
751.848210	3506.573683
752.176334	3541.037532
752.504411	3547.333933
752.832440	3502.540760
753.160421	3487.051815
753.488356	3499.357272
753.816243	3510.246164
754.144082	3465.019452
754.471875	3451.970425
754.799620	3474.585042
755.127318	3464.480049
755.454969	3464.956438
755.782572	3469.188486
756.110129	3446.034467
756.437638	3435.170780
756.765100	3452.033440
757.092515	3460.676498
757.419882	3466.536839
757.747203	3437.315791
758.074477	3440.395936
758.401703	3457.500571
758.728882	3477.723160
759.056014	3485.446208
759.383099	3488.864110
759.710138	3483.782627
760.037129	3503.037314
760.364073	3533.561500
760.690970	3519.849562
761.017820	3495.619256
761.344623	3513.565764
761.671379	3559.604101
761.998088	3610.015640
762.324751	3740.515989
762.651366	3986.766272
762.977935	4458.484682
763.304456	4900.062032
763.630931	5000.217156
763.957359	4636.097135
764.283740	4290.326913
764.610074	4099.541925
764.936362	3901.109507
765.262602	3745.446238
765.588796	3636.418683
765.914943	3546.807132
766.241044	3456.872948
766.567097	3427.573761
766.893104	3380.708675
767.219064	3351.976618
767.544978	3322.964778
767.870845	3267.411262
768.196665	3247.286976
768.522438	3257.676794
768.848165	3251.594642
769.173846	3215.885629
769.499479	3200.066488
769.825066	3183.448325
770.150607	3165.988288
770.476101	3180.710978
770.801548	3178.117304
771.126949	3132.988895
771.452303	3111.538786
771.777611	3120.748974
772.102872	3125.477576
772.428087	3101.113679
772.753256	3089.418203
773.078378	3081.102819
773.403453	3049.018396
773.728482	3036.307126
774.053465	3059.604819
774.378401	3047.397665
774.703291	3015.154445
775.028135	3014.688138
775.352932	3009.866274
775.677683	3000.646004
776.002388	2994.337000
776.327046	2996.492093
776.651658	2989.691577
776.976224	2973.459061
777.300743	2972.551653
777.625216	2963.767443
777.949643	2962.008080
778.274024	2964.884058
778.598359	2951.260340
778.922647	2956.188068
779.246889	2954.222018
779.571086	2943.348249
779.895236	2936.643515
780.219339	2948.820422
780.543397	2957.806278
780.867409	2963.308698
781.191374	2954.582461
781.515294	2950.458797
781.839167	2952.649178
782.162995	2943.302879
782.486776	2953.763273
782.810511	2948.722119
783.134201	2934.001950
783.457844	2938.725511
783.781441	2934.127979
784.104993	2914.676687
784.428498	2914.391862
784.751958	2928.227308
785.075372	2921.290681
785.398739	2905.927764
785.722061	2922.568613
786.045337	2934.483380
786.368568	2921.328489
786.691752	2912.151069
787.014891	2960.967082
787.337983	2988.035558
787.661030	3016.596215
787.984031	3080.061821
788.306987	3132.028555
788.629897	3122.664612
788.952760	3107.420163
789.275579	3087.734457
789.598351	3033.773946
789.921078	2987.564210
790.243759	2981.056080
790.566395	2961.178810
790.888984	2938.463371
791.211529	2920.670619
791.534027	2911.669638
791.856480	2899.084398
792.178888	2886.731050
792.501249	2879.280225
792.823566	2875.527086
793.145836	2872.293186
793.468062	2869.268493
793.790241	2864.663399
794.112375	2872.774616
794.434464	2885.221225
794.756507	2887.706514
795.078505	2893.120713
795.400457	2909.927920
795.722364	2945.145421
796.044226	2970.056282
796.366042	2975.513331
796.687812	2961.627473
797.009538	2981.895432
797.331218	2969.973103
797.652852	2952.949127
797.974442	2938.549071
798.295986	2932.638318
798.617484	2926.662030
798.938938	2912.277098
799.260346	2897.385529
799.581709	2892.513254
799.903026	2884.074362
800.224299	2879.673435
800.545526	2866.657176
800.866708	2853.605628
801.187845	2843.253619
801.508936	2844.725636
801.829983	2852.703262
802.150984	2840.417970
802.471940	2827.179900
802.792851	2826.862307
803.113717	2825.665033
803.434538	2832.271465
803.755314	2826.189313
804.076045	2820.366781
804.396731	2817.863848
804.717372	2819.509784
805.037967	2815.149186
805.358518	2822.385763
805.679024	2831.800117
805.999485	2827.252997
806.319901	2833.309943
806.640272	2821.226297
806.960598	2828.442709
807.280879	2839.644153
807.601115	2846.900894
807.921306	2832.886486
808.241453	2827.454643
808.561554	2836.735407
808.881611	2835.896055
809.201623	2831.537977
809.521590	2831.210302
809.841513	2826.383398
810.161390	2829.955055
810.481223	2823.772080
810.801011	2816.686738
811.120755	2812.827735
811.440453	2814.118270
811.760107	2812.863023
812.079716	2811.446459
812.399281	2802.780715
812.718801	2792.118675
813.038276	2791.609518
813.357707	2798.384829
813.677093	2804.517393
813.996434	2801.545633
814.315731	2793.522636
814.634983	2786.770011
814.954191	2790.407203
815.273354	2804.837506
815.592473	2812.517704
815.911547	2815.146666
816.230577	2822.526915
816.549562	2832.604182
816.868502	2831.147288
817.187399	2840.448217
817.506250	2856.184179
817.825058	2849.222345
818.143821	2863.962679
818.462539	2878.508928
818.781213	2902.421642
819.099843	2941.835903
819.418429	2995.383039
819.736970	3063.055488
820.055466	3133.848412
820.373919	3239.153075
820.692327	3383.735888
821.010691	3550.635888
821.329011	3992.389679
821.647286	4894.877206
821.965517	6272.110354
822.283704	7026.140941
822.601847	6999.488360
822.919945	6368.325816
823.237999	5861.147931
823.556010	5275.494403
823.873976	4719.437490
824.191897	4311.814831
824.509775	4017.555119
824.827609	3744.289293
825.145398	3623.795634
825.463144	3611.782564
825.780845	3703.070298
826.098502	3805.246925
826.416116	4088.274946
826.733685	4409.656066
827.051210	4472.526816
827.368692	4356.192108
827.686129	4089.986418
828.003522	3764.274947
828.320872	3502.807941
828.638177	3308.090853
828.955439	3172.763599
829.272656	3087.338727
829.589830	3020.503109
829.906960	2970.535192
830.224046	2924.199426
830.541088	2890.890002
830.858086	2874.765872
831.175041	2854.366843
831.491952	2860.249869
831.808819	2871.151364
832.125642	2896.931825
832.442421	2941.583845
832.759157	3021.629807
833.075849	3202.670244
833.392497	3487.039212
833.709101	3686.300900
834.025662	3638.969507
834.342179	3476.808190
834.658653	3299.868732
834.975083	3151.961278
835.291469	3052.900084
835.607811	2965.587299
835.924110	2908.859195
836.240366	2858.109899
836.556578	2814.138435
836.872746	2788.874692
837.188871	2767.898451
837.504952	2754.693149
837.820990	2747.572519
838.136984	2731.350086
838.452935	2722.454970
838.768842	2720.236862
839.084706	2742.939699
839.400526	2821.690083
839.716303	2955.129426
840.032037	3032.705222
840.347727	3019.578057
840.663373	2956.586319
840.978977	2885.332130
841.294537	2807.844554
841.610054	2762.096083
841.925527	2740.560274
842.240957	2717.330637
842.556344	2695.462112
842.871687	2681.341840
843.186987	2670.752896
843.502244	2667.206444
843.817458	2659.984992
844.132629	2645.557209
844.447756	2640.324492
844.762840	2633.922226
845.077881	2636.755355
845.392879	2638.262660
845.707833	2631.590692
846.022745	2622.327572
846.337613	2626.133643
846.652438	2623.562655
846.967221	2627.368726
847.281960	2623.368571
847.596656	2620.114506
847.911309	2620.371605
848.225919	2616.807509
848.540485	2615.756428
848.855009	2615.708537
849.169490	2616.817591
849.483928	2616.202570
849.798323	2614.574278
850.112675	2613.084617
850.426984	2613.016561
850.741251	2611.007661
851.055474	2611.715943
851.369654	2617.515791
851.683792	2615.385903
851.997887	2614.181068
852.311938	2610.576643
852.625947	2612.751901
852.939914	2616.454628
853.253837	2616.731892
853.567718	2611.526900
853.881555	2614.619648
854.195350	2616.568054
854.509103	2615.159052
854.822812	2610.148145
855.136479	2611.421036
855.450103	2612.157044
855.763685	2614.513784
856.077224	2614.503702
856.390720	2610.125459
856.704173	2612.104112
857.017584	2618.372787
857.330953	2619.318003
857.644278	2620.878241
857.957561	2617.767849
858.270802	2615.937910
858.584000	2615.645523
858.897155	2619.358333
859.210268	2618.191306
859.523339	2618.912191
859.836367	2609.558330
860.149352	2612.240223
860.462295	2611.166458
860.775195	2610.531272
861.088054	2609.409616
861.400869	2609.792743
861.713642	2604.638163
862.026373	2607.224275
862.339062	2611.204266
862.651708	2618.299690
862.964312	2617.132663
863.276873	2615.345574
863.589392	2617.477982
863.901869	2623.081225
864.214303	2626.957872
864.526696	2628.566000
864.839045	2632.868625
865.151353	2633.082874
865.463619	2631.815024
865.775842	2630.970631
866.088023	2632.117493
866.400162	2632.480456
866.712258	2632.561115
867.024313	2630.915178
867.336325	2625.521143
867.648296	2633.292082
867.960224	2635.482463
868.272110	2632.856022
868.583954	2624.833026
868.895755	2626.756226
869.207515	2633.342493
869.519233	2641.221817
869.830909	2634.968266
870.142542	2632.649335
870.454134	2635.293420
870.765684	2639.477578
871.077191	2641.693165
871.388657	2645.453866
871.700081	2642.519914
872.011463	2643.162661
872.322803	2643.830614
872.634101	2645.847076
872.945357	2654.971564
873.256571	2659.763181
873.567744	2659.836277
873.878874	2657.406441
874.189963	2658.066832
874.501010	2662.808038
874.812015	2666.039417
875.122979	2664.905158
875.433900	2656.839312
875.744780	2657.066163
876.055618	2662.180414
876.366415	2669.023780
876.677169	2668.570077
876.987882	2663.173521
877.298554	2660.600012
877.609183	2671.118380
877.919771	2675.320182
878.230317	2688.091945
878.540822	2695.925898
878.851285	2711.608928
879.161707	2732.290261
879.472087	2770.179573
879.782425	2819.298056
880.092722	2935.274841
880.402977	3122.798203
880.713191	3383.778737
881.023363	3680.750590
881.333494	3869.632542
881.643583	4045.382289
881.953631	4042.100497
882.263637	3864.392263
882.573602	3641.543016
882.883526	3508.348169
883.193408	3399.552508
883.503248	3293.779018
883.813048	3181.502439
884.122806	3068.399112
884.432522	2979.163127
884.742197	2912.897159
885.051831	2879.086141
885.361424	2840.125583
885.670975	2804.280459
885.980485	2775.555964
886.289954	2756.712131
886.599382	2740.930799
886.908768	2731.450909
887.218113	2712.034905
887.527417	2697.453367
887.836680	2690.499096
888.145901	2686.085566
888.455082	2675.973011
888.764221	2666.593944
889.073319	2657.542552
889.382376	2654.981646
889.691392	2658.936432
890.000366	2658.200423
890.309300	2656.914929
890.618193	2659.080104
890.927044	2662.122441
891.235855	2662.513130
891.544625	2659.800989
891.853353	2659.856442
892.162041	2665.028666
892.470687	2691.885413
892.779293	2697.566793
893.087858	2711.659339
893.396381	2732.615416
893.704864	2771.681837
894.013306	2845.214628
894.321707	2938.354986
894.630068	2988.131339
894.938387	3008.825276
895.246665	3000.444358
895.554903	2961.874490
895.863100	2914.759866
896.171256	2858.485465
896.479371	2795.339972
896.787446	2757.185999
897.095480	2738.463154
897.403473	2731.748337
897.711425	2714.938610
898.019336	2697.831454
898.327207	2683.108764
898.635038	2681.437622
898.942827	2678.511232
899.250576	2669.127124
899.558284	2658.182779
899.865952	2652.811430
900.173579	2653.418889
900.481165	2651.490647
900.788711	2640.153092
901.096216	2631.250415
901.403681	2633.077833
901.711105	2632.656897
902.018489	2629.911988
902.325832	2633.042545
902.633135	2632.568676
902.940397	2649.267498
903.247619	2685.871317
903.554800	2757.846391
903.861941	2883.487068
904.169041	3013.100174
904.476101	3071.794329
904.783121	3070.274421
905.090100	3012.449866
905.397039	2935.889862
905.703938	2858.760208
906.010796	2798.810807
906.317614	2749.510843
906.624391	2709.650439
906.931129	2683.431398
907.237826	2660.920126
907.544483	2641.035294
907.851099	2628.036679
908.157675	2618.866820
908.464211	2610.581684
908.770707	2603.834099
909.077163	2596.340424
909.383578	2593.187182
909.689954	2590.832964
909.996289	2590.323807
910.302584	2586.963878
910.608839	2584.960019
910.915054	2588.992942
911.221229	2588.627459
911.527363	2592.108376
911.833458	2586.641244
912.139513	2589.192068
912.445527	2594.366812
912.751502	2599.319746
913.057436	2603.052721
913.363331	2611.395830
913.669186	2619.224742
913.975000	2631.908285
914.280775	2650.285812
914.586510	2670.029491
914.892205	2706.560212
915.197859	2774.288114
915.503475	2855.334744
915.809050	2927.012390
916.114585	2940.109308
916.420081	2951.101544
916.725536	2960.692339
917.030952	2937.608896
917.336328	2890.098541
917.641665	2840.448217
917.946961	2790.898716
918.252218	2756.926380
918.557435	2727.574262
918.862612	2707.397043
919.167750	2691.648479
919.472848	2672.446724
919.777906	2655.682367
920.082925	2644.206180
920.387904	2631.958697
920.692843	2628.336628
920.997743	2622.118364
921.302603	2614.302055
921.607423	2609.404574
921.912204	2606.014398
922.216946	2603.834099
922.521647	2600.537185
922.826310	2595.082656
923.130932	2593.673654
923.435516	2587.069742
923.740059	2583.873651
924.044564	2579.780234
924.349028	2580.019689
924.653454	2572.916703
924.957840	2570.933009
925.262186	2569.287072
925.566493	2570.302865
925.870761	2564.576114
926.174989	2567.991496
926.479178	2562.345403
926.783328	2563.048644
927.087438	2560.984292
927.391509	2562.733572
927.695541	2560.046637
927.999533	2558.488921
928.303486	2556.225443
928.607400	2556.674105
928.911275	2556.033879
929.215110	2557.397511
929.518906	2554.844166
929.822663	2556.064126
930.126381	2554.965154
930.430060	2554.007335
930.733699	2554.700493
931.037299	2557.662171
931.340861	2555.776780
931.644383	2556.590926
931.947866	2555.794424
932.251309	2556.371636
932.554714	2555.789383
932.858080	2555.955741
933.161407	2555.439023
933.464694	2554.952551
933.767943	2552.124464
934.071153	2556.580844
934.374323	2555.242418
934.677455	2554.362736
934.980548	2553.107489
935.283602	2552.880637
935.586617	2553.893909
935.889593	2556.820299
936.192530	2550.859134
936.495428	2552.144628
936.798287	2555.837274
937.101108	2558.985474
937.403890	2557.127809
937.706632	2562.005125
938.009336	2561.087635
938.312002	2568.472926
938.614628	2570.093657
938.917216	2576.715212
939.219765	2572.163050
939.522275	2577.547003
939.824747	2576.190932
940.127179	2570.116342
940.429573	2565.881773
940.731929	2567.411763
941.034246	2564.266083
941.336524	2568.790518
941.638763	2565.614592
941.940964	2566.590055
942.243126	2564.681978
942.545250	2563.237688
942.847335	2561.138047
943.149381	2560.099569
943.451389	2557.815927
943.753359	2558.062943
944.055290	2554.934907
944.357182	2552.989022
944.659036	2556.696790
944.960851	2557.299208
945.262628	2557.097562
945.564367	2558.788869
945.866067	2556.404403
946.167729	2557.132850
946.469352	2557.417675
946.770937	2554.327448
947.072484	2555.466749
947.373992	2555.711245
947.675462	2554.859290
947.976893	2554.080432
948.278286	2554.703014
948.579641	2553.838456
948.880958	2553.399876
949.182236	2555.988508
949.483476	2552.661347
949.784678	2550.859134
950.085841	2553.115051
950.386967	2551.101110
950.688054	2552.852911
950.989103	2552.893240
951.290114	2557.110165
951.591087	2558.884651
951.892021	2558.441030
952.192917	2559.010680
952.493776	2560.097049
952.794596	2560.679302
953.095378	2561.647203
953.396122	2560.286092
953.696828	2559.759291
953.997496	2555.711245
954.298126	2554.556821
954.598718	2555.028168
954.899272	2554.176213
955.199788	2557.042109
955.500266	2552.457180
955.800706	2551.025492
956.101108	2545.392003
956.401472	2544.966025
956.701798	2543.972918
957.002087	2543.410829
957.302337	2544.973587
957.602550	2545.863351
957.902724	2541.820345
958.202861	2542.609286
958.502960	2542.689944
958.803022	2541.870757
959.103045	2542.019471
959.403031	2540.791950
959.702979	2541.064172
960.002889	2539.035108
960.302762	2540.129038
960.602596	2539.947557
960.902393	2541.701878
961.202153	2536.141486
961.501875	2538.571322
961.801559	2538.286497
962.101205	2537.338760
962.400814	2535.281969
962.700385	2539.153575
962.999918	2540.343287
963.299414	2536.824562
963.598873	2537.242978
963.898293	2538.450334
964.197677	2537.419418
964.497022	2536.322967
964.796331	2541.341436
965.095601	2538.147865
965.394835	2539.743390
965.694030	2537.505118
965.993189	2538.178112
966.292309	2537.242978
966.591393	2538.286497
966.890439	2537.835313
967.189447	2536.484284
967.488419	2536.512010
967.787353	2537.908410
968.086249	2535.922195
968.385108	2537.553009
968.683930	2534.931609
968.982714	2540.426466
969.281462	2536.753986
969.580172	2535.493697
969.878844	2537.187525
970.177480	2538.155427
970.476078	2537.159799
970.774639	2541.623740
971.073162	2540.295396
971.371649	2536.257432
971.670098	2535.168543
971.968510	2536.494366
972.266885	2533.951104
972.565223	2539.854295
972.863524	2539.506456
973.161788	2537.258101
973.460014	2538.730118
973.758204	2538.223482
974.056356	2537.903369
974.354471	2539.680376
974.652550	2538.470499
974.950591	2539.771116
975.248595	2537.411856
975.546563	2537.926054
975.844493	2538.571322
976.142386	2538.556198
976.440243	2539.367824
976.738062	2539.183822
977.035845	2535.501259
977.333590	2535.947401
977.631299	2535.153419
977.928971	2537.550488
978.226606	2533.822555
978.524204	2536.592669
978.821765	2536.766589
979.119290	2536.383461
979.416777	2536.796836
979.714228	2536.063348
980.011642	2537.116949
980.309020	2540.345808
980.606360	2534.767771
980.903664	2539.211548
981.200931	2535.085364
981.498162	2538.682227
981.795356	2539.763555
982.092513	2544.461910
982.389633	2544.456869
982.686717	2548.399051
982.983764	2551.070863
983.280775	2555.791903
983.577749	2551.333003
983.874686	2550.992725
984.171587	2546.985007
984.468451	2547.171530
984.765279	2544.782023
985.062070	2541.268339
985.358824	2538.626774
985.655543	2541.669111
985.952224	2540.244985
986.248869	2536.690971
986.545478	2530.137471
986.842050	2535.770961
987.138586	2530.699560
987.435086	2534.961856
987.731549	2529.305681
988.027975	2535.471012
988.324366	2537.860519
988.620719	2534.974458
988.917037	2532.824406
989.213318	2534.682072
989.509563	2534.475384
989.805772	2536.222144
990.101944	2532.947915
990.398080	2535.077802
990.694180	2534.107380
990.990244	2535.380271
991.286271	2534.919006
991.582262	2532.211906
991.878217	2536.128883
992.174136	2533.575538
992.470019	2531.143182
992.765865	2532.453882
993.061676	2534.745086
993.357450	2533.197452
993.653188	2531.327184
993.948890	2534.576207
994.244556	2534.598892
994.540186	2535.420601
994.835780	2536.446475
995.131337	2538.833462
995.426859	2534.581248
995.722345	2533.701567
996.017795	2534.908923
996.313208	2535.685261
996.608586	2535.962525
996.903928	2534.901362
997.199234	2537.991589
997.494504	2537.245498
997.789738	2538.036959
998.084936	2534.682072
998.380099	2535.042514
998.675225	2534.992103
998.970316	2535.034952
999.265371	2535.352545
999.560390	2535.080323
999.855373	2531.846422
1000.150320	2534.714839
1000.445232	2533.872966
1000.740108	2532.574869
1001.034948	2534.460261
1001.329752	2534.833306
1001.624521	2533.850281
1001.919254	2529.940866
1002.213951	2529.164529
1002.508613	2528.373068
1002.803239	2531.677544
1003.097829	2528.473891
1003.392384	2534.140147
1003.686903	2531.690147
1003.981386	2533.893131
1004.275834	2531.919519
1004.570246	2534.578728
1004.864623	2536.063348
1005.158964	2531.843902
1005.453270	2531.934643
1005.747540	2530.636546
1006.041775	2534.689633
1006.335974	2532.506814
1006.630138	2531.927081
1006.924266	2532.012781
1007.218359	2532.269879
1007.512416	2533.257946
1007.806438	2529.966072
1008.100425	2533.245343
1008.394376	2532.481608
1008.688292	2533.807431
1008.982172	2529.250228
1009.276017	2529.119158
1009.569827	2531.632173
1009.863602	2534.954294
1010.157341	2530.071936
1010.451045	2531.778367
1010.744714	2529.406504
1011.038347	2532.090918
1011.331945	2533.404139
1011.625508	2529.968593
1011.919036	2531.685106
1012.212528	2530.883562
1012.505986	2531.906916
1012.799408	2532.355579
1013.092795	2528.037831
1013.386147	2528.632687
1013.679464	2531.959848
1013.972745	2532.181659
1014.265992	2531.980013
1014.559204	2533.056299
1014.852380	2530.019004
1015.145521	2529.610671
1015.438628	2530.949097
1015.731699	2530.886083
1016.024736	2527.591689
1016.317737	2530.797862
1016.610703	2533.910775
1016.903635	2527.669827
1017.196531	2526.956503
1017.489393	2530.248377
1017.782219	2528.393232
1018.075011	2531.387677
1018.367768	2530.127389
1018.660490	2531.138140
1018.953177	2531.138140
1019.245829	2531.138140
