Dividing Wavelength (nm)	Counts (n)	Blue Motor Position (mm): 19.000000	Red Motor Position (mm): 0.000000	
326.493990	2102.566967
326.888308	2102.566967
327.282561	2102.566967
327.676750	2077.895560
328.070874	2080.075859
328.464933	2088.809658
328.858929	2097.989599
329.252859	2109.254057
329.646726	2124.405245
330.040528	2139.843779
330.434265	2157.087046
330.827938	2177.657474
331.221547	2197.373427
331.615091	2218.712631
332.008571	2238.370610
332.401986	2260.100504
332.795338	2279.826539
333.188625	2297.974693
333.581847	2318.348516
333.975006	2336.610096
334.368100	2355.718589
334.761129	2373.430683
335.154095	2386.809906
335.546996	2426.637542
335.939833	2488.802530
336.332606	2504.218379
336.725315	2513.867147
337.117960	2523.589012
337.510540	2530.276103
337.903056	2540.005530
338.295508	2546.644730
338.687896	2553.704866
339.080220	2559.950855
339.472480	2565.264231
339.864676	2570.998544
340.256807	2572.034501
340.648875	2573.592217
341.040879	2575.843093
341.432818	2574.028277
341.824694	2575.528021
342.216506	2574.338308
342.608253	2576.614389
342.999937	2572.165571
343.391557	2573.935016
343.783113	2573.554409
344.174605	2571.548030
344.566033	2568.936712
344.957397	2567.358831
345.348697	2566.368244
345.739934	2562.063099
346.131106	2558.118396
346.522215	2558.995557
346.913260	2558.559497
347.304241	2559.628221
347.695159	2554.380380
348.086012	2556.008673
348.476802	2552.777293
348.867528	2550.168496
349.258191	2549.976932
349.648789	2550.208825
350.039324	2547.776469
350.429796	2548.252858
350.820203	2545.623896
351.210548	2545.994421
351.600828	2543.559543
351.991045	2545.288659
352.381198	2545.081972
352.771288	2543.249512
353.161314	2543.652805
353.551276	2543.680531
353.941175	2541.832948
354.331010	2541.414532
354.720782	2547.547096
355.110490	2549.268650
355.500135	2545.434853
355.889717	2544.968546
356.279235	2544.948381
356.668689	2544.159441
357.058080	2545.409647
357.447408	2543.718340
357.836672	2545.447456
358.225873	2544.918134
358.615010	2541.323792
359.004084	2548.247817
359.393095	2547.640358
359.782043	2549.334185
360.170927	2549.336706
360.559748	2548.371325
360.948505	2549.724875
361.337199	2551.537169
361.725830	2552.676470
362.114398	2552.840308
362.502903	2551.837118
362.891344	2550.728064
363.279722	2552.472303
363.668037	2555.638148
364.056289	2552.797458
364.444478	2553.447767
364.832603	2552.442057
365.220665	2554.634958
365.608665	2554.007335
365.996601	2554.493806
366.384474	2552.691594
366.772284	2557.586554
367.160031	2555.310473
367.547715	2555.227294
367.935336	2556.767367
368.322893	2556.177552
368.710388	2557.891544
369.097820	2559.928170
369.485189	2559.850032
369.872495	2560.268448
370.259738	2561.480845
370.646918	2559.272820
371.034035	2560.006308
371.421090	2559.038406
371.808081	2561.213664
372.195010	2561.551422
372.581875	2559.441699
372.968678	2562.668037
373.355418	2562.927657
373.742096	2562.133675
374.128710	2561.460681
374.515262	2564.288768
374.901751	2564.976886
375.288177	2564.586196
375.674540	2561.228788
376.060841	2562.957903
376.447079	2561.745506
376.833254	2566.007802
377.219367	2560.369271
377.605417	2560.931360
377.991404	2561.039744
378.377329	2561.992522
378.763191	2558.884651
379.148991	2566.484191
379.534727	2563.819941
379.920402	2566.590055
380.306013	2566.123748
380.691563	2567.855384
381.077049	2567.247925
381.462474	2568.757751
381.847835	2570.711198
382.233134	2566.547205
382.618371	2566.292627
383.003545	2569.168605
383.388657	2568.190621
383.773706	2572.243709
384.158693	2571.008626
384.543618	2569.191290
384.928480	2570.673389
385.313280	2572.213462
385.698017	2571.616085
386.082692	2571.132134
386.467305	2573.249419
386.851856	2571.517783
387.236344	2575.540623
387.620770	2572.888977
388.005133	2571.646332
388.389435	2573.773699
388.773674	2573.254460
389.157851	2575.190263
389.541965	2573.531724
389.926018	2574.338308
390.310008	2575.316292
390.693936	2575.737228
391.077802	2577.567167
391.461606	2576.080027
391.845348	2576.921900
392.229027	2575.901066
392.612645	2574.814697
392.996200	2574.333267
393.379694	2576.808474
393.763125	2574.537434
394.146494	2577.420974
394.529801	2575.797722
394.913047	2577.267219
395.296230	2577.020202
395.679351	2579.036664
396.062410	2581.204360
396.445408	2577.176478
396.828343	2578.749318
397.211217	2572.765468
397.594028	2575.212948
397.976778	2576.654718
398.359466	2578.162023
398.742092	2576.543813
399.124656	2581.390882
399.507158	2581.663105
399.889598	2581.894998
400.271977	2583.868610
400.654294	2582.504977
401.036549	2580.833835
401.418742	2581.305183
401.800874	2581.216963
402.182944	2582.210070
402.564952	2582.883064
402.946898	2583.548496
403.328783	2583.871130
403.710606	2582.383990
404.092367	2582.197467
404.474067	2587.301635
404.855705	2582.129412
405.237282	2584.387848
405.618797	2586.852973
406.000250	2584.077817
406.381642	2586.855493
406.762972	2585.817016
407.144240	2584.781058
407.525447	2586.074114
407.906593	2589.033272
408.287677	2585.625452
408.668700	2588.922366
409.049661	2588.551842
409.430560	2584.617221
409.811399	2586.759711
410.192176	2585.081007
410.572891	2588.163673
410.953545	2588.108220
411.334138	2589.350864
411.714669	2586.603436
412.095139	2588.743405
412.475547	2589.086204
412.855894	2588.629979
413.236180	2589.552511
413.616405	2589.320617
413.996568	2586.253075
414.376670	2589.613004
414.756711	2590.616194
415.136691	2589.492017
415.516609	2590.671647
415.896466	2589.832295
416.276262	2591.178283
416.655997	2586.210226
417.035670	2588.188878
417.415283	2591.674836
417.794834	2586.847932
418.174324	2589.665937
418.553753	2589.118971
418.933121	2590.459918
419.312428	2592.793972
419.691674	2592.504106
420.070859	2589.920515
420.449983	2588.778693
420.829045	2592.289857
421.208047	2592.247007
421.586988	2592.955289
421.965867	2596.080805
422.344686	2593.913109
422.723444	2593.592995
423.102141	2594.147522
423.480777	2593.514857
423.859352	2595.382605
424.237866	2594.255907
424.616319	2592.138622
424.994712	2598.855960
425.373044	2595.735486
425.751314	2597.653645
426.129524	2594.886051
426.507673	2595.730445
426.885762	2595.780856
427.263789	2600.285127
427.641756	2596.645414
428.019662	2597.477204
428.397508	2599.052565
428.775292	2597.396546
429.153016	2600.345621
429.530679	2599.483584
429.908282	2599.725559
430.285824	2599.743203
430.663305	2598.833275
431.040726	2598.697164
431.418086	2599.362596
431.795385	2599.818820
432.172624	2601.956270
432.549802	2600.239757
432.926920	2601.225302
433.303977	2602.268821
433.680974	2604.227309
434.057910	2603.912237
434.434786	2602.805704
434.811601	2604.068513
435.188355	2602.805704
435.565050	2601.613471
435.941683	2604.328132
436.318257	2603.551795
436.694770	2601.978955
437.071222	2600.655652
437.447614	2602.349480
437.823946	2599.992740
438.200218	2603.801332
438.576429	2604.449120
438.952580	2604.280242
439.328670	2607.234358
439.704700	2605.845520
440.080670	2604.887701
440.456580	2607.040273
440.832429	2608.736622
441.208218	2608.509770
441.583947	2607.788885
441.959616	2604.870057
442.335224	2606.392485
442.710773	2607.620006
443.086261	2609.606221
443.461689	2610.291818
443.837057	2609.308792
444.212365	2609.515480
444.587612	2606.417691
444.962800	2610.659822
445.337927	2611.244596
445.712995	2609.157558
446.088002	2612.053701
446.462949	2613.535800
446.837837	2612.988835
447.212664	2614.400358
447.587431	2617.568723
447.962139	2617.261213
448.336786	2623.237501
448.711374	2620.974022
449.085901	2617.374639
449.460369	2616.068980
449.834776	2616.689042
450.209124	2618.400513
450.583412	2620.543004
450.957640	2618.791203
451.331808	2619.154166
451.705917	2617.510750
452.079965	2617.316665
452.453954	2620.180041
452.827883	2618.700462
453.201752	2620.467387
453.575562	2621.218518
453.949311	2619.996039
454.323001	2624.694394
454.696632	2623.484517
455.070202	2626.073150
455.443713	2624.336472
455.817164	2627.464508
456.190556	2624.235649
456.563888	2626.289919
456.937160	2623.469394
457.310373	2628.238325
457.683526	2627.812348
458.056619	2633.997843
458.429653	2631.041207
458.802628	2631.726804
459.175542	2633.115642
459.548398	2635.734521
459.921194	2639.616209
460.293930	2638.784419
460.666607	2647.127529
461.039224	2648.854124
461.411782	2649.181799
461.784280	2647.855975
462.156719	2650.860503
462.529099	2650.273209
462.901419	2648.014772
463.273680	2652.032571
463.645882	2650.668939
464.018024	2648.292035
464.390106	2652.889567
464.762130	2658.979281
465.134094	2665.200065
465.505999	2678.778413
465.877845	2687.524815
466.249631	2692.976823
466.621358	2692.611339
466.993026	2692.402131
467.364634	2688.896009
467.736184	2684.979032
468.107674	2683.663291
468.479105	2685.994825
468.850477	2683.940555
469.221790	2685.399969
469.593043	2682.370235
469.964238	2682.430729
470.335373	2682.312262
470.706449	2691.056143
471.077467	2697.045034
471.448425	2710.066334
471.819324	2718.540514
472.190164	2720.151163
472.560945	2710.260419
472.931667	2703.996785
473.302330	2700.011753
473.672934	2702.313040
474.043479	2705.947712
474.413965	2706.928216
474.784393	2705.632640
475.154761	2711.316541
475.525070	2710.827549
475.895321	2711.374514
476.265513	2714.386603
476.635645	2723.561503
477.005719	2724.405897
477.375734	2729.424365
477.745691	2732.738924
478.115588	2740.645974
478.485427	2749.911614
478.855207	2766.837288
479.224928	2775.926489
479.594591	2786.807819
479.964194	2786.815381
480.333739	2790.457615
480.703226	2794.167904
481.072653	2802.533699
481.442022	2807.892445
481.811333	2815.718837
482.180584	2813.588949
482.549777	2815.373518
482.918912	2815.194557
483.287988	2821.352326
483.657005	2818.320072
484.025964	2821.453149
484.394864	2826.474138
484.763706	2828.939263
485.132489	2829.362720
485.501213	2836.904286
485.869879	2840.601972
486.238487	2844.781089
486.607036	2849.396265
486.975527	2854.286184
487.343959	2859.844056
487.712333	2869.354193
488.080648	2874.027343
488.448905	2885.654764
488.817104	2891.560476
489.185244	2910.278280
489.553326	2929.785025
489.921350	2956.838377
490.289315	2993.371619
490.657222	3010.178826
491.025070	3026.849922
491.392861	3028.982330
491.760593	3031.187834
492.128267	3028.344624
492.495883	3028.473173
492.863440	3029.892258
493.230939	3030.580375
493.598380	3037.622867
493.965763	3046.018909
494.333088	3053.787327
494.700354	3065.515572
495.067563	3080.429825
495.434713	3095.202927
495.801805	3120.605301
496.168839	3137.619195
496.535815	3152.046977
496.902733	3174.278466
497.269593	3192.587937
497.636395	3214.557285
498.003139	3246.235896
498.369825	3261.636621
498.736453	3298.111889
499.103023	3320.784479
499.469535	3346.322964
499.835989	3379.496277
500.202385	3405.065009
500.568723	3441.535237
500.935003	3484.344715
501.301226	3516.877802
501.667390	3572.801842
502.033497	3622.608442
502.399546	3645.845641
502.765537	3669.375226
503.131470	3729.611973
503.497345	3788.787558
503.863163	3802.164260
504.228923	3867.979044
504.594625	3938.194755
504.960269	3969.454950
505.325856	4048.696847
505.691385	4092.101182
506.056856	4160.670957
506.422270	4242.231785
506.787625	4294.218684
507.152924	4371.078636
507.518164	4448.677117
507.883347	4485.593487
508.248472	4571.431734
508.613540	4675.937373
508.978550	4773.289616
509.343503	4846.943394
509.708398	4946.097849
510.073236	5066.510850
510.438016	5159.061393
510.802738	5219.671186
511.167403	5361.947671
511.532010	5480.087112
511.896561	5602.365339
512.261053	5778.919150
512.625488	5849.928843
512.989866	5957.045800
513.354186	6061.208642
513.718449	6172.529922
514.082655	6354.490370
514.446803	6449.748013
514.810894	6623.882069
515.174927	6750.961996
515.538904	6866.706888
515.902822	7073.104330
516.266684	7154.660117
516.630488	7342.450659
516.994235	7461.106818
517.357925	7679.781989
517.721558	7858.130451
518.085133	8051.294863
518.448651	8216.395172
518.812112	8344.143052
519.175516	8521.904219
519.538863	8725.768480
519.902152	8888.486844
520.265385	9128.604564
520.628560	9314.103902
520.991678	9448.201115
521.354739	9661.416717
521.717743	9895.268282
522.080690	10060.852542
522.443580	10338.935191
522.806413	10538.030521
523.169189	10717.311595
523.531908	10941.733682
523.894569	11111.625608
524.257174	11346.717297
524.619722	11606.727410
524.982213	11810.047227
525.344647	12000.849858
525.707025	12210.929863
526.069345	12512.642920
526.431608	12719.362996
526.793815	13023.306764
527.155964	13141.242037
527.518057	13389.244122
527.880093	13555.864338
528.242072	13919.122323
528.603995	14064.559611
528.965860	14283.242345
529.327669	14548.374269
529.689421	14746.635288
530.051117	14966.686695
530.412755	15240.237347
530.774337	15503.191493
531.135862	15683.251426
531.497331	15976.341590
531.858743	16176.727456
532.220098	16539.050306
532.581396	16687.540013
532.942638	16816.205383
533.303824	17176.040424
533.664953	17419.439934
534.026025	17563.304383
534.387040	17996.523500
534.747999	18241.097600
535.108902	18565.483247
535.469748	18628.754769
535.830537	18932.542261
536.191270	19249.091435
536.551947	19380.622700
536.912567	19754.416696
537.273131	20080.493650
537.633638	20119.862541
537.994089	20522.300373
538.354483	20601.890110
538.714821	21111.959098
539.075103	21523.619721
539.435328	21692.851255
539.795497	21893.935321
540.155609	22155.273777
540.515665	22641.513230
540.875665	22639.824444
541.235609	23057.789030
541.595496	23306.932935
541.955328	23915.697632
542.315102	23864.550085
542.674821	24002.254244
543.034483	24289.521875
543.394090	24529.301837
543.753640	24777.407265
544.113134	25579.437198
544.472571	25308.603728
544.831953	26241.927992
545.191278	26051.090072
545.550548	26168.473340
545.909761	26681.924941
546.268918	27058.307570
546.628019	27493.573396
546.987064	27497.266041
547.346053	27316.369276
547.704986	28102.166694
548.063863	28094.282329
548.422684	28457.588204
548.781449	28604.303425
549.140158	29105.850342
549.498811	29262.569733
549.857408	29140.341917
550.215949	29939.876478
550.574434	30125.708533
550.932864	30201.580419
551.291237	30919.891910
551.649555	30895.553219
552.007817	31283.142332
552.366022	31287.210543
552.724173	31641.931334
553.082267	32142.333909
553.440305	32570.602613
553.798288	32316.664570
554.156215	32785.128915
554.514086	33154.673218
554.871902	33202.208778
555.229661	33429.196813
555.587365	33522.483365
555.945014	33839.206458
556.302606	33986.952595
556.660143	34369.167838
557.017625	34639.905526
557.375050	34703.182089
557.732421	35166.869941
558.089735	35354.799115
558.446994	35502.257906
558.804197	36062.786323
559.161345	36208.924332
559.518437	35828.029870
559.875474	36275.449918
560.232455	36605.395958
560.589381	36940.426002
560.946251	36902.075424
561.303065	37626.128789
561.659825	37661.633635
562.016528	37567.200221
562.373177	37526.800414
562.729770	38088.347144
563.086307	37892.044613
563.442789	38431.642159
563.799216	38642.952205
564.155587	38661.412910
564.511904	38844.169861
564.868164	39084.915204
565.224370	39446.628074
565.580520	39383.812777
565.936615	39738.415100
566.292654	39636.467846
566.648638	40014.715701
567.004567	40133.918825
567.360441	40333.114978
567.716260	40356.440397
568.072023	40748.145613
568.427732	40874.058512
568.783385	40599.008117
569.138982	41087.874012
569.494525	41190.527027
569.850013	41100.411361
570.205445	41215.069885
570.560823	41302.304532
570.916145	41330.603049
571.271412	41462.361166
571.626625	41371.759029
571.981782	41517.145906
572.336884	41367.779038
572.691931	41788.554067
573.046923	41541.260265
573.401860	41508.243228
573.756743	41589.836823
574.111570	41818.523727
574.466342	41777.047633
574.821059	41991.067299
575.175722	41642.799186
575.530330	41779.928653
575.884882	41601.227311
576.239380	41662.855416
576.593823	41737.439288
576.948211	41757.500559
577.302544	41415.382653
577.656823	41522.184539
578.011047	41828.311127
578.365216	41656.485918
578.719330	41549.868035
579.073389	41486.394867
579.427394	41648.417552
579.781344	41687.937677
580.135239	41453.851698
580.489080	41595.303955
580.842866	41185.730369
581.196597	41664.524038
581.550273	41695.620396
581.903895	41646.650627
582.257463	42096.583690
582.610975	41585.556884
582.964434	41919.568614
583.317837	41649.682881
583.671186	41554.798284
584.024481	41819.559684
584.377721	41432.888060
584.730906	41762.816456
585.084037	41859.102494
585.437113	41659.034222
585.790135	41744.844743
586.143103	41419.728128
586.496016	41592.974942
586.848874	41656.571618
587.201679	41736.915007
587.554428	41297.699437
587.907124	41529.547144
588.259765	41369.684594
588.612352	41634.629996
588.964884	41093.058838
589.317362	41419.776019
589.669786	41410.172621
590.022155	41231.882133
590.374470	41670.490244
590.726731	41274.245469
591.078937	40861.261543
591.431090	41012.415500
591.783188	40717.029091
592.135232	40442.374426
592.487222	40736.934087
592.839157	40851.494308
593.191038	40562.484958
593.542866	40360.269153
593.894639	39836.344555
594.246358	40156.122587
594.598022	40173.809476
594.949633	39817.732615
595.301190	39811.312705
595.652692	39684.741935
596.004141	40028.346981
596.355535	39088.315462
596.706876	39089.963919
597.058162	38948.441087
597.409395	39457.302718
597.760573	39565.047299
598.111698	39183.767189
598.462768	39226.793438
598.813785	39302.418307
599.164748	38782.360273
599.515657	39180.414822
599.866511	38710.700271
600.217312	39336.756126
600.568060	38359.876293
600.918753	39115.754462
601.269392	39072.592103
601.619978	38770.826113
601.970510	38983.772013
602.320988	39190.759270
602.671412	39503.953555
603.021783	39295.975712
603.372100	38971.239705
603.722363	39093.270916
604.072572	39178.345428
604.422728	39231.925332
604.772830	39052.997138
605.122878	39188.856234
605.472872	39131.835743
605.822813	39405.000747
606.172701	39262.661247
606.522534	39524.496257
606.872314	39794.172782
607.222041	39568.813041
607.571714	39969.612498
607.921333	39432.041496
608.270899	39736.713711
608.620411	40095.283422
608.969870	39892.326568
609.319276	39914.338767
609.668627	39975.104835
610.017926	40459.335388
610.367171	40631.072376
610.716362	40726.740873
611.065500	40672.092245
611.414585	40874.819727
611.763616	41192.135155
612.112594	41137.163893
612.461518	41365.157638
612.810389	41662.842813
613.159207	41545.260421
613.507971	41642.350523
613.856682	42106.698766
614.205340	42013.429858
614.553945	42716.932959
614.902496	42168.483147
615.250994	42650.583813
615.599439	42728.789753
615.947830	42928.288375
616.296169	43018.787169
616.644454	43133.370076
616.992686	43302.422649
617.340864	43827.370602
617.688990	43544.740832
618.037063	44175.048901
618.385082	44127.553670
618.733048	44418.922280
619.080961	44439.890959
619.428821	44474.329602
619.776628	44577.219552
620.124382	44444.662411
620.472083	44571.583542
620.819731	44694.814547
621.167326	44371.611051
621.514868	44349.392165
621.862357	43931.520841
622.209793	43979.479858
622.557176	43652.193027
622.904506	43384.207809
623.251783	43053.893765
623.599007	42840.418543
623.946179	42623.986685
624.293297	42588.244904
624.640363	42006.861234
624.987376	41985.277534
625.334336	41763.365942
625.681243	41416.015318
626.028097	41385.385268
626.374899	41248.676737
626.721647	41229.424570
627.068343	41128.283901
627.414987	40900.151525
627.761577	40676.432679
628.108115	41020.236850
628.454600	40449.699223
628.801032	40660.031285
629.147412	40618.666097
629.493739	40620.823711
629.840014	40258.483216
630.186236	40631.697479
630.532405	40191.546775
630.878521	40434.953848
631.224585	40301.456532
631.570597	40008.865442
631.916556	40169.716059
632.262462	40135.945369
632.608316	40153.677628
632.954117	40041.401049
633.299866	40035.500379
633.645562	39962.683432
633.991206	39474.147733
634.336797	39044.061693
634.682336	39041.016836
635.027823	38804.780805
635.373257	38616.435736
635.718639	38384.414109
636.063968	38244.083510
636.409245	37686.332769
636.754470	37728.582679
637.099642	37493.574169
637.444762	37015.685387
637.789829	37164.651483
638.134845	36827.748651
638.479808	36775.383666
638.824719	36691.040121
639.169577	36310.044837
639.514383	36359.869081
639.859137	36056.031177
640.203839	36312.767060
640.548489	35937.521211
640.893086	36014.834867
641.237632	35778.455163
641.582125	35871.391355
641.926566	35816.893962
642.270955	35791.504190
642.615292	35805.311911
642.959576	35776.010204
643.303809	35770.054081
643.647990	35945.186286
643.992118	35901.776910
644.336195	35885.017594
644.680219	35988.804869
645.024192	36291.687475
645.368112	36809.706362
645.711981	36804.501370
646.055797	37677.997221
646.399562	37606.044832
646.743274	38569.860515
647.086935	38988.261161
647.430544	38884.325172
647.774101	38987.386521
648.117606	39244.581149
648.461059	39538.697188
648.804460	39148.960543
649.147810	38531.323415
649.491108	38271.033518
649.834354	37909.988600
650.177548	37072.857113
650.520690	36623.191231
650.863781	36653.891858
651.206820	36505.064394
651.549807	36066.879740
651.892742	35587.662614
652.235626	35401.268471
652.578458	35251.974700
652.921238	34660.997714
653.263967	34977.332638
653.606644	34655.449924
653.949269	34606.424703
654.291843	34196.992270
654.634365	34613.623471
654.976836	34208.786049
655.319255	34207.336718
655.661622	34211.475505
656.003938	33995.691435
656.346203	33862.675550
656.688416	34075.941563
657.030577	33882.547778
657.372687	33714.805904
657.714746	33989.415198
658.056753	34107.685709
658.398708	33559.387131
658.740612	33613.206490
659.082465	33892.620003
659.424266	33726.962647
659.766016	33851.973180
660.107715	33697.086249
660.449362	33838.911550
660.790958	33811.462468
661.132503	33830.119778
661.473996	33871.701736
661.815438	33976.499762
662.156829	34185.571536
662.498168	33953.867502
662.839456	33966.876200
663.180693	34115.065958
663.521879	34297.323834
663.863013	34243.506996
664.204097	34225.515118
664.545129	34687.136097
664.886110	34645.004653
665.227040	34729.380966
665.567918	34852.889235
665.908746	34911.618677
666.249522	35061.247685
666.590248	35072.023152
666.930922	35173.700704
667.271545	35144.613246
667.612118	35206.034665
667.952639	34979.361703
668.293109	35053.048248
668.633528	34931.861431
668.973896	34883.360489
669.314213	34919.003968
669.654480	34648.188142
669.994695	34668.851832
670.334859	34552.577618
670.674973	34452.626661
671.015035	34604.020072
671.355047	34556.577774
671.695008	34506.141029
672.034918	34408.259466
672.374777	34489.810212
672.714585	34325.410623
673.054342	34562.352415
673.394049	34302.811130
673.733705	34585.791260
674.073310	34244.996657
674.412864	34317.259077
674.752368	33921.273922
675.091820	34239.912654
675.431223	33795.640806
675.770574	33513.638660
676.109875	33369.852350
676.449125	33081.949533
676.788324	33021.538866
677.127473	32471.838847
677.466571	32399.226068
677.805619	32056.394838
678.144616	32049.806050
678.483562	31973.404843
678.822458	31640.996200
679.161303	31571.574470
679.500098	31485.491727
679.838842	31367.700126
680.177535	31518.770904
680.516179	31808.899390
680.854771	32058.827195
681.193314	32934.488221
681.531805	34072.584155
681.870247	34814.682330
682.208638	35547.698867
682.546978	35737.780614
682.885268	35817.534188
683.223508	35290.307634
683.561697	34952.762054
683.899836	34762.990338
684.237925	34246.788787
684.575963	34090.472689
684.913951	33636.302536
685.251889	33792.638799
685.589776	33775.778660
685.927614	33778.684885
686.265401	33905.401849
686.603137	33997.483565
686.940824	34508.709497
687.278460	34890.818877
687.616046	34994.961553
687.953582	35596.809788
688.291068	35451.783353
688.628504	35721.898458
688.965889	35648.524464
689.303224	35268.736536
689.640510	34925.368424
689.977745	34193.201322
690.314930	33373.547515
690.652065	32852.801364
690.989150	32136.085398
691.326185	31231.122666
691.663170	30530.356911
692.000105	29771.461611
692.336990	29094.147303
692.673825	28632.808630
693.010610	28115.054403
693.347345	27535.362040
693.684030	26855.171755
694.020665	26579.760917
694.357251	25906.227475
694.693786	25850.026172
695.030272	25618.170903
695.366707	25082.419758
695.703093	24771.423415
696.039429	24777.424909
696.375716	24503.750749
696.711952	24467.222548
697.048139	24306.056860
697.384276	24109.905564
697.720363	24250.543674
698.056400	24037.000397
698.392388	23811.237363
698.728326	23777.338124
699.064214	23574.910591
699.400053	23522.502756
699.735842	23146.246156
700.071581	22873.597871
700.407270	22582.740938
700.742910	22391.822360
701.078501	22113.560750
701.414042	21819.671563
701.749533	21531.630114
702.084974	21179.324037
702.420366	21386.293649
702.755709	20950.241403
703.091002	20645.014661
703.426246	20657.042854
703.761440	20561.127340
704.096584	20285.792120
704.431679	20240.525079
704.766725	20138.330808
705.101721	20078.724205
705.436668	20176.532672
705.771565	19836.279993
706.106413	20201.761127
706.441212	20188.356699
706.775961	20315.953344
707.110661	20374.781088
707.445311	20733.698639
707.779913	20566.823844
708.114465	20813.038839
708.448967	21099.958631
708.783421	21782.740070
709.117825	22058.254251
709.452180	22265.682608
709.786485	22676.012367
710.120742	23466.245999
710.454949	23479.610098
710.789107	23933.606331
711.123216	24635.597087
711.457275	24758.361786
711.791286	25276.897391
712.125247	25353.762384
712.459159	25045.679829
712.793023	25709.536776
713.126837	24587.567493
713.460602	24866.507139
713.794318	24479.280988
714.127985	24101.063380
714.461602	23195.536038
714.795171	23162.836593
715.128691	22126.075414
715.462162	21600.517482
715.795584	21187.420130
716.128957	20914.119015
716.462281	20519.820126
716.795556	20270.895511
717.128782	19770.392113
717.461960	19231.439834
717.795088	19145.790631
718.128167	18732.471468
718.461198	18280.831974
718.794180	18132.831259
719.127113	17768.489427
719.459997	17573.706804
719.792833	17210.380764
720.125619	17186.798246
720.458357	16861.404368
720.791046	16688.185281
721.123686	16513.295051
721.456278	16281.714526
721.788821	16236.578555
722.121315	15976.185314
722.453761	16058.020885
722.786158	15977.329656
723.118506	15982.786705
723.450805	15844.384347
723.783056	15995.485372
724.115259	15901.974489
724.447412	15828.749208
724.779518	16067.324335
725.111574	16084.507108
725.443582	16290.052594
725.775542	16275.876869
726.107453	16741.399701
726.439315	16620.379241
726.771129	17025.698092
727.102895	17386.032208
727.434612	17589.757837
727.766281	17707.529274
728.097901	17962.899004
728.429473	17997.509046
728.760996	17980.472466
729.092471	18079.200944
729.423897	17948.614895
729.755276	17825.235175
730.086606	17940.218853
730.417887	18470.523032
730.749120	18979.770311
731.080305	19158.292692
731.411442	19465.480443
731.742530	19545.806188
732.073570	19634.228027
732.404562	19928.601164
732.735506	19742.053266
733.066401	19432.760834
733.397249	18903.676614
733.728048	18267.482999
734.058798	17435.813602
734.389501	16749.495794
734.720156	16297.763039
735.050762	15770.735610
735.381320	15413.703451
735.711831	15179.309961
736.042293	14831.195603
736.372707	14848.413664
736.703073	14629.735972
737.033391	14808.374300
737.363661	14779.148210
737.693883	14880.944230
738.024056	15049.159972
738.354182	15228.781325
738.684260	15496.305277
739.014290	15713.221086
739.344272	15889.006120
739.674207	16164.202709
740.004093	16282.574042
740.333931	16263.531084
740.663722	16304.671940
740.993464	16298.057946
741.323159	16128.844056
741.652806	15855.361460
741.982405	15637.245856
742.311956	15306.727645
742.641460	15187.093503
742.970915	14883.031268
743.300323	14547.575247
743.629683	14347.002858
743.958996	14068.002719
744.288260	13792.198672
744.617477	13493.444772
744.946647	13431.718363
745.275768	13152.375426
745.604842	12967.715440
745.933869	12796.391826
746.262847	12743.215215
746.591778	12670.249554
746.920662	12566.134604
747.249498	12567.404975
747.578286	12689.403418
747.907027	12833.363649
748.235720	13049.432544
748.564365	13061.218761
748.892963	12958.233029
749.221514	13025.713915
749.550017	12867.761962
749.878473	12834.462620
750.206881	12614.849794
750.535242	12517.971420
750.863555	12429.017740
751.191821	12328.166937
751.520039	12354.305319
751.848210	12250.311357
752.176334	12291.018674
752.504411	12196.935620
752.832440	12026.330371
753.160421	12083.076119
753.488356	11967.018675
753.816243	11879.184131
754.144082	11732.279867
754.471875	11672.620332
754.799620	11617.583534
755.127318	11591.203176
755.454969	11548.615509
755.782572	11498.433343
756.110129	11515.588389
756.437638	11427.675707
756.765100	11422.581621
757.092515	11429.243506
757.419882	11438.085690
757.747203	11435.408837
758.074477	11508.505568
758.401703	11466.238014
758.728882	11624.023608
759.056014	11660.297231
759.383099	11775.016248
759.710138	11872.860003
760.037129	11957.226234
760.364073	11969.085548
760.690970	11954.461161
761.017820	11958.448713
761.344623	12152.127324
761.671379	12492.145589
761.998088	13158.339111
762.324751	14774.452375
762.651366	17681.451385
762.977935	21259.082652
763.304456	23342.132792
763.630931	23706.945972
763.957359	22503.894771
764.283740	20612.138776
764.610074	18755.305374
764.936362	16660.234603
765.262602	15164.551983
765.588796	13716.357033
765.914943	12710.563662
766.241044	11872.474355
766.567097	11240.994219
766.893104	10699.375170
767.219064	10355.518066
767.544978	9975.611671
767.870845	9661.643568
768.196665	9482.785951
768.522438	9287.098441
768.848165	9122.310683
769.173846	8949.530176
769.499479	8835.774019
769.825066	8678.595883
770.150607	8492.486566
770.476101	8428.544570
770.801548	8322.687901
771.126949	8180.996190
771.452303	8090.096624
771.777611	7934.193901
772.102872	7917.182527
772.428087	7796.880432
772.753256	7670.370155
773.078378	7584.867145
773.403453	7440.740556
773.728482	7325.628329
774.053465	7268.154134
774.378401	7182.865372
774.703291	7088.444561
775.028135	6991.777915
775.352932	6954.022194
775.677683	6865.262598
776.002388	6778.854700
776.327046	6787.553211
776.651658	6694.506114
776.976224	6621.497604
777.300743	6604.518998
777.625216	6540.120778
777.949643	6498.256516
778.274024	6504.336147
778.598359	6437.981960
778.922647	6437.379542
779.246889	6395.515280
779.571086	6405.020375
779.895236	6412.196458
780.219339	6403.442494
780.543397	6402.519963
780.867409	6451.983764
781.191374	6450.874711
781.515294	6419.319608
781.839167	6466.643440
782.162995	6439.892557
782.486776	6388.971862
782.810511	6354.535740
783.134201	6272.158245
783.457844	6264.556185
783.781441	6212.801179
784.104993	6171.993039
784.428498	6144.652341
784.751958	6131.716740
785.075372	6104.706238
785.398739	6065.788530
785.722061	6089.376089
786.045337	6090.142344
786.368568	6200.934303
786.691752	6221.461881
787.014891	6471.588812
787.337983	6751.715649
787.661030	7184.042482
787.984031	7599.481450
788.306987	7843.959767
788.629897	7921.762415
788.952760	7831.714805
789.275579	7649.575396
789.598351	7360.109821
789.921078	7098.713391
790.243759	6824.709036
790.566395	6628.366176
790.888984	6436.275529
791.211529	6297.890815
791.534027	6143.765098
791.856480	6008.145456
792.178888	5951.966838
792.501249	5888.647425
792.823566	5779.118275
793.145836	5771.677532
793.468062	5751.893524
793.790241	5715.869439
794.112375	5754.756899
794.434464	5859.454103
794.756507	5883.765068
795.078505	6002.154045
795.400457	6214.762188
795.722364	6449.564011
796.044226	6637.679707
796.366042	6784.553725
796.687812	6731.707309
797.009538	6756.182111
797.331218	6667.049470
797.652852	6594.358552
797.974442	6483.881665
798.295986	6413.277785
798.617484	6286.253311
798.938938	6179.380850
799.260346	6117.863649
799.581709	5976.686136
799.903026	5925.692344
800.224299	5857.677096
800.545526	5743.868007
800.866708	5675.721689
801.187845	5626.388958
801.508936	5547.913316
801.829983	5523.551940
802.150984	5419.474798
802.471940	5393.769955
802.792851	5375.362182
803.113717	5349.760682
803.434538	5326.604142
803.755314	5292.409995
804.076045	5288.074603
804.396731	5248.037759
804.717372	5263.496457
805.037967	5269.016521
805.358518	5290.499398
805.679024	5345.705073
805.999485	5358.413822
806.319901	5373.554928
806.640272	5384.990785
806.960598	5436.292087
807.280879	5422.877577
807.601115	5459.501560
807.921306	5420.621661
808.241453	5412.359210
808.561554	5424.604172
808.881611	5391.617382
809.201623	5395.441097
809.521590	5347.711453
809.841513	5328.686138
810.161390	5348.825548
810.481223	5257.936064
810.801011	5246.454837
811.120755	5224.135128
811.440453	5171.134957
811.760107	5140.588085
812.079716	5119.440445
812.399281	5067.745933
812.718801	5058.029109
813.038276	5025.649778
813.357707	4991.304396
813.677093	5016.522768
813.996434	4955.250064
814.315731	4980.463395
814.634983	4976.407787
814.954191	4983.394826
815.273354	5045.053179
815.592473	5077.457716
815.911547	5157.223893
816.230577	5206.039906
816.549562	5287.600734
816.868502	5339.522098
817.187399	5396.015789
817.506250	5478.219364
817.825058	5503.205843
818.143821	5658.385161
818.462539	5826.094268
818.781213	6060.185288
819.099843	6422.349342
819.418429	7048.011987
819.736970	7655.445819
820.055466	8348.609514
820.373919	9263.883927
820.692327	10759.211146
821.010691	13550.858473
821.329011	19849.944041
821.647286	29209.209119
821.965517	38993.183848
822.283704	43824.103934
822.601847	44917.643630
822.919945	40392.446838
823.237999	35505.585067
823.556010	30555.529913
823.873976	26075.378352
824.191897	22061.359602
824.509775	19114.303584
824.827609	16473.187631
825.145398	15014.832235
825.463144	14342.864071
825.780845	14702.885635
826.098502	15990.844990
826.416116	18373.344709
826.733685	20460.115220
827.051210	20801.580297
827.368692	19310.696855
827.686129	16834.048547
828.003522	14475.678310
828.320872	12358.620547
828.638177	10796.427464
828.955439	9601.260628
829.272656	8575.148886
829.589830	7768.471009
829.906960	7063.044707
830.224046	6547.551438
830.541088	6155.286655
830.858086	5907.143418
831.175041	5716.202155
831.491952	5664.739536
831.808819	5704.476431
832.125642	5956.579494
832.442421	6530.948398
832.759157	7659.272055
833.075849	9388.801199
833.392497	11145.489559
833.709101	12136.048563
834.025662	11814.904378
834.342179	10770.803279
834.658653	9515.198049
834.975083	8462.932801
835.291469	7596.088753
835.607811	6899.703761
835.924110	6394.370938
836.240366	5914.140540
836.556578	5487.545499
836.872746	5140.414165
837.188871	4882.044948
837.504952	4666.192823
837.820990	4504.785159
838.136984	4396.680136
838.452935	4356.623127
838.768842	4394.527563
839.084706	4697.337072
839.400526	5445.114107
839.716303	6306.435571
840.032037	6810.712272
840.347727	6621.938705
840.663373	6035.103027
840.978977	5479.328418
841.294537	5065.515222
841.610054	4750.571656
841.925527	4521.604969
842.240957	4320.543589
842.556344	4138.310919
842.871687	3986.862054
843.186987	3838.836133
843.502244	3725.528639
843.817458	3641.033859
844.132629	3575.367789
844.447756	3528.895913
844.762840	3483.376814
845.077881	3445.505146
845.392879	3411.336205
845.707833	3389.553379
846.022745	3363.147815
846.337613	3347.164837
846.652438	3325.523163
846.967221	3316.814570
847.281960	3298.333700
847.596656	3286.376083
847.911309	3277.087757
848.225919	3265.656941
848.540485	3257.044130
848.855009	3245.872933
849.169490	3235.861201
849.483928	3227.843246
849.798323	3221.808985
850.112675	3212.762634
850.426984	3211.509907
850.741251	3207.499670
851.055474	3202.904658
851.369654	3205.899103
851.683792	3200.961293
851.997887	3208.580997
852.311938	3201.788042
852.625947	3205.465564
852.939914	3196.943493
853.253837	3203.131510
853.567718	3201.936756
853.881555	3193.248328
854.195350	3199.401056
854.509103	3198.533977
854.822812	3193.301260
855.136479	3193.313863
855.450103	3192.192206
855.763685	3188.953265
856.077224	3190.750436
856.390720	3195.448791
856.704173	3206.428424
857.017584	3214.900083
857.330953	3214.723643
857.644278	3224.692525
857.957561	3228.675036
858.270802	3224.911815
858.584000	3227.074470
858.897155	3221.806464
859.210268	3210.758776
859.523339	3197.424924
859.836367	3196.628421
860.149352	3188.703727
860.462295	3182.808098
860.775195	3177.731656
861.088054	3177.393899
861.400869	3175.140503
861.713642	3168.660100
862.026373	3177.764424
862.339062	3182.213242
862.651708	3191.345292
862.964312	3208.863302
863.276873	3217.234138
863.589392	3243.526276
863.901869	3268.051489
864.214303	3290.666105
864.526696	3311.372645
864.839045	3326.165911
865.151353	3338.241995
865.463619	3338.415914
865.775842	3340.139989
866.088023	3345.488653
866.400162	3336.636387
866.712258	3340.507993
867.024313	3336.815348
867.336325	3335.406346
867.648296	3335.824761
867.960224	3336.868280
868.272110	3336.558249
868.583954	3337.377437
868.895755	3344.082171
869.207515	3342.814321
869.519233	3362.873072
869.830909	3369.280379
870.142542	3375.894373
870.454134	3382.684807
870.765684	3395.449008
871.077191	3413.811411
871.388657	3422.623348
871.700081	3440.038014
872.011463	3460.905871
872.322803	3480.672235
872.634101	3496.050275
872.945357	3518.465765
873.256571	3545.166237
873.567744	3560.637538
873.878874	3566.573496
874.189963	3580.247626
874.501010	3581.250816
874.812015	3577.966504
875.122979	3591.915377
875.433900	3590.869337
875.744780	3594.811520
876.055618	3599.353599
876.366415	3597.798403
876.677169	3605.692850
876.987882	3621.630458
877.298554	3641.900938
877.609183	3678.726567
877.919771	3726.060481
878.230317	3795.714103
878.540822	3897.608425
878.851285	4045.460427
879.161707	4270.069036
879.472087	4646.078619
879.782425	5275.854846
880.092722	6450.809176
880.402977	8333.975045
880.713191	10594.962792
881.023363	12782.818520
881.333494	13954.337303
881.643583	14329.807483
881.953631	13901.498449
882.263637	13114.687760
882.573602	12148.623722
882.883526	11250.975703
883.193408	10359.387152
883.503248	9501.322273
883.813048	8720.717244
884.122806	7997.268817
884.432522	7268.358301
884.742197	6642.983001
885.051831	6105.691783
885.361424	5638.666688
885.670975	5271.189258
885.980485	4962.000169
886.289954	4703.885530
886.599382	4498.972709
886.908768	4329.577337
887.218113	4170.990198
887.527417	4044.326167
887.836680	3926.547169
888.145901	3830.843384
888.455082	3757.232455
888.764221	3692.466231
889.073319	3634.868528
889.382376	3605.773509
889.691392	3581.528079
890.000366	3573.963828
890.309300	3574.193200
890.618193	3574.150351
890.927044	3571.561718
891.235855	3576.063468
891.544625	3589.803133
891.853353	3620.425622
892.162041	3682.257895
892.470687	3772.189559
892.779293	3889.895460
893.087858	4060.730082
893.396381	4338.727031
893.704864	4742.652003
894.013306	5293.151045
894.321707	5822.734338
894.630068	6134.091123
894.938387	6144.798534
895.246665	5963.125432
895.554903	5666.604763
895.863100	5345.901678
896.171256	5095.091672
896.479371	4866.661867
896.787446	4655.195546
897.095480	4471.178307
897.403473	4328.256554
897.711425	4192.276471
898.019336	4074.245415
898.327207	3956.635296
898.635038	3860.495451
898.942827	3761.893002
899.250576	3680.841331
899.558284	3600.024073
899.865952	3545.869478
900.173579	3488.551558
900.481165	3443.869291
900.788711	3401.795821
901.096216	3377.409239
901.403681	3348.036957
901.711105	3335.272755
902.018489	3331.345696
902.325832	3369.991182
902.633135	3432.743465
902.940397	3605.264352
903.247619	4015.387423
903.554800	4755.393520
903.861941	5658.937168
904.169041	6289.353621
904.476101	6444.167455
904.783121	6168.197050
905.090100	5789.878618
905.397039	5400.525101
905.703938	5068.847425
906.010796	4766.610087
906.317614	4529.587636
906.624391	4303.270075
906.931129	4122.217035
907.237826	3949.376034
907.544483	3787.391158
907.851099	3622.250520
908.157675	3472.956749
908.464211	3342.224506
908.770707	3243.732963
909.077163	3169.106242
909.383578	3114.349229
909.689954	3068.547826
909.996289	3037.695964
910.302584	3022.512009
910.608839	3011.597911
910.915054	2994.957062
911.221229	2994.689881
911.527363	2999.998216
911.833458	3006.491222
912.139513	3018.080834
912.445527	3031.694470
912.751502	3066.876683
913.057436	3107.828496
913.363331	3164.370078
913.669186	3251.178747
913.975000	3365.217209
914.280775	3552.881723
914.586510	3819.954492
914.892205	4178.965304
915.197859	4660.231659
915.503475	5202.785841
915.809050	5649.237988
916.114585	5899.949692
916.420081	5944.256393
916.725536	5879.585951
917.030952	5656.096477
917.336328	5462.932065
917.641665	5267.552065
917.946961	5052.980393
918.252218	4861.048543
918.557435	4651.840658
918.862612	4467.475580
919.167750	4300.777225
919.472848	4122.930358
919.777906	3966.203406
920.082925	3815.908966
920.387904	3672.644414
920.692843	3571.246646
920.997743	3477.997903
921.302603	3386.730333
921.607423	3326.203719
921.912204	3264.777260
922.216946	3218.648181
922.521647	3175.241326
922.826310	3132.051241
923.130932	3095.991867
923.435516	3056.978378
923.740059	3031.903678
924.044564	3001.069461
924.349028	2979.541213
924.653454	2950.342850
924.957840	2923.773449
925.262186	2909.017992
925.566493	2886.040412
925.870761	2861.547966
926.174989	2853.214939
926.479178	2838.709019
926.783328	2823.046154
927.087438	2809.661890
927.391509	2799.829120
927.695541	2789.852676
927.999533	2777.942950
928.303486	2771.563370
928.607400	2766.721342
928.911275	2761.337390
929.215110	2754.320103
929.518906	2753.909249
929.822663	2753.508478
930.126381	2752.356574
930.430060	2755.172058
930.733699	2756.228180
931.037299	2757.632142
931.340861	2758.363109
931.644383	2762.764036
931.947866	2760.205651
932.251309	2757.690115
932.554714	2756.767584
932.858080	2755.850094
933.161407	2750.090575
933.464694	2748.237951
933.767943	2744.452045
934.071153	2741.034142
934.374323	2737.097001
934.677455	2735.829151
934.980548	2731.145919
935.283602	2730.104921
935.586617	2729.058882
935.889593	2732.126424
936.192530	2730.876217
936.495428	2736.086250
936.798287	2747.194432
937.101108	2759.217584
937.403890	2780.939916
937.706632	2807.063176
938.009336	2833.899758
938.312002	2861.487473
938.614628	2882.962788
938.917216	2904.115469
939.219765	2912.196439
939.522275	2921.020979
939.824747	2922.399734
940.127179	2914.543096
940.429573	2910.172416
940.731929	2908.869278
941.034246	2900.533730
941.336524	2895.853018
941.638763	2892.989643
941.940964	2887.124260
942.243126	2870.765716
942.545250	2859.274406
942.847335	2848.851820
943.149381	2833.441013
943.451389	2821.795948
943.753359	2811.517035
944.055290	2800.650828
944.357182	2793.323511
944.659036	2788.002573
944.960851	2786.830505
945.262628	2781.355812
945.564367	2783.868827
945.866067	2778.673918
946.167729	2779.094854
946.469352	2779.581325
946.770937	2775.298865
947.072484	2769.872063
947.373992	2768.737803
947.675462	2764.851074
947.976893	2759.399066
948.278286	2758.539549
948.579641	2754.738519
948.880958	2752.386821
949.182236	2753.518560
949.483476	2748.336254
949.784678	2747.867427
950.085841	2748.389186
950.386967	2753.846235
950.688054	2758.753798
950.989103	2765.385436
951.290114	2772.107815
951.591087	2783.546193
951.892021	2794.815692
952.192917	2808.804894
952.493776	2815.842345
952.794596	2819.519867
953.095378	2820.810402
953.396122	2819.101451
953.696828	2815.517191
953.997496	2812.006027
954.298126	2803.146199
954.598718	2796.002884
954.899272	2786.427212
955.199788	2773.229472
955.500266	2762.895106
955.800706	2747.333064
956.101108	2734.301682
956.401472	2724.473952
956.701798	2711.987014
957.002087	2698.670806
957.302337	2689.579085
957.602550	2679.592559
957.902724	2668.980931
958.202861	2664.280055
958.502960	2655.402583
958.803022	2649.950575
959.103045	2642.010757
959.403031	2636.188225
959.702979	2629.866618
960.002889	2629.085239
960.302762	2622.524177
960.602596	2618.287088
960.902393	2613.661829
961.202153	2613.974380
961.501875	2610.344750
961.801559	2610.221241
962.101205	2605.175046
962.400814	2605.061620
962.700385	2603.130858
962.999918	2600.466609
963.299414	2598.374530
963.598873	2599.581886
963.898293	2595.730445
964.197677	2597.353696
964.497022	2596.489138
964.796331	2595.370002
965.095601	2593.373705
965.394835	2590.971595
965.694030	2588.468662
965.993189	2590.767429
966.292309	2590.553180
966.591393	2588.980340
966.890439	2590.641400
967.189447	2589.928077
967.488419	2589.229877
967.787353	2589.912953
968.086249	2591.397573
968.385108	2587.319279
968.683930	2592.138623
968.982714	2594.288675
969.281462	2592.098293
969.580172	2595.649786
969.878844	2596.504262
970.177480	2601.295878
970.476078	2603.566918
970.774639	2605.900972
971.073162	2610.115377
971.371649	2609.399533
971.670098	2608.300562
971.968510	2610.569081
972.266885	2609.422218
972.565223	2615.527056
972.863524	2613.641664
973.161788	2615.307766
973.460014	2619.887654
973.758204	2618.551748
974.056356	2618.125771
974.354471	2620.893364
974.652550	2618.609721
974.950591	2617.488065
975.248595	2616.290791
975.546563	2618.856738
975.844493	2616.126953
976.142386	2613.316510
976.440243	2609.676797
976.738062	2609.308792
977.035845	2604.802001
977.333590	2604.915427
977.631299	2605.502721
977.928971	2603.282093
978.226606	2600.494335
978.524204	2600.776640
978.821765	2596.353027
979.119290	2598.762699
979.416777	2596.191710
979.714228	2599.463419
980.011642	2598.946701
980.309020	2603.377875
980.606360	2605.611106
980.903664	2614.728033
981.200931	2629.186062
981.498162	2641.607465
981.795356	2673.843123
982.092513	2707.034080
982.389633	2745.054463
982.686717	2783.105092
982.983764	2809.258598
983.280775	2826.138902
983.577749	2826.368274
983.874686	2818.219249
984.171587	2804.419090
984.468451	2788.153807
984.765279	2774.772065
985.062070	2755.119126
985.358824	2736.119017
985.655543	2716.433312
985.952224	2699.414376
986.248869	2675.920079
986.545478	2650.540390
986.842050	2632.382154
987.138586	2616.179885
987.435086	2603.703029
987.731549	2593.020824
988.027975	2588.917325
988.324366	2583.835842
988.620719	2580.100347
988.917037	2576.218659
989.213318	2576.296797
989.509563	2571.658935
989.805772	2568.540981
990.101944	2568.724983
990.398080	2568.601475
990.694180	2567.880590
990.990244	2567.517627
991.286271	2569.120714
991.582262	2567.179870
991.878217	2568.185580
992.174136	2571.394274
992.470019	2571.215313
992.765865	2573.602300
993.061676	2575.953998
993.357450	2578.257805
993.653188	2578.814853
993.948890	2585.290215
994.244556	2594.263469
994.540186	2601.820158
994.835780	2611.801643
995.131337	2623.769342
995.426859	2640.238792
995.722345	2653.272695
996.017795	2670.241219
996.313208	2683.698579
996.608586	2691.754343
996.903928	2693.652337
997.199234	2690.841894
997.494504	2689.261492
997.789738	2681.853517
998.084936	2673.606189
998.380099	2662.634118
998.675225	2655.246307
998.970316	2644.964874
999.265371	2630.834519
999.560390	2615.953033
999.855373	2609.023967
1000.150320	2601.003492
1000.445232	2591.107707
1000.740108	2586.540421
1001.034948	2581.093454
1001.329752	2574.461817
1001.624521	2571.795046
1001.919254	2562.322718
1002.213951	2564.966803
1002.508613	2561.614436
1002.803239	2560.563355
1003.097829	2555.499516
1003.392384	2560.311298
1003.686903	2555.996070
1003.981386	2556.164949
1004.275834	2555.287788
1004.570246	2554.513971
1004.864623	2556.601008
1005.158964	2553.566234
1005.453270	2551.814433
1005.747540	2553.939279
1006.041775	2553.094886
1006.335974	2551.028013
1006.630138	2550.211346
1006.924266	2549.450132
1007.218359	2547.718495
1007.512416	2550.221428
1007.806438	2552.149670
1008.100425	2549.462735
1008.394376	2549.858465
1008.688292	2549.606408
1008.982172	2547.665563
1009.276017	2548.772097
1009.569827	2545.641540
1009.863602	2550.513815
1010.157341	2545.273536
1010.451045	2548.121788
1010.744714	2545.170192
1011.038347	2546.140614
1011.331945	2546.450645
1011.625508	2543.909904
1011.919036	2548.905687
1012.212528	2546.553989
1012.505986	2544.474513
1012.799408	2546.463248
1013.092795	2544.892929
1013.386147	2545.863351
1013.679464	2545.346632
1013.972745	2544.683721
1014.265992	2544.378731
1014.559204	2544.199770
1014.852380	2545.344112
1015.145521	2543.425953
1015.438628	2545.583567
1015.731699	2544.983669
1016.024736	2546.304452
1016.317737	2544.587939
1016.610703	2547.960471
1016.903635	2543.307486
1017.196531	2542.828576
1017.489393	2543.317568
1017.782219	2541.979142
1018.075011	2544.779503
1018.367768	2546.480892
1018.660490	2545.800336
1018.953177	2545.800336
1019.245829	2545.800336
