Dividing Wavelength (nm)	Counts (n)	Blue Motor Position (mm): 6.500000	Red Motor Position (mm): 0.000000	
326.493990	2158.559063
326.888308	2158.559063
327.282561	2158.559063
327.676750	2116.478031
328.070874	2115.192537
328.464933	2115.613473
328.858929	2117.864348
329.252859	2123.838115
329.646726	2130.242901
330.040528	2143.110447
330.434265	2156.381284
330.827938	2176.913904
331.221547	2194.356296
331.615091	2210.089737
332.008571	2226.052551
332.401986	2244.546024
332.795338	2262.815165
333.188625	2283.708227
333.581847	2302.423511
333.975006	2321.000163
334.368100	2337.749397
334.761129	2354.725482
335.154095	2373.105529
335.546996	2388.344937
335.939833	2407.939902
336.332606	2421.324166
336.725315	2434.738676
337.117960	2448.022116
337.510540	2458.797583
337.903056	2472.242340
338.295508	2480.282980
338.687896	2489.367140
339.080220	2496.397029
339.472480	2504.425066
339.864676	2508.314316
340.256807	2513.615090
340.648875	2517.146418
341.040879	2522.643796
341.432818	2522.069105
341.824694	2526.717048
342.216506	2527.417769
342.608253	2526.439785
342.999937	2530.427338
343.391557	2525.522295
343.783113	2526.404497
344.174605	2526.432223
344.566033	2525.749147
344.957397	2525.920546
345.348697	2522.507685
345.739934	2520.556758
346.131106	2520.382839
346.522215	2520.120699
346.913260	2518.169772
347.304241	2513.272291
347.695159	2512.034688
348.086012	2510.953360
348.476802	2509.483864
348.867528	2504.271311
349.258191	2502.940446
349.648789	2502.083450
350.039324	2496.182780
350.429796	2500.414828
350.820203	2498.905003
351.210548	2498.990702
351.600828	2495.366113
351.991045	2496.631442
352.381198	2494.413335
352.771288	2494.148674
353.161314	2495.169508
353.551276	2494.156236
353.941175	2492.384270
354.331010	2492.371667
354.720782	2491.557521
355.110490	2493.211019
355.500135	2492.212871
355.889717	2490.216574
356.279235	2493.379898
356.668689	2492.742192
357.058080	2492.419558
357.447408	2492.931235
357.836672	2493.064826
358.225873	2495.240084
358.615010	2493.644559
359.004084	2495.189672
359.393095	2494.027686
359.782043	2492.568272
360.170927	2493.846205
360.559748	2494.977944
360.948505	2497.130517
361.337199	2499.517503
361.725830	2498.108500
362.114398	2497.271669
362.502903	2499.046155
362.891344	2499.086484
363.279722	2500.631598
363.668037	2499.812410
364.056289	2501.256701
364.444478	2503.961280
364.832603	2501.120590
365.220665	2498.789056
365.608665	2500.361896
365.996601	2503.552947
366.384474	2504.243585
366.772284	2502.446413
367.160031	2503.520179
367.547715	2505.718122
367.935336	2504.311640
368.322893	2498.786536
368.710388	2500.344252
369.097820	2504.019253
369.485189	2500.840806
369.872495	2503.764675
370.259738	2504.344408
370.646918	2505.962618
371.034035	2507.361538
371.421090	2507.560664
371.808081	2507.537979
372.195010	2509.456138
372.581875	2505.203924
372.968678	2509.267094
373.355418	2509.529234
373.742096	2507.946312
374.128710	2509.163751
374.515262	2512.342198
374.901751	2507.661487
375.288177	2510.769358
375.674540	2509.574605
376.060841	2504.911538
376.447079	2508.760458
376.833254	2508.498318
377.219367	2509.249450
377.605417	2508.745335
377.991404	2512.528721
378.377329	2511.117198
378.763191	2514.525018
379.148991	2511.654081
379.534727	2508.178205
379.920402	2513.655419
380.306013	2510.557630
380.691563	2514.126767
381.077049	2512.392610
381.462474	2512.223731
381.847835	2511.258350
382.233134	2514.658608
382.618371	2514.121726
383.003545	2513.201715
383.388657	2515.276150
383.773706	2515.170286
384.158693	2513.458814
384.543618	2512.382528
384.928480	2514.731705
385.313280	2514.272960
385.698017	2514.540141
386.082692	2513.836900
386.467305	2514.751870
386.851856	2516.198681
387.236344	2517.519463
387.620770	2513.834380
388.005133	2513.625172
388.389435	2512.387569
388.773674	2510.759276
389.157851	2515.036695
389.541965	2514.283043
389.926018	2517.675739
390.310008	2516.251613
390.693936	2514.424195
391.077802	2517.716068
391.461606	2517.060718
391.845348	2519.672036
392.229027	2519.810668
392.612645	2517.249762
392.996200	2520.652540
393.379694	2518.585667
393.763125	2520.841584
394.146494	2519.241017
394.529801	2522.711852
394.913047	2520.153466
395.296230	2519.669515
395.679351	2519.571213
396.062410	2522.079187
396.445408	2520.352592
396.828343	2523.944414
397.211217	2520.279495
397.594028	2522.457273
397.976778	2521.650689
398.359466	2520.375277
398.742092	2518.666326
399.124656	2521.232273
399.507158	2522.487520
399.889598	2522.404341
400.271977	2519.639268
400.654294	2522.918539
401.036549	2522.283354
401.418742	2523.654548
401.800874	2520.163548
402.182944	2524.188910
402.564952	2522.860566
402.946898	2522.676564
403.328783	2525.408869
403.710606	2523.919208
404.092367	2524.902233
404.474067	2524.267048
404.855705	2523.558766
405.237282	2527.485824
405.618797	2526.117151
406.000250	2526.119672
406.381642	2524.448529
406.762972	2524.670340
407.144240	2520.592047
407.525447	2525.043385
407.906593	2517.915194
408.287677	2528.282327
408.668700	2526.112110
409.049661	2526.901051
409.430560	2526.172604
409.811399	2525.423992
410.192176	2525.620598
410.572891	2526.827954
410.953545	2525.187058
411.334138	2528.312574
411.714669	2527.352234
412.095139	2526.807789
412.475547	2527.813499
412.855894	2525.963396
413.236180	2528.640249
413.616405	2527.112779
413.996568	2528.350382
414.376670	2529.620753
414.756711	2529.598068
415.136691	2529.267872
415.516609	2526.139836
415.896466	2527.352234
416.276262	2527.039682
416.655997	2528.907430
417.035670	2530.548325
417.415283	2529.330887
417.794834	2530.359282
418.174324	2527.137985
418.553753	2531.143182
418.933121	2529.499765
419.312428	2529.847605
419.691674	2531.082688
420.070859	2532.675692
420.449983	2529.890455
420.829045	2527.543798
421.208047	2529.522451
421.586988	2529.235105
421.965867	2533.260466
422.344686	2533.303316
422.723444	2531.070085
423.102141	2531.309540
423.480777	2531.183511
423.859352	2530.787780
424.237866	2533.237781
424.616319	2534.576207
424.994712	2535.251722
425.373044	2532.106042
425.751314	2530.656710
426.129524	2527.574045
426.507673	2524.380474
426.885762	2528.121010
427.263789	2533.605785
427.641756	2530.334076
428.019662	2534.051927
428.397508	2534.208203
428.775292	2532.012781
429.153016	2534.142668
429.530679	2531.760723
429.908282	2531.370033
430.285824	2533.189890
430.663305	2533.900693
431.040726	2531.748120
431.418086	2535.115611
431.795385	2535.420601
432.172624	2530.518078
432.549802	2533.757020
432.926920	2533.013450
433.303977	2534.825744
433.680974	2535.758358
434.057910	2533.847761
434.434786	2533.951104
434.811601	2535.294572
435.188355	2533.734335
435.565050	2537.805066
435.941683	2533.739376
436.318257	2535.697864
436.694770	2535.682741
437.071222	2535.503780
437.447614	2534.868594
437.823946	2535.445806
438.200218	2534.619057
438.576429	2534.843388
438.952580	2537.104346
439.328670	2534.077133
439.704700	2538.604089
440.080670	2538.047042
440.456580	2537.419418
440.832429	2536.726259
441.208218	2534.709798
441.583947	2537.371527
441.959616	2535.902031
442.335224	2533.399098
442.710773	2535.768440
443.086261	2539.143493
443.461689	2533.278110
443.837057	2539.382948
444.212365	2533.414221
444.587612	2534.619057
444.962800	2534.193080
445.337927	2535.140817
445.712995	2531.543953
446.088002	2537.061496
446.462949	2535.707946
446.837837	2536.038142
447.212664	2537.762217
447.587431	2539.831610
447.962139	2538.588966
448.336786	2539.304810
448.711374	2539.713143
449.085901	2539.660211
449.460369	2537.227854
449.834776	2538.278935
450.209124	2536.892618
450.583412	2538.155427
450.957640	2540.761703
451.331808	2540.106353
451.705917	2536.880015
452.079965	2538.503266
452.453954	2540.779347
452.827883	2539.531662
453.201752	2539.347659
453.575562	2541.429656
453.949311	2537.918492
454.323001	2541.417053
454.696632	2538.243647
455.070202	2539.519059
455.443713	2539.410674
455.817164	2540.590304
456.190556	2538.059645
456.563888	2539.889583
456.937160	2539.544264
457.310373	2540.870088
457.683526	2540.917979
458.056619	2540.466796
458.429653	2542.047197
458.802628	2541.865716
459.175542	2540.557536
459.548398	2541.444779
459.921194	2541.069213
460.293930	2537.560570
460.666607	2540.960829
461.039224	2539.042670
461.411782	2543.491488
461.784280	2541.568288
462.156719	2542.294214
462.529099	2541.495191
462.901419	2540.232382
463.273680	2537.190046
463.645882	2538.256250
464.018024	2540.421425
464.390106	2534.548481
464.762130	2538.563760
465.134094	2542.947043
465.505999	2542.221117
465.877845	2541.568288
466.249631	2540.857485
466.621358	2541.167516
466.993026	2544.144317
467.364634	2544.890408
467.736184	2543.516694
468.107674	2542.551313
468.479105	2542.871426
468.850477	2543.897301
469.221790	2541.356559
469.593043	2540.643236
469.964238	2540.688606
470.335373	2541.391847
470.706449	2542.339584
471.077467	2543.332692
471.448425	2541.711961
471.819324	2542.644574
472.190164	2542.644574
472.560945	2542.596683
472.931667	2544.592980
473.302330	2543.216745
473.672934	2544.396375
474.043479	2539.914789
474.413965	2543.375541
474.784393	2544.149358
475.154761	2547.557178
475.525070	2542.788247
475.895321	2544.598021
476.265513	2540.625592
476.635645	2544.882846
477.005719	2543.385624
477.375734	2543.342774
477.745691	2542.425284
478.115588	2544.388813
478.485427	2541.724563
478.855207	2543.627599
479.224928	2541.974101
479.594591	2542.659698
479.964194	2545.911242
480.333739	2546.526262
480.703226	2541.475026
481.072653	2546.369987
481.442022	2542.553833
481.811333	2541.412012
482.180584	2537.817669
482.549777	2542.649615
482.918912	2538.105015
483.287988	2543.206663
483.657005	2545.714637
484.025964	2546.987528
484.394864	2547.723537
484.763706	2542.831097
485.132489	2544.913093
485.501213	2544.744215
485.869879	2545.810419
486.238487	2544.235058
486.607036	2544.829914
486.975527	2544.620706
487.343959	2544.139276
487.712333	2543.955274
488.080648	2545.253371
488.448905	2544.532486
488.817104	2544.779503
489.185244	2546.271684
489.553326	2543.206663
489.921350	2544.645912
490.289315	2545.215563
490.657222	2545.944009
491.025070	2544.224976
491.392861	2548.157076
491.760593	2545.223124
492.128267	2545.480223
492.495883	2543.599873
492.863440	2547.910059
493.230939	2546.415357
493.598380	2548.746891
493.965763	2544.381252
494.333088	2544.419060
494.700354	2544.839997
495.067563	2545.066848
495.434713	2545.273536
495.801805	2543.950233
496.168839	2547.363094
496.535815	2546.846376
496.902733	2545.114739
497.269593	2545.455017
497.636395	2546.957281
498.003139	2548.053732
498.369825	2547.317724
498.736453	2544.461910
499.103023	2547.065666
499.469535	2547.509288
499.835989	2546.680018
500.202385	2541.543082
500.568723	2543.282280
500.935003	2544.048535
501.301226	2542.337064
501.667390	2545.913762
502.033497	2548.812426
502.399546	2546.916952
502.765537	2544.981149
503.131470	2545.641540
503.497345	2545.739842
503.863163	2547.383259
504.228923	2547.146324
504.594625	2547.940306
504.960269	2548.797302
505.325856	2545.845707
505.691385	2545.303783
506.056856	2547.360573
506.422270	2547.030378
506.787625	2549.407282
507.152924	2548.076417
507.518164	2547.955430
507.883347	2544.290511
508.248472	2548.804864
508.613540	2547.292518
508.978550	2549.583722
509.343503	2547.332847
509.708398	2549.316541
510.073236	2544.935778
510.438016	2548.739329
510.802738	2545.414688
511.167403	2544.668597
511.532010	2550.297046
511.896561	2548.819987
512.261053	2546.480892
512.625488	2548.260419
512.989866	2549.984494
513.354186	2548.172199
513.718449	2546.226314
514.082655	2548.620862
514.446803	2545.061807
514.810894	2546.896787
515.174927	2549.084648
515.538904	2549.661860
515.902822	2548.550286
516.266684	2548.507436
516.630488	2547.640357
516.994235	2546.448125
517.357925	2547.915100
517.721558	2550.811243
518.085133	2549.855945
518.448651	2547.577343
518.812112	2542.057280
519.175516	2545.444935
519.538863	2543.065510
519.902152	2546.435522
520.265385	2547.287477
520.628560	2546.730429
520.991678	2549.140101
521.354739	2548.956099
521.717743	2548.194884
522.080690	2548.759494
522.443580	2548.242775
522.806413	2547.083310
523.169189	2546.871582
523.531908	2548.598177
523.894569	2548.288146
524.257174	2546.531304
524.619722	2547.733619
524.982213	2549.770245
525.344647	2549.520708
525.707025	2547.920142
526.069345	2546.962322
526.431608	2548.363763
526.793815	2548.099102
527.155964	2550.717982
527.518057	2547.884853
527.880093	2548.643547
528.242072	2546.798485
528.603995	2548.399051
528.965860	2549.737478
529.327669	2545.681869
529.689421	2548.729247
530.051117	2547.761345
530.412755	2547.821839
530.774337	2552.469783
531.135862	2546.349822
531.497331	2549.389638
531.858743	2546.508618
532.220098	2549.979453
532.581396	2548.119267
532.942638	2552.749567
533.303824	2550.067673
533.664953	2550.017262
534.026025	2550.980122
534.387040	2548.779658
534.747999	2549.359391
535.108902	2547.436191
535.469748	2550.360060
535.830537	2549.039278
536.191270	2547.665563
536.551947	2547.965512
536.912567	2545.006355
537.273131	2546.057435
537.633638	2544.499719
537.994089	2552.179917
538.354483	2549.500543
538.714821	2546.962322
539.075103	2548.162117
539.435328	2551.690925
539.795497	2551.280071
540.155609	2549.533311
540.515665	2549.387117
540.875665	2552.184958
541.235609	2550.261758
541.595496	2550.236552
541.955328	2552.189999
542.315102	2550.428116
542.674821	2551.078424
543.034483	2551.670760
543.394090	2551.607746
543.753640	2551.703528
544.113134	2552.000956
544.472571	2552.578168
544.831953	2553.304094
545.191278	2554.292160
545.550548	2551.239741
545.909761	2550.526418
546.268918	2553.833415
546.628019	2551.895091
546.987064	2553.631769
547.346053	2555.106306
547.704986	2553.548590
548.063863	2555.527243
548.422684	2553.682180
548.781449	2555.433981
549.140158	2554.203940
549.498811	2554.904660
549.857408	2554.937428
550.215949	2555.154197
550.574434	2555.013045
550.932864	2553.707386
551.291237	2556.837943
551.649555	2557.760474
552.007817	2555.756615
552.366022	2554.249310
552.724173	2556.427089
553.082267	2556.175031
553.440305	2555.882644
553.798288	2557.810885
554.156215	2557.427758
554.514086	2550.738147
554.871902	2549.719833
555.229661	2555.867521
555.587365	2553.117571
555.945014	2552.956254
556.302606	2556.956410
556.660143	2557.962120
557.017625	2557.894064
557.375050	2555.887685
557.732421	2557.072356
558.089735	2557.692418
558.446994	2558.942624
558.804197	2560.160063
559.161345	2555.381049
559.518437	2558.123437
559.875474	2558.146122
560.232455	2558.463715
560.589381	2559.068653
560.946251	2559.807182
561.303065	2556.853066
561.659825	2559.275341
562.016528	2558.201575
562.373177	2557.137891
562.729770	2558.935063
563.086307	2557.450443
563.442789	2559.701318
563.799216	2558.889692
564.155587	2558.884651
564.511904	2562.418500
564.868164	2559.981102
565.224370	2560.492779
565.580520	2558.519167
565.936615	2561.909343
566.292654	2558.355330
566.648638	2559.013201
567.004567	2559.905485
567.360441	2556.996739
567.716260	2558.957748
568.072023	2559.492110
568.427732	2559.265258
568.783385	2557.904147
569.138982	2560.949004
569.494525	2560.205433
569.850013	2560.394477
570.205445	2558.771225
570.560823	2558.720814
570.916145	2558.315001
571.271412	2560.202913
571.626625	2559.383725
571.981782	2558.004970
572.336884	2556.636297
572.691931	2556.331307
573.046923	2553.344423
573.401860	2555.917932
573.756743	2560.152501
574.111570	2559.368602
574.466342	2559.424055
574.821059	2557.596636
575.175722	2557.561348
575.530330	2561.737944
575.884882	2555.466749
576.239380	2557.442881
576.593823	2559.383725
576.948211	2559.066133
577.302544	2557.440361
577.656823	2559.807182
578.011047	2559.383725
578.365216	2558.836760
578.719330	2559.809703
579.073389	2557.614280
579.427394	2559.955896
579.781344	2557.354661
580.135239	2559.255176
580.489080	2555.731409
580.842866	2558.423386
581.196597	2558.735937
581.550273	2558.617470
581.903895	2557.740309
582.257463	2558.257027
582.610975	2558.889692
582.964434	2558.872048
583.317837	2557.856256
583.671186	2557.939435
584.024481	2556.074208
584.377721	2555.295350
584.730906	2556.903478
585.084037	2559.421534
585.437113	2559.464384
585.790135	2557.271482
586.143103	2554.629917
586.496016	2557.314332
586.848874	2557.528581
587.201679	2557.407593
587.554428	2555.159238
587.907124	2555.474311
588.259765	2556.540515
588.612352	2555.925494
588.964884	2555.300391
589.317362	2557.551266
589.669786	2555.544887
590.022155	2555.310473
590.374470	2550.254196
590.726731	2553.478014
591.078937	2550.710420
591.431090	2557.067315
591.783188	2557.684857
592.135232	2558.330124
592.487222	2556.512788
592.839157	2552.487427
593.191038	2556.127140
593.542866	2554.897098
593.894639	2554.471121
594.246358	2555.781821
594.598022	2556.167469
594.949633	2555.547407
595.301190	2552.968857
595.652692	2557.168138
596.004141	2553.793086
596.355535	2555.214691
596.706876	2556.104455
597.058162	2553.170503
597.409395	2556.961451
597.760573	2553.767880
598.111698	2553.780483
598.462768	2554.806358
598.813785	2553.538508
599.164748	2554.965154
599.515657	2554.319886
599.866511	2553.145298
600.217312	2555.174362
600.568060	2553.581357
600.918753	2557.866338
601.269392	2555.348282
601.619978	2552.424412
601.970510	2553.357026
602.320988	2555.733930
602.671412	2553.367108
603.021783	2552.588250
603.372100	2555.262582
603.722363	2554.307283
604.072572	2555.519681
604.422728	2556.278375
604.772830	2553.523384
605.122878	2553.543549
605.472872	2553.780483
605.822813	2551.514484
606.172701	2553.518343
606.522534	2555.393652
606.872314	2552.305945
607.222041	2556.351471
607.571714	2554.151008
607.921333	2549.606408
608.270899	2553.639331
608.620411	2551.264947
608.969870	2556.447253
609.319276	2557.848694
609.668627	2562.289951
610.017926	2565.375137
610.367171	2569.702967
610.716362	2568.742628
611.065500	2568.530899
611.414585	2561.816082
611.763616	2561.352296
612.112594	2559.920608
612.461518	2558.136040
612.810389	2561.334652
613.159207	2558.141081
613.507971	2560.001267
613.856682	2557.352140
614.205340	2556.197716
614.553945	2558.788869
614.902496	2556.863148
615.250994	2556.104455
615.599439	2556.976574
615.947830	2554.065308
616.296169	2556.598488
616.644454	2556.318704
616.992686	2553.389793
617.340864	2554.952551
617.688990	2556.268292
618.037063	2555.791903
618.385082	2556.313663
618.733048	2556.202757
619.080961	2554.259392
619.428821	2554.629917
619.776628	2557.090000
620.124382	2556.091852
620.472083	2557.354661
620.819731	2557.377346
621.167326	2554.629917
621.514868	2555.426420
621.862357	2555.015566
622.209793	2557.510937
622.557176	2554.670247
622.904506	2557.697459
623.251783	2555.580175
623.599007	2555.698642
623.946179	2554.130843
624.293297	2555.585216
624.640363	2556.570762
624.987376	2552.590771
625.334336	2549.694628
625.681243	2552.621018
626.028097	2551.741336
626.374899	2554.040102
626.721647	2551.534649
627.068343	2556.999260
627.414987	2557.654610
627.761577	2555.479352
628.108115	2554.627397
628.454600	2556.278375
628.801032	2555.461708
629.147412	2557.778118
629.493739	2554.455998
629.840014	2557.052192
630.186236	2557.609239
630.532405	2553.888868
630.878521	2556.721996
631.224585	2555.416337
631.570597	2559.401369
631.916556	2557.946997
632.262462	2552.961295
632.608316	2557.314332
632.954117	2556.532953
633.299866	2556.094373
633.645562	2554.980277
633.991206	2556.903478
634.336797	2554.682849
634.682336	2555.149156
635.027823	2556.540515
635.373257	2556.104455
635.718639	2554.763508
636.063968	2559.212326
636.409245	2556.699311
636.754470	2554.524053
637.099642	2555.267623
637.444762	2555.887685
637.789829	2554.924825
638.134845	2558.045299
638.479808	2554.985319
638.824719	2554.493806
639.169577	2557.193344
639.514383	2555.255020
639.859137	2556.832902
640.203839	2557.654610
640.548489	2555.706204
640.893086	2556.875751
641.237632	2555.985988
641.582125	2556.477500
641.926566	2554.665205
642.270955	2553.593960
642.615292	2551.373332
642.959576	2553.294012
643.303809	2550.181099
643.647990	2556.227963
643.992118	2554.947510
644.336195	2557.430278
644.680219	2555.106306
645.024192	2556.641338
645.368112	2557.672254
645.711981	2557.644527
646.055797	2558.320042
646.399562	2555.403734
646.743274	2556.868190
647.086935	2557.803324
647.430544	2558.173848
647.774101	2555.751574
648.117606	2557.672254
648.461059	2557.813406
648.804460	2559.681153
649.147810	2559.343396
649.491108	2558.060422
649.834354	2559.487069
650.177548	2557.173179
650.520690	2557.941955
650.863781	2557.079918
651.206820	2558.153684
651.549807	2559.897923
651.892742	2557.795762
652.235626	2557.984805
652.578458	2561.112841
652.921238	2557.886503
653.263967	2556.769887
653.606644	2556.601008
653.949269	2557.523540
654.291843	2558.118396
654.634365	2558.564538
654.976836	2556.759805
655.319255	2561.271637
655.661622	2557.311811
656.003938	2556.764846
656.346203	2559.310629
656.688416	2558.715772
657.030577	2559.726524
657.372687	2558.433468
657.714746	2558.357851
658.056753	2557.611760
658.398708	2557.112686
658.740612	2561.836247
659.082465	2563.215002
659.424266	2556.485062
659.766016	2556.381718
660.107715	2559.328273
660.449362	2556.293498
660.790958	2559.237532
661.132503	2560.205433
661.473996	2560.669220
661.815438	2561.488407
662.156829	2561.659806
662.498168	2562.148798
662.839456	2562.007646
663.180693	2561.700136
663.521879	2561.319528
663.863013	2562.272307
664.204097	2562.189127
664.545129	2562.199210
664.886110	2562.121072
665.227040	2561.939590
665.567918	2564.029149
665.908746	2563.724159
666.249522	2560.941442
666.590248	2564.704663
666.930922	2563.439334
667.271545	2562.539488
667.612118	2563.673747
667.952639	2565.518810
668.293109	2562.647872
668.633528	2565.891855
668.973896	2565.256670
669.314213	2566.045610
669.654480	2564.946639
669.994695	2562.713407
670.334859	2565.226423
670.674973	2563.451937
671.015035	2566.257339
671.355047	2562.315156
671.695008	2565.544015
672.034918	2562.224416
672.374777	2567.036197
672.714585	2566.146433
673.054342	2566.970662
673.394049	2568.336815
673.733705	2568.039387
674.073310	2569.193811
674.412864	2570.542319
674.752368	2567.706670
675.091820	2569.271949
675.431223	2569.317319
675.770574	2570.985941
676.109875	2570.625498
676.449125	2568.644325
676.788324	2566.421176
677.127473	2567.336146
677.466571	2565.899417
677.805619	2568.304047
678.144616	2570.749007
678.483562	2571.684141
678.822458	2571.258163
679.161303	2570.358317
679.500098	2571.018708
679.838842	2573.899728
680.177535	2572.684810
680.516179	2571.716908
680.854771	2573.105746
681.193314	2580.498598
681.531805	2576.528690
681.870247	2580.906932
682.208638	2578.409040
682.546978	2582.661253
682.885268	2585.406162
683.223508	2584.148394
683.561697	2583.699731
683.899836	2583.997159
684.237925	2582.288208
684.575963	2583.664443
684.913951	2585.499423
685.251889	2587.909094
685.589776	2589.010587
685.927614	2587.762901
686.265401	2587.291553
686.603137	2590.001173
686.940824	2589.161821
687.278460	2593.592995
687.616046	2597.935949
687.953582	2600.340580
688.291068	2596.045517
688.628504	2601.129520
688.965889	2604.907865
689.303224	2606.642022
689.640510	2606.299224
689.977745	2604.433997
690.314930	2603.324943
690.652065	2603.551795
690.989150	2602.490632
691.326185	2598.908892
691.663170	2601.860488
692.000105	2595.891762
692.336990	2597.988882
692.673825	2597.091556
693.010610	2599.004674
693.347345	2593.875300
693.684030	2591.553849
694.020665	2592.521750
694.357251	2590.147367
694.693786	2596.834457
695.030272	2594.329004
695.366707	2596.292533
695.703093	2595.400249
696.039429	2593.126689
696.375716	2595.836309
696.711952	2595.685074
697.048139	2598.278748
697.384276	2597.293202
697.720363	2596.158943
698.056400	2597.353696
698.392388	2601.222782
698.728326	2600.015425
699.064214	2598.308995
699.400053	2605.288472
699.735842	2603.763523
700.071581	2598.261104
700.407270	2600.093563
700.742910	2600.837133
701.078501	2603.476177
701.414042	2602.243615
701.749533	2600.794284
702.084974	2599.297061
702.420366	2602.558687
702.755709	2602.777978
703.091002	2601.278234
703.426246	2601.938626
703.761440	2601.797473
704.096584	2603.934922
704.431679	2599.723038
704.766725	2603.045159
705.101721	2602.092381
705.436668	2600.723707
705.771565	2604.202104
706.106413	2605.419542
706.441212	2609.510439
706.775961	2607.443566
707.110661	2611.007661
707.445311	2615.096037
707.779913	2612.187291
708.114465	2615.781634
708.448967	2616.462190
708.783421	2615.595111
709.117825	2623.635752
709.452180	2624.454939
709.786485	2625.440485
710.120742	2632.089767
710.454949	2630.705970
710.789107	2634.501959
711.123216	2635.825262
711.457275	2651.168013
711.791286	2657.184631
712.125247	2651.588950
712.459159	2659.548932
712.793023	2666.036897
713.126837	2658.848211
713.460602	2666.846002
713.794318	2656.950217
714.127985	2660.126144
714.461602	2660.325269
714.795171	2655.800834
715.128691	2655.039620
715.462162	2645.824390
715.795584	2651.722540
716.128957	2644.543937
716.462281	2634.244860
716.795556	2647.268681
717.128782	2640.455562
717.461960	2632.268728
717.795088	2637.753503
718.128167	2638.315592
718.461198	2633.055148
718.794180	2636.009264
719.127113	2640.079996
719.459997	2636.639408
719.792833	2626.539456
720.125619	2632.848460
720.458357	2629.102883
720.791046	2631.656227
721.123686	2637.367855
721.456278	2633.521454
721.788821	2630.476597
722.121315	2629.899385
722.453761	2635.253091
722.786158	2637.413225
723.118506	2636.130252
723.450805	2638.287865
723.783056	2638.625623
724.115259	2638.638226
724.447412	2639.714512
724.779518	2639.497742
725.111574	2641.224337
725.443582	2646.935965
725.775542	2646.883033
726.107453	2656.017603
726.439315	2654.197747
726.771129	2656.496513
727.102895	2661.358706
727.434612	2665.663851
727.766281	2662.369457
728.097901	2672.174502
728.429473	2670.584017
728.760996	2670.014367
729.092471	2669.195180
729.423897	2669.051507
729.755276	2672.050993
730.086606	2667.793739
730.417887	2668.282731
730.749120	2674.790860
731.080305	2686.781245
731.411442	2691.303160
731.742530	2687.171934
732.073570	2699.830272
732.404562	2701.816486
732.735506	2689.085052
733.066401	2704.851261
733.397249	2705.710777
733.728048	2694.917667
734.058798	2684.611028
734.389501	2684.371573
734.720156	2680.948630
735.050762	2669.684172
735.381320	2666.157884
735.711831	2669.926147
736.042293	2666.893893
736.372707	2670.107628
736.703073	2666.563697
737.033391	2664.748882
737.363661	2671.115859
737.693883	2670.946981
738.024056	2674.616941
738.354182	2679.920234
738.684260	2679.370749
739.014290	2685.634382
739.344272	2688.671677
739.674207	2689.740402
740.004093	2692.694518
740.333931	2695.530167
740.663722	2696.656865
740.993464	2706.161961
741.323159	2713.572457
741.652806	2693.493541
741.982405	2692.278623
742.311956	2706.424101
742.641460	2696.487987
742.970915	2683.307890
743.300323	2688.036492
743.629683	2681.488033
743.958996	2682.670184
744.288260	2677.107271
744.617477	2680.880574
744.946647	2686.216636
745.275768	2676.507373
745.604842	2675.317661
745.933869	2677.694565
746.262847	2672.424039
746.591778	2676.540141
746.920662	2675.622651
747.249498	2680.288239
747.578286	2679.784123
747.907027	2686.219156
748.235720	2690.975485
748.564365	2690.337779
748.892963	2688.722089
749.221514	2705.279759
749.550017	2696.024200
749.878473	2683.754032
750.206881	2698.582586
750.535242	2691.293077
750.863555	2684.956347
751.191821	2689.881554
751.520039	2691.930783
751.848210	2685.445339
752.176334	2685.263857
752.504411	2698.509489
752.832440	2693.748119
753.160421	2684.860565
753.488356	2693.095290
753.816243	2702.565097
754.144082	2691.744261
754.471875	2687.227387
754.799620	2693.662420
755.127318	2697.970086
755.454969	2695.504962
755.782572	2693.778366
756.110129	2699.469829
756.437638	2703.971579
756.765100	2695.555373
757.092515	2696.661906
757.419882	2699.777339
757.747203	2695.956145
758.074477	2709.935264
758.401703	2712.453321
758.728882	2695.704087
759.056014	2699.744572
759.383099	2713.118753
759.710138	2715.104968
760.037129	2708.783361
760.364073	2714.847869
760.690970	2718.694269
761.017820	2723.987481
761.344623	2717.764176
761.671379	2725.893037
761.998088	2731.478635
762.324751	2741.545820
762.651366	2776.692744
762.977935	2841.552230
763.304456	2921.083993
763.630931	2977.151706
763.957359	2961.635035
764.283740	2922.684560
764.610074	2893.430744
764.936362	2838.207424
765.262602	2804.817342
765.588796	2768.715118
765.914943	2742.876684
766.241044	2743.756366
766.567097	2738.052300
766.893104	2719.256358
767.219064	2703.858153
767.544978	2706.005685
767.870845	2704.417722
768.196665	2695.162163
768.522438	2694.716021
768.848165	2689.742923
769.173846	2688.850638
769.499479	2687.965916
769.825066	2683.149093
770.150607	2680.250430
770.476101	2675.690706
770.801548	2679.960564
771.126949	2675.327743
771.452303	2673.790191
771.777611	2674.052331
772.102872	2674.367403
772.428087	2670.667197
772.753256	2669.545540
773.078378	2671.264573
773.403453	2666.823317
773.728482	2667.705519
774.053465	2660.945331
774.378401	2663.249139
774.703291	2666.175528
775.028135	2661.172183
775.352932	2658.331493
775.677683	2657.340906
776.002388	2658.084477
776.327046	2661.179745
776.651658	2653.381080
776.976224	2645.879843
777.300743	2647.397230
777.625216	2653.325627
777.949643	2658.666730
778.274024	2653.161790
778.598359	2648.561737
778.922647	2646.348670
779.246889	2649.340595
779.571086	2650.192550
779.895236	2650.820174
780.219339	2648.357570
780.543397	2644.460758
780.867409	2651.213384
781.191374	2657.247645
781.515294	2649.731285
781.839167	2650.363949
782.162995	2650.522746
782.486776	2649.587612
782.810511	2649.990904
783.134201	2657.900474
783.457844	2652.251862
783.781441	2644.566622
784.104993	2646.313382
784.428498	2648.682725
784.751958	2648.607107
785.075372	2652.163641
785.398739	2643.860861
785.722061	2643.722229
786.045337	2649.511994
786.368568	2656.441060
786.691752	2648.029895
787.014891	2646.152065
787.337983	2659.183448
787.661030	2672.350942
787.984031	2681.369566
788.306987	2698.940508
788.629897	2705.882177
788.952760	2702.882690
789.275579	2696.498069
789.598351	2702.413863
789.921078	2692.656710
790.243759	2669.106959
790.566395	2672.534944
790.888984	2672.355983
791.211529	2662.361896
791.534027	2656.189003
791.856480	2664.005312
792.178888	2652.768580
792.501249	2643.875984
792.823566	2647.765235
793.145836	2650.144659
793.468062	2647.873619
793.790241	2644.475882
794.112375	2646.230203
794.434464	2651.924187
794.756507	2656.867038
795.078505	2654.227994
795.400457	2650.303456
795.722364	2666.672082
796.044226	2671.884635
796.366042	2678.191119
796.687812	2679.015347
797.009538	2682.138342
797.331218	2676.925789
797.652852	2678.838907
797.974442	2678.612055
798.295986	2680.936027
798.617484	2673.341529
798.938938	2665.532781
799.260346	2671.594769
799.581709	2675.035356
799.903026	2668.386074
800.224299	2660.017759
800.545526	2661.870383
800.866708	2662.271155
801.187845	2651.452839
801.508936	2659.901812
801.829983	2659.425423
802.150984	2649.663229
802.471940	2648.786068
802.792851	2650.507622
803.113717	2651.674649
803.434538	2656.204126
803.755314	2647.082158
804.076045	2641.131076
804.396731	2644.004534
804.717372	2647.135090
805.037967	2648.468476
805.358518	2645.957981
805.679024	2647.737508
805.999485	2651.588950
806.319901	2649.882519
806.640272	2651.062149
806.960598	2651.959475
807.280879	2652.294711
807.601115	2651.956954
807.921306	2654.923673
808.241453	2657.792090
808.561554	2660.632780
808.881611	2645.831952
809.201623	2653.572644
809.521590	2659.632111
809.841513	2656.814106
810.161390	2662.682009
810.481223	2659.372491
810.801011	2653.786893
811.120755	2649.844711
811.440453	2656.693118
811.760107	2660.960455
812.079716	2654.598519
812.399281	2648.962509
812.718801	2654.008704
813.038276	2649.857313
813.357707	2653.428971
813.677093	2656.463746
813.996434	2650.857982
814.315731	2647.863537
814.634983	2651.644402
814.954191	2651.369660
815.273354	2657.603046
815.592473	2660.030362
815.911547	2658.828047
816.230577	2663.004643
816.549562	2663.475991
816.868502	2674.042249
817.187399	2679.433763
817.506250	2679.557271
817.825058	2673.442352
818.143821	2686.287212
818.462539	2704.642053
818.781213	2711.213197
819.099843	2710.381407
819.418429	2737.868298
819.736970	2766.282762
820.055466	2783.652057
820.373919	2835.195335
820.692327	2888.989487
821.010691	2928.993564
821.329011	3058.362174
821.647286	3287.840538
821.965517	3586.702824
822.283704	3832.486800
822.601847	4002.361082
822.919945	3978.581959
823.237999	3853.470603
823.556010	3709.747307
823.873976	3591.202053
824.191897	3375.143241
824.509775	3224.125395
824.827609	3097.027824
825.145398	3030.154398
825.463144	3030.560211
825.780845	3037.998433
826.098502	3045.494629
826.416116	3118.089765
826.733685	3226.822412
827.051210	3338.012622
827.368692	3385.202863
827.686129	3297.655665
828.003522	3131.862197
828.320872	3028.120292
828.638177	2950.400823
828.955439	2894.469222
829.272656	2826.907678
829.589830	2790.523150
829.906960	2771.288627
830.224046	2739.572208
830.541088	2728.731207
830.858086	2723.385063
831.175041	2712.838969
831.491952	2710.469627
831.808819	2715.624207
832.125642	2725.688870
832.442421	2744.923393
832.759157	2776.765841
833.075849	2837.040397
833.392497	2927.841660
833.709101	2993.217864
834.025662	3040.929864
834.342179	3029.201620
834.658653	2970.656180
834.975083	2902.119173
835.291469	2835.833041
835.607811	2769.362907
835.924110	2761.130702
836.240366	2732.043245
836.556578	2695.215095
836.872746	2681.006603
837.188871	2677.757579
837.504952	2674.415294
837.820990	2661.061278
838.136984	2648.874288
838.452935	2658.167656
838.768842	2656.347799
839.084706	2659.712769
839.400526	2680.726819
839.716303	2710.827549
840.032037	2764.833430
840.347727	2806.601910
840.663373	2783.770524
840.978977	2744.515059
841.294537	2708.584235
841.610054	2674.012002
841.925527	2660.274858
842.240957	2647.976963
842.556344	2645.214411
842.871687	2631.711680
843.186987	2626.095835
843.502244	2621.846142
843.817458	2614.014710
844.132629	2608.063627
844.447756	2610.687548
844.762840	2608.008175
845.077881	2605.447269
845.392879	2600.786722
845.707833	2599.128182
846.022745	2599.763368
846.337613	2603.166147
846.652438	2597.630960
846.967221	2598.682040
847.281960	2594.553335
847.596656	2597.331011
847.911309	2596.393356
848.225919	2594.240784
848.540485	2591.463108
848.855009	2595.158274
849.169490	2594.447471
849.483928	2592.148705
849.798323	2591.384970
850.112675	2588.468662
850.426984	2590.308684
850.741251	2592.854466
851.055474	2590.613673
851.369654	2591.669795
851.683792	2591.206009
851.997887	2591.516040
852.311938	2592.362954
852.625947	2591.720207
852.939914	2591.876483
853.253837	2592.625094
853.567718	2588.506471
853.881555	2588.619897
854.195350	2593.671133
854.509103	2591.281626
854.822812	2591.294229
855.136479	2590.230546
855.450103	2590.578385
855.763685	2589.055957
856.077224	2582.472210
856.390720	2585.975812
856.704173	2589.013107
857.017584	2592.131061
857.330953	2588.350195
857.644278	2593.545104
857.957561	2595.717842
858.270802	2593.401432
858.584000	2594.858325
858.897155	2590.991760
859.210268	2592.098293
859.523339	2594.697008
859.836367	2593.106524
860.149352	2590.311204
860.462295	2592.032758
860.775195	2593.280444
861.088054	2593.958479
861.400869	2591.175762
861.713642	2590.394383
862.026373	2591.180803
862.339062	2593.721545
862.651708	2593.124168
862.964312	2594.157605
863.276873	2591.687439
863.589392	2595.858994
863.901869	2597.454519
864.214303	2597.701536
864.526696	2603.650097
864.839045	2602.266301
865.151353	2602.717484
865.463619	2602.679675
865.775842	2604.166816
866.088023	2604.852412
866.400162	2609.447424
866.712258	2601.086671
867.024313	2602.982144
867.336325	2601.873091
867.648296	2608.391302
867.960224	2605.593462
868.272110	2606.029522
868.583954	2607.191508
868.895755	2611.736108
869.207515	2606.473143
869.519233	2606.193359
869.830909	2609.520521
870.142542	2612.036057
870.454134	2611.431118
870.765684	2615.562344
871.077191	2612.255347
871.388657	2610.710233
871.700081	2612.953547
872.011463	2617.261213
872.322803	2615.534618
872.634101	2620.774897
872.945357	2618.997890
873.256571	2626.978037
873.567744	2624.570886
873.878874	2621.576440
874.189963	2627.910650
874.501010	2626.325207
874.812015	2626.294960
875.122979	2631.308388
875.433900	2625.548870
875.744780	2630.179169
876.055618	2631.578090
876.366415	2629.828809
876.677169	2635.749644
876.987882	2639.490181
877.298554	2633.171094
877.609183	2638.401291
877.919771	2642.721560
878.230317	2646.933444
878.540822	2662.734941
878.851285	2673.797753
879.161707	2678.975018
879.472087	2698.643080
879.782425	2732.025601
880.092722	2815.499547
880.402977	2887.658623
880.713191	2932.250149
881.023363	3017.367511
881.333494	3123.614870
881.643583	3152.964467
881.953631	3145.599342
882.263637	3129.674337
882.573602	3115.148252
882.883526	3084.654312
883.193408	3010.788805
883.503248	2949.478292
883.813048	2916.859506
884.122806	2880.263250
884.432522	2831.757268
884.742197	2794.165383
885.051831	2757.465783
885.361424	2730.520816
885.670975	2717.421378
885.980485	2702.315560
886.289954	2689.591688
886.599382	2680.726819
886.908768	2669.512772
887.218113	2660.789056
887.527417	2650.941162
887.836680	2638.252577
888.145901	2644.160810
888.455082	2644.566622
888.764221	2631.210085
889.073319	2624.777573
889.382376	2625.647172
889.691392	2626.539456
890.000366	2626.552059
890.309300	2619.108796
890.618193	2623.698766
890.927044	2630.317801
891.235855	2628.548356
891.544625	2621.861266
891.853353	2625.518623
892.162041	2627.111627
892.470687	2635.810138
892.779293	2645.713485
893.087858	2652.493837
893.396381	2666.972031
893.704864	2683.723785
894.013306	2720.259547
894.321707	2769.798966
894.630068	2800.376085
894.938387	2798.735189
895.246665	2801.467495
895.554903	2797.245528
895.863100	2766.459202
896.171256	2739.801580
896.479371	2715.183106
896.787446	2692.112265
897.095480	2673.520490
897.403473	2658.752429
897.711425	2647.336737
898.019336	2647.182981
898.327207	2638.497073
898.635038	2634.088584
898.942827	2629.027266
899.250576	2629.183542
899.558284	2617.281377
899.865952	2615.259875
900.173579	2609.828031
900.481165	2608.923144
900.788711	2606.929368
901.096216	2600.194386
901.403681	2597.903182
901.711105	2605.853082
902.018489	2603.876949
902.325832	2602.863677
902.633135	2600.138934
902.940397	2606.440376
903.247619	2621.906636
903.554800	2653.118940
903.861941	2704.407639
904.169041	2766.242432
904.476101	2808.295738
904.783121	2813.278918
905.090100	2792.889972
905.397039	2761.730600
905.703938	2717.360884
906.010796	2681.079700
906.317614	2663.705363
906.624391	2644.836324
906.931129	2633.844088
907.237826	2616.106788
907.544483	2607.100767
907.851099	2600.539705
908.157675	2595.548963
908.464211	2588.569486
908.770707	2586.860534
909.077163	2582.915832
909.383578	2579.157651
909.689954	2575.507856
909.996289	2573.103226
910.302584	2575.482650
910.608839	2575.986766
910.915054	2575.709502
911.221229	2571.921075
911.527363	2571.777402
911.833458	2576.765624
912.139513	2574.855027
912.445527	2575.333936
912.751502	2578.799729
913.057436	2581.660584
913.363331	2584.153435
913.669186	2589.050916
913.975000	2591.803386
914.280775	2606.848709
914.586510	2620.243055
914.892205	2634.320477
915.197859	2653.552479
915.503475	2682.319824
915.809050	2711.959288
916.114585	2727.123078
916.420081	2734.694892
916.725536	2734.591548
917.030952	2726.089642
917.336328	2705.486446
917.641665	2681.929134
917.946961	2663.234015
918.252218	2655.044661
918.557435	2636.747793
918.862612	2633.418111
919.167750	2622.027624
919.472848	2611.325254
919.777906	2608.509770
920.082925	2603.037597
920.387904	2592.511668
920.692843	2591.178283
920.997743	2589.751636
921.302603	2586.684094
921.607423	2579.815522
921.912204	2579.560944
922.216946	2578.827456
922.521647	2575.601117
922.826310	2574.134142
923.130932	2573.788822
923.435516	2569.539130
923.740059	2569.627350
924.044564	2566.925292
924.349028	2566.857236
924.653454	2563.383881
924.957840	2563.991340
925.262186	2560.817934
925.566493	2561.614436
925.870761	2557.692418
926.174989	2560.079405
926.479178	2555.280226
926.783328	2556.127140
927.087438	2558.380536
927.391509	2555.345761
927.695541	2553.810730
927.999533	2555.118909
928.303486	2551.816953
928.607400	2549.787889
928.911275	2552.187478
929.215110	2552.452139
929.518906	2553.301573
929.822663	2552.595812
930.126381	2552.096737
930.430060	2554.745864
930.733699	2550.886861
931.037299	2551.877447
931.340861	2554.718138
931.644383	2551.448949
931.947866	2551.539690
932.251309	2550.007179
932.554714	2551.184289
932.858080	2551.799309
933.161407	2546.561551
933.464694	2550.760832
933.767943	2546.387631
934.071153	2551.030533
934.374323	2552.132026
934.677455	2551.837118
934.980548	2549.417364
935.283602	2550.793599
935.586617	2551.219577
935.889593	2549.608928
936.192530	2552.285781
936.495428	2550.531459
936.798287	2552.374001
937.101108	2552.999104
937.403890	2554.151008
937.706632	2554.214022
938.009336	2553.961964
938.312002	2557.127809
938.614628	2558.869528
938.917216	2560.525547
939.219765	2562.950342
939.522275	2560.177707
939.824747	2562.733572
940.127179	2564.283727
940.429573	2558.453632
940.731929	2557.147974
941.034246	2557.074877
941.336524	2558.526729
941.638763	2555.537325
941.940964	2555.449105
942.243126	2557.334496
942.545250	2556.752243
942.847335	2555.703683
943.149381	2556.578323
943.451389	2553.321738
943.753359	2552.056408
944.055290	2553.152859
944.357182	2552.830225
944.659036	2553.203271
944.960851	2554.224104
945.262628	2552.585729
945.564367	2550.344937
945.866067	2550.526418
946.167729	2552.247972
946.469352	2549.976932
946.770937	2551.496840
947.072484	2551.121274
947.373992	2551.726213
947.675462	2549.392158
947.976893	2545.840666
948.278286	2545.170192
948.579641	2547.468958
948.880958	2544.887887
949.182236	2547.809236
949.483476	2546.052394
949.784678	2550.042467
950.085841	2550.372663
950.386967	2550.382745
950.688054	2551.229659
950.989103	2550.034906
951.290114	2550.544062
951.591087	2552.338713
951.892021	2549.823177
952.192917	2552.391645
952.493776	2552.948692
952.794596	2554.408107
953.095378	2552.164793
953.396122	2551.602704
953.696828	2550.327293
953.997496	2551.837118
954.298126	2548.351160
954.598718	2551.416182
954.899272	2548.825029
955.199788	2548.235214
955.500266	2547.955430
955.800706	2548.502395
956.101108	2545.702034
956.401472	2545.739843
956.701798	2548.245296
957.002087	2545.591128
957.302337	2546.773279
957.602550	2544.713968
957.902724	2545.999462
958.202861	2546.216232
958.502960	2545.903680
958.803022	2542.967208
959.103045	2544.194729
959.403031	2541.898483
959.702979	2542.077444
960.002889	2543.191539
960.302762	2541.585932
960.602596	2541.054090
960.902393	2540.978473
961.202153	2547.219421
961.501875	2544.424101
961.801559	2540.141641
962.101205	2541.742207
962.400814	2542.878988
962.700385	2541.777496
962.999918	2539.196425
963.299414	2538.614172
963.598873	2538.896476
963.898293	2533.361289
964.197677	2541.228010
964.497022	2543.186498
964.796331	2540.214738
965.095601	2539.128369
965.394835	2540.562577
965.694030	2539.440921
965.993189	2540.890252
966.292309	2539.962680
966.591393	2543.146169
966.890439	2540.333205
967.189447	2540.600386
967.488419	2538.513348
967.787353	2541.681714
968.086249	2542.841179
968.385108	2540.398740
968.683930	2541.827907
968.982714	2540.658359
969.281462	2541.979142
969.580172	2542.692465
969.878844	2544.658515
970.177480	2543.844369
970.476078	2541.112063
970.774639	2541.893442
971.073162	2542.062321
971.371649	2540.486960
971.670098	2543.153731
971.968510	2542.195911
972.266885	2539.569470
972.565223	2542.528628
972.863524	2540.116435
973.161788	2543.796478
973.460014	2540.996117
973.758204	2539.735828
974.056356	2542.223638
974.354471	2541.364121
974.652550	2541.147351
974.950591	2543.005017
975.248595	2543.922507
975.546563	2541.512835
975.844493	2542.458051
976.142386	2539.826569
976.440243	2542.639533
976.738062	2543.851930
977.035845	2539.977804
977.333590	2540.607948
977.631299	2540.930582
977.928971	2536.799356
978.226606	2538.533513
978.524204	2539.655170
978.821765	2537.883204
979.119290	2538.346990
979.416777	2542.377393
979.714228	2539.892104
980.011642	2541.961498
980.309020	2539.861857
980.606360	2539.758513
980.903664	2539.904707
981.200931	2541.719522
981.498162	2544.245140
981.795356	2539.574511
982.092513	2538.344470
982.389633	2540.819676
982.686717	2545.412168
982.983764	2544.817311
983.280775	2544.938299
983.577749	2544.734132
983.874686	2544.053577
984.171587	2545.432332
984.468451	2545.165151
984.765279	2541.767413
985.062070	2543.509132
985.358824	2540.897814
985.655543	2543.478885
985.952224	2541.013761
986.248869	2542.079965
986.545478	2543.761190
986.842050	2543.494008
987.138586	2540.749100
987.435086	2540.126518
987.731549	2541.238092
988.027975	2541.860675
988.324366	2539.095602
988.620719	2538.404964
988.917037	2539.090561
989.213318	2544.139276
989.509563	2538.896476
989.805772	2541.512835
990.101944	2536.655683
990.398080	2540.885211
990.694180	2537.968904
990.990244	2538.989738
991.286271	2540.789429
991.582262	2540.794471
991.878217	2536.348173
992.174136	2541.923689
992.470019	2540.822197
992.765865	2537.497556
993.061676	2536.632998
993.357450	2538.619213
993.653188	2535.014788
993.948890	2537.263142
994.244556	2535.103008
994.540186	2540.497043
994.835780	2538.294058
995.131337	2540.272711
995.426859	2540.471837
995.722345	2538.904038
996.017795	2537.764737
996.313208	2545.260933
996.608586	2540.970911
996.903928	2541.217928
997.199234	2539.844213
997.494504	2542.904193
997.789738	2540.111394
998.084936	2542.281611
998.380099	2541.830428
998.675225	2541.391847
998.970316	2540.991076
999.265371	2539.743390
999.560390	2539.040149
999.855373	2541.008720
1000.150320	2538.682227
1000.445232	2541.522917
1000.740108	2535.929757
1001.034948	2540.290355
1001.329752	2537.800025
1001.624521	2539.357742
1001.919254	2539.506456
1002.213951	2537.994110
1002.508613	2537.154758
1002.803239	2538.241126
1003.097829	2538.588966
1003.392384	2540.408822
1003.686903	2536.292720
1003.981386	2541.389327
1004.275834	2537.537885
1004.570246	2538.324305
1004.864623	2538.881353
1005.158964	2539.516538
1005.453270	2541.497712
1005.747540	2540.176929
1006.041775	2541.802701
1006.335974	2538.359593
1006.630138	2539.050231
1006.924266	2540.073586
1007.218359	2540.486960
1007.512416	2535.221475
1007.806438	2535.082843
1008.100425	2534.193080
1008.394376	2536.096115
1008.688292	2536.489325
1008.982172	2538.094933
1009.276017	2539.985365
1009.569827	2536.562422
1009.863602	2538.213400
1010.157341	2537.079140
1010.451045	2538.581404
1010.744714	2540.426466
1011.038347	2542.122815
1011.331945	2538.425128
1011.625508	2537.754655
1011.919036	2537.915972
1012.212528	2540.741538
1012.505986	2537.860519
1012.799408	2538.536034
1013.092795	2537.633667
1013.386147	2539.793802
1013.679464	2538.684748
1013.972745	2540.295396
1014.265992	2538.644418
1014.559204	2535.324819
1014.852380	2537.129552
1015.145521	2538.296579
1015.438628	2540.383617
1015.731699	2539.347659
1016.024736	2536.953111
1016.317737	2539.720705
1016.610703	2538.183153
1016.903635	2537.875642
1017.196531	2538.175591
1017.489393	2537.174922
1017.782219	2537.590817
1018.075011	2537.197607
1018.367768	2536.559901
1018.660490	2540.350849
1018.953177	2540.350849
1019.245829	2540.350849
