Dividing Wavelength (nm)	Counts (n)	Blue Motor Position (mm): 48.400000	Red Motor Position (mm): 0.000000	
326.493990	2278.430139
326.888308	2278.430139
327.282561	2278.430139
327.676750	2239.257853
328.070874	2241.344891
328.464933	2239.567884
328.858929	2243.220200
329.252859	2249.619945
329.646726	2255.084556
330.040528	2268.123500
330.434265	2282.289143
330.827938	2298.617440
331.221547	2318.265337
331.615091	2333.469457
332.008571	2354.186079
332.401986	2374.529655
332.795338	2392.524054
333.188625	2414.420305
333.581847	2430.650300
333.975006	2452.526387
334.368100	2471.289562
334.761129	2487.459063
335.154095	2505.881960
335.546996	2532.380785
335.939833	2573.642629
336.332606	2587.974629
336.725315	2601.220261
337.117960	2615.706017
337.510540	2622.680453
337.903056	2636.016826
338.295508	2643.868423
338.687896	2651.278919
339.080220	2657.466935
339.472480	2664.368275
339.864676	2669.822803
340.256807	2675.065603
340.648875	2680.315965
341.040879	2682.589525
341.432818	2684.250586
341.824694	2686.882068
342.216506	2688.021369
342.608253	2687.774352
342.999937	2689.994980
343.391557	2690.720907
343.783113	2689.314425
344.174605	2687.900381
344.566033	2686.204033
344.957397	2685.198322
345.348697	2685.062211
345.739934	2682.004752
346.131106	2681.452745
346.522215	2680.187416
346.913260	2678.871674
347.304241	2675.652898
347.695159	2674.896725
348.086012	2675.337826
348.476802	2673.008812
348.867528	2665.429438
349.258191	2664.877431
349.648789	2664.050682
350.039324	2661.799807
350.429796	2664.811896
350.820203	2662.104797
351.210548	2662.117400
351.600828	2660.773932
351.991045	2661.893068
352.381198	2658.933911
352.771288	2658.490289
353.161314	2659.390135
353.551276	2657.527429
353.941175	2658.633962
354.331010	2659.828716
354.720782	2656.935093
355.110490	2660.494148
355.500135	2657.290495
355.889717	2657.648417
356.279235	2657.925680
356.668689	2659.576658
357.058080	2658.303767
357.447408	2658.659168
357.836672	2659.576658
358.225873	2658.220588
358.615010	2661.008346
359.004084	2658.961637
359.393095	2661.774601
359.782043	2660.050527
360.170927	2664.164108
360.559748	2662.283758
360.948505	2664.075888
361.337199	2666.508245
361.725830	2666.702329
362.114398	2665.303409
362.502903	2666.404901
362.891344	2668.665858
363.279722	2667.302226
363.668037	2666.548574
364.056289	2669.651404
364.444478	2667.826506
364.832603	2669.288441
365.220665	2671.708195
365.608665	2673.752383
365.996601	2672.096364
366.384474	2673.757424
366.772284	2673.966632
367.160031	2671.836744
367.547715	2676.167095
367.935336	2674.831190
368.322893	2673.727177
368.710388	2673.923782
369.097820	2675.562157
369.485189	2674.294307
369.872495	2677.855882
370.259738	2678.659946
370.646918	2684.679084
371.034035	2686.332582
371.421090	2690.980526
371.808081	2695.487317
372.195010	2702.575180
372.581875	2709.557178
372.968678	2719.858776
373.355418	2729.207596
373.742096	2742.357445
374.128710	2757.155752
374.515262	2769.332660
374.901751	2787.674898
375.288177	2801.376754
375.674540	2820.865855
376.060841	2843.392251
376.447079	2869.734800
376.833254	2897.932494
377.219367	2912.163672
377.605417	2949.357305
377.991404	2969.277424
378.377329	3012.482633
378.763191	3031.762526
379.148991	3075.769278
379.534727	3113.202366
379.920402	3152.793068
380.306013	3171.213444
380.691563	3239.213568
381.077049	3259.544542
381.462474	3302.749751
381.847835	3356.591795
382.233134	3398.798855
382.618371	3424.932197
383.003545	3491.576251
383.388657	3514.846217
383.773706	3579.027667
384.158693	3604.729990
384.543618	3634.795431
384.928480	3698.477807
385.313280	3751.719954
385.698017	3772.033283
386.082692	3861.980071
386.467305	3867.923591
386.851856	3904.071185
387.236344	3980.568174
387.620770	4006.646062
388.005133	4058.716141
388.389435	4104.585599
388.773674	4111.514665
389.157851	4184.039225
389.541965	4257.541769
389.926018	4217.633474
390.310008	4322.204649
390.693936	4377.019636
391.077802	4406.810334
391.461606	4407.886621
391.845348	4470.832988
392.229027	4532.004869
392.612645	4531.684756
392.996200	4632.008759
393.379694	4693.798182
393.763125	4797.323317
394.146494	4828.253316
394.529801	4883.353128
394.913047	4966.585098
395.296230	4912.281789
395.679351	5020.207852
396.062410	5077.571142
396.445408	5044.528899
396.828343	5109.380822
397.211217	5164.059697
397.594028	5047.435124
397.976778	5163.696734
398.359466	5208.956214
398.742092	5228.117639
399.124656	5150.851874
399.507158	5276.069095
399.889598	5332.101520
400.271977	5453.391681
400.654294	5457.767403
401.036549	5504.937479
401.418742	5421.352628
401.800874	5623.893587
402.182944	5685.922464
402.564952	5788.416684
402.946898	5848.023287
403.328783	5677.937277
403.710606	5707.102872
404.092367	6029.227562
404.474067	6056.059103
404.855705	5946.013235
405.237282	5885.819338
405.618797	6144.312063
406.000250	6114.291992
406.381642	6327.401729
406.762972	6350.306212
407.144240	6401.683131
407.525447	6388.578652
407.906593	6393.650053
408.287677	6566.203708
408.668700	6482.702035
409.049661	6591.233037
409.430560	6619.211440
409.811399	6484.625236
410.192176	6747.080308
410.572891	6775.111644
410.953545	6957.097298
411.334138	6684.645617
411.714669	6856.811103
412.095139	6655.033880
412.475547	6900.149903
412.855894	6970.615152
413.236180	7158.740931
413.616405	6808.186654
413.996568	7029.412649
414.376670	7088.033707
414.756711	6981.672923
415.136691	7083.791576
415.516609	7288.832947
415.896466	7261.154492
416.276262	7471.620144
416.655997	7455.496014
417.035670	7629.060420
417.415283	7973.240158
417.794834	8047.929893
418.174324	7903.679796
418.553753	7830.076430
418.933121	8115.816591
419.312428	8224.879434
419.691674	7988.666088
420.070859	8480.428126
420.449983	8155.238414
420.829045	8528.946711
421.208047	8289.965772
421.586988	8608.087785
421.965867	8636.769430
422.344686	8718.541986
422.723444	8803.190521
423.102141	8126.476111
423.480777	8897.152588
423.859352	8426.031555
424.237866	9034.629894
424.616319	8903.824555
424.994712	9346.876443
425.373044	8875.553764
425.751314	9359.935552
426.129524	9246.733922
426.507673	9319.387031
426.885762	9477.202873
427.263789	9405.152181
427.641756	9340.882511
428.019662	9424.079193
428.397508	9695.459628
428.775292	9345.792595
429.153016	9741.263552
429.530679	9572.452954
429.908282	9579.661804
430.285824	9312.919231
430.663305	10000.608232
431.040726	9447.328995
431.418086	9421.193133
431.795385	9765.019990
432.172624	9864.000525
432.549802	9766.832285
432.926920	9839.634108
433.303977	9704.752996
433.680974	9908.990302
434.057910	10011.693730
434.434786	10092.924362
434.811601	9899.192820
435.188355	10464.774993
435.565050	10219.739628
435.941683	10136.802565
436.318257	10606.214647
436.694770	10793.707761
437.071222	10839.489000
437.447614	10651.035546
437.823946	10596.316341
438.200218	10672.218474
438.576429	10525.800681
438.952580	10777.397108
439.328670	10785.566298
439.704700	10593.541186
440.080670	10587.990876
440.456580	11096.280336
440.832429	10900.681046
441.208218	10491.972018
441.583947	10773.180183
441.959616	10970.556479
442.335224	10785.992275
442.710773	10886.349046
443.086261	11117.914448
443.461689	10375.901972
443.837057	11084.161402
444.212365	11301.742643
444.587612	10934.207240
444.962800	11146.694395
445.337927	10877.080884
445.712995	10580.403939
446.088002	11603.077614
446.462949	11308.205402
446.837837	11272.193920
447.212664	11181.564056
447.587431	11792.919906
447.962139	12560.158316
448.336786	14861.135016
448.711374	15327.383773
449.085901	13133.357673
449.460369	12793.404943
449.834776	12244.128381
450.209124	13188.923791
450.583412	13613.504892
450.957640	14526.961968
451.331808	13560.093867
451.705917	12633.421405
452.079965	11867.675177
452.453954	12792.197586
452.827883	12450.457767
453.201752	12736.664236
453.575562	12307.659523
453.949311	12707.302035
454.323001	12697.398688
454.696632	12942.744084
455.070202	13213.542266
455.443713	13391.605902
455.817164	13901.256474
456.190556	13857.985730
456.563888	14219.534763
456.937160	14355.895454
457.310373	13738.102050
457.683526	13852.838712
458.056619	13346.384232
458.429653	13582.670674
458.802628	12920.068974
459.175542	13350.888503
459.548398	14300.906548
459.921194	14670.677703
460.293930	14746.415998
460.666607	15574.339818
461.039224	16637.809030
461.411782	17366.724588
461.784280	17120.799460
462.156719	17254.082526
462.529099	16903.442550
462.901419	15885.729370
463.273680	15635.050434
463.645882	15548.072886
464.018024	15261.218629
464.390106	15483.115098
464.762130	16202.439861
465.134094	17017.107966
465.505999	19099.878322
465.877845	22379.640411
466.249631	25153.678988
466.621358	24748.100517
466.993026	23330.540658
467.364634	22736.947314
467.736184	21262.636666
468.107674	20465.806683
468.479105	20607.238775
468.850477	20062.438758
469.221790	19676.916517
469.593043	18971.033991
469.964238	18401.612979
470.335373	18029.906021
470.706449	18551.657882
471.077467	18143.573958
471.448425	20037.190139
471.819324	24210.937848
472.190164	25972.526210
472.560945	22261.442998
472.931667	19988.437140
473.302330	19399.232120
473.672934	19064.557477
474.043479	19258.551160
474.413965	19070.460669
474.784393	18650.305701
475.154761	19456.028279
475.525070	19331.718467
475.895321	19073.548375
476.265513	19700.912410
476.635645	20278.114443
477.005719	20026.598675
477.375734	20196.903975
477.745691	20696.741941
478.115588	21254.202815
478.485427	21819.323723
478.855207	22920.460437
479.224928	24732.125101
479.594591	26955.576416
479.964194	26832.433630
480.333739	27066.459115
480.703226	26655.862176
481.072653	26379.490998
481.442022	27030.382098
481.811333	27952.207490
482.180584	27816.751686
482.549777	26872.195731
482.918912	26552.382411
483.287988	26693.393566
483.657005	26291.558152
484.025964	26094.708656
484.394864	25952.621214
484.763706	25599.881597
485.132489	25081.373718
485.501213	25264.566729
485.869879	25165.530741
486.238487	25042.024992
486.607036	25153.149667
486.975527	24915.423975
487.343959	25186.103690
487.712333	25093.379226
488.080648	24761.192394
488.448905	25276.761280
488.817104	25052.550921
489.185244	25761.027121
489.553326	25707.154831
489.921350	26774.926668
490.289315	29138.632966
490.657222	30827.749700
491.025070	31340.397237
491.392861	31063.708467
491.760593	30209.626100
492.128267	29270.680949
492.495883	28207.095790
492.863440	27353.073917
493.230939	26482.338099
493.598380	26316.297614
493.965763	25944.147035
494.333088	25441.526352
494.700354	25428.313488
495.067563	25260.501038
495.434713	25010.381669
495.801805	25202.520207
496.168839	24940.657471
496.535815	24837.006306
496.902733	25055.321035
497.269593	24778.730568
497.636395	24917.450519
498.003139	24845.417472
498.369825	24575.314969
498.736453	24802.171933
499.103023	24660.412167
499.469535	24663.089019
499.835989	24888.743668
500.202385	24898.798250
500.568723	24461.949501
500.935003	24615.371977
501.301226	24344.195709
501.667390	25179.855179
502.033497	25368.855599
502.399546	25106.639982
502.765537	24628.869667
503.131470	25007.440156
503.497345	25167.632902
503.863163	24408.954372
504.228923	24941.338026
504.594625	25206.737132
504.960269	24755.521096
505.325856	25246.461425
505.691385	24641.686801
506.056856	25240.800209
506.422270	25235.239816
506.787625	24750.212761
507.152924	25194.769433
507.518164	25232.247891
507.883347	25045.213522
508.248472	24723.124120
508.613540	25481.931200
508.978550	25290.692508
509.343503	25307.842514
509.708398	25501.241340
510.073236	25679.690624
510.438016	25890.015125
510.802738	25533.794591
511.167403	25802.495653
511.532010	25561.689816
511.896561	26291.200230
512.261053	26271.517045
512.625488	26081.740288
512.989866	25987.684960
513.354186	25812.751880
513.718449	25939.572187
514.082655	26317.633520
514.446803	26019.038416
514.810894	26522.372422
515.174927	26020.187799
515.538904	26053.174589
515.902822	26552.203450
516.266684	26300.440665
516.630488	26208.626130
516.994235	26145.158003
517.357925	26507.788364
517.721558	26644.496894
518.085133	26782.564016
518.448651	26652.187175
518.812112	26431.845902
519.175516	26663.365933
519.538863	26806.612840
519.902152	26615.969005
520.265385	26852.938524
520.628560	26674.514445
520.991678	26627.382177
521.354739	26694.084204
521.717743	26792.177496
522.080690	26552.362246
522.443580	26899.785966
522.806413	26851.022885
523.169189	26982.954923
523.531908	27019.493206
523.894569	26657.941652
524.257174	26751.558399
524.619722	26879.853244
524.982213	26595.285151
525.344647	26607.240247
525.707025	26791.779245
526.069345	26717.855765
526.431608	26713.049025
526.793815	26870.781688
527.155964	26382.999642
527.518057	26551.263275
527.880093	26456.902957
528.242072	26689.017845
528.603995	26396.247794
528.965860	26195.892175
529.327669	26230.890386
529.689421	26222.063326
530.051117	26068.479533
530.412755	26239.046973
530.774337	26003.229358
531.135862	25925.739261
531.497331	26099.550684
531.858743	25703.371445
532.220098	26130.021939
532.581396	25849.091038
532.942638	25719.714865
533.303824	25856.904826
533.664953	25841.962846
534.026025	25510.537228
534.387040	25759.111483
534.747999	25794.170187
535.108902	25959.827544
535.469748	25466.583407
535.830537	25610.089934
536.191270	25756.288437
536.551947	25570.970580
536.912567	25179.731671
537.273131	25662.802759
537.633638	25308.490302
537.994089	25552.729165
538.354483	25020.920202
538.714821	25533.275352
539.075103	25577.927372
539.435328	25339.095147
539.795497	24954.114831
540.155609	25267.170485
540.515665	25592.052685
540.875665	24806.867768
541.235609	25162.095194
541.595496	25070.772172
541.955328	25451.681757
542.315102	25357.185328
542.674821	24870.434198
543.034483	24763.546612
543.394090	24941.829539
543.753640	24753.681074
544.113134	25376.238369
544.472571	24953.530057
544.831953	25257.098259
545.191278	24920.815489
545.550548	24803.407016
545.909761	24999.916234
546.268918	25244.250879
546.628019	25228.257818
546.987064	24899.395626
547.346053	24630.863443
547.704986	24724.225612
548.063863	24891.836416
548.422684	24927.726911
548.781449	24399.179574
549.140158	24822.170191
549.498811	24394.546754
549.857408	24175.150697
550.215949	24540.031933
550.574434	24249.555608
550.932864	24441.552993
551.291237	24645.767615
551.649555	24471.162210
552.007817	24544.223653
552.366022	24384.257759
552.724173	24393.581373
553.082267	24380.189548
553.440305	24856.041703
553.798288	24074.768721
554.156215	24565.562857
554.514086	24720.742175
554.871902	24110.795327
555.229661	24379.196440
555.587365	24232.113215
555.945014	24145.203723
556.302606	24330.594676
556.660143	24341.803682
557.017625	24563.594286
557.375050	24083.061419
557.732421	24474.781758
558.089735	24290.033552
558.446994	24336.651623
558.804197	24391.816969
559.161345	24259.043059
559.518437	24077.677467
559.875474	24238.555810
560.232455	24401.896756
560.589381	24226.603234
560.946251	24237.439194
561.303065	24520.230281
561.659825	24617.824499
562.016528	24219.593510
562.373177	23953.304640
562.729770	24323.015301
563.086307	24149.894517
563.442789	24328.558050
563.799216	24194.002092
564.155587	24177.051212
564.511904	24161.302648
564.868164	24136.822805
565.224370	24078.015224
565.580520	24026.590414
565.936615	24149.095494
566.292654	23854.306461
566.648638	24059.675507
567.004567	23906.646241
567.360441	23862.241237
567.716260	23567.691659
568.072023	23869.054356
568.427732	23659.430577
568.783385	23415.718514
569.138982	23675.312732
569.494525	23697.125804
569.850013	23467.428150
570.205445	23575.366816
570.560823	23393.693713
570.916145	23182.693698
571.271412	23364.316389
571.626625	23115.464871
571.981782	23221.475295
572.336884	23015.029963
572.691931	23162.072859
573.046923	22894.382548
573.401860	22775.476852
573.756743	22822.818328
574.111570	22712.699364
574.466342	22619.576649
574.821059	22698.359802
575.175722	22403.195203
575.530330	22355.674766
575.884882	22356.710723
576.239380	22271.782404
576.593823	22176.678516
576.948211	22160.589674
577.302544	21999.396259
577.656823	21855.647757
578.011047	21976.779122
578.365216	21845.900686
578.719330	21719.392930
579.073389	21607.754058
579.427394	21762.789703
579.781344	21504.911999
580.135239	21400.857542
580.489080	21329.386584
580.842866	21116.967484
581.196597	21343.048111
581.550273	21289.069956
581.903895	21156.593474
582.257463	21479.703709
582.610975	21018.296980
582.964434	21349.349553
583.317837	21005.653766
583.671186	21103.742017
584.024481	21096.729772
584.377721	20856.523832
584.730906	20957.069646
585.084037	20916.057339
585.437113	20855.349243
585.790135	21067.581820
586.143103	20511.787047
586.496016	20554.586443
586.848874	20774.446286
587.201679	20680.922800
587.554428	20401.206817
587.907124	20727.291333
588.259765	20465.415993
588.612352	20540.889628
588.964884	20120.976636
589.317362	20275.961870
589.669786	20344.198929
590.022155	20329.219140
590.374470	20595.727300
590.726731	20331.923719
591.078937	20138.512290
591.431090	20212.347550
591.783188	19990.456122
592.135232	19933.526372
592.487222	20043.204235
592.839157	20044.870337
593.191038	19929.359858
593.542866	19817.229473
593.894639	19512.269912
594.246358	19740.339274
594.598022	19624.115472
594.949633	19375.261433
595.301190	19368.871771
595.652692	19535.015598
596.004141	19750.905533
596.355535	19079.060877
596.706876	19106.336040
597.058162	18997.323609
597.409395	19244.448532
597.760573	19283.519995
598.111698	19053.353513
598.462768	19009.797944
598.813785	18983.437750
599.164748	18769.017313
599.515657	18839.210339
599.866511	18640.883785
600.217312	18979.689653
600.568060	18489.979365
600.918753	18806.652047
601.269392	18691.670889
601.619978	18496.021188
601.970510	18670.752621
602.320988	18625.528430
602.671412	18831.784719
603.021783	18769.965050
603.372100	18466.369121
603.722363	18637.193660
604.072572	18568.903670
604.422728	18730.886025
604.772830	18469.592939
605.122878	18425.626516
605.472872	18412.685874
605.822813	18392.057472
606.172701	18393.602586
606.522534	18558.692813
606.872314	18594.109439
607.222041	18430.387885
607.571714	18641.014855
607.921333	18469.529924
608.270899	18545.346358
608.620411	18692.235498
608.969870	18498.451024
609.319276	18492.613368
609.668627	18512.231018
610.017926	18649.983068
610.367171	18759.819727
610.716362	18824.467484
611.065500	18635.961098
611.414585	18778.608108
611.763616	18760.976672
612.112594	18697.415284
612.461518	18677.734619
612.810389	18859.508545
613.159207	18725.726404
613.507971	18636.734915
613.856682	18881.361947
614.205340	18797.051169
614.553945	18957.473288
614.902496	18699.570377
615.250994	18893.488442
615.599439	18850.081587
615.947830	18836.059618
616.296169	18921.973482
616.644454	18872.466831
616.992686	18856.257001
617.340864	19072.514939
617.688990	18815.310228
618.037063	18997.008537
618.385082	18862.956694
618.733048	19122.324059
619.080961	19026.272435
619.428821	19053.638338
619.776628	18916.902081
620.124382	18848.102934
620.472083	18906.603004
620.819731	18918.427030
621.167326	18602.084544
621.514868	18637.614597
621.862357	18444.288867
622.209793	18416.398683
622.557176	18265.953009
622.904506	18086.066995
623.251783	18035.917597
623.599007	17768.030682
623.946179	17711.612608
624.293297	17642.372360
624.640363	17372.332872
624.987376	17394.085451
625.334336	17199.610338
625.681243	17044.723407
626.028097	17069.208291
626.374899	16968.556614
626.721647	16838.139443
627.068343	16696.649378
627.414987	16613.011595
627.761577	16571.664051
628.108115	16597.252948
628.454600	16342.268866
628.801032	16428.817915
629.147412	16370.393463
629.493739	16378.857560
629.840014	16183.419587
630.186236	16288.182326
630.532405	16054.918055
630.878521	16246.786891
631.224585	16158.433108
631.570597	15983.772251
631.916556	16008.690674
632.262462	15975.046014
632.608316	15890.720113
632.954117	15838.425703
633.299866	15830.488407
633.645562	15742.011115
633.991206	15516.295972
634.336797	15385.629265
634.682336	15360.146232
635.027823	15210.237440
635.373257	15078.726339
635.718639	15001.652138
636.063968	14942.773982
636.409245	14684.397203
636.754470	14728.746754
637.099642	14579.460545
637.444762	14366.673441
637.789829	14400.988575
638.134845	14236.954470
638.479808	14261.908182
638.824719	14164.472760
639.169577	14035.978790
639.514383	14069.857864
639.859137	13901.742945
640.203839	14000.904962
640.548489	13852.107744
640.893086	13831.799456
641.237632	13712.976939
641.582125	13879.692938
641.926566	13688.413917
642.270955	13701.561246
642.615292	13646.680725
642.959576	13658.726562
643.303809	13685.696735
643.647990	13621.948824
643.992118	13693.845760
644.336195	13460.861274
644.680219	13692.638404
645.024192	13589.241818
645.368112	13838.620137
645.711981	13864.403118
646.055797	14057.640628
646.399562	14036.492987
646.743274	14295.552842
647.086935	14582.109671
647.430544	14538.728022
647.774101	14578.101954
648.117606	14710.487695
648.461059	14693.993039
648.804460	14668.116797
649.147810	14399.783739
649.491108	14313.973218
649.834354	14334.594058
650.177548	14000.050486
650.520690	13817.162466
650.863781	13743.213780
651.206820	13791.563487
651.549807	13618.563689
651.892742	13392.621695
652.235626	13340.438191
652.578458	13342.638654
652.921238	13054.113255
653.263967	13255.076332
653.606644	13083.094848
653.949269	13061.138103
654.291843	12861.117721
654.634365	13016.044982
654.976836	12868.104760
655.319255	12861.468081
655.661622	12824.523985
656.003938	12754.852719
656.346203	12679.298425
656.688416	12759.767844
657.030577	12700.786344
657.372687	12597.540992
657.714746	12598.897063
658.056753	12781.754836
658.398708	12596.898245
658.740612	12597.394799
659.082465	12709.683980
659.424266	12681.415710
659.766016	12715.138509
660.107715	12624.392698
660.449362	12709.373949
660.790958	12651.975372
661.132503	12588.905496
661.473996	12668.694358
661.815438	12680.253724
662.156829	12714.221019
662.498168	12673.180985
662.839456	12679.094259
663.180693	12690.144468
663.521879	12790.791104
663.863013	12758.573090
664.204097	12731.103843
664.545129	12869.571736
664.886110	12842.334382
665.227040	12934.746294
665.567918	12933.566664
665.908746	12946.991256
666.249522	12939.255606
666.590248	13003.971418
666.930922	13115.421248
667.271545	13086.313625
667.612118	13168.698682
667.952639	13067.416860
668.293109	13092.867125
668.633528	13037.948795
668.973896	13016.029858
669.314213	13080.566710
669.654480	12819.117348
669.994695	12907.410637
670.334859	12937.844083
670.674973	12878.474414
671.015035	12908.847366
671.355047	12849.981812
671.695008	12830.210407
672.034918	12843.788755
672.374777	12873.435781
672.714585	12796.278400
673.054342	12837.048732
673.394049	12789.298923
673.733705	12880.407696
674.073310	12773.870472
674.412864	12787.416052
674.752368	12635.387455
675.091820	12694.278214
675.431223	12659.363182
675.770574	12516.101152
676.109875	12438.893360
676.449125	12395.851989
676.788324	12359.442255
677.127473	12179.150429
677.466571	12175.513236
677.805619	12050.149823
678.144616	11994.283756
678.483562	11979.067033
678.822458	11845.869666
679.161303	11820.210193
679.500098	11794.245730
679.838842	11756.432035
680.177535	11801.230248
680.516179	11867.924714
680.854771	11808.817185
681.193314	12021.551357
681.531805	12191.513859
681.870247	12646.664516
682.208638	13050.135785
682.546978	13336.969877
682.885268	13352.864635
683.223508	13073.095720
683.561697	12909.921132
683.899836	12824.322339
684.237925	12617.771143
684.575963	12523.816638
684.913951	12445.252776
685.251889	12403.065880
685.589776	12505.855007
685.927614	12416.823189
686.265401	12396.310734
686.603137	12464.058800
686.940824	12602.095675
687.278460	12739.683887
687.616046	12761.847320
687.953582	12916.930856
688.291068	12863.076209
688.628504	13094.646653
688.965889	13094.666817
689.303224	13044.371225
689.640510	12923.297833
689.977745	12608.137498
690.314930	12394.029612
690.652065	12300.296918
690.989150	11995.337357
691.326185	11769.029878
691.663170	11571.885475
692.000105	11333.333034
692.336990	11211.223685
692.673825	10946.061513
693.010610	10840.608136
693.347345	10635.959975
693.684030	10434.896075
694.020665	10377.421880
694.357251	10181.885604
694.693786	10101.111196
695.030272	9958.065935
695.366707	9837.680661
695.703093	9784.990521
696.039429	9769.617522
696.375716	9672.955918
696.711952	9549.780365
697.048139	9604.073592
697.384276	9558.786386
697.720363	9576.556453
698.056400	9504.999795
698.392388	9453.653123
698.728326	9420.951157
699.064214	9362.567034
699.400053	9398.923836
699.735842	9211.259322
700.071581	9183.722019
700.407270	9106.287376
700.742910	9021.485086
701.078501	8924.921784
701.414042	8787.295763
701.749533	8737.496725
702.084974	8596.205785
702.420366	8722.302687
702.755709	8593.826361
703.091002	8457.871483
703.426246	8495.352462
703.761440	8440.156868
704.096584	8404.339470
704.431679	8338.731373
704.766725	8321.082294
705.101721	8276.558823
705.436668	8328.802821
705.771565	8218.270482
706.106413	8306.122670
706.441212	8334.096032
706.775961	8301.351218
707.110661	8350.888116
707.445311	8472.909245
707.779913	8376.045994
708.114465	8493.830033
708.448967	8531.051393
708.783421	8700.736631
709.117825	8867.621508
709.452180	8902.130727
709.786485	8985.667688
710.120742	9276.058314
710.454949	9281.369169
710.789107	9396.138598
711.123216	9615.663204
711.457275	9791.307087
711.791286	9925.182489
712.125247	9943.335684
712.459159	9932.658520
712.793023	10152.296552
713.126837	9721.237569
713.460602	9884.883505
713.794318	9710.880518
714.127985	9740.504859
714.461602	9389.023010
714.795171	9358.564358
715.128691	9103.481973
715.462162	8858.345785
715.795584	8796.503431
716.128957	8623.034806
716.462281	8457.921894
716.795556	8496.068305
717.128782	8293.126575
717.461960	8041.792288
717.795088	8106.056917
718.128167	8012.132660
718.461198	7859.993157
718.794180	7801.281359
719.127113	7799.274980
719.459997	7619.086497
719.792833	7399.377889
720.125619	7475.108623
720.458357	7328.053124
720.791046	7320.062895
721.123686	7307.039074
721.456278	7143.652757
721.788821	7164.893659
722.121315	7069.013433
722.453761	7143.700648
722.786158	7077.381749
723.118506	7083.877276
723.450805	7047.689353
723.783056	7106.302848
724.115259	7026.801332
724.447412	7022.987699
724.779518	7080.308139
725.111574	7081.371822
725.443582	7152.076525
725.775542	7129.698843
726.107453	7324.617578
726.439315	7234.378403
726.771129	7322.694377
727.102895	7499.449834
727.434612	7597.800225
727.766281	7639.694734
728.097901	7713.981177
728.429473	7722.606591
728.760996	7720.718679
729.092471	7692.672220
729.423897	7624.278886
729.755276	7617.034747
730.086606	7526.178032
730.417887	7636.044939
730.749120	7864.817541
731.080305	8045.253040
731.411442	8145.844224
731.742530	8126.294630
732.073570	8233.058706
732.404562	8318.508785
732.735506	8189.112448
733.066401	8316.439391
733.397249	8227.400011
733.728048	7981.951272
734.058798	7653.651168
734.389501	7412.936072
734.720156	7253.464212
735.050762	7034.715943
735.381320	6948.877696
735.711831	6878.515791
736.042293	6774.073166
736.372707	6792.102853
736.703073	6659.535630
737.033391	6697.724891
737.363661	6711.378856
737.693883	6745.658702
738.024056	6834.141035
738.354182	6860.851588
738.684260	6898.690489
739.014290	7026.297216
739.344272	7133.759493
739.674207	7158.272103
740.004093	7240.735298
740.333931	7251.835919
740.663722	7256.584686
740.993464	7337.318765
741.323159	7306.434136
741.652806	7063.952115
741.982405	7110.023220
742.311956	7138.664536
742.641460	6953.707122
742.970915	6765.104953
743.300323	6755.806545
743.629683	6717.060237
743.958996	6578.955306
744.288260	6480.695656
744.617477	6434.669922
744.946647	6421.648621
745.275768	6267.810250
745.604842	6226.210648
745.933869	6205.123502
746.262847	6163.730587
746.591778	6151.084853
746.920662	6110.546414
747.249498	6110.107834
747.578286	6160.030381
747.907027	6229.671400
748.235720	6287.528723
748.564365	6264.906545
748.892963	6309.951775
749.221514	6441.409944
749.550017	6249.931798
749.878473	6145.640407
750.206881	6212.251693
750.535242	6165.348798
750.863555	6091.876501
751.191821	6099.569302
751.520039	6091.997489
751.848210	5999.588098
752.176334	6037.933634
752.504411	6074.532411
752.832440	5992.921172
753.160421	5926.811480
753.488356	5971.987780
753.816243	5999.313355
754.144082	5857.750193
754.471875	5832.746070
754.799620	5876.500765
755.127318	5888.050048
755.454969	5843.178738
755.782572	5812.707483
756.110129	5855.305233
756.437638	5827.876315
756.765100	5775.319766
757.092515	5787.531961
757.419882	5843.486248
757.747203	5810.935518
758.074477	5868.260999
758.401703	5844.121434
758.728882	5811.046423
759.056014	5889.943002
759.383099	5995.053580
759.710138	6007.374160
760.037129	5993.712633
760.364073	5997.485937
760.690970	6073.927473
761.017820	6051.849740
761.344623	6021.685996
761.671379	6131.590711
761.998088	6254.725935
762.324751	6522.368354
762.651366	7175.429671
762.977935	8561.878048
763.304456	10224.188447
763.630931	11067.830584
763.957359	10586.859137
764.283740	9618.607238
764.610074	8733.458761
764.936362	7730.947180
765.262602	7147.085783
765.588796	6620.265042
765.914943	6298.906607
766.241044	6121.679803
766.567097	5903.070166
766.893104	5643.344879
767.219064	5474.796421
767.544978	5409.392491
767.870845	5325.973997
768.196665	5224.684614
768.522438	5148.754754
768.848165	5115.372234
769.173846	5044.385226
769.499479	4996.630375
769.825066	4954.115804
770.150607	4892.941403
770.476101	4868.625397
770.801548	4859.546279
771.126949	4769.904481
771.452303	4718.225092
771.777611	4689.442625
772.102872	4707.144636
772.428087	4667.256507
772.753256	4625.064569
773.078378	4569.952155
773.403453	4505.742978
773.728482	4492.202439
774.053465	4450.738949
774.378401	4433.520888
774.703291	4429.699693
775.028135	4353.716902
775.352932	4308.054130
775.677683	4293.848159
776.002388	4306.519099
776.327046	4316.399761
776.651658	4244.134820
776.976224	4181.798432
777.300743	4188.283877
777.625216	4209.499573
777.949643	4197.700752
778.274024	4159.307324
778.598359	4123.741984
778.922647	4152.423629
779.246889	4138.003408
779.571086	4128.818426
779.895236	4111.381075
780.219339	4102.357409
780.543397	4102.072584
780.867409	4154.543434
781.191374	4163.211698
781.515294	4096.207202
781.839167	4096.459259
782.162995	4121.894401
782.486776	4106.763378
782.810511	4116.452476
783.134201	4101.061833
783.457844	4056.876119
783.781441	4002.628263
784.104993	4007.170342
784.428498	4027.413096
784.751958	4018.497815
785.075372	3998.000484
785.398739	3964.040751
785.722061	3978.481136
786.045337	4021.441849
786.368568	4049.972259
786.691752	3962.014207
787.014891	4023.130636
787.337983	4160.519722
787.661030	4323.280936
787.984031	4480.733814
788.306987	4641.715501
788.629897	4732.889809
788.952760	4684.320812
789.275579	4613.290955
789.598351	4541.872928
789.921078	4389.453642
790.243759	4193.698076
790.566395	4186.315306
790.888984	4174.534130
791.211529	4069.783994
791.534027	4007.987009
791.856480	3992.079648
792.178888	3932.634362
792.501249	3891.352353
792.823566	3901.157398
793.145836	3922.874688
793.468062	3866.862428
793.790241	3828.355574
794.112375	3858.292467
794.434464	3930.133950
794.756507	3950.618679
795.078505	3923.119184
795.400457	3968.182059
795.722364	4115.028350
796.044226	4219.012230
796.366042	4289.474958
796.687812	4254.827108
797.009538	4261.302470
797.331218	4228.703848
797.652852	4203.808110
797.974442	4178.703164
798.295986	4172.767205
798.617484	4089.588167
798.938938	4009.769057
799.260346	4056.808064
799.581709	4039.282492
799.903026	3964.423878
800.224299	3928.782921
800.545526	3923.933331
800.866708	3885.376066
801.187845	3832.617870
801.508936	3860.883620
801.829983	3847.741332
802.150984	3774.541257
802.471940	3770.805762
802.792851	3773.885907
803.113717	3776.930764
803.434538	3773.666617
803.755314	3713.568501
804.076045	3698.835729
804.396731	3719.363308
804.717372	3742.897934
805.037967	3723.028227
805.358518	3714.145713
805.679024	3745.796598
805.999485	3761.325872
806.319901	3765.265534
806.640272	3773.555712
806.960598	3786.698000
807.280879	3766.165380
807.601115	3780.207514
807.921306	3795.542704
808.241453	3834.402438
808.561554	3802.996050
808.881611	3740.180753
809.201623	3785.233544
809.521590	3789.654636
809.841513	3764.721089
810.161390	3792.641520
810.481223	3764.463991
810.801011	3716.515056
811.120755	3713.815518
811.440453	3748.501177
811.760107	3746.081423
812.079716	3694.404555
812.399281	3672.314219
812.718801	3697.162066
813.038276	3673.216585
813.357707	3665.768281
813.677093	3680.377544
813.996434	3625.204636
814.315731	3645.361690
814.634983	3645.921258
814.954191	3663.635872
815.273354	3685.244778
815.592473	3677.912420
815.911547	3696.617622
816.230577	3741.360383
816.549562	3789.059780
816.868502	3826.200481
817.187399	3851.464224
817.506250	3849.263760
817.825058	3831.476049
818.143821	3929.289557
818.462539	4027.828991
818.781213	4073.559818
819.099843	4138.704129
819.418429	4414.508176
819.736970	4652.763189
820.055466	4907.119648
820.373919	5281.957163
820.692327	5696.657601
821.010691	6205.640220
821.329011	7725.366623
821.647286	10666.436271
821.965517	15451.733915
822.283704	19434.104301
822.601847	21336.295485
822.919945	19383.329800
823.237999	16714.754682
823.556010	14191.508468
823.873976	12018.256963
824.191897	9902.872862
824.509775	8582.617355
824.827609	7455.682536
825.145398	6940.932838
825.463144	6817.628735
825.780845	6919.873418
826.098502	7170.874988
826.416116	8137.775857
826.733685	9520.108133
827.051210	10599.754408
827.368692	10511.045224
827.686129	9163.882558
828.003522	7655.718042
828.320872	6634.760879
828.638177	5912.953348
828.955439	5338.740719
829.272656	4835.542825
829.589830	4572.134975
829.906960	4396.042430
830.224046	4201.504303
830.541088	4082.906117
830.858086	4028.847304
831.175041	3950.825366
831.491952	3944.347483
831.808819	3951.616827
832.125642	4038.770815
832.442421	4197.194116
832.759157	4496.376515
833.075849	5088.263429
833.392497	5995.489640
833.709101	6787.638911
834.025662	7075.977788
834.342179	6634.904552
834.658653	5959.190811
834.975083	5295.578360
835.291469	4711.245615
835.607811	4316.987055
835.924110	4172.989016
836.240366	3962.629228
836.556578	3765.416769
836.872746	3656.391734
837.188871	3609.090588
837.504952	3537.700288
837.820990	3454.614511
838.136984	3416.775610
838.452935	3441.930968
838.768842	3434.956531
839.084706	3456.298256
839.400526	3636.282572
839.716303	4005.733614
840.032037	4565.334458
840.347727	4784.473416
840.663373	4460.727995
840.978977	4069.751226
841.294537	3763.312087
841.610054	3537.806152
841.925527	3434.311263
842.240957	3360.982640
842.556344	3305.759320
842.871687	3246.437542
843.186987	3192.759336
843.502244	3155.699293
843.817458	3125.238121
844.132629	3095.160077
844.447756	3103.331787
844.762840	3084.646750
845.077881	3053.658778
845.392879	3036.823844
845.707833	3034.585572
846.022745	3032.949718
846.337613	3029.960313
846.652438	3019.149559
846.967221	3014.476409
847.281960	3004.873011
847.596656	2998.735407
847.911309	2999.690705
848.225919	2992.524705
848.540485	2989.658809
848.855009	2987.319714
849.169490	2975.631798
849.483928	2966.852629
849.798323	2968.922023
850.112675	2967.606282
850.426984	2978.711943
850.741251	2972.400419
851.055474	2962.854994
851.369654	2957.115640
851.683792	2964.475725
851.997887	2973.229689
852.311938	2973.776654
852.625947	2957.773511
852.939914	2965.851960
853.253837	2966.857670
853.567718	2953.133129
853.881555	2955.615897
854.195350	2972.130717
854.509103	2961.342648
854.822812	2956.787965
855.136479	2953.256637
855.450103	2955.111782
855.763685	2949.468210
856.077224	2948.258333
856.390720	2958.078501
856.704173	2968.087712
857.017584	2958.708645
857.330953	2958.272585
857.644278	2968.518730
857.957561	2977.454176
858.270802	2980.103302
858.584000	2979.256388
858.897155	2963.205354
859.210268	2965.761219
859.523339	2961.922381
859.836367	2960.914150
860.149352	2957.748305
860.462295	2951.245217
860.775195	2961.226701
861.088054	2957.312245
861.400869	2939.998403
861.713642	2941.344391
862.026373	2956.283850
862.339062	2962.040848
862.651708	2962.212247
862.964312	2965.995633
863.276873	2960.772998
863.589392	2969.549646
863.901869	2984.307624
864.214303	3007.489370
864.526696	3020.046884
864.839045	3015.555216
865.151353	3013.659742
865.463619	3013.153107
865.775842	3018.549662
866.088023	3039.014226
866.400162	3041.280224
866.712258	3009.284021
867.024313	3002.231447
867.336325	3011.071110
867.648296	3033.317722
867.960224	3022.073428
868.272110	3012.275946
868.583954	3016.772655
868.895755	3030.580375
869.207515	3017.536390
869.519233	3025.939993
869.830909	3036.521375
870.142542	3040.826521
870.454134	3039.556150
870.765684	3045.061090
871.077191	3043.475647
871.388657	3058.089952
871.700081	3069.051941
872.011463	3077.069896
872.322803	3079.658529
872.634101	3076.308682
872.945357	3097.625201
873.256571	3124.610497
873.567744	3111.773199
873.878874	3112.340329
874.189963	3133.729945
874.501010	3129.379429
874.812015	3125.933800
875.122979	3118.457769
875.433900	3120.413737
875.744780	3128.013276
876.055618	3135.635501
876.366415	3131.032928
876.677169	3138.700523
876.987882	3135.920326
877.298554	3138.360245
877.609183	3161.831857
877.919771	3184.620393
878.230317	3211.237685
878.540822	3265.069647
878.851285	3301.819658
879.161707	3355.011393
879.472087	3469.460709
879.782425	3723.968402
880.092722	4190.050801
880.402977	4734.576075
880.713191	5404.217746
881.023363	6643.414020
881.333494	7962.010987
881.643583	8470.083678
881.953631	8124.497458
882.263637	7428.208248
882.573602	6801.794471
882.883526	6213.854780
883.193408	5643.503675
883.503248	5195.977763
883.813048	4877.596130
884.122806	4539.939646
884.432522	4215.924523
884.742197	3977.225889
885.051831	3782.823873
885.361424	3660.654030
885.670975	3583.068152
885.980485	3483.709530
886.289954	3409.360073
886.599382	3360.889378
886.908768	3328.973833
887.218113	3283.033798
887.527417	3221.440981
887.836680	3172.675379
888.145901	3165.968124
888.455082	3153.249292
888.764221	3100.120572
889.073319	3071.575038
889.382376	3071.418763
889.691392	3076.943867
890.000366	3071.469174
890.309300	3060.739078
890.618193	3074.272056
890.927044	3088.467945
891.235855	3089.584561
891.544625	3076.601069
891.853353	3090.192020
892.162041	3109.149279
892.470687	3150.922800
892.779293	3201.825851
893.087858	3252.358377
893.396381	3326.390242
893.704864	3463.557517
894.013306	3720.956312
894.321707	4036.073798
894.630068	4227.246955
894.938387	4211.843709
895.246665	4169.901309
895.554903	4040.265517
895.863100	3830.276254
896.171256	3657.399965
896.479371	3511.226668
896.787446	3385.240672
897.095480	3281.420629
897.403473	3221.196485
897.711425	3185.207687
898.019336	3176.325174
898.327207	3141.974752
898.635038	3101.443875
898.942827	3090.262596
899.250576	3080.961667
899.558284	3047.435473
899.865952	3026.718852
900.173579	3002.990140
900.481165	2998.140550
900.788711	2981.618169
901.096216	2957.776032
901.403681	2950.123560
901.711105	2955.673870
902.018489	2953.491051
902.325832	2954.842080
902.633135	2966.832464
902.940397	3001.344204
903.247619	3097.279882
903.554800	3303.878969
903.861941	3683.843338
904.169041	4136.995178
904.476101	4421.691820
904.783121	4345.981251
905.090100	4076.745827
905.397039	3787.817136
905.703938	3536.198024
906.010796	3348.778006
906.317614	3233.690984
906.624391	3136.147178
906.931129	3063.075653
907.237826	2999.226919
907.544483	2952.727316
907.851099	2925.568100
908.157675	2900.911816
908.464211	2882.841800
908.770707	2867.504090
909.077163	2854.981863
909.383578	2837.073164
909.689954	2829.541681
909.996289	2829.266938
910.302584	2828.057061
910.608839	2829.188800
910.915054	2820.391986
911.221229	2814.085503
911.527363	2816.762356
911.833458	2826.103614
912.139513	2831.716938
912.445527	2833.322546
912.751502	2841.118690
913.057436	2851.657222
913.363331	2866.526106
913.669186	2892.014180
913.975000	2929.616146
914.280775	2994.165601
914.586510	3064.673699
914.892205	3150.315341
915.197859	3290.345992
915.503475	3502.563445
915.809050	3729.858990
916.114585	3874.393912
916.420081	3877.516907
916.725536	3809.045435
917.030952	3679.732277
917.336328	3552.788461
917.641665	3414.396185
917.946961	3311.425577
918.252218	3237.681058
918.557435	3154.340702
918.862612	3092.004314
919.167750	3042.427087
919.472848	3005.689678
919.777906	2974.893269
920.082925	2945.311779
920.387904	2917.991245
920.692843	2898.247566
920.997743	2888.719786
921.302603	2873.976931
921.607423	2861.558049
921.912204	2848.960205
922.216946	2838.083916
922.521647	2827.646207
922.826310	2818.040288
923.130932	2814.443425
923.435516	2805.190387
923.740059	2797.212761
924.044564	2788.002573
924.349028	2786.157511
924.653454	2777.519493
924.957840	2769.897269
925.262186	2765.952566
925.566493	2757.370002
925.870761	2757.995105
926.174989	2750.400606
926.479178	2747.156624
926.783328	2740.651015
927.087438	2742.712847
927.391509	2739.055490
927.695541	2736.035838
927.999533	2732.602813
928.303486	2727.249107
928.607400	2731.478635
928.911275	2729.936042
929.215110	2727.682647
929.518906	2727.775908
929.822663	2726.122409
930.126381	2724.478993
930.430060	2727.528891
930.733699	2727.455795
931.037299	2730.447719
931.340861	2729.520147
931.644383	2729.484859
931.947866	2728.700960
932.251309	2727.632235
932.554714	2727.743140
932.858080	2723.659806
933.161407	2722.293653
933.464694	2721.550083
933.767943	2719.299208
934.071153	2723.760629
934.374323	2717.996069
934.677455	2720.199054
934.980548	2718.089331
935.283602	2718.996738
935.586617	2719.137891
935.889593	2720.105792
936.192530	2720.884651
936.495428	2718.792572
936.798287	2720.214177
937.101108	2723.639641
937.403890	2727.135681
937.706632	2730.919067
938.009336	2741.843248
938.312002	2751.549989
938.614628	2757.352357
938.917216	2764.702360
939.219765	2764.969541
939.522275	2762.940477
939.824747	2760.666916
940.127179	2757.846391
940.429573	2754.909918
940.731929	2752.570823
941.034246	2746.672673
941.336524	2746.493712
941.638763	2742.891808
941.940964	2740.620768
942.243126	2739.345356
942.545250	2740.991293
942.847335	2735.705643
943.149381	2731.672720
943.451389	2730.936711
943.753359	2724.857080
944.055290	2724.128633
944.357182	2722.074363
944.659036	2722.636452
944.960851	2721.764332
945.262628	2716.367777
945.564367	2720.637634
945.866067	2721.426575
946.167729	2721.529918
946.469352	2724.156359
946.770937	2721.759291
947.072484	2716.471120
947.373992	2717.948178
947.675462	2718.323744
947.976893	2712.365101
948.278286	2712.554144
948.579641	2712.032384
948.880958	2710.341077
949.182236	2711.243444
949.483476	2711.525748
949.784678	2708.657332
950.085841	2709.481561
950.386967	2711.908876
950.688054	2712.234031
950.989103	2711.934082
951.290114	2713.166644
951.591087	2717.156717
951.892021	2719.873899
952.192917	2722.149980
952.493776	2724.814230
952.794596	2722.727192
953.095378	2725.025958
953.396122	2721.945813
953.696828	2719.326934
953.997496	2721.056050
954.298126	2714.487426
954.598718	2715.662015
954.899272	2709.801674
955.199788	2710.436859
955.500266	2709.753783
955.800706	2706.388813
956.101108	2701.309850
956.401472	2701.423276
956.701798	2701.400591
957.002087	2698.413707
957.302337	2696.898841
957.602550	2694.892461
957.902724	2690.360464
958.202861	2690.229394
958.502960	2690.993129
958.803022	2688.563293
959.103045	2689.959692
959.403031	2689.818540
959.702979	2688.807789
960.002889	2689.011955
960.302762	2685.914166
960.602596	2686.004907
960.902393	2686.035154
961.202153	2686.849300
961.501875	2684.411903
961.801559	2685.107582
962.101205	2685.553724
962.400814	2682.675225
962.700385	2684.603466
962.999918	2680.247909
963.299414	2681.185564
963.598873	2681.160358
963.898293	2679.940399
964.197677	2682.125739
964.497022	2682.032478
964.796331	2682.690348
965.095601	2683.252437
965.394835	2683.348219
965.694030	2682.208918
965.993189	2682.029957
966.292309	2680.787313
966.591393	2678.415450
966.890439	2683.005421
967.189447	2681.288908
967.488419	2681.835873
967.787353	2680.928465
968.086249	2683.622962
968.385108	2681.722447
968.683930	2680.835204
968.982714	2682.647499
969.281462	2683.416275
969.580172	2681.351922
969.878844	2681.099864
970.177480	2681.919052
970.476078	2683.305369
970.774639	2683.282684
971.073162	2680.457117
971.371649	2682.743281
971.670098	2684.280832
971.968510	2681.540965
972.266885	2685.465504
972.565223	2684.059022
972.863524	2682.518949
973.161788	2680.837724
973.460014	2680.883095
973.758204	2682.400482
974.056356	2682.198836
974.354471	2680.991480
974.652550	2681.631706
974.950591	2681.230934
975.248595	2679.229596
975.546563	2681.951819
975.844493	2682.624813
976.142386	2683.590194
976.440243	2683.179340
976.738062	2681.414937
977.035845	2680.384021
977.333590	2681.399813
977.631299	2680.729340
977.928971	2678.256654
978.226606	2677.503001
978.524204	2676.212466
978.821765	2678.107940
979.119290	2677.180367
979.416777	2680.568023
979.714228	2679.358146
980.011642	2680.149607
980.309020	2678.861592
980.606360	2677.916376
980.903664	2681.568692
981.200931	2682.123219
981.498162	2680.941068
981.795356	2682.602128
982.092513	2683.827129
982.389633	2687.098837
982.686717	2689.808458
982.983764	2693.652337
983.280775	2698.343131
983.577749	2698.212061
983.874686	2696.815662
984.171587	2693.518747
984.468451	2692.999508
984.765279	2690.100845
985.062070	2688.447346
985.358824	2685.692356
985.655543	2683.774197
985.952224	2683.774197
986.248869	2681.480472
986.545478	2677.911335
986.842050	2678.826304
987.138586	2678.823783
987.435086	2677.001406
987.731549	2678.062569
988.027975	2677.528207
988.324366	2679.650533
988.620719	2678.047446
988.917037	2675.100891
989.213318	2675.882270
989.509563	2676.398988
989.805772	2676.562826
990.101944	2676.530058
990.398080	2675.821776
990.694180	2676.398988
990.990244	2674.614420
991.286271	2676.449400
991.582262	2673.414625
991.878217	2674.919410
992.174136	2680.593228
992.470019	2679.816891
992.765865	2676.870336
993.061676	2673.515448
993.357450	2672.822290
993.653188	2673.344049
993.948890	2678.115501
994.244556	2679.648012
994.540186	2675.849503
994.835780	2678.201201
995.131337	2677.946623
995.426859	2680.968794
995.722345	2680.323527
996.017795	2681.394772
996.313208	2683.315452
996.608586	2678.856551
996.903928	2681.619103
997.199234	2677.616427
997.494504	2680.079031
997.789738	2680.394103
998.084936	2679.847138
998.380099	2679.874864
998.675225	2679.564833
998.970316	2680.618434
999.265371	2677.770182
999.560390	2675.854544
999.855373	2676.653567
1000.150320	2675.453772
1000.445232	2674.823628
1000.740108	2677.608865
1001.034948	2673.903617
1001.329752	2674.750531
1001.624521	2675.287414
1001.919254	2675.428566
1002.213951	2675.879750
1002.508613	2676.232630
1002.803239	2673.028977
1003.097829	2675.204235
1003.392384	2673.452434
1003.686903	2673.633916
1003.981386	2673.225582
1004.275834	2673.954029
1004.570246	2675.211797
1004.864623	2674.329595
1005.158964	2672.963442
1005.453270	2674.226251
1005.747540	2675.539472
1006.041775	2674.513597
1006.335974	2673.790191
1006.630138	2676.194822
1006.924266	2674.324554
1007.218359	2674.571570
1007.512416	2670.977227
1007.806438	2668.849861
1008.100425	2670.815911
1008.394376	2667.095539
1008.688292	2671.947650
1008.982172	2674.863957
1009.276017	2674.589214
1009.569827	2673.817918
1009.863602	2671.062927
1010.157341	2675.491581
1010.451045	2673.593586
1010.744714	2674.117866
1011.038347	2675.350428
1011.331945	2673.520490
1011.625508	2673.684327
1011.919036	2670.750376
1012.212528	2675.783968
1012.505986	2675.494101
1012.799408	2673.487722
1013.092795	2672.950839
1013.386147	2672.696261
1013.679464	2676.489729
1013.972745	2673.122238
1014.265992	2671.887156
1014.559204	2674.085099
1014.852380	2675.421005
1015.145521	2673.286076
1015.438628	2673.097033
1015.731699	2674.400171
1016.024736	2676.283042
1016.317737	2672.734070
1016.610703	2670.959583
1016.903635	2675.806653
1017.196531	2671.327588
1017.489393	2670.868843
1017.782219	2672.923113
1018.075011	2675.204235
1018.367768	2672.716426
1018.660490	2671.020077
1018.953177	2671.020077
1019.245829	2671.020077
