Dividing Wavelength (nm)	Counts (n)	Blue Motor Position (mm): 3.600000	Red Motor Position (mm): 0.000000	
326.493990	2064.246636
326.888308	2064.246636
327.282561	2064.246636
327.676750	2037.609179
328.070874	2041.231248
328.464933	2046.582433
328.858929	2055.059133
329.252859	2067.740155
329.646726	2077.618296
330.040528	2096.169743
330.434265	2112.868565
330.827938	2134.810187
331.221547	2153.638896
331.615091	2176.591270
332.008571	2196.370237
332.401986	2216.076107
332.795338	2234.950187
333.188625	2256.957344
333.581847	2276.940478
333.975006	2291.148970
334.368100	2311.951292
334.761129	2326.749599
335.154095	2340.461537
335.546996	2356.111799
335.939833	2369.286855
336.332606	2385.751263
336.725315	2395.329456
337.117960	2404.814387
337.510540	2417.553382
337.903056	2423.990936
338.295508	2434.572318
338.687896	2439.303441
339.080220	2441.758483
339.472480	2449.743670
339.864676	2449.471448
340.256807	2455.094855
340.648875	2454.479834
341.040879	2454.868003
341.432818	2456.057716
341.824694	2459.722634
342.216506	2457.625514
342.608253	2457.229784
342.999937	2457.895216
343.391557	2458.472428
343.783113	2453.252313
344.174605	2454.502520
344.566033	2452.869186
344.957397	2455.112499
345.348697	2451.530759
345.739934	2449.070676
346.131106	2443.520366
346.522215	2444.211004
346.913260	2443.366611
347.304241	2438.554829
347.695159	2435.857812
348.086012	2441.135900
348.476802	2439.409305
348.867528	2433.327153
349.258191	2429.042172
349.648789	2430.226843
350.039324	2428.041503
350.429796	2429.871442
350.820203	2430.587286
351.210548	2432.359251
351.600828	2431.401432
351.991045	2430.950249
352.381198	2427.522264
352.771288	2427.673499
353.161314	2426.445978
353.551276	2429.074940
353.941175	2431.078798
354.331010	2430.499066
354.720782	2427.827254
355.110490	2428.918664
355.500135	2427.751637
355.889717	2428.938828
356.279235	2428.636359
356.668689	2429.964703
357.058080	2428.956473
357.447408	2431.424117
357.836672	2430.461257
358.225873	2432.323963
358.615010	2432.122317
359.004084	2431.527461
359.393095	2430.907399
359.782043	2433.191042
360.170927	2432.011412
360.559748	2431.661052
360.948505	2435.212544
361.337199	2436.397216
361.725830	2432.671803
362.114398	2435.477205
362.502903	2435.278079
362.891344	2436.984510
363.279722	2435.822524
363.668037	2440.465427
364.056289	2437.750765
364.444478	2439.300920
364.832603	2440.639347
365.220665	2441.808894
365.608665	2439.729418
365.996601	2439.590787
366.384474	2439.986517
366.772284	2439.202618
367.160031	2442.043308
367.547715	2442.834769
367.935336	2440.644388
368.322893	2439.671445
368.710388	2436.394695
369.097820	2439.744542
369.485189	2439.449634
369.872495	2442.968360
370.259738	2440.858637
370.646918	2440.712443
371.034035	2441.642536
371.421090	2444.775613
371.808081	2442.738987
372.195010	2443.028853
372.581875	2444.541200
372.968678	2443.049018
373.355418	2444.871395
373.742096	2442.560026
374.128710	2442.449121
374.515262	2445.670418
374.901751	2443.006168
375.288177	2444.805860
375.674540	2447.260902
376.060841	2444.727722
376.447079	2445.927517
376.833254	2445.849379
377.219367	2445.350305
377.605417	2447.986828
377.991404	2444.964657
378.377329	2446.648402
378.763191	2448.901798
379.148991	2448.460697
379.534727	2448.382559
379.920402	2447.999431
380.306013	2448.780810
380.691563	2449.042950
381.077049	2446.484564
381.462474	2449.146294
381.847835	2449.922631
382.233134	2450.595625
382.618371	2449.330296
383.003545	2448.712754
383.388657	2449.927672
383.773706	2449.610080
384.158693	2449.141252
384.543618	2453.960596
384.928480	2450.643516
385.313280	2451.976902
385.698017	2450.376335
386.082692	2451.858434
386.467305	2451.475307
386.851856	2452.206274
387.236344	2451.223249
387.620770	2448.022116
388.005133	2450.767025
388.389435	2447.979267
388.773674	2450.068825
389.157851	2451.624021
389.541965	2454.530246
389.926018	2455.004114
390.310008	2451.263578
390.693936	2454.419341
391.077802	2451.641665
391.461606	2454.719289
391.845348	2451.429936
392.229027	2456.536625
392.612645	2454.442026
392.996200	2452.546552
393.379694	2454.517643
393.763125	2456.995370
394.146494	2456.927315
394.529801	2455.334310
394.913047	2456.138374
395.296230	2455.677108
395.679351	2454.174845
396.062410	2456.347582
396.445408	2457.151646
396.828343	2458.568210
397.211217	2457.214660
397.594028	2457.567541
397.976778	2455.074691
398.359466	2459.573920
398.742092	2458.457305
399.124656	2456.549228
399.507158	2459.014352
399.889598	2459.793211
400.271977	2459.548715
400.654294	2458.278344
401.036549	2458.545525
401.418742	2460.377984
401.800874	2459.057202
402.182944	2457.968313
402.564952	2459.392439
402.946898	2460.234312
403.328783	2457.386060
403.710606	2459.886472
404.092367	2459.150463
404.474067	2461.557614
404.855705	2461.532409
405.237282	2461.976030
405.618797	2463.248922
406.000250	2462.555763
406.381642	2458.338838
406.762972	2458.873200
407.144240	2456.334979
407.525447	2460.660289
407.906593	2457.033179
408.287677	2461.766822
408.668700	2461.595423
409.049661	2461.212295
409.430560	2461.577779
409.811399	2462.182718
410.192176	2462.056689
410.572891	2462.868314
410.953545	2461.643314
411.334138	2464.446196
411.714669	2461.794549
412.095139	2464.826803
412.475547	2461.766822
412.855894	2464.320167
413.236180	2463.942080
413.616405	2464.990640
413.996568	2464.340331
414.376670	2461.741617
414.756711	2465.605661
415.136691	2465.673717
415.516609	2464.065588
415.896466	2463.831175
416.276262	2465.472070
416.655997	2464.612554
417.035670	2464.284879
417.415283	2465.814869
417.794834	2464.884776
418.174324	2467.601958
418.553753	2464.839406
418.933121	2469.600775
419.312428	2466.112297
419.691674	2466.429890
420.070859	2466.661783
420.449983	2469.013481
420.829045	2463.563994
421.208047	2468.985755
421.586988	2463.594241
421.965867	2469.426856
422.344686	2466.223202
422.723444	2465.867801
423.102141	2468.859726
423.480777	2470.051959
423.859352	2469.404170
424.237866	2466.515589
424.616319	2467.372585
424.994712	2468.458954
425.373044	2467.967442
425.751314	2468.355610
426.129524	2465.214972
426.507673	2465.265383
426.885762	2462.475104
427.263789	2471.670169
427.641756	2468.343008
428.019662	2468.600106
428.397508	2471.874336
428.775292	2468.963069
429.153016	2469.225209
429.530679	2469.227730
429.908282	2469.923409
430.285824	2469.852833
430.663305	2467.634725
431.040726	2471.218986
431.418086	2470.903914
431.795385	2469.033646
432.172624	2469.678913
432.549802	2468.562298
432.926920	2471.765951
433.303977	2468.912658
433.680974	2469.757051
434.057910	2471.178657
434.434786	2471.302165
434.811601	2472.222175
435.188355	2473.243009
435.565050	2474.094964
435.941683	2472.557412
436.318257	2472.499439
436.694770	2468.277473
437.071222	2470.835858
437.447614	2470.488018
437.823946	2472.050776
438.200218	2472.582618
438.576429	2470.853502
438.952580	2473.331229
439.328670	2471.783595
439.704700	2471.564305
440.080670	2473.142186
440.456580	2471.206383
440.832429	2474.977166
441.208218	2471.178657
441.583947	2472.872484
441.959616	2474.732670
442.335224	2475.158648
442.710773	2474.198308
443.086261	2472.519603
443.461689	2473.444655
443.837057	2472.776702
444.212365	2470.611527
444.587612	2471.871815
444.962800	2469.353759
445.337927	2471.418111
445.712995	2468.350569
446.088002	2472.965746
446.462949	2473.046404
446.837837	2471.806280
447.212664	2474.576394
447.587431	2471.347535
447.962139	2476.476909
448.336786	2475.829121
448.711374	2472.547330
449.085901	2474.465489
449.460369	2473.973976
449.834776	2476.202166
450.209124	2475.325006
450.583412	2475.163689
450.957640	2473.361476
451.331808	2474.778040
451.705917	2473.638740
452.079965	2477.545634
452.453954	2473.646301
452.827883	2476.804584
453.201752	2476.991107
453.575562	2474.289048
453.949311	2477.165027
454.323001	2472.854840
454.696632	2476.093782
455.070202	2475.244347
455.443713	2476.146714
455.817164	2476.834831
456.190556	2475.703092
456.563888	2475.894656
456.937160	2474.823411
457.310373	2478.659729
457.683526	2477.868268
458.056619	2477.661580
458.429653	2475.072948
458.802628	2476.895325
459.175542	2474.790643
459.548398	2477.159986
459.921194	2478.379945
460.293930	2479.425984
460.666607	2477.679224
461.039224	2477.898515
461.411782	2477.349029
461.784280	2477.124698
462.156719	2474.795684
462.529099	2475.047742
462.901419	2476.507156
463.273680	2474.042032
463.645882	2474.399954
464.018024	2474.984728
464.390106	2472.252422
464.762130	2478.478247
465.134094	2477.732157
465.505999	2478.873978
465.877845	2478.158134
466.249631	2478.437918
466.621358	2478.697538
466.993026	2477.676704
467.364634	2482.100316
467.736184	2479.879688
468.107674	2478.475727
468.479105	2480.154431
468.850477	2481.170223
469.221790	2478.097640
469.593043	2477.540593
469.964238	2478.090078
470.335373	2478.939513
470.706449	2479.962867
471.077467	2479.660398
471.448425	2478.722743
471.819324	2479.171406
472.190164	2481.331540
472.560945	2478.659729
472.931667	2478.926910
473.302330	2477.464975
473.672934	2479.655357
474.043479	2478.884060
474.413965	2478.926910
474.784393	2478.417753
475.154761	2481.349184
475.525070	2479.967908
475.895321	2479.362970
476.265513	2478.067393
476.635645	2476.764255
477.005719	2477.500263
477.375734	2478.962198
477.745691	2476.570171
478.115588	2481.059318
478.485427	2479.360449
478.855207	2479.357929
479.224928	2482.135604
479.594591	2480.373721
479.964194	2478.906745
480.333739	2479.867085
480.703226	2481.732312
481.072653	2482.211222
481.442022	2481.059318
481.811333	2477.215438
482.180584	2476.242496
482.549777	2478.906745
482.918912	2475.440952
483.287988	2479.975470
483.657005	2479.670480
484.025964	2481.369349
484.394864	2480.353557
484.763706	2477.764924
485.132489	2482.614514
485.501213	2480.330871
485.869879	2480.587970
486.238487	2482.894298
486.607036	2480.625779
486.975527	2483.322796
487.343959	2482.427991
487.712333	2478.785758
488.080648	2482.559061
488.448905	2479.718371
488.817104	2479.972949
489.185244	2482.433032
489.553326	2478.233751
489.921350	2482.168372
490.289315	2481.976808
490.657222	2482.919504
491.025070	2484.653661
491.392861	2481.520584
491.760593	2481.097127
492.128267	2482.314565
492.495883	2479.390696
492.863440	2483.579895
493.230939	2482.964874
493.598380	2482.165851
493.965763	2482.007055
494.333088	2480.552682
494.700354	2481.833135
495.067563	2479.972949
495.434713	2482.180975
495.801805	2481.760038
496.168839	2483.844556
496.535815	2480.764411
496.902733	2481.999493
497.269593	2482.536376
497.636395	2481.727271
498.003139	2482.312045
498.369825	2482.271716
498.736453	2479.720892
499.103023	2483.010245
499.469535	2484.908239
499.835989	2483.718527
500.202385	2480.887919
500.568723	2476.373566
500.935003	2484.323465
501.301226	2476.038329
501.667390	2484.152066
502.033497	2482.566623
502.399546	2481.061839
502.765537	2482.188537
503.131470	2480.981180
503.497345	2484.502426
503.863163	2482.876654
504.228923	2483.302632
504.594625	2484.527632
504.960269	2484.005873
505.325856	2480.875316
505.691385	2485.868579
506.056856	2484.063846
506.422270	2483.501757
506.787625	2483.201808
507.152924	2482.574185
507.518164	2482.707775
507.883347	2484.578043
508.248472	2481.674339
508.613540	2483.282467
508.978550	2484.557879
509.343503	2482.904380
509.708398	2483.847076
510.073236	2483.088383
510.438016	2485.301449
510.802738	2481.883547
511.167403	2483.552169
511.532010	2482.206181
511.896561	2486.314721
512.261053	2479.549493
512.625488	2484.512508
512.989866	2482.354895
513.354186	2483.516881
513.718449	2483.721047
514.082655	2485.069556
514.446803	2481.770121
514.810894	2484.240286
515.174927	2486.087869
515.538904	2483.652992
515.902822	2484.280615
516.266684	2485.155256
516.630488	2483.176603
516.994235	2484.820019
517.357925	2484.643578
517.721558	2484.452015
518.085133	2484.817498
518.448651	2481.565954
518.812112	2480.613176
519.175516	2481.926397
519.538863	2479.854482
519.902152	2484.699031
520.265385	2482.067549
520.628560	2482.972436
520.991678	2484.404124
521.354739	2484.109216
521.717743	2483.353043
522.080690	2483.471510
522.443580	2483.713486
522.806413	2485.369505
523.169189	2482.642240
523.531908	2484.232724
523.894569	2485.077118
524.257174	2486.473517
524.619722	2484.711634
524.982213	2486.841522
525.344647	2482.478403
525.707025	2485.278764
526.069345	2484.555358
526.431608	2486.712972
526.793815	2484.736840
527.155964	2488.144660
527.518057	2484.056284
527.880093	2484.000831
528.242072	2484.845225
528.603995	2484.182313
528.965860	2484.630976
529.327669	2485.772797
529.689421	2484.515029
530.051117	2486.357571
530.412755	2486.143322
530.774337	2485.162817
531.135862	2482.090234
531.497331	2488.187510
531.858743	2483.287508
532.220098	2486.317242
532.581396	2485.969402
532.942638	2487.143991
533.303824	2485.119967
533.664953	2485.326655
534.026025	2483.032930
534.387040	2483.610142
534.747999	2485.513178
535.108902	2483.257261
535.469748	2487.612818
535.830537	2483.111068
536.191270	2484.515029
536.551947	2482.722899
536.912567	2482.425471
537.273131	2481.139977
537.633638	2479.768783
537.994089	2484.333547
538.354483	2486.128198
538.714821	2485.482931
539.075103	2480.950933
539.435328	2484.898157
539.795497	2484.361274
540.155609	2485.825729
540.515665	2489.115082
540.875665	2487.199443
541.235609	2485.145173
541.595496	2484.378918
541.955328	2486.229021
542.315102	2485.911429
542.674821	2487.683394
543.034483	2485.064515
543.394090	2487.320431
543.753640	2486.511326
544.113134	2483.915132
544.472571	2485.792962
544.831953	2484.053763
545.191278	2484.938486
545.550548	2485.475369
545.909761	2488.028713
546.268918	2487.428816
546.628019	2485.659371
546.987064	2488.268168
547.346053	2485.208188
547.704986	2486.370174
548.063863	2486.740698
548.422684	2486.254227
548.781449	2488.585761
549.140158	2487.784217
549.498811	2485.775318
549.857408	2484.414206
550.215949	2488.116933
550.574434	2484.938486
550.932864	2486.367653
551.291237	2484.459576
551.649555	2486.455873
552.007817	2483.211891
552.366022	2484.583085
552.724173	2487.080976
553.082267	2485.283805
553.440305	2485.742550
553.798288	2486.934783
554.156215	2487.113744
554.514086	2484.701552
554.871902	2482.009576
555.229661	2485.251038
555.587365	2480.545120
555.945014	2486.665081
556.302606	2487.912767
556.660143	2486.138281
557.017625	2485.656850
557.375050	2487.164155
557.732421	2484.202478
558.089735	2486.347488
558.446994	2483.403455
558.804197	2484.313383
559.161345	2483.491675
559.518437	2485.813126
559.875474	2484.124340
560.232455	2484.585605
560.589381	2486.831439
560.946251	2483.085862
561.303065	2485.898826
561.659825	2486.145842
562.016528	2485.934114
562.373177	2485.780359
562.729770	2482.773310
563.086307	2484.913280
563.442789	2486.617190
563.799216	2487.312869
564.155587	2483.912611
564.511904	2487.559886
564.868164	2483.519401
565.224370	2487.040647
565.580520	2486.866727
565.936615	2488.550473
566.292654	2487.149032
566.648638	2486.791110
567.004567	2485.064515
567.360441	2484.613332
567.716260	2484.943527
568.072023	2483.443784
568.427732	2486.574340
568.783385	2486.307159
569.138982	2485.760194
569.494525	2486.110554
569.850013	2487.083497
570.205445	2486.652478
570.560823	2484.210039
570.916145	2486.249186
571.271412	2483.731130
571.626625	2484.686428
571.981782	2482.760708
572.336884	2484.915801
572.691931	2483.884885
573.046923	2485.815647
573.401860	2482.700214
573.756743	2486.407982
574.111570	2485.513178
574.466342	2485.344299
574.821059	2489.354537
575.175722	2488.913436
575.530330	2486.198774
575.884882	2484.353712
576.239380	2483.831953
576.593823	2487.741367
576.948211	2485.114926
577.302544	2486.226501
577.656823	2487.542242
578.011047	2484.734319
578.365216	2483.383290
578.719330	2485.825729
579.073389	2487.312869
579.427394	2488.512664
579.781344	2487.053250
580.135239	2482.637199
580.489080	2486.871768
580.842866	2485.798003
581.196597	2486.682725
581.550273	2487.091059
581.903895	2485.934114
582.257463	2484.928404
582.610975	2487.181799
582.964434	2486.511326
583.317837	2487.065853
583.671186	2486.246665
584.024481	2487.033085
584.377721	2485.853455
584.730906	2486.120637
585.084037	2490.052737
585.437113	2489.258755
585.790135	2487.963178
586.143103	2486.730616
586.496016	2486.360091
586.848874	2485.876141
587.201679	2484.041161
587.554428	2488.008549
587.907124	2488.104331
588.259765	2487.912767
588.612352	2483.907570
588.964884	2487.010400
589.317362	2486.410503
589.669786	2484.517550
590.022155	2485.566110
590.374470	2480.797178
590.726731	2485.452684
591.078937	2483.383290
591.431090	2488.679022
591.783188	2483.794144
592.135232	2484.701552
592.487222	2485.903867
592.839157	2487.789258
593.191038	2483.814309
593.542866	2488.386635
593.894639	2486.750781
594.246358	2488.958806
594.598022	2487.249855
594.949633	2486.360091
595.301190	2486.791110
595.652692	2484.814978
596.004141	2485.999649
596.355535	2486.092910
596.706876	2485.969402
597.058162	2490.002325
597.409395	2488.132057
597.760573	2485.558548
598.111698	2487.731285
598.462768	2489.213384
598.813785	2485.364463
599.164748	2483.012765
599.515657	2486.896974
599.866511	2487.176758
600.217312	2485.896305
600.568060	2483.768938
600.918753	2488.439567
601.269392	2483.859679
601.619978	2487.355719
601.970510	2484.197436
602.320988	2486.203816
602.671412	2486.203816
603.021783	2483.413537
603.372100	2488.071563
603.722363	2484.389000
604.072572	2484.893116
604.422728	2484.240286
604.772830	2487.345637
605.122878	2487.030565
605.472872	2486.082828
605.822813	2485.583754
606.172701	2487.020482
606.522534	2487.806903
606.872314	2485.954278
607.222041	2485.866058
607.571714	2485.694659
607.921333	2482.581747
608.270899	2483.779021
608.620411	2482.569144
608.969870	2487.416213
609.319276	2484.852786
609.668627	2487.554845
610.017926	2486.196254
610.367171	2485.346819
610.716362	2484.767087
611.065500	2486.823877
611.414585	2488.227839
611.763616	2485.422437
612.112594	2486.075266
612.461518	2485.780359
612.810389	2485.399752
613.159207	2485.024186
613.507971	2486.959989
613.856682	2483.388331
614.205340	2486.927221
614.553945	2485.271202
614.902496	2485.424957
615.250994	2485.893785
615.599439	2487.582571
615.947830	2485.319093
616.296169	2485.979484
616.644454	2486.397900
616.992686	2484.467138
617.340864	2488.863024
617.688990	2485.929073
618.037063	2484.653661
618.385082	2486.241624
618.733048	2485.346819
619.080961	2482.891778
619.428821	2488.394197
619.776628	2486.183651
620.124382	2487.660709
620.472083	2485.654330
620.819731	2487.948055
621.167326	2488.621049
621.514868	2488.036275
621.862357	2485.392190
622.209793	2487.476707
622.557176	2485.399752
622.904506	2486.206336
623.251783	2486.909577
623.599007	2485.792962
623.946179	2488.978971
624.293297	2483.968064
624.640363	2485.243476
624.987376	2483.015286
625.334336	2482.223825
625.681243	2483.484113
626.028097	2482.364977
626.374899	2485.442601
626.721647	2486.692808
627.068343	2487.078456
627.414987	2487.007880
627.761577	2488.394197
628.108115	2486.954948
628.454600	2485.677015
628.801032	2486.249186
629.147412	2485.462766
629.493739	2485.747591
629.840014	2485.576192
630.186236	2487.905205
630.532405	2485.326655
630.878521	2484.318424
631.224585	2489.473004
631.570597	2487.219608
631.916556	2485.125009
632.262462	2489.246152
632.608316	2483.126191
632.954117	2487.688435
633.299866	2484.865389
633.645562	2485.303970
633.991206	2483.743733
634.336797	2485.261120
634.682336	2488.056440
635.027823	2486.249186
635.373257	2482.977477
635.718639	2485.276243
636.063968	2486.372694
636.409245	2486.561737
636.754470	2485.036788
637.099642	2487.053250
637.444762	2485.407313
637.789829	2485.462766
638.134845	2487.771614
638.479808	2484.439412
638.824719	2486.710452
639.169577	2485.916470
639.514383	2486.155925
639.859137	2485.490492
640.203839	2488.121975
640.548489	2487.806903
640.893086	2485.969402
641.237632	2483.867241
641.582125	2487.030565
641.926566	2481.868423
642.270955	2484.341109
642.615292	2481.568475
642.959576	2483.186685
643.303809	2479.433546
643.647990	2485.321614
643.992118	2484.946048
644.336195	2485.593836
644.680219	2484.179792
645.024192	2485.051912
645.368112	2484.273054
645.711981	2486.027375
646.055797	2484.729278
646.399562	2486.929742
646.743274	2485.107365
647.086935	2486.980153
647.430544	2485.223311
647.774101	2488.033754
648.117606	2483.446304
648.461059	2485.898826
648.804460	2487.380925
649.147810	2484.487303
649.491108	2486.234063
649.834354	2487.481748
650.177548	2486.667602
650.520690	2487.605256
650.863781	2484.857828
651.206820	2488.563076
651.549807	2487.259937
651.892742	2487.915287
652.235626	2486.511326
652.578458	2484.492344
652.921238	2486.266830
653.263967	2485.624083
653.606644	2486.251707
653.949269	2486.246665
654.291843	2483.642909
654.634365	2486.274392
654.976836	2484.182313
655.319255	2484.893116
655.661622	2486.337406
656.003938	2486.317242
656.346203	2483.264823
656.688416	2485.850935
657.030577	2484.963692
657.372687	2486.191213
657.714746	2484.625934
658.056753	2487.154073
658.398708	2483.108547
658.740612	2486.463435
659.082465	2486.375215
659.424266	2483.879844
659.766016	2481.155100
660.107715	2482.748105
660.449362	2478.664770
660.790958	2484.840183
661.132503	2486.276912
661.473996	2483.554689
661.815438	2486.730616
662.156829	2485.472848
662.498168	2487.368322
662.839456	2484.462097
663.180693	2484.686428
663.521879	2485.135091
663.863013	2482.491006
664.204097	2485.266161
664.545129	2486.173569
664.886110	2484.908239
665.227040	2485.661892
665.567918	2486.672643
665.908746	2483.829432
666.249522	2483.612663
666.590248	2488.240442
666.930922	2485.818167
667.271545	2485.626603
667.612118	2486.602067
667.952639	2482.594349
668.293109	2484.794813
668.633528	2485.152735
668.973896	2483.968064
669.314213	2484.361274
669.654480	2485.931593
669.994695	2484.646099
670.334859	2486.942345
670.674973	2484.109216
671.015035	2485.198105
671.355047	2486.155925
671.695008	2483.353043
672.034918	2483.892447
672.374777	2482.937148
672.714585	2484.872951
673.054342	2487.844711
673.394049	2483.579895
673.733705	2487.993425
674.073310	2484.754484
674.412864	2484.772128
674.752368	2483.239617
675.091820	2482.869092
675.431223	2485.049391
675.770574	2484.492344
676.109875	2481.006386
676.449125	2482.705255
676.788324	2478.427836
677.127473	2482.700214
677.466571	2480.915645
677.805619	2486.085348
678.144616	2483.098465
678.483562	2485.049391
678.822458	2483.963023
679.161303	2485.041830
679.500098	2487.426295
679.838842	2486.778507
680.177535	2484.908239
680.516179	2486.327324
680.854771	2485.296408
681.193314	2485.969402
681.531805	2487.643065
681.870247	2483.784062
682.208638	2484.623414
682.546978	2483.463948
682.885268	2484.441932
683.223508	2484.898157
683.561697	2487.816985
683.899836	2485.283805
684.237925	2487.582571
684.575963	2487.224649
684.913951	2482.869092
685.251889	2487.441419
685.589776	2484.225163
685.927614	2486.407982
686.265401	2485.072077
686.603137	2486.844042
686.940824	2483.179123
687.278460	2487.010400
687.616046	2485.049391
687.953582	2484.714155
688.291068	2483.685759
688.628504	2483.426140
688.965889	2481.402117
689.303224	2485.611480
689.640510	2483.040492
689.977745	2482.833804
690.314930	2485.830770
690.652065	2485.104844
690.989150	2483.975626
691.326185	2484.951089
691.663170	2482.901860
692.000105	2483.975626
692.336990	2486.745740
692.673825	2484.598208
693.010610	2483.317755
693.347345	2484.462097
693.684030	2478.357260
694.020665	2483.274905
694.357251	2477.265850
694.693786	2483.910091
695.030272	2485.384628
695.366707	2485.175420
695.703093	2484.464618
696.039429	2482.077631
696.375716	2483.811788
696.711952	2482.667446
697.048139	2485.286326
697.384276	2483.781541
697.720363	2487.287664
698.056400	2482.775831
698.392388	2486.410503
698.728326	2484.303301
699.064214	2484.315903
699.400053	2482.934627
699.735842	2483.806747
700.071581	2482.095275
700.407270	2485.296408
700.742910	2483.937817
701.078501	2486.786069
701.414042	2485.845894
701.749533	2484.762046
702.084974	2485.004021
702.420366	2484.701552
702.755709	2484.194916
703.091002	2487.244814
703.426246	2482.606952
703.761440	2484.545276
704.096584	2487.721203
704.431679	2481.938999
704.766725	2485.344299
705.101721	2483.829432
705.436668	2483.968064
705.771565	2483.915132
706.106413	2483.458907
706.441212	2485.125009
706.775961	2483.284988
707.110661	2484.530152
707.445311	2485.861017
707.779913	2483.184164
708.114465	2485.646768
708.448967	2484.010914
708.783421	2484.794813
709.117825	2484.217601
709.452180	2485.987046
709.786485	2485.601398
710.120742	2482.251551
710.454949	2479.942703
710.789107	2481.823053
711.123216	2480.109061
711.457275	2486.576861
711.791286	2485.770276
712.125247	2484.066366
712.459159	2484.487303
712.793023	2483.733650
713.126837	2483.184164
713.460602	2482.836325
713.794318	2484.162148
714.127985	2486.095431
714.461602	2482.049905
714.795171	2483.574854
715.128691	2482.470841
715.462162	2485.140132
715.795584	2481.533187
716.128957	2484.469659
716.462281	2484.126860
716.795556	2484.391521
717.128782	2484.174751
717.461960	2483.988228
717.795088	2483.080821
718.128167	2485.135091
718.461198	2480.973618
718.794180	2484.351192
719.127113	2484.436891
719.459997	2486.347488
719.792833	2482.886736
720.125619	2485.732468
720.458357	2481.190388
720.791046	2483.647951
721.123686	2484.184833
721.456278	2482.780872
721.788821	2485.908908
722.121315	2484.197436
722.453761	2485.182982
722.786158	2482.314565
723.118506	2482.884216
723.450805	2485.825729
723.783056	2484.552838
724.115259	2484.673825
724.447412	2482.649802
724.779518	2483.335399
725.111574	2483.852117
725.443582	2484.797334
725.775542	2484.315903
726.107453	2487.244814
726.439315	2482.024699
726.771129	2487.290184
727.102895	2479.166365
727.434612	2483.605101
727.766281	2475.745942
728.097901	2485.419916
728.429473	2482.067549
728.760996	2484.913280
729.092471	2482.770790
729.423897	2483.799185
729.755276	2482.599391
730.086606	2481.855820
730.417887	2483.889926
730.749120	2483.683239
731.080305	2482.168372
731.411442	2486.019813
731.742530	2482.173413
732.073570	2483.516881
732.404562	2484.336068
732.735506	2485.727427
733.066401	2482.196098
733.397249	2481.145018
733.728048	2483.993270
734.058798	2485.026706
734.389501	2480.885398
734.720156	2483.305152
735.050762	2482.697693
735.381320	2480.860193
735.711831	2484.073928
736.042293	2483.476551
736.372707	2483.446304
736.703073	2484.026037
737.033391	2483.010245
737.363661	2486.486120
737.693883	2482.874133
738.024056	2483.458907
738.354182	2483.322796
738.684260	2484.323465
739.014290	2484.126860
739.344272	2482.059987
739.674207	2484.487303
740.004093	2485.671974
740.333931	2485.324134
740.663722	2483.337920
740.993464	2483.237097
741.323159	2484.429329
741.652806	2481.888588
741.982405	2482.175934
742.311956	2483.842035
742.641460	2482.163331
742.970915	2482.594349
743.300323	2480.250213
743.629683	2479.940182
743.958996	2480.658546
744.288260	2476.635706
744.617477	2482.536376
744.946647	2483.935296
745.275768	2484.300780
745.604842	2481.182826
745.933869	2483.804226
746.262847	2482.281798
746.591778	2483.093424
746.920662	2483.869761
747.249498	2482.609473
747.578286	2482.095275
747.907027	2485.636686
748.235720	2481.931438
748.564365	2480.698876
748.892963	2483.602580
749.221514	2482.080152
749.550017	2482.942189
749.878473	2481.364308
750.206881	2482.637199
750.535242	2485.356902
750.863555	2483.211891
751.191821	2482.087713
751.520039	2482.259113
751.848210	2482.556541
752.176334	2481.497898
752.504411	2481.273567
752.832440	2482.599391
753.160421	2483.106027
753.488356	2482.286839
753.816243	2482.722899
754.144082	2482.934627
754.471875	2483.630307
754.799620	2482.496047
755.127318	2485.997128
755.454969	2482.634679
755.782572	2483.786582
756.110129	2484.343630
756.437638	2481.873464
756.765100	2481.795327
757.092515	2483.705924
757.419882	2480.043526
757.747203	2483.065697
758.074477	2486.440750
758.401703	2482.117960
758.728882	2483.194247
759.056014	2481.094606
759.383099	2482.581747
759.710138	2480.204842
760.037129	2477.654019
760.364073	2480.696355
760.690970	2475.685448
761.017820	2482.488485
761.344623	2484.033599
761.671379	2484.373877
761.998088	2481.956643
762.324751	2485.518219
762.651366	2482.286839
762.977935	2482.390183
763.304456	2483.912611
763.630931	2481.210553
763.957359	2480.978660
764.283740	2481.681901
764.610074	2481.412199
764.936362	2482.677528
765.262602	2483.118629
765.588796	2481.873464
765.914943	2482.352374
766.241044	2481.757518
766.567097	2482.354895
766.893104	2482.707775
767.219064	2481.616366
767.544978	2481.563433
767.870845	2482.034781
768.196665	2483.630307
768.522438	2482.082672
768.848165	2483.834473
769.173846	2481.495378
769.499479	2484.409165
769.825066	2482.193578
770.150607	2484.966212
770.476101	2482.075111
770.801548	2484.671305
771.126949	2483.584936
771.452303	2481.046715
771.777611	2482.884216
772.102872	2484.472179
772.428087	2483.569813
772.753256	2482.236427
773.078378	2481.117291
773.403453	2482.798516
773.728482	2483.814309
774.053465	2481.807929
774.378401	2483.312714
774.703291	2483.645430
775.028135	2482.559061
775.352932	2480.719040
775.677683	2481.553351
776.002388	2480.903042
776.327046	2476.005561
776.651658	2481.450008
776.976224	2477.386837
777.300743	2481.959164
777.625216	2484.109216
777.949643	2482.322127
778.274024	2482.092755
778.598359	2481.492857
778.922647	2480.996304
779.246889	2483.428660
779.571086	2481.918835
779.895236	2480.734164
780.219339	2481.903711
780.543397	2480.504791
780.867409	2483.055615
781.191374	2483.700883
781.515294	2481.845738
781.839167	2481.359267
782.162995	2483.443784
782.486776	2482.881695
782.810511	2481.588639
783.134201	2479.615028
783.457844	2481.513022
783.781441	2484.736840
784.104993	2481.228197
784.428498	2483.282467
784.751958	2479.045377
785.075372	2483.957982
785.398739	2482.977477
785.722061	2483.237097
786.045337	2482.964874
786.368568	2483.292549
786.691752	2482.927066
787.014891	2481.402117
787.337983	2482.211222
787.661030	2481.908753
787.984031	2480.799699
788.306987	2483.179123
788.629897	2483.892447
788.952760	2481.671818
789.275579	2480.096458
789.598351	2483.093424
789.921078	2483.194247
790.243759	2481.293732
790.566395	2482.261633
790.888984	2483.501757
791.211529	2482.919504
791.534027	2482.818681
791.856480	2481.729792
792.178888	2480.557723
792.501249	2475.693010
792.823566	2480.043526
793.145836	2476.895325
793.468062	2483.375728
793.790241	2480.885398
794.112375	2481.089565
794.434464	2479.620069
794.756507	2483.368167
795.078505	2480.613176
795.400457	2481.598722
795.722364	2480.124184
796.044226	2483.332878
796.366042	2481.364308
796.687812	2482.291880
797.009538	2479.380614
797.331218	2481.223156
797.652852	2479.168885
797.974442	2481.069400
798.295986	2481.938999
798.617484	2481.863382
798.938938	2483.733650
799.260346	2482.846407
799.581709	2479.352888
799.903026	2483.169041
800.224299	2481.263485
800.545526	2483.277426
800.866708	2479.057980
801.187845	2479.557054
801.508936	2481.553351
801.829983	2481.555872
802.150984	2479.998155
802.471940	2482.916983
802.792851	2479.846921
803.113717	2481.339102
803.434538	2481.283649
803.755314	2483.070738
804.076045	2480.635861
804.396731	2482.324648
804.717372	2479.746098
805.037967	2480.358598
805.358518	2479.446149
805.679024	2482.831284
805.999485	2482.110399
806.319901	2482.879175
806.640272	2480.887919
806.960598	2481.240800
807.280879	2479.889770
807.601115	2483.053094
807.921306	2483.194247
808.241453	2477.648978
808.561554	2475.866930
808.881611	2479.297435
809.201623	2473.550519
809.521590	2481.460090
809.841513	2480.116622
810.161390	2478.861375
810.481223	2481.422281
810.801011	2482.634679
811.120755	2481.082003
811.440453	2481.762559
811.760107	2479.695686
812.079716	2481.946561
812.399281	2479.204173
812.718801	2483.595018
813.038276	2479.922538
813.357707	2481.573516
813.677093	2481.208032
813.996434	2481.167703
814.315731	2478.412712
814.634983	2479.917497
814.954191	2482.357415
815.273354	2479.947744
815.592473	2481.248361
815.911547	2479.662918
816.230577	2483.746253
816.549562	2483.370687
816.868502	2480.582929
817.187399	2480.890439
817.506250	2481.001345
817.825058	2480.144349
818.143821	2481.863382
818.462539	2480.078814
818.781213	2479.194091
819.099843	2480.945892
819.418429	2479.725933
819.736970	2479.579739
820.055466	2478.047229
820.373919	2482.611993
820.692327	2481.702065
821.010691	2479.879688
821.329011	2481.079483
821.647286	2481.528145
821.965517	2481.311376
822.283704	2482.977477
822.601847	2480.882878
822.919945	2482.448156
823.237999	2481.258444
823.556010	2480.454380
823.873976	2479.312558
824.191897	2478.203504
824.509775	2475.388020
824.827609	2478.911787
825.145398	2476.723926
825.463144	2481.326499
825.780845	2482.039822
826.098502	2481.013948
826.416116	2478.851293
826.733685	2480.824904
827.051210	2481.931438
827.368692	2482.780872
827.686129	2482.732981
828.003522	2479.045377
828.320872	2480.293063
828.638177	2481.500419
828.955439	2480.620738
829.272656	2481.581078
829.589830	2478.952116
829.906960	2480.557723
830.224046	2478.437918
830.541088	2479.920017
830.858086	2478.992445
831.175041	2481.986890
831.491952	2479.627630
831.808819	2482.614514
832.125642	2478.758031
832.442421	2479.289873
832.759157	2480.900522
833.075849	2478.821046
833.392497	2481.104688
833.709101	2480.141828
834.025662	2481.109730
834.342179	2481.616366
834.658653	2480.915645
834.975083	2480.567806
835.291469	2482.160810
835.607811	2478.969760
835.924110	2479.993114
836.240366	2479.206694
836.556578	2481.308855
836.872746	2482.463279
837.188871	2483.310193
837.504952	2480.207363
837.820990	2479.075624
838.136984	2480.958495
838.452935	2481.039153
838.768842	2478.455562
839.084706	2478.163175
839.400526	2481.669298
839.716303	2481.331540
840.032037	2479.594863
840.347727	2475.756024
840.663373	2477.845582
840.978977	2475.947588
841.294537	2479.332723
841.610054	2479.831797
841.925527	2481.102168
842.240957	2477.696868
842.556344	2480.363639
842.871687	2481.114771
843.186987	2479.027733
843.502244	2480.645943
843.817458	2478.120325
844.132629	2478.195943
844.447756	2478.369863
844.762840	2479.037815
845.077881	2480.905563
845.392879	2480.777013
845.707833	2480.993783
846.022745	2479.549492
846.337613	2478.805922
846.652438	2479.292394
846.967221	2483.741212
847.281960	2479.632672
847.596656	2482.216263
847.911309	2483.295070
848.225919	2481.591160
848.540485	2478.327013
848.855009	2480.799699
849.169490	2478.430356
849.483928	2482.745584
849.798323	2480.744246
850.112675	2481.457569
850.426984	2477.641416
850.741251	2480.595532
851.055474	2479.315079
851.369654	2479.488999
851.683792	2478.301807
851.997887	2481.697024
852.311938	2478.198463
852.625947	2481.291211
852.939914	2479.224338
853.253837	2480.338433
853.567718	2481.495378
853.881555	2478.450521
854.195350	2480.852631
854.509103	2478.589153
854.822812	2480.401448
855.136479	2482.387662
855.450103	2480.789616
855.763685	2478.150572
856.077224	2477.031436
856.390720	2476.766776
856.704173	2476.814667
857.017584	2480.477065
857.330953	2479.025213
857.644278	2480.537559
857.957561	2481.477734
858.270802	2478.294245
858.584000	2480.343474
858.897155	2478.415233
859.210268	2478.463124
859.523339	2482.329689
859.836367	2482.296921
860.149352	2479.786427
860.462295	2479.559575
860.775195	2480.033443
861.088054	2482.279277
861.400869	2481.197950
861.713642	2480.393886
862.026373	2480.537559
862.339062	2477.704430
862.651708	2478.642085
862.964312	2480.225007
863.276873	2480.661067
863.589392	2479.738536
863.901869	2481.243320
864.214303	2479.073103
864.526696	2483.612662
864.839045	2480.048567
865.151353	2478.810963
865.463619	2481.182826
865.775842	2479.499081
866.088023	2476.872640
866.400162	2480.192240
866.712258	2478.100161
867.024313	2480.260295
867.336325	2476.363483
867.648296	2478.473206
867.960224	2479.201653
868.272110	2480.736684
868.583954	2478.626961
868.895755	2479.131077
869.207515	2479.597383
869.519233	2480.633341
869.830909	2478.679893
870.142542	2479.746098
870.454134	2477.548154
870.765684	2481.528145
871.077191	2476.663432
871.388657	2476.711323
871.700081	2475.181333
872.011463	2478.286683
872.322803	2472.479274
872.634101	2479.425984
872.945357	2479.055459
873.256571	2479.887250
873.567744	2477.906076
873.878874	2479.007568
874.189963	2477.054121
874.501010	2479.269708
874.812015	2478.039667
875.122979	2480.285501
875.433900	2480.613176
875.744780	2480.177116
876.055618	2479.340285
876.366415	2479.688124
876.677169	2479.912456
876.987882	2478.788278
877.298554	2478.100161
877.609183	2480.908083
877.919771	2481.888588
878.230317	2478.180819
878.540822	2482.324648
878.851285	2480.590491
879.161707	2478.284163
879.472087	2481.039153
879.782425	2480.033443
880.092722	2477.407002
880.402977	2480.567806
880.713191	2477.895994
881.023363	2478.498412
881.333494	2479.937661
881.643583	2478.836169
881.953631	2478.478247
882.263637	2480.013279
882.573602	2476.320633
882.883526	2479.236941
883.193408	2475.909779
883.503248	2481.374390
883.813048	2478.359780
884.122806	2477.434728
884.432522	2478.485809
884.742197	2479.052939
885.051831	2479.642754
885.361424	2477.969091
885.670975	2478.884060
885.980485	2479.080665
886.289954	2480.973618
886.599382	2476.746611
886.908768	2476.436580
887.218113	2472.668318
887.527417	2479.874647
887.836680	2474.508339
888.145901	2476.592856
888.455082	2477.538072
888.764221	2480.847590
889.073319	2477.802733
889.382376	2478.503453
889.691392	2479.705768
890.000366	2480.403968
890.309300	2477.376755
890.618193	2481.089565
890.927044	2477.054121
891.235855	2480.988742
891.544625	2476.227372
891.853353	2476.749132
892.162041	2477.346508
892.470687	2478.062352
892.779293	2477.482619
893.087858	2481.376911
893.396381	2479.970429
893.704864	2479.942702
894.013306	2479.423464
894.321707	2479.151241
894.630068	2476.555047
894.938387	2479.640233
895.246665	2478.062352
895.554903	2476.786940
895.863100	2479.501602
896.171256	2480.048567
896.479371	2478.117805
896.787446	2477.661580
897.095480	2477.709471
897.403473	2477.533031
897.711425	2478.006899
898.019336	2477.482619
898.327207	2481.092086
898.635038	2476.423977
898.942827	2478.732826
899.250576	2478.770634
899.558284	2475.884574
899.865952	2479.141159
900.173579	2479.211735
900.481165	2480.580408
900.788711	2476.686117
901.096216	2480.603094
901.403681	2476.401292
901.711105	2478.568988
902.018489	2476.229893
902.325832	2478.710140
902.633135	2475.188894
902.940397	2476.083699
903.247619	2473.916003
903.554800	2479.945223
903.861941	2476.930613
904.169041	2478.321972
904.476101	2475.758545
904.783121	2478.684935
905.090100	2479.995635
905.397039	2481.008907
905.703938	2478.115284
906.010796	2478.016982
906.317614	2477.470017
906.624391	2482.062508
906.931129	2475.229224
907.237826	2476.136631
907.544483	2479.118474
907.851099	2477.379276
908.157675	2477.550675
908.464211	2478.758031
908.770707	2479.247023
909.077163	2478.190902
909.383578	2476.423977
909.689954	2476.048411
909.996289	2479.536890
910.302584	2478.460603
910.608839	2476.673514
910.915054	2477.822897
911.221229	2478.763073
911.527363	2480.741725
911.833458	2476.149234
912.139513	2480.119143
912.445527	2475.660242
912.751502	2481.913794
913.057436	2478.992445
913.363331	2479.728453
913.669186	2476.628144
913.975000	2477.099492
914.280775	2475.982876
914.586510	2477.195274
914.892205	2479.247023
915.197859	2477.467496
915.503475	2478.077476
915.809050	2478.014461
916.114585	2478.866416
916.420081	2476.580253
916.725536	2479.027733
917.030952	2479.481437
917.336328	2479.471355
917.641665	2475.105715
917.946961	2472.464151
918.252218	2474.823411
918.557435	2474.309213
918.862612	2477.762403
919.167750	2478.735346
919.472848	2479.247023
919.777906	2476.106384
920.082925	2473.653863
920.387904	2477.759883
920.692843	2478.884060
920.997743	2477.792650
921.302603	2476.050932
921.607423	2477.822897
921.912204	2478.934472
922.216946	2480.212404
922.521647	2481.878506
922.826310	2477.694348
923.130932	2479.849441
923.435516	2479.587301
923.740059	2474.631847
924.044564	2478.576550
924.349028	2477.449852
924.653454	2477.727115
924.957840	2478.649647
925.262186	2477.530510
925.566493	2475.771148
925.870761	2474.440283
926.174989	2479.105871
926.479178	2477.190233
926.783328	2478.211066
927.087438	2477.953967
927.391509	2479.587301
927.695541	2478.321972
927.999533	2473.618575
928.303486	2476.892804
928.607400	2477.512866
928.911275	2478.092599
929.215110	2480.230048
929.518906	2476.537403
929.822663	2478.004379
930.126381	2476.983545
930.430060	2480.033443
930.733699	2477.205356
931.037299	2478.190902
931.340861	2478.745428
931.644383	2477.386837
931.947866	2478.664770
932.251309	2477.273412
932.554714	2476.925572
932.858080	2474.210911
933.161407	2472.018009
933.464694	2475.579584
933.767943	2471.271918
934.071153	2478.768114
934.374323	2476.355922
934.677455	2479.345326
934.980548	2475.526652
935.283602	2475.849286
935.586617	2475.451034
935.889593	2479.345326
936.192530	2474.876343
936.495428	2476.580253
936.798287	2479.068062
937.101108	2477.835500
937.403890	2476.242496
937.706632	2478.072434
938.009336	2475.168730
938.312002	2475.720736
938.614628	2473.285859
938.917216	2479.022692
939.219765	2479.257106
939.522275	2476.408854
939.824747	2476.555047
940.127179	2480.580408
940.429573	2479.345326
940.731929	2477.722074
941.034246	2481.099647
941.336524	2475.395582
941.638763	2477.011272
941.940964	2475.894656
942.243126	2479.010089
942.545250	2479.080665
942.847335	2475.020016
943.149381	2474.979687
943.451389	2476.199646
943.753359	2477.263329
944.055290	2475.992958
944.357182	2477.553196
944.659036	2473.946250
944.960851	2475.839203
945.262628	2476.192084
945.564367	2477.754842
945.866067	2477.432208
946.167729	2477.956488
946.469352	2477.795171
946.770937	2475.924903
947.072484	2473.863071
947.373992	2477.059163
947.675462	2477.278453
947.976893	2474.674697
948.278286	2472.262505
948.579641	2475.824080
948.880958	2471.667648
949.182236	2480.542600
949.483476	2473.560602
949.784678	2475.844244
950.085841	2477.301138
950.386967	2476.184522
950.688054	2476.870119
950.989103	2478.309369
951.290114	2479.254585
951.591087	2479.448669
951.892021	2473.870633
952.192917	2476.817187
952.493776	2475.418267
952.794596	2479.143680
953.095378	2475.735860
953.396122	2478.432877
953.696828	2476.280304
953.997496	2474.828452
954.298126	2477.885912
954.598718	2473.421970
954.899272	2475.955150
955.199788	2475.642598
955.500266	2478.112764
955.800706	2478.682414
956.101108	2477.303658
956.401472	2474.115129
956.701798	2474.072279
957.002087	2474.946919
957.302337	2475.017495
957.602550	2476.517238
957.902724	2480.827425
958.202861	2478.924389
958.502960	2478.798361
958.803022	2477.286014
959.103045	2476.670994
959.403031	2477.399440
959.702979	2477.321303
960.002889	2477.248206
960.302762	2479.718371
960.602596	2480.681232
960.902393	2476.040849
961.202153	2477.651498
961.501875	2475.178812
961.801559	2474.435242
962.101205	2478.042187
962.400814	2477.268370
962.700385	2473.545478
962.999918	2475.564460
963.299414	2471.297124
963.598873	2473.621096
963.898293	2472.454068
964.197677	2477.888432
964.497022	2473.777371
964.796331	2475.882053
965.095601	2476.580253
965.394835	2475.894656
965.694030	2475.372897
965.993189	2476.302989
966.292309	2476.471868
966.591393	2478.687455
966.890439	2480.277939
967.189447	2475.395582
967.488419	2475.637557
967.787353	2477.651498
968.086249	2477.522949
968.385108	2475.672845
968.683930	2473.933647
968.982714	2476.746611
969.281462	2475.874491
969.580172	2475.607310
969.878844	2476.907928
970.177480	2478.942033
970.476078	2477.328864
970.774639	2478.556385
971.073162	2476.315592
971.371649	2479.920017
971.670098	2476.827269
971.968510	2477.081848
972.266885	2474.848617
972.565223	2477.464975
972.863524	2476.943216
973.161788	2478.828608
973.460014	2476.817187
973.758204	2476.797022
974.056356	2475.014975
974.354471	2473.013637
974.652550	2474.052114
974.950591	2479.133597
975.248595	2476.650829
975.546563	2474.702423
975.844493	2478.876498
976.142386	2476.502115
976.440243	2477.585963
976.738062	2478.818525
977.035845	2476.761734
977.333590	2478.488330
977.631299	2477.021354
977.928971	2473.285859
978.226606	2471.768472
978.524204	2474.798205
978.821765	2472.010447
979.119290	2475.264512
979.416777	2476.030767
979.714228	2478.001858
980.011642	2474.503298
980.309020	2475.866930
980.606360	2477.568319
980.903664	2476.781899
981.200931	2475.481281
981.498162	2479.360449
981.795356	2479.857003
982.092513	2475.761065
982.389633	2476.340798
982.686717	2477.568319
982.983764	2475.836683
983.280775	2474.962043
983.577749	2477.714512
983.874686	2475.635037
984.171587	2475.022536
984.468451	2475.330047
984.765279	2476.935654
985.062070	2474.732670
985.358824	2473.729480
985.655543	2478.435398
985.952224	2476.791981
986.248869	2473.822742
986.545478	2475.957670
986.842050	2477.200315
987.138586	2473.951291
987.435086	2476.582773
987.731549	2475.808956
988.027975	2474.704944
988.324366	2476.809625
988.620719	2474.649491
988.917037	2476.940695
989.213318	2479.673001
989.509563	2475.171250
989.805772	2476.676035
990.101944	2477.217959
990.398080	2479.078145
990.694180	2476.613020
990.990244	2474.531024
991.286271	2476.693679
991.582262	2473.278297
991.878217	2475.834162
992.174136	2477.311220
992.470019	2474.967084
992.765865	2474.553709
993.061676	2473.792495
993.357450	2474.420118
993.653188	2472.345684
993.948890	2474.762917
994.244556	2476.991107
994.540186	2477.376755
994.835780	2474.722588
995.131337	2477.470017
995.426859	2475.864409
995.722345	2476.300469
996.017795	2472.496918
996.313208	2477.991776
996.608586	2475.332567
996.903928	2475.514049
997.199234	2478.516056
997.494504	2479.330202
997.789738	2474.021867
998.084936	2476.348360
998.380099	2477.427167
998.675225	2473.852989
998.970316	2477.137300
999.265371	2477.903556
999.560390	2474.500777
999.855373	2475.178812
1000.150320	2474.944398
1000.445232	2476.650829
1000.740108	2475.226703
1001.034948	2474.299131
1001.329752	2476.638226
1001.624521	2476.149234
1001.919254	2477.500263
1002.213951	2478.568988
1002.508613	2478.072434
1002.803239	2473.719398
1003.097829	2473.371558
1003.392384	2476.393730
1003.686903	2475.544296
1003.981386	2477.933803
1004.275834	2474.470530
1004.570246	2476.098823
1004.864623	2475.294759
1005.158964	2475.067907
1005.453270	2473.777371
1005.747540	2474.886425
1006.041775	2473.061527
1006.335974	2475.158648
1006.630138	2476.310551
1006.924266	2478.737867
1007.218359	2474.896508
1007.512416	2473.421970
1007.806438	2470.218317
1008.100425	2474.273925
1008.394376	2471.571867
1008.688292	2473.532875
1008.982172	2472.123873
1009.276017	2474.515900
1009.569827	2477.515387
1009.863602	2474.016826
1010.157341	2474.989769
1010.451045	2473.754686
1010.744714	2473.863071
1011.038347	2475.206538
1011.331945	2478.213587
1011.625508	2475.219141
1011.919036	2475.813998
1012.212528	2476.834831
1012.505986	2476.507156
1012.799408	2474.273925
1013.092795	2475.067907
1013.386147	2475.095633
1013.679464	2476.340798
1013.972745	2475.463637
1014.265992	2475.619913
1014.559204	2475.183853
1014.852380	2476.799543
1015.145521	2474.301651
1015.438628	2476.423977
1015.731699	2475.156127
1016.024736	2475.902218
1016.317737	2474.967084
1016.610703	2475.559419
1016.903635	2473.341312
1017.196531	2475.642598
1017.489393	2474.772999
1017.782219	2473.222844
1018.075011	2475.781230
1018.367768	2474.836014
1018.660490	2474.427680
1018.953177	2474.427680
1019.245829	2474.427680
