Dividing Wavelength (nm)	Counts (n)	Blue Motor Position (mm): 20.500000	Red Motor Position (mm): 0.000000	
326.493990	2133.459158
326.888308	2133.459158
327.282561	2133.459158
327.676750	2100.311050
328.070874	2099.759044
328.464933	2104.487646
328.858929	2108.807915
329.252859	2117.503906
329.646726	2129.912706
330.040528	2142.767648
330.434265	2159.501758
330.827938	2177.370128
331.221547	2195.198169
331.615091	2214.094934
332.008571	2234.214179
332.401986	2253.007600
332.795338	2274.971908
333.188625	2292.331121
333.581847	2310.733853
333.975006	2329.005515
334.368100	2349.442353
334.761129	2363.446678
335.154095	2380.425284
335.546996	2401.734242
335.939833	2422.745771
336.332606	2438.791764
336.725315	2450.194854
337.117960	2458.482511
337.510540	2468.045579
337.903056	2480.797178
338.295508	2486.516367
338.687896	2494.889724
339.080220	2504.551095
339.472480	2507.762310
339.864676	2513.975532
340.256807	2520.534073
340.648875	2521.897705
341.040879	2524.556914
341.432818	2526.601102
341.824694	2528.085722
342.216506	2529.076308
342.608253	2528.468849
342.999937	2526.016328
343.391557	2529.416586
343.783113	2525.018180
344.174605	2525.824764
344.566033	2525.401307
344.957397	2524.468694
345.348697	2521.741430
345.739934	2520.511388
346.131106	2517.809330
346.522215	2517.968126
346.913260	2513.494102
347.304241	2512.117867
347.695159	2508.468072
348.086012	2510.073679
348.476802	2508.594100
348.867528	2504.316681
349.258191	2503.653770
349.648789	2502.000271
350.039324	2499.951042
350.429796	2500.203100
350.820203	2499.053717
351.210548	2498.151350
351.600828	2495.378716
351.991045	2497.889210
352.381198	2496.039107
352.771288	2495.875269
353.161314	2493.659682
353.551276	2493.586585
353.941175	2495.154384
354.331010	2496.081957
354.720782	2493.228663
355.110490	2496.497852
355.500135	2493.924343
355.889717	2493.763026
356.279235	2497.737976
356.668689	2494.536843
357.058080	2497.110352
357.447408	2493.563900
357.836672	2492.041472
358.225873	2493.798314
358.615010	2494.221771
359.004084	2496.512975
359.393095	2497.732934
359.782043	2499.696464
360.170927	2499.378871
360.559748	2499.348624
360.948505	2501.193687
361.337199	2500.248470
361.725830	2502.398522
362.114398	2503.600838
362.502903	2502.600168
362.891344	2502.683348
363.279722	2500.966835
363.668037	2502.481701
364.056289	2504.389778
364.444478	2504.833400
364.832603	2506.456651
365.220665	2502.123779
365.608665	2505.448420
365.996601	2505.574449
366.384474	2505.418173
366.772284	2507.333812
367.160031	2508.626868
367.547715	2505.992865
367.935336	2508.117711
368.322893	2506.134017
368.710388	2507.603514
369.097820	2512.886643
369.485189	2508.221055
369.872495	2510.063597
370.259738	2509.476302
370.646918	2507.543020
371.034035	2509.811539
371.421090	2511.641478
371.808081	2510.623165
372.195010	2509.942609
372.581875	2510.955881
372.968678	2510.358504
373.355418	2510.789523
373.742096	2506.781806
374.128710	2512.490912
374.515262	2510.827332
374.901751	2513.955367
375.288177	2512.546365
375.674540	2511.041581
376.060841	2512.763135
376.447079	2513.854544
376.833254	2511.540655
377.219367	2510.895387
377.605417	2510.923113
377.991404	2510.277846
378.377329	2512.369925
378.763191	2510.487054
379.148991	2511.863289
379.534727	2512.959740
379.920402	2512.987466
380.306013	2516.221366
380.691563	2512.556447
381.077049	2513.055522
381.462474	2516.223887
381.847835	2515.969308
382.233134	2515.550893
382.618371	2516.715399
383.003545	2515.961747
383.388657	2515.535769
383.773706	2517.769000
384.158693	2516.420492
384.543618	2516.556603
384.928480	2515.008969
385.313280	2517.784124
385.698017	2520.594567
386.082692	2520.282016
386.467305	2519.964423
386.851856	2517.796727
387.236344	2517.428722
387.620770	2520.282016
388.005133	2520.536594
388.389435	2518.752025
388.773674	2518.159690
389.157851	2519.160359
389.541965	2520.332427
389.926018	2517.216994
390.310008	2519.503157
390.693936	2521.338137
391.077802	2519.384690
391.461606	2521.612880
391.845348	2521.035668
392.229027	2520.617252
392.612645	2521.822088
392.996200	2523.024403
393.379694	2521.915349
393.763125	2524.546832
394.146494	2523.364681
394.529801	2522.810154
394.913047	2519.591378
395.296230	2522.648837
395.679351	2521.539783
396.062410	2523.783097
396.445408	2523.972140
396.828343	2524.108251
397.211217	2519.387211
397.594028	2522.084228
397.976778	2520.362674
398.359466	2522.477438
398.742092	2519.331758
399.124656	2525.303005
399.507158	2525.668488
399.889598	2524.617408
400.271977	2527.100176
400.654294	2524.072963
401.036549	2526.795186
401.418742	2527.299302
401.800874	2529.260311
402.182944	2527.596730
402.564952	2528.292409
402.946898	2526.810310
403.328783	2528.007584
403.710606	2527.236287
404.092367	2526.258303
404.474067	2525.595392
404.855705	2526.659075
405.237282	2528.357944
405.618797	2524.700587
406.000250	2527.329549
406.381642	2528.088242
406.762972	2529.106555
407.144240	2528.607481
407.525447	2530.281144
407.906593	2528.133613
408.287677	2529.961031
408.668700	2529.693850
409.049661	2532.133768
409.430560	2530.276103
409.811399	2530.495393
410.192176	2528.375588
410.572891	2528.471370
410.953545	2528.138654
411.334138	2530.200486
411.714669	2528.105886
412.095139	2530.702081
412.475547	2528.957841
412.855894	2529.915661
413.236180	2530.681916
413.616405	2531.488501
413.996568	2530.510517
414.376670	2528.194107
414.756711	2528.579755
415.136691	2531.758202
415.516609	2531.125538
415.896466	2530.024045
416.276262	2532.716022
416.655997	2529.567821
417.035670	2527.954652
417.415283	2532.108563
417.794834	2528.388191
418.174324	2531.193593
418.553753	2532.063192
418.933121	2532.695857
419.312428	2534.659386
419.691674	2535.816331
420.070859	2536.080992
420.449983	2534.094777
420.829045	2530.999509
421.208047	2535.271887
421.586988	2534.525796
421.965867	2533.885569
422.344686	2534.157792
422.723444	2535.879346
423.102141	2535.881866
423.480777	2536.489325
423.859352	2535.128214
424.237866	2534.346835
424.616319	2536.930426
424.994712	2535.740714
425.373044	2533.867925
425.751314	2535.324819
426.129524	2532.630322
426.507673	2534.109901
426.885762	2535.105528
427.263789	2535.057637
427.641756	2535.350024
428.019662	2535.985210
428.397508	2538.273894
428.775292	2538.926723
429.153016	2538.823379
429.530679	2540.255067
429.908282	2540.174409
430.285824	2538.657021
430.663305	2535.155940
431.040726	2536.469161
431.418086	2537.172402
431.795385	2541.157434
432.172624	2536.133924
432.549802	2540.098791
432.926920	2537.573173
433.303977	2539.932433
433.680974	2536.869932
434.057910	2536.212062
434.434786	2539.193904
434.811601	2539.340098
435.188355	2538.626774
435.565050	2540.824718
435.941683	2540.086188
436.318257	2536.060827
436.694770	2535.927237
437.071222	2537.593338
437.447614	2535.004705
437.823946	2540.192053
438.200218	2538.283976
438.576429	2538.271373
438.952580	2539.357742
439.328670	2541.119625
439.704700	2540.118956
440.080670	2542.261446
440.456580	2542.170706
440.832429	2538.122659
441.208218	2540.706250
441.583947	2541.303627
441.959616	2537.467309
442.335224	2542.838658
442.710773	2540.113915
443.086261	2539.037628
443.461689	2540.741538
443.837057	2539.468647
444.212365	2542.354708
444.587612	2542.001827
444.962800	2540.386137
445.337927	2544.519883
445.712995	2539.503935
446.088002	2542.521066
446.462949	2543.730943
446.837837	2543.534338
447.212664	2544.358566
447.587431	2542.750438
447.962139	2541.868236
448.336786	2544.411498
448.711374	2544.681200
449.085901	2545.328988
449.460369	2543.536858
449.834776	2542.712630
450.209124	2541.013761
450.583412	2544.966025
450.957640	2544.129194
451.331808	2543.173895
451.705917	2546.095244
452.079965	2546.024668
452.453954	2544.033412
452.827883	2546.175902
453.201752	2543.862013
453.575562	2544.091385
453.949311	2545.785213
454.323001	2545.523073
454.696632	2545.230686
455.070202	2546.440563
455.443713	2544.903011
455.817164	2542.947043
456.190556	2541.394368
456.563888	2543.299924
456.937160	2538.956970
457.310373	2545.533155
457.683526	2548.693959
458.056619	2544.282949
458.429653	2545.807898
458.802628	2546.899308
459.175542	2546.422919
459.548398	2547.216901
459.921194	2547.400903
460.293930	2545.676828
460.666607	2547.388300
461.039224	2548.943496
461.411782	2549.412323
461.784280	2550.685214
462.156719	2548.295707
462.529099	2549.485420
462.901419	2549.724875
463.273680	2546.901828
463.645882	2550.657488
464.018024	2547.169010
464.390106	2549.729916
464.762130	2551.610266
465.134094	2550.463404
465.505999	2550.571788
465.877845	2553.369629
466.249631	2551.915256
466.621358	2552.610935
466.993026	2553.435164
467.364634	2557.515978
467.736184	2553.367108
468.107674	2554.909701
468.479105	2550.526418
468.850477	2552.200081
469.221790	2551.917777
469.593043	2552.109340
469.964238	2556.167469
470.335373	2550.649926
470.706449	2553.251162
471.077467	2556.406924
471.448425	2555.464228
471.819324	2554.249310
472.190164	2558.214178
472.560945	2553.783003
472.931667	2553.329300
473.302330	2556.175031
473.672934	2552.774773
474.043479	2553.334341
474.413965	2557.281564
474.784393	2551.290153
475.154761	2553.435164
475.525070	2552.714279
475.895321	2553.213353
476.265513	2552.242931
476.635645	2554.773590
477.005719	2557.299208
477.375734	2559.441699
477.745691	2557.725186
478.115588	2560.593602
478.485427	2561.362378
478.855207	2563.998902
479.224928	2565.556618
479.594591	2567.792370
479.964194	2567.631053
480.333739	2568.278841
480.703226	2571.464851
481.072653	2572.699933
481.442022	2572.518452
481.811333	2575.540623
482.180584	2578.535069
482.549777	2579.712178
482.918912	2579.772672
483.287988	2586.152252
483.657005	2586.787438
484.025964	2588.670309
484.394864	2592.451174
484.763706	2595.586772
485.132489	2596.862184
485.501213	2600.307812
485.869879	2606.813421
486.238487	2610.019595
486.607036	2613.979422
486.975527	2617.530914
487.343959	2623.353447
487.712333	2631.066412
488.080648	2635.205200
488.448905	2643.576036
488.817104	2650.111892
489.185244	2655.536173
489.553326	2667.576969
489.921350	2689.085052
490.289315	2715.198229
490.657222	2725.943448
491.025070	2736.043400
491.392861	2746.309710
491.760593	2748.202663
492.128267	2752.399424
492.495883	2755.325814
492.863440	2759.691453
493.230939	2764.790580
493.598380	2777.249792
493.965763	2783.190792
494.333088	2791.664971
494.700354	2805.603762
495.067563	2818.967860
495.434713	2831.071671
495.801805	2852.368025
496.168839	2867.216744
496.535815	2885.150649
496.902733	2896.732700
497.269593	2916.378076
497.636395	2934.188473
498.003139	2960.084880
498.369825	2965.988071
498.736453	3001.603823
499.103023	3015.098992
499.469535	3040.009854
499.835989	3057.956361
500.202385	3084.976946
500.568723	3097.998246
500.935003	3130.072588
501.301226	3157.940086
501.667390	3193.293698
502.033497	3233.196951
502.399546	3244.370669
502.765537	3266.902106
503.131470	3301.517189
503.497345	3348.833459
503.863163	3342.025381
504.228923	3399.345820
504.594625	3438.780246
504.960269	3447.330043
505.325856	3505.885566
505.691385	3523.118750
506.056856	3576.406267
506.422270	3619.830766
506.787625	3637.898262
507.152924	3694.490255
507.518164	3723.247517
507.883347	3760.073146
508.248472	3791.035913
508.613540	3865.682798
508.978550	3898.210843
509.343503	3934.184517
509.708398	3999.003673
510.073236	4063.343920
510.438016	4107.985858
510.802738	4152.436232
511.167403	4215.228844
511.532010	4249.329729
511.896561	4333.819468
512.261053	4412.733690
512.625488	4435.431485
512.989866	4484.983507
513.354186	4535.304305
513.718449	4571.656065
514.082655	4663.064787
514.446803	4703.199933
514.810894	4788.876864
515.174927	4821.737625
515.538904	4873.447261
515.902822	4978.454495
516.266684	5000.817054
516.630488	5054.011309
516.994235	5114.159836
517.357925	5207.053178
517.721558	5288.687103
518.085133	5360.379872
518.448651	5421.788688
518.812112	5444.012615
519.175516	5519.907186
519.538863	5621.219255
519.902152	5651.377957
520.265385	5788.099091
520.628560	5804.906298
520.991678	5883.938987
521.354739	5958.926151
521.717743	6002.796792
522.080690	6058.365431
522.443580	6190.103384
522.806413	6234.609211
523.169189	6310.463453
523.531908	6401.481485
523.894569	6391.351287
524.257174	6460.694878
524.619722	6583.671306
524.982213	6611.132991
525.344647	6713.150822
525.707025	6745.754484
526.069345	6862.366455
526.431608	6904.029071
526.793815	7020.096597
527.155964	6980.964640
527.518057	7062.689306
527.880093	7112.475741
528.242072	7204.754062
528.603995	7235.217755
528.965860	7257.847495
529.327669	7341.772624
529.689421	7377.627831
530.051117	7429.977693
530.412755	7563.848054
530.774337	7547.600415
531.135862	7613.982329
531.497331	7678.350302
531.858743	7660.045872
532.220098	7814.942886
532.581396	7800.079044
532.942638	7846.966816
533.303824	7882.973257
533.664953	7955.182745
534.026025	7962.137016
534.387040	8083.217970
534.747999	8137.513717
535.108902	8241.217814
535.469748	8132.853171
535.830537	8251.587467
536.191270	8299.531361
536.551947	8368.239767
536.912567	8414.462107
537.273131	8418.137108
537.633638	8448.477293
537.994089	8497.918409
538.354483	8510.911983
538.714821	8662.466712
539.075103	8721.531391
539.435328	8745.693641
539.795497	8654.161411
540.155609	8835.716046
540.515665	8938.101880
540.875665	8788.722410
541.235609	8888.517091
541.595496	8930.744316
541.955328	9100.517775
542.315102	9050.504488
542.674821	9051.903408
543.034483	9092.797248
543.394090	9142.172829
543.753640	9124.778328
544.113134	9343.539199
544.472571	9262.328731
544.831953	9423.348226
545.191278	9305.488570
545.550548	9364.046613
545.909761	9509.214200
546.268918	9527.919401
546.628019	9628.621490
546.987064	9557.163134
547.346053	9512.339715
547.704986	9642.862750
548.063863	9663.279423
548.422684	9686.735912
548.781449	9646.865426
549.140158	9764.972099
549.498811	9688.197846
549.857408	9584.473585
550.215949	9819.290532
550.574434	9714.817659
550.932864	9833.766205
551.291237	9912.188915
551.649555	9891.721830
552.007817	9925.280791
552.366022	9920.900028
552.724173	9940.205127
553.082267	9949.039749
553.440305	10096.632131
553.798288	9927.766080
554.156215	10094.421585
554.514086	10100.228994
554.871902	9984.889915
555.229661	10034.167194
555.587365	10029.088231
555.945014	9955.053846
556.302606	10087.311038
556.660143	10004.986475
557.017625	10171.367237
557.375050	10089.541748
557.732421	10229.133819
558.089735	10164.644858
558.446994	10183.753352
558.804197	10235.319314
559.161345	10252.194577
559.518437	10111.228792
559.875474	10220.644516
560.232455	10255.693138
560.589381	10225.176513
560.946251	10241.487166
561.303065	10350.802067
561.659825	10299.034458
562.016528	10242.384492
562.373177	10139.955807
562.729770	10263.559858
563.086307	10188.562613
563.442789	10294.338623
563.799216	10183.002220
564.155587	10240.604964
564.511904	10202.332524
564.868164	10200.822699
565.224370	10224.647192
565.580520	10160.836266
565.936615	10175.566518
566.292654	10052.975739
566.648638	10191.181492
567.004567	10146.385799
567.360441	10140.177618
567.716260	10059.385566
568.072023	10158.943313
568.427732	10120.451583
568.783385	10035.931598
569.138982	10108.317526
569.494525	10126.483323
569.850013	10015.522486
570.205445	10091.885885
570.560823	9999.622687
570.916145	9921.845245
571.271412	9993.424588
571.626625	9943.071023
571.981782	9924.239793
572.336884	9902.867821
572.691931	9908.549202
573.046923	9863.756029
573.401860	9822.398403
573.756743	9762.789279
574.111570	9804.222523
574.466342	9792.706007
574.821059	9819.207353
575.175722	9719.510973
575.530330	9729.603363
575.884882	9727.440708
576.239380	9654.888422
576.593823	9638.270259
576.948211	9647.344336
577.302544	9529.734216
577.656823	9558.413341
578.011047	9551.562413
578.365216	9529.857725
578.719330	9458.069173
579.073389	9469.290782
579.427394	9420.409233
579.781344	9399.322087
580.135239	9346.185805
580.489080	9353.785344
580.842866	9260.009800
581.196597	9270.255946
581.550273	9309.791195
581.903895	9277.807594
582.257463	9347.337708
582.610975	9219.597391
582.964434	9250.482020
583.317837	9169.679885
583.671186	9154.828646
584.024481	9152.260178
584.377721	9079.145803
584.730906	9049.352584
585.084037	9078.263601
585.437113	9021.164972
585.790135	9040.512921
586.143103	8936.884442
586.496016	8914.252182
586.848874	8972.270821
587.201679	8956.910425
587.554428	8851.184826
587.907124	8895.121003
588.259765	8864.475828
588.612352	8868.014718
588.964884	8745.494515
589.317362	8765.976723
589.669786	8763.635108
590.022155	8809.817118
590.374470	8825.812699
590.726731	8762.223584
591.078937	8621.887944
591.431090	8730.386177
591.783188	8606.303217
592.135232	8591.431813
592.487222	8598.771733
592.839157	8647.975915
593.191038	8576.295748
593.542866	8524.598716
593.894639	8429.882997
594.246358	8487.195875
594.598022	8495.115527
594.949633	8396.926453
595.301190	8375.042804
595.652692	8403.084223
596.004141	8507.299996
596.355535	8289.877551
596.706876	8271.464737
597.058162	8205.133235
597.409395	8282.663660
597.760573	8343.429729
598.111698	8250.526304
598.462768	8238.863595
598.813785	8204.543420
599.164748	8175.090478
599.515657	8165.643356
599.866511	8076.304027
600.217312	8205.783543
600.568060	8062.087974
600.918753	8164.756113
601.269392	8129.856205
601.619978	8046.873771
601.970510	8112.822146
602.320988	8103.344777
602.671412	8165.038418
603.021783	8098.364117
603.372100	8070.146258
603.722363	8079.278308
604.072572	8050.672281
604.422728	8063.542347
604.772830	7989.422262
605.122878	8003.371134
605.472872	7993.987026
605.822813	8023.689505
606.172701	7973.943399
606.522534	8041.106691
606.872314	8041.628451
607.222041	8009.861620
607.571714	8064.482522
607.921333	8024.349896
608.270899	8032.090588
608.620411	8122.811192
608.969870	8026.593209
609.319276	8024.120523
609.668627	8035.957153
610.017926	8065.770537
610.367171	8112.975901
610.716362	8094.505113
611.065500	8084.556396
611.414585	8112.441539
611.763616	8097.824713
612.112594	8081.161179
612.461518	8097.597861
612.810389	8157.776635
613.159207	8097.043334
613.507971	8044.685911
613.856682	8167.367431
614.205340	8119.181562
614.553945	8197.700053
614.902496	8098.432172
615.250994	8151.817992
615.599439	8132.210424
615.947830	8145.579564
616.296169	8122.843960
616.644454	8134.325188
616.992686	8134.042883
617.340864	8187.337962
617.688990	8091.472859
618.037063	8185.341665
618.385082	8130.720763
618.733048	8215.399544
619.080961	8152.599370
619.428821	8174.954367
619.776628	8174.046959
620.124382	8130.219168
620.472083	8114.299204
620.819731	8137.629664
621.167326	8029.322994
621.514868	8044.217083
621.862357	7935.807070
622.209793	7948.745191
622.557176	7885.188844
622.904506	7854.798248
623.251783	7787.498844
623.599007	7741.299190
623.946179	7746.325220
624.293297	7701.645474
624.640363	7618.899974
624.987376	7601.941533
625.334336	7550.662916
625.681243	7500.309351
626.028097	7492.656879
626.374899	7472.698951
626.721647	7463.559339
627.068343	7390.364306
627.414987	7366.648198
627.761577	7323.342166
628.108115	7357.327104
628.454600	7248.544045
628.801032	7301.241747
629.147412	7261.686333
629.493739	7252.481187
629.840014	7188.725714
630.186236	7245.267295
630.532405	7125.733976
630.878521	7179.928900
631.224585	7135.738146
631.570597	7060.793832
631.916556	7094.498987
632.262462	7090.801300
632.608316	7051.041720
632.954117	7028.815273
633.299866	7019.542070
633.645562	7008.224680
633.991206	6930.051507
634.336797	6877.076542
634.682336	6830.065262
635.027823	6798.731970
635.373257	6790.098994
635.718639	6725.133644
636.063968	6738.545634
636.409245	6631.239633
636.754470	6629.500435
637.099642	6584.498055
637.444762	6530.106526
637.789829	6540.771087
638.134845	6478.827909
638.479808	6466.852648
638.824719	6472.660057
639.169577	6400.914355
639.514383	6422.548467
639.859137	6354.066913
640.203839	6364.706268
640.548489	6347.329411
640.893086	6321.932077
641.237632	6291.377644
641.582125	6313.714997
641.926566	6280.639986
642.270955	6296.854858
642.615292	6294.861081
642.959576	6308.446991
643.303809	6299.647657
643.647990	6305.727288
643.992118	6294.503159
644.336195	6243.607670
644.680219	6267.631289
645.024192	6253.211068
645.368112	6354.999526
645.711981	6378.140943
646.055797	6447.960924
646.399562	6407.951806
646.743274	6533.267329
647.086935	6585.886893
647.430544	6584.709783
647.774101	6602.794923
648.117606	6604.829028
648.461059	6601.176713
648.804460	6557.946298
649.147810	6468.173430
649.491108	6438.748215
649.834354	6414.709473
650.177548	6328.619168
650.520690	6245.127578
650.863781	6226.979424
651.206820	6246.763433
651.549807	6169.268295
651.892742	6104.270178
652.235626	6109.686898
652.578458	6100.784220
652.921238	6009.067988
653.263967	6052.860491
653.606644	5990.075440
653.949269	5992.747252
654.291843	5931.829949
654.634365	5980.754347
654.976836	5937.768428
655.319255	5933.251554
655.661622	5918.140696
656.003938	5915.877218
656.346203	5873.828953
656.688416	5905.752060
657.030577	5857.102405
657.372687	5827.415050
657.714746	5815.132278
658.056753	5854.508731
658.398708	5797.621831
658.740612	5790.251664
659.082465	5835.503581
659.424266	5829.597869
659.766016	5824.904555
660.107715	5803.517460
660.449362	5813.912319
660.790958	5813.128420
661.132503	5800.165093
661.473996	5840.930383
661.815438	5816.465664
662.156829	5823.888763
662.498168	5818.746786
662.839456	5784.839985
663.180693	5825.514535
663.521879	5827.465461
663.863013	5812.896527
664.204097	5831.871430
664.545129	5875.237956
664.886110	5863.814701
665.227040	5902.077059
665.567918	5865.954671
665.908746	5892.801336
666.249522	5895.405092
666.590248	5886.968721
666.930922	5914.851343
667.271545	5926.808960
667.612118	5929.576553
667.952639	5900.854579
668.293109	5926.834165
668.633528	5880.500920
668.973896	5887.122476
669.314213	5880.909254
669.654480	5859.393609
669.994695	5847.504048
670.334859	5842.231001
670.674973	5830.369166
671.015035	5841.913408
671.355047	5834.810423
671.695008	5822.028577
672.034918	5798.917407
672.374777	5807.346216
672.714585	5791.718639
673.054342	5793.861130
673.394049	5787.713443
673.733705	5814.958359
674.073310	5807.658768
674.412864	5766.545638
674.752368	5761.587663
675.091820	5761.081027
675.431223	5697.438980
675.770574	5701.176996
676.109875	5654.667310
676.449125	5655.080685
676.788324	5623.089523
677.127473	5571.906688
677.466571	5557.650305
677.805619	5546.249735
678.144616	5539.555083
678.483562	5518.117576
678.822458	5484.921578
679.161303	5477.624508
679.500098	5473.321883
679.838842	5449.537719
680.177535	5459.113391
680.516179	5471.239887
680.854771	5488.583976
681.193314	5565.897632
681.531805	5670.430998
681.870247	5826.868085
682.208638	5920.295789
682.546978	5933.279281
682.885268	5911.521661
683.223508	5826.568136
683.561697	5773.048726
683.899836	5745.894551
684.237925	5699.740267
684.575963	5663.872457
684.913951	5624.773268
685.251889	5690.698958
685.589776	5654.765613
685.927614	5623.754955
686.265401	5694.948650
686.603137	5679.550446
686.940824	5756.049955
687.278460	5777.676505
687.616046	5790.899452
687.953582	5854.196180
688.291068	5834.790258
688.628504	5902.114868
688.965889	5858.561819
689.303224	5805.405372
689.640510	5758.903248
689.977745	5682.209654
690.314930	5586.372279
690.652065	5532.991501
690.989150	5438.797541
691.326185	5367.830698
691.663170	5308.171163
692.000105	5235.707097
692.336990	5158.242206
692.673825	5135.093228
693.010610	5067.839194
693.347345	4997.356302
693.684030	4985.998582
694.020665	4942.682468
694.357251	4851.883725
694.693786	4864.383266
695.030272	4828.986804
695.366707	4796.894819
695.703093	4764.830560
696.039429	4785.741266
696.375716	4770.711066
696.711952	4745.349021
697.048139	4727.425198
697.384276	4705.249162
697.720363	4725.476792
698.056400	4733.545159
698.392388	4680.650852
698.728326	4661.940610
699.064214	4637.579234
699.400053	4633.170745
699.735842	4596.057770
700.071581	4577.246705
700.407270	4549.109504
700.742910	4534.343965
701.078501	4478.548474
701.414042	4477.870439
701.749533	4449.478660
702.084974	4382.176736
702.420366	4440.588586
702.755709	4382.890059
703.091002	4327.679342
703.426246	4375.461919
703.761440	4332.171010
704.096584	4296.078869
704.431679	4315.212569
704.766725	4298.201195
705.101721	4289.180050
705.436668	4318.136438
705.771565	4264.238942
706.106413	4295.206750
706.441212	4324.516018
706.775961	4333.469108
707.110661	4311.119152
707.445311	4343.422866
707.779913	4363.143860
708.114465	4374.627608
708.448967	4397.965630
708.783421	4463.535918
709.117825	4502.574613
709.452180	4502.778780
709.786485	4549.492632
710.120742	4638.789111
710.454949	4619.796564
710.789107	4683.952808
711.123216	4761.606742
711.457275	4748.678703
711.791286	4820.550433
712.125247	4839.762271
712.459159	4738.888782
712.793023	4815.889887
713.126837	4776.962097
713.460602	4766.398359
713.794318	4692.490002
714.127985	4698.879665
714.461602	4612.678454
714.795171	4586.550154
715.128691	4521.625134
715.462162	4461.143890
715.795584	4414.288886
716.128957	4397.627873
716.462281	4346.319009
716.795556	4318.128876
717.128782	4281.734266
717.461960	4211.004357
717.795088	4225.618662
718.128167	4184.790357
718.461198	4126.628045
718.794180	4121.743167
719.127113	4101.414714
719.459997	4077.449068
719.792833	4036.623284
720.125619	4027.491234
720.458357	3992.314062
720.791046	4000.150536
721.123686	3969.921257
721.456278	3929.024896
721.788821	3945.771609
722.121315	3919.703803
722.453761	3894.308990
722.786158	3909.881114
723.118506	3930.426337
723.450805	3883.563771
723.783056	3904.229981
724.115259	3923.393927
724.447412	3925.473403
724.779518	3917.944440
725.111574	3921.448042
725.443582	3953.487095
725.775542	3938.096452
726.107453	3988.886077
726.439315	3989.422960
726.771129	4002.073736
727.102895	4037.908778
727.434612	4084.912497
727.766281	4097.439764
728.097901	4097.026389
728.429473	4104.139457
728.760996	4109.793111
729.092471	4102.450671
729.423897	4088.020368
729.755276	4095.249383
730.086606	4092.728806
730.417887	4130.298005
730.749120	4197.226884
731.080305	4261.100823
731.411442	4285.328609
731.742530	4253.148403
732.073570	4257.448508
732.404562	4312.666786
732.735506	4302.710507
733.066401	4271.200775
733.397249	4202.988923
733.728048	4130.129126
734.058798	4042.208882
734.389501	3971.373109
734.720156	3914.879418
735.050762	3864.062067
735.381320	3863.812530
735.711831	3811.434942
736.042293	3786.892084
736.372707	3804.931853
736.703073	3774.994961
737.033391	3764.290071
737.363661	3786.342598
737.693883	3813.166578
738.024056	3819.445335
738.354182	3814.210097
738.684260	3878.371382
739.014290	3898.581368
739.344272	3894.500554
739.674207	3935.946400
740.004093	3940.415383
740.333931	3933.808951
740.663722	3936.740382
740.993464	3932.389866
741.323159	3911.408584
741.652806	3883.039491
741.982405	3854.514122
742.311956	3823.011951
742.641460	3816.745797
742.970915	3791.401396
743.300323	3749.615272
743.629683	3716.136969
743.958996	3707.337635
744.288260	3679.293696
744.617477	3647.988131
744.946647	3633.678816
745.275768	3609.370372
745.604842	3607.454733
745.933869	3558.270716
746.262847	3550.358625
746.591778	3590.561827
746.920662	3559.780542
747.249498	3527.005480
747.578286	3574.508272
747.907027	3594.093155
748.235720	3588.096703
748.564365	3614.897997
748.892963	3613.108387
749.221514	3596.076849
749.550017	3571.995257
749.878473	3572.829568
750.206881	3542.466699
750.535242	3540.722459
750.863555	3542.940567
751.191821	3536.331614
751.520039	3514.579036
751.848210	3495.014318
752.176334	3529.470604
752.504411	3535.484701
752.832440	3496.168742
753.160421	3480.571412
753.488356	3491.770335
753.816243	3500.884741
754.144082	3457.261116
754.471875	3440.937860
754.799620	3464.706901
755.127318	3452.235086
755.454969	3450.445476
755.782572	3459.128864
756.110129	3437.033487
756.437638	3427.596447
756.765100	3440.579938
757.092515	3448.456741
757.419882	3455.693317
757.747203	3427.538473
758.074477	3429.164245
758.401703	3448.461782
758.728882	3466.035245
759.056014	3474.605206
759.383099	3476.324240
759.710138	3474.721153
760.037129	3490.137001
760.364073	3521.871065
760.690970	3506.271214
761.017820	3484.196001
761.344623	3503.496059
761.671379	3548.440466
761.998088	3596.195316
762.324751	3723.497054
762.651366	3971.305053
762.977935	4437.820992
763.304456	4878.024628
763.630931	4962.867248
763.957359	4604.244604
764.283740	4267.714817
764.610074	4081.295469
764.936362	3881.370869
765.262602	3728.079463
765.588796	3619.757669
765.914943	3533.392622
766.241044	3446.087399
766.567097	3419.651588
766.893104	3369.572766
767.219064	3340.298785
767.544978	3312.653098
767.870845	3256.184613
768.196665	3239.372365
768.522438	3250.440218
768.848165	3242.339084
769.173846	3205.941953
769.499479	3193.092052
769.825066	3175.022036
770.150607	3158.449243
770.476101	3173.242509
770.801548	3167.324194
771.126949	3124.038327
771.452303	3109.265225
771.777611	3113.225052
772.102872	3117.971298
772.428087	3094.471959
772.753256	3083.134404
773.078378	3077.369845
773.403453	3045.174516
773.728482	3031.258411
774.053465	3051.453273
774.378401	3036.901982
774.703291	3009.221007
775.028135	3011.103878
775.352932	3005.523320
775.677683	2993.739623
776.002388	2991.362719
776.327046	2993.802638
776.651658	2980.289825
776.976224	2969.836992
777.300743	2968.307002
777.625216	2960.006742
777.949643	2957.322328
778.274024	2957.791155
778.598359	2947.396296
778.922647	2952.505505
779.246889	2953.690176
779.571086	2936.525048
779.895236	2931.597320
780.219339	2944.331274
780.543397	2954.605146
780.867409	2959.542956
781.191374	2948.727160
781.515294	2945.894032
781.839167	2948.018878
782.162995	2938.065120
782.486776	2948.608693
782.810511	2942.032508
783.134201	2928.960796
783.457844	2937.606375
783.781441	2927.604726
784.104993	2908.478588
784.428498	2911.818353
784.751958	2924.007863
785.075372	2918.931421
785.398739	2903.966755
785.722061	2918.492840
786.045337	2932.189655
786.368568	2913.678538
786.691752	2908.501273
787.014891	2952.666822
787.337983	2979.460555
787.661030	3010.660256
787.984031	3077.369845
788.306987	3123.448512
788.629897	3115.251595
788.952760	3098.726693
789.275579	3084.162800
789.598351	3021.796165
789.921078	2979.682366
790.243759	2973.438897
790.566395	2954.658078
790.888984	2933.659152
791.211529	2916.388158
791.534027	2906.212589
791.856480	2898.550036
792.178888	2881.193343
792.501249	2876.283259
792.823566	2870.952239
793.145836	2868.098946
793.468062	2860.690970
793.790241	2862.019314
794.112375	2868.986189
794.434464	2879.749052
794.756507	2885.460680
795.078505	2886.237017
795.400457	2906.152096
795.722364	2940.436983
796.044226	2965.370530
796.366042	2965.942701
796.687812	2956.306535
797.009538	2974.056438
797.331218	2963.165025
797.652852	2948.303703
797.974442	2930.601692
798.295986	2923.783531
798.617484	2922.850918
798.938938	2905.763927
799.260346	2891.381515
799.581709	2885.984960
799.903026	2877.972046
800.224299	2875.169164
800.545526	2863.491331
800.866708	2848.352746
801.187845	2840.029801
801.508936	2841.761437
801.829983	2846.467355
802.150984	2835.553257
802.471940	2821.425423
802.792851	2822.917604
803.113717	2822.801658
803.434538	2827.963799
803.755314	2822.496668
804.076045	2814.924855
804.396731	2811.648105
804.717372	2816.469969
805.037967	2808.477219
805.358518	2813.488126
805.679024	2828.016732
805.999485	2825.294508
806.319901	2827.736947
806.640272	2821.085145
806.960598	2826.569920
807.280879	2834.479491
807.601115	2842.757065
807.921306	2827.580672
808.241453	2825.770897
808.561554	2830.927998
808.881611	2833.909840
809.201623	2824.820640
809.521590	2826.005311
809.841513	2823.890547
810.161390	2826.693429
810.481223	2820.470124
810.801011	2811.695996
811.120755	2806.785912
811.440453	2810.077786
811.760107	2809.780357
812.079716	2807.322795
812.399281	2794.518264
812.718801	2791.874179
813.038276	2786.356636
813.357707	2792.731175
813.677093	2801.520427
813.996434	2793.948614
814.315731	2791.223870
814.634983	2786.906122
814.954191	2787.488375
815.273354	2800.161836
815.592473	2809.160296
815.911547	2809.472847
816.230577	2818.309990
816.549562	2829.551763
816.868502	2825.846515
817.187399	2837.143741
817.506250	2852.189064
817.825058	2844.581963
818.143821	2858.298943
818.462539	2874.019781
818.781213	2898.728997
819.099843	2936.091508
819.418429	2989.936073
819.736970	3052.983263
820.055466	3124.421454
820.373919	3229.164028
820.692327	3367.004298
821.010691	3532.704504
821.329011	3966.147953
821.647286	4856.889591
821.965517	6220.902313
822.283704	6938.291273
822.601847	6914.318066
822.919945	6283.510923
823.237999	5790.768382
823.556010	5217.090115
823.873976	4672.867311
824.191897	4275.589100
824.509775	3989.163341
824.827609	3718.327351
825.145398	3600.157663
825.463144	3587.847166
825.780845	3680.712781
826.098502	3788.525418
826.416116	4063.255700
826.733685	4370.161146
827.051210	4434.166156
827.368692	4318.857323
827.686129	4058.030544
828.003522	3733.060123
828.320872	3483.223059
828.638177	3289.541928
828.955439	3155.275836
829.272656	3075.124011
829.589830	3009.268898
829.906960	2961.957669
830.224046	2920.627769
830.541088	2885.634599
830.858086	2868.446785
831.175041	2852.083200
831.491952	2852.075638
831.808819	2866.942001
832.125642	2888.079559
832.442421	2933.623863
832.759157	3014.305010
833.075849	3189.467462
833.392497	3466.420893
833.709101	3667.363806
834.025662	3614.421608
834.342179	3459.310345
834.658653	3282.811988
834.975083	3139.078609
835.291469	3042.091850
835.607811	2959.580765
835.924110	2903.082033
836.240366	2853.240145
836.556578	2810.786068
836.872746	2789.663633
837.188871	2766.827206
837.504952	2749.233579
837.820990	2741.492887
838.136984	2725.646020
838.452935	2721.749208
838.768842	2720.183930
839.084706	2737.021384
839.400526	2816.475010
839.716303	2948.011317
840.032037	3024.054602
840.347727	3007.363341
840.663373	2947.671039
840.978977	2874.808722
841.294537	2804.688792
841.610054	2757.942172
841.925527	2737.081878
842.240957	2716.251830
842.556344	2694.852132
842.871687	2674.569050
843.186987	2669.331291
843.502244	2666.629232
843.817458	2659.690084
844.132629	2646.396561
844.447756	2640.037146
844.762840	2633.632360
845.077881	2636.377268
845.392879	2635.777371
845.707833	2632.611526
846.022745	2622.526698
846.337613	2628.571041
846.652438	2624.583489
846.967221	2623.492079
847.281960	2624.817902
847.596656	2622.314969
847.911309	2620.021244
848.225919	2616.686521
848.540485	2616.429422
848.855009	2617.480503
849.169490	2614.428084
849.483928	2614.372632
849.798323	2612.262909
850.112675	2610.493464
850.426984	2613.679473
850.741251	2612.837600
851.055474	2611.118567
851.369654	2616.696603
851.683792	2612.910697
851.997887	2615.393465
852.311938	2611.655450
852.625947	2614.158382
852.939914	2616.114350
853.253837	2618.574433
853.567718	2610.932044
853.881555	2613.140069
854.195350	2616.084103
854.509103	2615.658126
854.822812	2612.010851
855.136479	2611.983125
855.450103	2611.884822
855.763685	2614.574278
856.077224	2609.790223
856.390720	2611.352980
856.704173	2611.947837
857.017584	2617.430091
857.330953	2619.093672
857.644278	2622.045268
857.957561	2623.043416
858.270802	2617.697272
858.584000	2616.900770
858.897155	2619.630555
859.210268	2621.117695
859.523339	2612.494802
859.836367	2610.591766
860.149352	2610.085130
860.462295	2612.981273
860.775195	2608.847527
861.088054	2610.833742
861.400869	2608.824842
861.713642	2607.375510
862.026373	2607.090685
862.339062	2609.848196
862.651708	2615.443877
862.964312	2619.731378
863.276873	2613.926489
863.589392	2617.241048
863.901869	2620.172479
864.214303	2624.538118
864.526696	2628.044241
864.839045	2629.150774
865.151353	2633.503810
865.463619	2632.563635
865.775842	2632.571197
866.088023	2631.625981
866.400162	2634.441465
866.712258	2635.243008
867.024313	2632.205713
867.336325	2627.088942
867.648296	2628.971813
867.960224	2638.144192
868.272110	2632.931639
868.583954	2627.595578
868.895755	2627.366206
869.207515	2633.927267
869.519233	2639.102012
869.830909	2634.973307
870.142542	2631.351238
870.454134	2633.612195
870.765684	2637.650159
871.077191	2638.202166
871.388657	2644.397744
871.700081	2640.843730
872.011463	2642.545120
872.322803	2646.401602
872.634101	2647.520739
872.945357	2653.746564
873.256571	2659.624549
873.567744	2657.056081
873.878874	2656.420896
874.189963	2656.378046
874.501010	2660.902482
874.812015	2666.598985
875.122979	2663.382729
875.433900	2656.728406
875.744780	2653.728920
876.055618	2659.982471
876.366415	2666.072185
876.677169	2666.543533
876.987882	2659.183448
877.298554	2659.727893
877.609183	2670.934378
877.919771	2675.017712
878.230317	2682.092972
878.540822	2692.084539
878.851285	2704.526106
879.161707	2727.619632
879.472087	2767.868204
879.782425	2811.769093
880.092722	2922.951741
880.402977	3108.413270
880.713191	3360.642362
881.023363	3642.621823
881.333494	3828.247190
881.643583	3999.066688
881.953631	4003.717152
882.263637	3821.275274
882.573602	3602.398456
882.883526	3478.998572
883.193408	3368.229298
883.503248	3270.846809
883.813048	3161.506702
884.122806	3046.921276
884.432522	2966.214923
884.742197	2903.104718
885.051831	2869.074409
885.361424	2831.563183
885.670975	2797.580765
885.980485	2768.747886
886.289954	2750.624938
886.599382	2737.792681
886.908768	2725.981257
887.218113	2706.509800
887.527417	2694.015301
887.836680	2688.538087
888.145901	2680.026099
888.455082	2672.267763
888.764221	2665.552946
889.073319	2656.869558
889.382376	2653.678508
889.691392	2656.244455
890.000366	2657.154384
890.309300	2655.911739
890.618193	2656.350320
890.927044	2663.473470
891.235855	2659.874086
891.544625	2657.703869
891.853353	2658.608757
892.162041	2664.595127
892.470687	2685.561286
892.779293	2694.645445
893.087858	2707.248329
893.396381	2727.702811
893.704864	2767.046496
894.013306	2836.077537
894.321707	2925.578182
894.630068	2973.829586
894.938387	2994.402535
895.246665	2988.078407
895.554903	2941.954370
895.863100	2898.252608
896.171256	2845.799402
896.479371	2788.526853
896.787446	2749.785586
897.095480	2728.842112
897.403473	2723.397666
897.711425	2706.451827
898.019336	2693.145702
898.327207	2680.358815
898.635038	2677.382013
898.942827	2676.809842
899.250576	2665.832730
899.558284	2654.321255
899.865952	2650.225318
900.173579	2648.947385
900.481165	2648.229021
900.788711	2638.708802
901.096216	2633.529016
901.403681	2629.299488
901.711105	2629.065074
902.018489	2628.059364
902.325832	2632.596403
902.633135	2631.391567
902.940397	2649.083496
903.247619	2683.018023
903.554800	2747.822056
903.861941	2873.107332
904.169041	2994.357164
904.476101	3052.912687
904.783121	3048.748694
905.090100	2994.130313
905.397039	2922.298911
905.703938	2848.587160
906.010796	2789.474590
906.317614	2738.488360
906.624391	2702.802032
906.931129	2679.511901
907.237826	2654.013745
907.544483	2640.710140
907.851099	2624.926287
908.157675	2616.338682
908.464211	2608.938268
908.770707	2597.469643
909.077163	2596.441247
909.383578	2592.672985
909.689954	2591.599219
909.996289	2589.005545
910.302584	2588.965216
910.608839	2587.563775
910.915054	2585.786769
911.221229	2588.178796
911.527363	2592.088211
911.833458	2590.558221
912.139513	2592.788931
912.445527	2593.509816
912.751502	2595.322111
913.057436	2603.781167
913.363331	2606.619337
913.669186	2618.798765
913.975000	2631.230250
914.280775	2645.985707
914.586510	2666.341887
914.892205	2698.108717
915.197859	2764.253697
915.503475	2845.602797
915.809050	2910.086716
916.114585	2923.922163
916.420081	2934.866508
916.725536	2943.635595
917.030952	2919.803540
917.336328	2874.922148
917.641665	2827.837771
917.946961	2779.515790
918.252218	2749.175606
918.557435	2722.276009
918.862612	2699.883204
919.167750	2683.622962
919.472848	2668.252484
919.777906	2651.810761
920.082925	2638.885242
920.387904	2631.507513
920.692843	2628.709673
920.997743	2622.463683
921.302603	2617.891357
921.607423	2609.586056
921.912204	2603.723194
922.216946	2601.353852
922.521647	2601.883173
922.826310	2598.603902
923.130932	2591.964703
923.435516	2586.323652
923.740059	2586.127047
924.044564	2582.996490
924.349028	2581.365677
924.653454	2574.121539
924.957840	2569.108111
925.262186	2567.873028
925.566493	2570.048286
925.870761	2565.092832
926.174989	2569.977710
926.479178	2565.433110
926.783328	2561.937070
927.087438	2563.729200
927.391509	2561.730382
927.695541	2562.763819
927.999533	2559.015721
928.303486	2558.892213
928.607400	2558.574620
928.911275	2557.823488
929.215110	2559.812223
929.518906	2555.902809
929.822663	2558.423386
930.126381	2557.793241
930.430060	2557.836091
930.733699	2557.226112
931.037299	2559.396328
931.340861	2556.724517
931.644383	2560.044117
931.947866	2559.981102
932.251309	2557.316852
932.554714	2557.611760
932.858080	2557.218550
933.161407	2557.858776
933.464694	2556.984136
933.767943	2557.304249
934.071153	2557.032027
934.374323	2555.381049
934.677455	2556.580844
934.980548	2555.391132
935.283602	2556.016235
935.586617	2553.533466
935.889593	2554.541697
936.192530	2555.643189
936.495428	2555.673436
936.798287	2556.427089
937.101108	2558.267110
937.403890	2559.376164
937.706632	2561.869014
938.009336	2565.793553
938.312002	2568.699778
938.614628	2570.827145
938.917216	2575.628844
939.219765	2576.364852
939.522275	2578.524987
939.824747	2578.043556
940.127179	2571.157340
940.429573	2570.499470
940.731929	2569.168605
941.034246	2565.201217
941.336524	2567.008471
941.638763	2568.087277
941.940964	2567.373954
942.243126	2565.405384
942.545250	2566.413614
942.847335	2565.599468
943.149381	2561.871535
943.451389	2561.884138
943.753359	2558.085628
944.055290	2558.831719
944.357182	2559.063612
944.659036	2558.108313
944.960851	2558.297357
945.262628	2557.578992
945.564367	2555.441543
945.866067	2557.016904
946.167729	2560.896072
946.469352	2558.496482
946.770937	2559.141750
947.072484	2557.639486
947.373992	2557.662171
947.675462	2558.393139
947.976893	2556.643858
948.278286	2554.919784
948.579641	2555.900288
948.880958	2556.772408
949.182236	2555.749053
949.483476	2553.848538
949.784678	2555.335679
950.085841	2552.036244
950.386967	2557.309291
950.688054	2554.458518
950.989103	2556.356512
951.290114	2554.985319
951.591087	2558.582182
951.892021	2560.202913
952.192917	2560.649055
952.493776	2560.054199
952.794596	2561.420352
953.095378	2564.132492
953.396122	2563.479663
953.696828	2560.533108
953.997496	2560.949004
954.298126	2557.410114
954.598718	2556.704352
954.899272	2556.787531
955.199788	2554.697973
955.500266	2558.206616
955.800706	2549.893753
956.101108	2547.274874
956.401472	2546.916952
956.701798	2547.937786
957.002087	2545.694472
957.302337	2547.360573
957.602550	2547.229503
957.902724	2544.043494
958.202861	2546.846376
958.502960	2545.409647
958.803022	2544.358566
959.103045	2543.665408
959.403031	2546.576674
959.702979	2544.184647
960.002889	2544.293031
960.302762	2541.154913
960.602596	2542.190870
960.902393	2543.660367
961.202153	2542.977290
961.501875	2545.296221
961.801559	2539.249357
962.101205	2542.989893
962.400814	2540.093750
962.700385	2541.137269
962.999918	2541.233051
963.299414	2542.939482
963.598873	2540.986034
963.898293	2544.043494
964.197677	2542.342105
964.497022	2541.364121
964.796331	2540.212217
965.095601	2540.454193
965.394835	2540.794471
965.694030	2540.025695
965.993189	2541.651467
966.292309	2536.953111
966.591393	2540.244985
966.890439	2539.776158
967.189447	2540.834800
967.488419	2541.288504
967.787353	2542.009389
968.086249	2539.808925
968.385108	2537.943698
968.683930	2539.902186
968.982714	2540.514687
969.281462	2539.503935
969.580172	2541.409491
969.878844	2540.255067
970.177480	2539.168698
970.476078	2539.130890
970.774639	2539.922351
971.073162	2542.248843
971.371649	2541.159954
971.670098	2539.090561
971.968510	2538.019315
972.266885	2536.350693
972.565223	2540.854964
972.863524	2542.944523
973.161788	2541.843031
973.460014	2541.240613
973.758204	2544.416540
974.056356	2541.084337
974.354471	2541.275901
974.652550	2540.204656
974.950591	2541.853113
975.248595	2542.526107
975.546563	2538.876312
975.844493	2542.170706
976.142386	2538.498225
976.440243	2543.617517
976.738062	2543.516694
977.035845	2539.879501
977.333590	2538.770447
977.631299	2540.025695
977.928971	2539.892104
978.226606	2542.536189
978.524204	2538.926723
978.821765	2539.612320
979.119290	2540.560057
979.416777	2541.734646
979.714228	2538.651980
980.011642	2540.290355
980.309020	2545.283618
980.606360	2540.552495
980.903664	2543.070552
981.200931	2541.555685
981.498162	2544.721529
981.795356	2543.065510
982.092513	2545.129863
982.389633	2549.472817
982.686717	2551.781665
982.983764	2554.098076
983.280775	2551.993394
983.577749	2554.181255
983.874686	2552.716799
984.171587	2551.396017
984.468451	2547.489123
984.765279	2547.088351
985.062070	2544.834955
985.358824	2545.306303
985.655543	2543.181457
985.952224	2540.297917
986.248869	2539.932433
986.545478	2534.503111
986.842050	2539.007382
987.138586	2534.414890
987.435086	2535.138296
987.731549	2534.377082
988.027975	2538.059645
988.324366	2537.495035
988.620719	2536.522093
988.917037	2537.376568
989.213318	2539.451003
989.509563	2536.743903
989.805772	2536.144006
990.101944	2535.186187
990.398080	2535.801208
990.694180	2537.719367
990.990244	2537.835313
991.286271	2536.943029
991.582262	2537.008564
991.878217	2535.881866
992.174136	2538.105015
992.470019	2536.718698
992.765865	2538.725077
993.061676	2537.926054
993.357450	2537.258101
993.653188	2538.707433
993.948890	2537.202648
994.244556	2538.026877
994.540186	2539.037628
994.835780	2535.481094
995.131337	2542.861344
995.426859	2540.749100
995.722345	2539.365303
996.017795	2540.040818
996.313208	2542.458051
996.608586	2542.107691
996.903928	2540.665921
997.199234	2540.930582
997.494504	2539.766075
997.789738	2539.065355
998.084936	2539.128369
998.380099	2537.643749
998.675225	2540.547454
998.970316	2537.255581
999.265371	2537.999151
999.560390	2537.447144
999.855373	2538.931764
1000.150320	2536.524613
1000.445232	2536.559901
1000.740108	2537.305992
1001.034948	2535.884387
1001.329752	2534.956814
1001.624521	2536.396064
1001.919254	2530.868439
1002.213951	2536.655683
1002.508613	2531.796011
1002.803239	2536.330529
1003.097829	2531.536392
1003.392384	2538.054603
1003.686903	2535.307175
1003.981386	2536.635519
1004.275834	2536.761548
1004.570246	2534.034283
1004.864623	2536.597710
1005.158964	2535.791125
1005.453270	2535.103008
1005.747540	2535.138296
1006.041775	2535.166022
1006.335974	2536.932947
1006.630138	2538.485622
1006.924266	2536.053265
1007.218359	2534.316588
1007.512416	2536.562422
1007.806438	2534.384643
1008.100425	2533.081505
1008.394376	2532.847092
1008.688292	2536.905220
1008.982172	2536.428831
1009.276017	2534.982020
1009.569827	2534.145189
1009.863602	2536.166691
1010.157341	2535.433203
1010.451045	2535.521424
1010.744714	2533.026052
1011.038347	2536.176774
1011.331945	2534.150230
1011.625508	2537.144675
1011.919036	2536.295241
1012.212528	2535.521424
1012.505986	2535.065199
1012.799408	2533.331042
1013.092795	2534.404808
1013.386147	2534.767771
1013.679464	2534.697195
1013.972745	2535.067720
1014.265992	2534.435055
1014.559204	2534.616537
1014.852380	2534.500590
1015.145521	2536.481763
1015.438628	2532.791639
1015.731699	2536.312885
1016.024736	2536.746424
1016.317737	2536.028060
1016.610703	2536.232226
1016.903635	2534.475384
1017.196531	2532.761392
1017.489393	2532.738707
1017.782219	2530.281144
1018.075011	2532.453882
1018.367768	2532.431196
1018.660490	2536.789274
1018.953177	2536.789274
1019.245829	2536.789274
