Dividing Wavelength (nm)	Counts (n)	Blue Motor Position (mm): 36.000000	Red Motor Position (mm): 0.000000	
326.493990	2154.574030
326.888308	2154.574030
327.282561	2154.574030
327.676750	2128.203755
328.070874	2130.419342
328.464933	2137.073665
328.858929	2145.716723
329.252859	2157.739875
329.646726	2170.945178
330.040528	2183.457321
330.434265	2204.352904
330.827938	2224.451984
331.221547	2243.074007
331.615091	2263.233581
332.008571	2280.844852
332.401986	2303.653553
332.795338	2324.198775
333.188625	2342.926662
333.581847	2363.119003
333.975006	2382.212373
334.368100	2400.584859
334.761129	2417.026582
335.154095	2437.907041
335.546996	2457.118878
335.939833	2488.003508
336.332606	2504.420025
336.725315	2514.772034
337.117960	2520.783610
337.510540	2531.717873
337.903056	2542.170706
338.295508	2548.711603
338.687896	2552.696635
339.080220	2565.586865
339.472480	2568.488049
339.864676	2571.301013
340.256807	2572.984758
340.648875	2576.037177
341.040879	2579.245872
341.432818	2578.708989
341.824694	2578.640933
342.216506	2581.403485
342.608253	2582.653692
342.999937	2579.888619
343.391557	2577.589853
343.783113	2577.627661
344.174605	2575.805284
344.566033	2575.578432
344.957397	2574.063565
345.348697	2571.611044
345.739934	2570.123904
346.131106	2566.204407
346.522215	2566.285065
346.913260	2564.066957
347.304241	2562.678119
347.695159	2560.714590
348.086012	2560.089487
348.476802	2555.222253
348.867528	2556.764846
349.258191	2553.704866
349.648789	2554.473642
350.039324	2553.851059
350.429796	2554.193858
350.820203	2550.939793
351.210548	2552.379042
351.600828	2548.033568
351.991045	2551.002807
352.381198	2550.203784
352.771288	2548.802343
353.161314	2546.317055
353.551276	2549.649257
353.941175	2548.555327
354.331010	2549.492982
354.720782	2549.679504
355.110490	2550.221428
355.500135	2547.635316
355.889717	2548.930893
356.279235	2550.944834
356.668689	2550.334854
357.058080	2552.154711
357.447408	2548.729247
357.836672	2550.039947
358.225873	2548.310831
358.615010	2550.919628
359.004084	2552.845349
359.393095	2553.319217
359.782043	2554.942469
360.170927	2555.819630
360.559748	2556.628735
360.948505	2555.640669
361.337199	2555.655792
361.725830	2556.457336
362.114398	2558.123437
362.502903	2558.209137
362.891344	2557.115206
363.279722	2559.025803
363.668037	2558.851884
364.056289	2560.787687
364.444478	2558.020093
364.832603	2558.831719
365.220665	2560.772563
365.608665	2563.630898
365.996601	2562.224416
366.384474	2561.957234
366.772284	2560.510423
367.160031	2562.587379
367.547715	2560.092007
367.935336	2563.867832
368.322893	2561.889179
368.710388	2561.581668
369.097820	2565.894376
369.485189	2561.553942
369.872495	2564.397153
370.259738	2563.840105
370.646918	2564.508058
371.034035	2562.562173
371.421090	2564.497976
371.808081	2565.377657
372.195010	2565.193655
372.581875	2564.185424
372.968678	2563.943449
373.355418	2566.033007
373.742096	2567.747000
374.128710	2567.832699
374.515262	2568.155333
374.901751	2569.818914
375.288177	2566.053172
375.674540	2566.128789
376.060841	2569.521486
376.447079	2565.675085
376.833254	2569.987793
377.219367	2566.146433
377.605417	2569.188770
377.991404	2564.402194
378.377329	2567.154664
378.763191	2564.760116
379.148991	2568.987123
379.534727	2570.212124
379.920402	2572.493246
380.306013	2571.162381
380.691563	2570.660787
381.077049	2571.865622
381.462474	2570.688513
381.847835	2571.863102
382.233134	2572.493246
382.618371	2571.434604
383.003545	2572.586507
383.388657	2573.483833
383.773706	2574.572722
384.158693	2576.352249
384.543618	2574.809656
384.928480	2569.062741
385.313280	2575.896025
385.698017	2576.102712
386.082692	2575.016343
386.467305	2574.678586
386.851856	2576.926941
387.236344	2576.677404
387.620770	2576.445511
388.005133	2577.574729
388.389435	2578.121694
388.773674	2577.020202
389.157851	2575.787640
389.541965	2576.747980
389.926018	2578.368711
390.310008	2579.697055
390.693936	2578.315779
391.077802	2580.022209
391.461606	2578.340984
391.845348	2581.189236
392.229027	2579.041705
392.612645	2581.630337
392.996200	2582.048753
393.379694	2583.107395
393.763125	2581.894998
394.146494	2579.933989
394.529801	2579.487847
394.913047	2579.560944
395.296230	2578.492219
395.679351	2584.647468
396.062410	2583.089751
396.445408	2583.377097
396.828343	2586.477407
397.211217	2579.881057
397.594028	2581.118660
397.976778	2582.136973
398.359466	2584.723085
398.742092	2581.345512
399.124656	2586.752150
399.507158	2584.720565
399.889598	2586.767273
400.271977	2586.888261
400.654294	2587.793148
401.036549	2590.107038
401.418742	2589.643251
401.800874	2587.621749
402.182944	2588.282140
402.564952	2590.233066
402.946898	2590.301122
403.328783	2592.040320
403.710606	2594.777667
404.092367	2594.891092
404.474067	2594.727255
404.855705	2595.241453
405.237282	2598.387133
405.618797	2597.351176
406.000250	2602.495673
406.381642	2605.464913
406.762972	2606.465582
407.144240	2608.222424
407.525447	2612.434308
407.906593	2612.893053
408.287677	2617.258692
408.668700	2619.333127
409.049661	2627.870321
409.430560	2629.387708
409.811399	2639.076806
410.192176	2644.750625
410.572891	2649.827067
410.953545	2657.005670
411.334138	2660.758809
411.714669	2675.075686
412.095139	2676.482167
412.475547	2687.194619
412.855894	2692.752492
413.236180	2703.308668
413.616405	2709.864688
413.996568	2720.309959
414.376670	2731.609705
414.756711	2739.317630
415.136691	2753.755494
415.516609	2768.077412
415.896466	2781.549896
416.276262	2797.885755
416.655997	2812.573157
417.035670	2828.004129
417.415283	2857.099148
417.794834	2875.494318
418.174324	2886.511760
418.553753	2904.281828
418.933121	2930.188317
419.312428	2943.416305
419.691674	2959.003553
420.070859	2985.595639
420.449983	2993.172493
420.829045	3029.425951
421.208047	3040.392981
421.586988	3074.682910
421.965867	3104.619802
422.344686	3128.955972
422.723444	3163.218174
423.102141	3143.842499
423.480777	3204.381716
423.859352	3210.095864
424.237866	3276.666821
424.616319	3289.519243
424.994712	3342.574866
425.373044	3357.801672
425.751314	3411.016092
426.129524	3393.067063
426.507673	3476.430104
426.885762	3483.863285
427.263789	3518.269160
427.641756	3542.882594
428.019662	3580.479519
428.397508	3604.263683
428.775292	3649.392092
429.153016	3673.718180
429.530679	3702.077191
429.908282	3729.183475
430.285824	3732.606419
430.663305	3802.310453
431.040726	3792.936428
431.418086	3803.074188
431.795385	3879.288872
432.172624	3927.457097
432.549802	3917.465530
432.926920	3947.578863
433.303977	3959.823826
433.680974	4008.687730
434.057910	4045.394892
434.434786	4061.602201
434.811601	4069.027821
435.188355	4182.108463
435.565050	4170.511289
435.941683	4182.685675
436.318257	4271.518368
436.694770	4285.719298
437.071222	4350.021736
437.447614	4305.132782
437.823946	4319.265657
438.200218	4347.657435
438.576429	4341.192155
438.952580	4368.346330
439.328670	4387.192684
439.704700	4435.078604
440.080670	4406.089449
440.456580	4473.310715
440.832429	4513.150954
441.208218	4428.590639
441.583947	4478.820696
441.959616	4502.640148
442.335224	4533.159294
442.710773	4559.897574
443.086261	4616.837406
443.461689	4577.304678
443.837057	4591.639199
444.212365	4666.263399
444.587612	4674.712373
444.962800	4644.639370
445.337927	4687.032953
445.712995	4581.032611
446.088002	4773.602167
446.462949	4794.449859
446.837837	4815.284948
447.212664	4811.045338
447.587431	5035.500192
447.962139	5330.838711
448.336786	5669.639537
448.711374	5650.155478
449.085901	5296.568947
449.460369	5236.838836
449.834776	5172.057488
450.209124	5414.063120
450.583412	5423.595942
450.957640	5548.102359
451.331808	5407.670937
451.705917	5258.941775
452.079965	5254.356845
452.453954	5290.970746
452.827883	5253.837606
453.201752	5262.397486
453.575562	5293.498884
453.949311	5427.094502
454.323001	5434.888126
454.696632	5429.655408
455.070202	5585.225416
455.443713	5613.271876
455.817164	5704.254620
456.190556	5774.571155
456.563888	5750.948308
456.937160	5832.234393
457.310373	5670.491492
457.683526	5727.398557
458.056619	5719.733483
458.429653	5699.301687
458.802628	5750.915540
459.175542	5782.873935
459.548398	5921.455254
459.921194	6110.004490
460.293930	6171.050343
460.666607	6427.483757
461.039224	6635.587629
461.411782	6761.785353
461.784280	6669.191960
462.156719	6679.521284
462.529099	6639.252548
462.901419	6498.117884
463.273680	6371.408482
463.645882	6361.580752
464.018024	6364.555033
464.390106	6430.455517
464.762130	6689.129724
465.134094	7081.248314
465.505999	7718.389666
465.877845	8422.601050
466.249631	8774.690358
466.621358	8690.364457
466.993026	8491.818613
467.364634	8282.404041
467.736184	8001.546237
468.107674	7845.545210
468.479105	7760.863908
468.850477	7693.196500
469.221790	7524.282558
469.593043	7302.401212
469.964238	7202.165430
470.335373	7176.072418
470.706449	7336.222314
471.077467	7525.008484
471.448425	8184.265378
471.819324	8767.524358
472.190164	8797.607443
472.560945	8306.334398
472.931667	7846.006476
473.302330	7648.839387
473.672934	7528.887652
474.043479	7610.564427
474.413965	7509.774117
474.784393	7465.112015
475.154761	7618.491641
475.525070	7626.844833
475.895321	7579.490754
476.265513	7678.219232
476.635645	7846.573606
477.005719	7841.063624
477.375734	7928.782222
477.745691	8032.539250
478.115588	8236.718584
478.485427	8474.111560
478.855207	8946.414743
479.224928	9382.169561
479.594591	9759.167210
479.964194	9762.806923
480.333739	9858.636737
480.703226	9856.441315
481.072653	9958.224732
481.442022	10076.817876
481.811333	10222.350946
482.180584	10058.175689
482.549777	10001.281227
482.918912	9938.791083
483.287988	9923.523949
483.657005	9833.274692
484.025964	9751.713864
484.394864	9813.795674
484.763706	9774.883007
485.132489	9683.126446
485.501213	9675.589921
485.869879	9731.455987
486.238487	9666.099948
486.607036	9754.408361
486.975527	9696.805617
487.343959	9757.349874
487.712333	9793.303383
488.080648	9840.032359
488.448905	9942.700498
488.817104	9945.863822
489.185244	10113.020922
489.553326	10332.827833
489.921350	10809.002622
490.289315	11434.274578
490.657222	11724.851727
491.025070	11901.191288
491.392861	11814.082670
491.760593	11651.286168
492.128267	11406.391956
492.495883	11167.322796
492.863440	10930.481827
493.230939	10705.190141
493.598380	10525.916628
493.965763	10495.669705
494.333088	10367.553821
494.700354	10295.059508
495.067563	10275.068812
495.434713	10281.952508
495.801805	10319.587242
496.168839	10280.735069
496.535815	10246.006561
496.902733	10294.263006
497.269593	10254.810936
497.636395	10256.345967
498.003139	10370.376867
498.369825	10299.276433
498.736453	10380.996058
499.103023	10328.076545
499.469535	10335.855046
499.835989	10388.366225
500.202385	10364.319921
500.568723	10379.544205
500.935003	10441.116858
501.301226	10407.157126
501.667390	10571.874307
502.033497	10674.650831
502.399546	10599.777093
502.765537	10508.459112
503.131470	10610.040883
503.497345	10701.338699
503.863163	10472.918977
504.228923	10610.479463
504.594625	10727.678728
504.960269	10638.762857
505.325856	10786.564446
505.691385	10676.054792
506.056856	10736.974616
506.422270	10842.243991
506.787625	10773.386870
507.152924	10828.584984
507.518164	10889.729139
507.883347	10747.533313
508.248472	10823.022071
508.613540	10934.280336
508.978550	11003.528146
509.343503	10997.572023
509.708398	11041.210771
510.073236	11167.211891
510.438016	11185.239057
510.802738	11102.947262
511.167403	11226.460572
511.532010	11296.043619
511.896561	11382.910261
512.261053	11575.855383
512.625488	11494.133238
512.989866	11481.399284
513.354186	11454.996241
513.718449	11475.826288
514.082655	11614.586568
514.446803	11567.315669
514.810894	11676.055878
515.174927	11678.808348
515.538904	11666.714620
515.902822	11823.554998
516.266684	11694.214114
516.630488	11792.395626
516.994235	11783.414811
517.357925	11897.793550
517.721558	11953.430245
518.085133	12023.567818
518.448651	12055.516131
518.812112	12011.448884
519.175516	12031.081658
519.538863	12113.106272
519.902152	12124.073302
520.265385	12226.595248
520.628560	12253.867891
520.991678	12194.299096
521.354739	12250.858322
521.717743	12316.453816
522.080690	12297.360445
522.443580	12433.101074
522.806413	12443.140532
523.169189	12433.418667
523.531908	12500.723112
523.894569	12454.301647
524.257174	12470.574492
524.619722	12577.653640
524.982213	12555.621277
525.344647	12543.396479
525.707025	12553.188921
526.069345	12656.877894
526.431608	12634.316210
526.793815	12726.680230
527.155964	12611.109258
527.518057	12641.419195
527.880093	12609.790996
528.242072	12726.476064
528.603995	12639.375008
528.965860	12661.717401
529.327669	12689.859643
529.689421	12637.320737
530.051117	12648.159218
530.412755	12692.894417
530.774337	12689.952904
531.135862	12645.953713
531.497331	12705.497302
531.858743	12666.332578
532.220098	12758.245415
532.581396	12685.688088
532.942638	12607.686314
533.303824	12681.090556
533.664953	12654.158191
534.026025	12617.629990
534.387040	12719.761247
534.747999	12683.946369
535.108902	12737.407806
535.469748	12609.901902
535.830537	12637.229997
536.191270	12672.220645
536.551947	12608.049278
536.912567	12667.292918
537.273131	12698.477495
537.633638	12577.449474
537.994089	12634.086837
538.354483	12547.023590
538.714821	12676.790451
539.075103	12757.388419
539.435328	12695.299048
539.795497	12679.129547
540.155609	12668.651508
540.515665	12774.654371
540.875665	12627.548461
541.235609	12727.194428
541.595496	12693.189325
541.955328	12864.346580
542.315102	12712.701111
542.674821	12659.471567
543.034483	12674.680728
543.394090	12673.846417
543.753640	12641.293167
544.113134	12887.578738
544.472571	12642.515646
544.831953	12921.840940
545.191278	12741.034916
545.550548	12667.214780
545.909761	12787.345476
546.268918	12826.043893
546.628019	12882.809806
546.987064	12771.743105
547.346053	12627.455199
547.704986	12827.548678
548.063863	12705.963609
548.422684	12763.689861
548.781449	12716.976009
549.140158	12820.430568
549.498811	12765.693720
549.857408	12634.411992
550.215949	12839.148373
550.574434	12805.213846
550.932864	12750.235022
551.291237	12946.870269
551.649555	12826.394253
552.007817	12886.610836
552.366022	12803.940954
552.724173	12852.474663
553.082267	12944.722737
553.440305	13030.800439
553.798288	12856.895755
554.156215	12926.909820
554.514086	12974.755411
554.871902	12925.926795
555.229661	12938.658229
555.587365	12892.897155
555.945014	12911.441039
556.302606	12890.137123
556.660143	12958.754789
557.017625	12985.863594
557.375050	12943.220473
557.732421	13044.000700
558.089735	13030.813042
558.446994	13013.080783
558.804197	13121.868883
559.161345	13129.309626
559.518437	12943.452366
559.875474	13042.929455
560.232455	13078.550248
560.589381	13111.499230
560.946251	13047.083366
561.303065	13219.904202
561.659825	13166.848578
562.016528	13087.326897
562.373177	13031.470913
562.729770	13155.397598
563.086307	13044.109085
563.442789	13147.062050
563.799216	13187.706353
564.155587	13130.340542
564.511904	13142.388900
564.868164	13164.978310
565.224370	13225.754461
565.580520	13173.694465
565.936615	13229.986510
566.292654	13172.257737
566.648638	13246.082914
567.004567	13247.156680
567.360441	13246.559303
567.716260	13212.521432
568.072023	13292.191828
568.427732	13276.700362
568.783385	13183.746526
569.138982	13299.829176
569.494525	13293.147126
569.850013	13236.638312
570.205445	13224.761354
570.560823	13237.613776
570.916145	13191.081405
571.271412	13203.732181
571.626625	13162.009071
571.981782	13171.665401
572.336884	13109.782717
572.691931	13203.510370
573.046923	13090.626332
573.401860	13064.634143
573.756743	13072.400041
574.111570	13090.404522
574.466342	13057.458061
574.821059	13110.438067
575.175722	12982.851504
575.530330	13013.206812
575.884882	12935.537755
576.239380	12936.447683
576.593823	12924.883276
576.948211	12919.307760
577.302544	12802.254688
577.656823	12812.122747
578.011047	12875.752191
578.365216	12810.847335
578.719330	12749.168818
579.073389	12712.507026
579.427394	12742.340575
579.781344	12729.283986
580.135239	12668.250737
580.489080	12670.171416
580.842866	12559.497925
581.196597	12649.157367
581.550273	12641.141932
581.903895	12603.610542
582.257463	12717.013818
582.610975	12560.249057
582.964434	12620.503448
583.317837	12537.132846
583.671186	12493.821773
584.024481	12547.668857
584.377721	12437.038216
584.730906	12513.527643
585.084037	12523.786391
585.437113	12446.477776
585.790135	12470.362763
586.143103	12375.309287
586.496016	12391.146072
586.848874	12397.450034
587.201679	12399.310220
587.554428	12275.353288
587.907124	12335.169099
588.259765	12264.512287
588.612352	12344.354082
588.964884	12197.391844
589.317362	12248.680543
589.669786	12241.123854
590.022155	12198.148017
590.374470	12294.030763
590.726731	12186.157633
591.078937	12071.720920
591.431090	12099.686721
591.783188	12026.927747
592.135232	11943.882299
592.487222	12015.287723
592.839157	12024.792819
593.191038	11948.182404
593.542866	11899.232800
593.894639	11757.891449
594.246358	11814.075108
594.598022	11824.633805
594.949633	11729.832387
595.301190	11717.020294
595.652692	11670.455156
596.004141	11767.688931
596.355535	11536.330217
596.706876	11513.463543
597.058162	11481.462298
597.409395	11575.928480
597.760573	11605.199940
598.111698	11495.247333
598.462768	11492.134421
598.813785	11508.959272
599.164748	11372.215453
599.515657	11453.763678
599.866511	11326.041005
600.217312	11461.219545
600.568060	11223.410674
600.918753	11385.486291
601.269392	11389.678010
601.619978	11292.141766
601.970510	11330.893115
602.320988	11371.885258
602.671412	11439.063674
603.021783	11369.054650
603.372100	11298.692745
603.722363	11313.052472
604.072572	11308.770012
604.422728	11328.465800
604.772830	11268.637386
605.122878	11276.894796
605.472872	11256.067269
605.822813	11312.558439
606.172701	11263.334092
606.522534	11302.105606
606.872314	11362.400327
607.222041	11281.570466
607.571714	11368.164886
607.921333	11238.584547
608.270899	11291.955243
608.620411	11354.221055
608.969870	11299.602673
609.319276	11283.881835
609.668627	11298.055039
610.017926	11372.578416
610.367171	11407.604353
610.716362	11409.391442
611.065500	11379.315918
611.414585	11386.517207
611.763616	11439.298087
612.112594	11410.702142
612.461518	11432.910946
612.810389	11485.956487
613.159207	11428.968763
613.507971	11419.965262
613.856682	11524.561643
614.205340	11475.901906
614.553945	11620.998916
614.902496	11492.033598
615.250994	11556.451982
615.599439	11548.053420
615.947830	11585.892321
616.296169	11549.096939
616.644454	11568.016389
616.992686	11577.844119
617.340864	11670.394662
617.688990	11557.001468
618.037063	11695.923065
618.385082	11661.728919
618.733048	11700.802902
619.080961	11692.905935
619.428821	11669.850218
619.776628	11676.991012
620.124382	11626.307251
620.472083	11655.956797
620.819731	11669.225114
621.167326	11594.522776
621.514868	11572.276164
621.862357	11474.250928
622.209793	11464.408075
622.557176	11385.256918
622.904506	11327.187867
623.251783	11245.211144
623.599007	11189.786178
623.946179	11144.660289
624.293297	11116.697009
624.640363	10986.491567
624.987376	10957.630961
625.334336	10904.277909
625.681243	10809.811727
626.028097	10786.077975
626.374899	10748.463406
626.721647	10722.032636
627.068343	10686.459734
627.414987	10629.976126
627.761577	10562.654037
628.108115	10605.186252
628.454600	10479.643877
628.801032	10490.086627
629.147412	10474.542229
629.493739	10447.536768
629.840014	10369.650941
630.186236	10411.820193
630.532405	10317.772427
630.878521	10347.837868
631.224585	10304.330190
631.570597	10231.719931
631.916556	10237.035827
632.262462	10210.100942
632.608316	10195.055619
632.954117	10162.850207
633.299866	10150.335543
633.645562	10131.204364
633.991206	10030.270382
634.336797	9923.765924
634.682336	9920.673177
635.027823	9858.162869
635.373257	9826.738836
635.718639	9763.222818
636.063968	9731.282068
636.409245	9613.591290
636.754470	9608.910579
637.099642	9547.532010
637.444762	9448.450652
637.789829	9452.647412
638.134845	9376.102532
638.479808	9356.341209
638.824719	9334.581069
639.169577	9244.336853
639.514383	9250.766845
639.859137	9182.108850
640.203839	9213.429539
640.548489	9131.893917
640.893086	9144.307758
641.237632	9069.307992
641.582125	9071.755472
641.926566	9059.175272
642.270955	9042.305051
642.615292	9038.085605
642.959576	9018.951906
643.303809	9006.495215
643.647990	9021.689252
643.992118	9003.120162
644.336195	8982.854724
644.680219	8971.650759
645.024192	9006.497735
645.368112	9087.478831
645.711981	9059.114778
646.055797	9199.110141
646.399562	9152.892843
646.743274	9322.651178
647.086935	9383.429849
647.430544	9366.431079
647.774101	9389.073421
648.117606	9414.811032
648.461059	9475.415784
648.804460	9409.394312
649.147810	9291.453998
649.491108	9261.837219
649.834354	9190.348616
650.177548	9050.539776
650.520690	8966.836457
650.863781	8954.941855
651.206820	8926.650899
651.549807	8836.131941
651.892742	8744.539217
652.235626	8703.017753
652.578458	8670.159512
652.921238	8560.756392
653.263967	8591.623377
653.606644	8526.647945
653.949269	8511.821911
654.291843	8436.083616
654.634365	8498.624170
654.976836	8420.471162
655.319255	8418.217767
655.661622	8400.699757
656.003938	8365.542750
656.346203	8330.965476
656.688416	8359.473201
657.030577	8313.719688
657.372687	8281.247096
657.714746	8316.318403
658.056753	8337.491249
658.398708	8236.584993
658.740612	8226.111996
659.082465	8265.690095
659.424266	8225.060916
659.766016	8236.799243
660.107715	8206.466620
660.449362	8227.841112
660.790958	8226.356492
661.132503	8220.649906
661.473996	8219.823157
661.815438	8241.106908
662.156829	8266.292513
662.498168	8219.424906
662.839456	8207.381589
663.180693	8231.120383
663.521879	8249.344154
663.863013	8235.944767
664.204097	8232.673058
664.545129	8307.367835
664.886110	8290.336296
665.227040	8294.863253
665.567918	8302.687123
665.908746	8323.053385
666.249522	8342.902928
666.590248	8336.480498
666.930922	8355.379784
667.271545	8338.254984
667.612118	8359.952110
667.952639	8319.292684
668.293109	8323.819640
668.633528	8302.525806
668.973896	8280.909339
669.314213	8291.079867
669.654480	8248.603104
669.994695	8237.683965
670.334859	8223.659475
670.674973	8202.622740
671.015035	8224.556800
671.355047	8214.756797
671.695008	8204.099798
672.034918	8182.337137
672.374777	8187.330400
672.714585	8158.535329
673.054342	8188.535236
673.394049	8155.503075
673.733705	8197.024539
674.073310	8145.191395
674.412864	8154.346130
674.752368	8091.550997
675.091820	8144.452866
675.431223	8072.714726
675.770574	8027.530864
676.109875	8004.366762
676.449125	7966.878222
676.788324	7948.152856
677.127473	7857.744802
677.466571	7843.775765
677.805619	7789.606047
678.144616	7782.119933
678.483562	7770.137110
678.822458	7716.504275
679.161303	7707.621762
679.500098	7677.848707
679.838842	7664.189701
680.177535	7677.054725
680.516179	7712.756177
680.854771	7730.269145
681.193314	7846.016558
681.531805	8000.270825
681.870247	8124.381512
682.208638	8271.678986
682.546978	8346.197322
682.885268	8376.295531
683.223508	8303.826424
683.561697	8255.723734
683.899836	8219.321562
684.237925	8137.959860
684.575963	8110.213349
684.913951	8030.948766
685.251889	8039.806074
685.589776	8039.896814
685.927614	8019.500306
686.265401	8047.123308
686.603137	8047.057773
686.940824	8112.663350
687.278460	8169.721649
687.616046	8182.899226
687.953582	8293.028273
688.291068	8271.373996
688.628504	8327.771905
688.965889	8332.843306
689.303224	8287.621635
689.640510	8250.531346
689.977745	8140.997155
690.314930	8022.494751
690.652065	7947.474820
690.989150	7834.497522
691.326185	7683.315838
691.663170	7572.803664
692.000105	7452.420910
692.336990	7340.711461
692.673825	7269.437107
693.010610	7175.752304
693.347345	7079.499033
693.684030	6973.067673
694.020665	6918.693787
694.357251	6805.514842
694.693786	6799.062166
695.030272	6751.755978
695.366707	6655.490104
695.703093	6605.199553
696.039429	6601.567402
696.375716	6554.730042
696.711952	6540.781169
697.048139	6517.929618
697.384276	6481.103990
697.720363	6506.075345
698.056400	6470.358770
698.392388	6439.224604
698.728326	6447.640810
699.064214	6415.763074
699.400053	6409.920377
699.735842	6349.804617
700.071581	6304.693852
700.407270	6256.812973
700.742910	6229.394137
701.078501	6191.575401
701.414042	6144.188555
701.749533	6091.455565
702.084974	6032.965577
702.420366	6072.946968
702.755709	6000.394682
703.091002	5947.674295
703.426246	5954.275686
703.761440	5940.054591
704.096584	5894.205297
704.431679	5879.109562
704.766725	5870.373242
705.101721	5857.122569
705.436668	5874.287698
705.771565	5812.815868
706.106413	5872.946751
706.441212	5869.117995
706.775961	5887.558536
707.110661	5893.761676
707.445311	5957.219720
707.779913	5922.602117
708.114465	5964.448735
708.448967	6003.323593
708.783421	6120.444720
709.117825	6160.322768
709.452180	6201.274581
709.786485	6256.646615
710.120742	6389.070164
710.454949	6388.997068
710.789107	6465.569674
711.123216	6587.242963
711.457275	6620.423838
711.791286	6724.891669
712.125247	6747.612149
712.459159	6719.656431
712.793023	6853.708273
713.126837	6679.294433
713.460602	6739.226190
713.794318	6687.874476
714.127985	6637.644419
714.461602	6494.624364
714.795171	6497.999417
715.128691	6330.985990
715.462162	6239.360498
715.795584	6171.453635
716.128957	6129.143231
716.462281	6061.443055
716.795556	6026.885946
717.128782	5937.108037
717.461960	5839.733109
717.795088	5828.723229
718.128167	5759.772848
718.461198	5676.777811
718.794180	5654.926930
719.127113	5592.313278
719.459997	5561.017795
719.792833	5498.404144
720.125619	5490.708823
720.458357	5435.165390
720.791046	5401.949227
721.123686	5371.062077
721.456278	5329.739739
721.788821	5321.109284
722.121315	5278.541781
722.453761	5290.227175
722.786158	5267.985605
723.118506	5270.954844
723.450805	5249.025825
723.783056	5277.886431
724.115259	5258.863637
724.447412	5244.027521
724.779518	5289.526455
725.111574	5291.689110
725.443582	5325.875695
725.775542	5320.171629
726.107453	5402.909567
726.439315	5382.089601
726.771129	5449.331032
727.102895	5509.986195
727.434612	5548.208223
727.766281	5585.900931
728.097901	5640.766329
728.429473	5650.447865
728.760996	5667.154248
729.092471	5690.530079
729.423897	5677.332338
729.755276	5648.063399
730.086606	5659.421118
730.417887	5748.165591
730.749120	5841.250497
731.080305	5877.304829
731.411442	5962.714578
731.742530	5980.802238
732.073570	5998.952912
732.404562	6063.088992
732.735506	6060.016409
733.066401	6037.784920
733.397249	5968.849662
733.728048	5877.662751
734.058798	5733.420216
734.389501	5608.215598
734.720156	5518.392319
735.050762	5418.035549
735.381320	5341.926729
735.711831	5281.919354
736.042293	5201.376839
736.372707	5199.685532
736.703073	5151.802132
737.033391	5186.293707
737.363661	5168.740409
737.693883	5178.737017
738.024056	5204.517478
738.354182	5233.841870
738.684260	5284.069406
739.014290	5319.891845
739.344272	5351.512483
739.674207	5410.161267
740.004093	5438.389207
740.333931	5451.115600
740.663722	5467.721161
740.993464	5479.517461
741.323159	5461.661694
741.652806	5416.598820
741.982405	5388.743924
742.311956	5332.527497
742.641460	5321.890663
742.970915	5273.059526
743.300323	5207.945462
743.629683	5176.256769
743.958996	5123.778358
744.288260	5075.877314
744.617477	5013.349362
744.946647	5002.397455
745.275768	4945.089618
745.604842	4917.459054
745.933869	4876.950862
746.262847	4870.513309
746.591778	4859.697513
746.920662	4831.933359
747.249498	4828.432277
747.578286	4845.209237
747.907027	4867.123133
748.235720	4913.811779
748.564365	4922.439714
748.892963	4910.386315
749.221514	4927.185961
749.550017	4904.140326
749.878473	4897.612032
750.206881	4860.383110
750.535242	4848.052448
750.863555	4832.379501
751.191821	4808.658351
751.520039	4812.446778
751.848210	4793.292914
752.176334	4802.732475
752.504411	4783.878560
752.832440	4756.119446
753.160421	4768.182927
753.488356	4749.162654
753.816243	4724.584508
754.144082	4690.526473
754.471875	4682.180842
754.799620	4670.674409
755.127318	4666.523019
755.454969	4660.992873
755.782572	4656.332326
756.110129	4653.499198
756.437638	4635.129233
756.765100	4634.952793
757.092515	4642.297754
757.419882	4642.668279
757.747203	4642.086025
758.074477	4653.186646
758.401703	4645.345131
758.728882	4671.617105
759.056014	4683.637736
759.383099	4709.448444
759.710138	4733.819902
760.037129	4755.411164
760.364073	4767.094038
760.690970	4764.049181
761.017820	4767.184779
761.344623	4798.923883
761.671379	4861.532493
761.998088	4951.320485
762.324751	5178.850443
762.651366	5642.568541
762.977935	6338.056208
763.304456	6894.733183
763.630931	7199.158382
763.957359	7135.188660
764.283740	6839.005748
764.610074	6518.320308
764.936362	6122.980420
765.262602	5802.907480
765.588796	5457.240602
765.914943	5204.552766
766.241044	4974.577848
766.567097	4806.906550
766.893104	4656.397861
767.219064	4556.640988
767.544978	4462.328562
767.870845	4378.577352
768.196665	4332.284436
768.522438	4279.516158
768.848165	4237.687184
769.173846	4198.693859
769.499479	4172.442051
769.825066	4135.490393
770.150607	4093.386676
770.476101	4079.160540
770.801548	4057.400399
771.126949	4022.881098
771.452303	4005.723531
771.777611	3971.778922
772.102872	3969.465032
772.428087	3940.871608
772.753256	3916.177516
773.078378	3893.867889
773.403453	3865.050133
773.728482	3837.356555
774.053465	3824.990604
774.378401	3807.699447
774.703291	3783.184315
775.028135	3757.466869
775.352932	3751.052001
775.677683	3726.551993
776.002388	3710.153120
776.327046	3711.630178
776.651658	3690.815253
776.976224	3675.931247
777.300743	3670.426307
777.625216	3655.512053
777.949643	3647.534427
778.274024	3650.722957
778.598359	3627.485758
778.922647	3632.839464
779.246889	3621.832104
779.571086	3615.109726
779.895236	3617.569809
780.219339	3619.351857
780.543397	3620.599542
780.867409	3633.031027
781.191374	3631.899288
781.515294	3628.367960
781.839167	3642.152995
782.162995	3641.611071
782.486776	3637.000936
782.810511	3630.628918
783.134201	3618.472175
783.457844	3609.072944
783.781441	3605.473560
784.104993	3595.040892
784.428498	3590.710541
784.751958	3587.305242
785.075372	3582.647215
785.398739	3571.886872
785.722061	3579.554467
786.045337	3576.199580
786.368568	3602.216975
786.691752	3598.693208
787.014891	3647.753717
787.337983	3689.141590
787.661030	3775.738531
787.984031	3878.396588
788.306987	3952.940130
788.629897	3996.591481
788.952760	4009.262421
789.275579	3992.868589
789.598351	3942.053758
789.921078	3891.685070
790.243759	3827.133095
790.566395	3780.094088
790.888984	3734.511975
791.211529	3697.288095
791.534027	3651.335457
791.856480	3610.968418
792.178888	3598.292436
792.501249	3570.760175
792.823566	3542.653221
793.145836	3536.127448
793.468062	3528.830378
793.790241	3514.392513
794.112375	3516.875281
794.434464	3541.445865
794.756507	3539.222716
795.078505	3557.285170
795.400457	3600.150102
795.722364	3649.462668
796.044226	3694.084442
796.366042	3739.323756
796.687812	3735.845360
797.009538	3761.524998
797.331218	3752.224069
797.652852	3744.470774
797.974442	3721.248699
798.295986	3710.551371
798.617484	3680.891742
798.938938	3654.750839
799.260346	3644.242554
799.581709	3606.060854
799.903026	3592.474945
800.224299	3574.170515
800.545526	3546.151782
800.866708	3526.735778
801.187845	3511.622399
801.508936	3495.725120
801.829983	3483.782627
802.150984	3453.029068
802.471940	3444.806946
802.792851	3440.123714
803.113717	3433.043413
803.434538	3422.910694
803.755314	3413.292172
804.076045	3410.874939
804.396731	3397.853639
804.717372	3396.800038
805.037967	3391.277454
805.358518	3396.913464
805.679024	3411.716812
805.999485	3406.857140
806.319901	3415.046494
806.640272	3418.648398
806.960598	3428.728186
807.280879	3429.996036
807.601115	3441.787295
807.921306	3433.517282
808.241453	3430.467384
808.561554	3437.456943
808.881611	3434.308743
809.201623	3436.443672
809.521590	3428.032506
809.841513	3427.367074
810.161390	3436.778908
810.481223	3413.171185
810.801011	3414.557502
811.120755	3408.558529
811.440453	3397.432703
811.760107	3393.898854
812.079716	3381.139693
812.399281	3372.383209
812.718801	3369.310626
813.038276	3364.670244
813.357707	3358.744367
813.677093	3370.122252
813.996434	3349.239272
814.315731	3357.728575
814.634983	3356.254037
814.954191	3358.502392
815.273354	3377.046276
815.592473	3382.760424
815.911547	3405.485946
816.230577	3418.368614
816.549562	3441.719239
816.868502	3460.142136
817.187399	3480.541165
817.506250	3507.014784
817.825058	3520.081455
818.143821	3562.341448
818.462539	3607.404322
818.781213	3666.274917
819.099843	3746.126793
819.418429	3902.881472
819.736970	4054.940316
820.055466	4235.859766
820.373919	4478.533351
820.692327	4813.162622
821.010691	5327.466179
821.329011	6409.108751
821.647286	8150.194740
821.965517	10317.515328
822.283704	11943.935232
822.601847	13028.206765
822.919945	12632.844193
823.237999	11935.990373
823.556010	11042.473580
823.873976	10087.706768
824.191897	9117.229200
824.509775	8347.008948
824.827609	7549.702576
825.145398	7002.356777
825.463144	6617.810000
825.780845	6485.978785
826.098502	6549.880452
826.416116	6932.796415
826.733685	7433.128414
827.051210	7722.417548
827.368692	7619.076415
827.686129	7180.803541
828.003522	6626.385002
828.320872	6054.566922
828.638177	5598.720585
828.955439	5234.918156
829.272656	4892.482658
829.589830	4614.667190
829.906960	4346.969318
830.224046	4142.154798
830.541088	3970.914364
830.858086	3855.897918
831.175041	3756.652723
831.491952	3713.893656
831.808819	3693.350954
832.125642	3729.347313
832.442421	3831.712983
832.759157	4048.722053
833.075849	4432.447122
833.392497	4893.548862
833.709101	5279.915495
834.025662	5390.309203
834.342179	5261.898411
834.658653	4990.954036
834.975083	4722.946133
835.291469	4474.712156
835.607811	4251.172271
835.924110	4092.733847
836.240366	3933.801389
836.556578	3771.670320
836.872746	3636.184269
837.188871	3523.143956
837.504952	3425.043102
837.820990	3352.702544
838.136984	3294.605767
838.452935	3267.532250
838.768842	3253.963985
839.084706	3285.332564
839.400526	3421.428595
839.716303	3646.876557
840.032037	3858.383207
840.347727	3925.932148
840.663373	3834.611646
840.978977	3686.492464
841.294537	3551.253430
841.610054	3447.904735
841.925527	3370.863301
842.240957	3307.344763
842.556344	3242.034094
842.871687	3182.472861
843.186987	3123.287195
843.502244	3069.193093
843.817458	3032.397711
844.132629	2997.535612
844.447756	2975.977118
844.762840	2951.799744
845.077881	2936.620829
845.392879	2924.338058
845.707833	2911.168044
846.022745	2901.302506
846.337613	2896.838564
846.652438	2886.297511
846.967221	2884.868344
847.281960	2874.919627
847.596656	2872.386447
847.911309	2867.320087
848.225919	2862.936804
848.540485	2857.457070
848.855009	2856.743747
849.169490	2849.817201
849.483928	2848.377952
849.798323	2843.480471
850.112675	2840.296982
850.426984	2840.710357
850.741251	2838.804801
851.055474	2837.771364
851.369654	2836.712722
851.683792	2836.889162
851.997887	2836.740448
852.311938	2834.613081
852.625947	2837.262208
852.939914	2834.434120
853.253837	2835.517968
853.567718	2834.965962
853.881555	2831.716938
854.195350	2838.250274
854.509103	2835.389419
854.822812	2832.377330
855.136479	2835.296158
855.450103	2833.962772
855.763685	2832.372288
856.077224	2832.823472
856.390720	2835.638956
856.704173	2840.327229
857.017584	2839.991992
857.330953	2839.455110
857.644278	2843.707323
857.957561	2844.334947
858.270802	2843.619103
858.584000	2845.086078
858.897155	2843.243537
859.210268	2844.836541
859.523339	2838.290603
859.836367	2840.057527
860.149352	2839.326560
860.462295	2835.429748
860.775195	2830.426403
861.088054	2830.804490
861.400869	2829.140909
861.713642	2828.994715
862.026373	2832.266424
862.339062	2833.985458
862.651708	2836.304388
862.964312	2842.532734
863.276873	2843.243537
863.589392	2851.478262
863.901869	2855.843901
864.214303	2861.182483
864.526696	2868.640870
864.839045	2880.326264
865.151353	2882.919938
865.463619	2890.665671
865.775842	2890.358161
866.088023	2894.582648
866.400162	2892.341855
866.712258	2895.840415
867.024313	2895.089283
867.336325	2897.698081
867.648296	2899.139851
867.960224	2900.223699
868.272110	2903.490366
868.583954	2901.093298
868.895755	2904.617064
869.207515	2906.991448
869.519233	2911.977149
869.830909	2912.821542
870.142542	2915.447983
870.454134	2918.253385
870.765684	2925.389139
871.077191	2930.773091
871.388657	2935.143771
871.700081	2939.620316
872.011463	2947.451748
872.322803	2954.469035
872.634101	2957.307204
872.945357	2968.375058
873.256571	2978.149855
873.567744	2982.681852
873.878874	2984.703355
874.189963	2994.745333
874.501010	2993.167452
874.812015	2996.640807
875.122979	3004.850326
875.433900	3004.429390
875.744780	3012.424660
876.055618	3011.189577
876.366415	3018.627800
876.677169	3020.329189
876.987882	3029.373019
877.298554	3037.451468
877.609183	3052.222049
877.919771	3071.600244
878.230317	3089.292174
878.540822	3129.951600
878.851285	3182.346832
879.161707	3248.275042
879.472087	3353.105837
879.782425	3517.749921
880.092722	3796.056902
880.402977	4214.709605
880.713191	4758.652626
881.023363	5359.598493
881.333494	5799.020751
881.643583	6084.511375
881.953631	6164.022974
882.263637	6113.054388
882.573602	5967.395289
882.883526	5801.528725
883.193408	5601.420123
883.503248	5377.721442
883.813048	5162.454090
884.122806	4943.920071
884.432522	4698.105847
884.742197	4477.515038
885.051831	4267.818161
885.361424	4069.829364
885.670975	3904.235022
885.980485	3754.858072
886.289954	3632.365595
886.599382	3526.771066
886.908768	3440.743776
887.218113	3360.150849
887.527417	3299.175573
887.836680	3239.004361
888.145901	3194.284285
888.455082	3157.587205
888.764221	3122.079838
889.073319	3091.885847
889.382376	3072.976479
889.691392	3060.086249
890.000366	3051.962429
890.309300	3040.778630
890.618193	3037.131355
890.927044	3031.152546
891.235855	3033.733617
891.544625	3036.405429
891.853353	3041.597817
892.162041	3059.292267
892.470687	3083.472162
892.779293	3113.882922
893.087858	3165.312774
893.396381	3239.952097
893.704864	3348.394878
894.013306	3508.786750
894.321707	3694.391952
894.630068	3845.969366
894.938387	3923.310748
895.246665	3931.341306
895.554903	3873.824262
895.863100	3785.868730
896.171256	3710.732852
896.479371	3637.799959
896.787446	3560.251889
897.095480	3492.501302
897.403473	3434.001233
897.711425	3378.218345
898.019336	3326.856549
898.327207	3270.408228
898.635038	3227.180334
898.942827	3175.992458
899.250576	3133.835809
899.558284	3094.860128
899.865952	3066.730490
900.173579	3037.398536
900.481165	3013.624454
900.788711	2995.181393
901.096216	2980.854434
901.403681	2967.220633
901.711105	2960.296608
902.018489	2949.543827
902.325832	2964.085036
902.633135	2968.049903
902.940397	3008.517766
903.247619	3100.579317
903.554800	3276.361831
903.861941	3552.491033
904.169041	3814.520128
904.476101	3982.917351
904.783121	4002.250176
905.090100	3935.656534
905.397039	3830.808096
905.703938	3725.591653
906.010796	3625.509626
906.317614	3538.829506
906.624391	3452.368677
906.931129	3384.348388
907.237826	3314.440187
907.544483	3251.478696
907.851099	3179.332222
908.157675	3101.816920
908.464211	3033.489121
908.770707	2973.181798
909.077163	2924.776638
909.383578	2886.055536
909.689954	2863.438399
909.996289	2842.883094
910.302584	2829.398008
910.608839	2818.582212
910.915054	2810.637354
911.221229	2803.836837
911.527363	2805.313895
911.833458	2805.480253
912.139513	2808.817497
912.445527	2813.034422
912.751502	2823.963644
913.057436	2836.062413
913.363331	2858.230887
913.669186	2888.008983
913.975000	2926.170518
914.280775	2984.529435
914.586510	3063.471384
914.892205	3176.090761
915.197859	3325.271106
915.503475	3509.099301
915.809050	3676.846216
916.114585	3811.066937
916.420081	3887.911766
916.725536	3919.572733
917.030952	3883.014285
917.336328	3846.491125
917.641665	3799.484886
917.946961	3737.236719
918.252218	3678.051052
918.557435	3606.829630
918.862612	3537.095349
919.167750	3478.580156
919.472848	3402.902354
919.777906	3335.698733
920.082925	3267.154164
920.387904	3192.983667
920.692843	3140.182622
920.997743	3083.600711
921.302603	3035.253525
921.607423	2999.849502
921.912204	2966.658545
922.216946	2940.096705
922.521647	2915.735329
922.826310	2896.858728
923.130932	2875.615306
923.435516	2855.012110
923.740059	2842.313444
924.044564	2827.424396
924.349028	2817.145483
924.653454	2800.313071
924.957840	2784.602315
925.262186	2778.832714
925.566493	2767.122114
925.870761	2753.183323
926.174989	2749.483116
926.479178	2742.959863
926.783328	2733.222875
927.087438	2725.777090
927.391509	2721.955896
927.695541	2713.723692
927.999533	2707.545757
928.303486	2703.739686
928.607400	2701.390509
928.911275	2694.617718
929.215110	2692.931452
929.518906	2692.006401
929.822663	2691.310722
930.126381	2688.959023
930.430060	2688.880885
930.733699	2685.853672
931.037299	2690.748633
931.340861	2690.355423
931.644383	2690.657892
931.947866	2691.567820
932.251309	2690.978005
932.554714	2689.574044
932.858080	2690.791483
933.161407	2686.950123
933.464694	2683.897705
933.767943	2687.058508
934.071153	2686.897191
934.374323	2680.870492
934.677455	2681.971984
934.980548	2678.932168
935.283602	2679.340502
935.586617	2680.474761
935.889593	2679.590039
936.192530	2681.261181
936.495428	2682.675225
936.798287	2683.713703
937.101108	2689.052285
937.403890	2698.174252
937.706632	2703.616178
938.009336	2715.470451
938.312002	2730.535940
938.614628	2740.202352
938.917216	2748.737026
939.219765	2755.746750
939.522275	2768.274017
939.824747	2767.820313
940.127179	2767.275869
940.429573	2764.369644
940.731929	2763.366454
941.034246	2766.370982
941.336524	2764.639345
941.638763	2766.519696
941.940964	2766.698657
942.243126	2759.734303
942.545250	2753.122829
942.847335	2750.957654
943.149381	2741.906262
943.451389	2736.403843
943.753359	2731.052658
944.055290	2726.939076
944.357182	2723.432954
944.659036	2719.216029
944.960851	2714.920966
945.262628	2713.665718
945.564367	2710.336036
945.866067	2709.983155
946.167729	2706.416539
946.469352	2708.427959
946.770937	2709.262270
947.072484	2704.208514
947.373992	2704.682382
947.675462	2705.524255
947.976893	2702.101311
948.278286	2701.193904
948.579641	2699.099304
948.880958	2697.612164
949.182236	2699.807586
949.483476	2697.922195
949.784678	2698.048224
950.085841	2696.682071
950.386967	2696.213244
950.688054	2696.220805
950.989103	2699.991588
951.290114	2701.720704
951.591087	2706.741693
951.892021	2713.277549
952.192917	2716.277036
952.493776	2719.584033
952.794596	2721.552603
953.095378	2726.581154
953.396122	2726.109807
953.696828	2727.969992
953.997496	2723.710217
954.298126	2721.454301
954.598718	2720.080587
954.899272	2713.401058
955.199788	2708.876622
955.500266	2704.415201
955.800706	2696.240970
956.101108	2689.407686
956.401472	2684.921059
956.701798	2678.274298
957.002087	2672.013185
957.302337	2667.297185
957.602550	2663.536484
957.902724	2655.606749
958.202861	2653.693632
958.502960	2652.103147
958.803022	2647.445121
959.103045	2639.550674
959.403031	2637.614871
959.702979	2634.204531
960.002889	2629.286885
960.302762	2628.679426
960.602596	2624.502830
960.902393	2620.394290
961.202153	2619.020575
961.501875	2620.573251
961.801559	2617.684670
962.101205	2618.382869
962.400814	2616.086624
962.700385	2613.656788
962.999918	2613.056890
963.299414	2609.356683
963.598873	2612.076386
963.898293	2607.733432
964.197677	2610.241406
964.497022	2608.361056
964.796331	2610.196036
965.095601	2608.146807
965.394835	2607.632609
965.694030	2606.606734
965.993189	2609.558330
966.292309	2605.774944
966.591393	2606.659666
966.890439	2605.417022
967.189447	2604.499532
967.488419	2606.105139
967.787353	2605.943822
968.086249	2606.450458
968.385108	2604.378544
968.683930	2606.011878
968.982714	2608.383741
969.281462	2608.787033
969.580172	2608.587907
969.878844	2610.536313
970.177480	2609.732249
970.476078	2614.468413
970.774639	2615.544700
971.073162	2612.693927
971.371649	2615.469082
971.670098	2615.953033
971.968510	2615.141407
972.266885	2615.602673
972.565223	2621.455453
972.863524	2620.293467
973.161788	2621.735237
973.460014	2620.570730
973.758204	2622.085597
974.056356	2623.653396
974.354471	2622.783797
974.652550	2624.727162
974.950591	2622.748509
975.248595	2624.704476
975.546563	2624.255814
975.844493	2623.318159
976.142386	2622.690535
976.440243	2623.723972
976.738062	2620.888323
977.035845	2619.965792
977.333590	2619.038219
977.631299	2616.507560
977.928971	2616.013527
978.226606	2616.086624
978.524204	2613.639144
978.821765	2614.904473
979.119290	2615.327930
979.416777	2613.651747
979.714228	2615.232148
980.011642	2613.835749
980.309020	2616.588219
980.606360	2617.001593
980.903664	2618.516460
981.200931	2623.638272
981.498162	2632.583800
981.795356	2647.558547
982.092513	2660.133706
982.389633	2678.143228
982.686717	2696.737524
982.983764	2710.031046
983.280775	2727.672564
983.577749	2728.824468
983.874686	2732.106259
984.171587	2727.329766
984.468451	2722.046637
984.765279	2719.518498
985.062070	2709.806715
985.358824	2701.014943
985.655543	2692.664271
985.952224	2682.662622
986.248869	2669.603513
986.545478	2654.535504
986.842050	2643.568474
987.138586	2630.257307
987.435086	2624.200361
987.731549	2616.472272
988.027975	2612.472117
988.324366	2610.591766
988.620719	2604.091198
988.917037	2601.384099
989.213318	2601.802514
989.509563	2600.670775
989.805772	2598.316557
990.101944	2597.101638
990.398080	2596.753799
990.694180	2597.227667
990.990244	2594.427306
991.286271	2595.715321
991.582262	2595.927050
991.878217	2596.395877
992.174136	2597.283120
992.470019	2594.729776
992.765865	2596.658017
993.061676	2599.841506
993.357450	2600.423759
993.653188	2601.144644
993.948890	2604.560026
994.244556	2606.337032
994.540186	2612.497322
994.835780	2617.803137
995.131337	2624.807820
995.426859	2630.627832
995.722345	2638.628143
996.017795	2648.917138
996.313208	2658.974240
996.608586	2665.164777
996.903928	2667.158553
997.199234	2667.425735
997.494504	2668.688544
997.789738	2666.412463
998.084936	2664.733758
998.380099	2661.242759
998.675225	2653.638179
998.970316	2648.493681
999.265371	2642.608134
999.560390	2632.538429
999.855373	2627.759416
1000.150320	2622.035185
1000.445232	2617.518312
1000.740108	2609.391972
1001.034948	2608.948350
1001.329752	2606.130345
1001.624521	2600.060796
1001.919254	2591.856318
1002.213951	2593.971082
1002.508613	2593.494693
1002.803239	2591.778180
1003.097829	2586.706779
1003.392384	2591.876482
1003.686903	2589.421441
1003.981386	2589.590319
1004.275834	2587.684763
1004.570246	2586.923549
1004.864623	2587.790627
1005.158964	2587.336923
1005.453270	2585.564958
1005.747540	2585.212077
1006.041775	2586.537901
1006.335974	2586.737026
1006.630138	2583.944227
1006.924266	2586.064032
1007.218359	2583.548496
1007.512416	2584.135791
1007.806438	2582.447004
1008.100425	2586.202664
1008.394376	2583.982036
1008.688292	2583.551017
1008.982172	2581.395924
1009.276017	2580.054977
1009.569827	2580.601942
1009.863602	2585.638055
1010.157341	2583.926583
1010.451045	2582.840214
1010.744714	2581.839545
1011.038347	2583.881212
1011.331945	2582.305852
1011.625508	2583.419947
1011.919036	2580.770821
1012.212528	2583.724937
1012.505986	2581.285018
1012.799408	2582.983887
1013.092795	2582.313414
1013.386147	2581.831983
1013.679464	2583.235945
1013.972745	2578.005748
1014.265992	2582.197467
1014.559204	2580.115471
1014.852380	2581.723599
1015.145521	2583.908939
1015.438628	2578.351067
1015.731699	2580.768300
1016.024736	2579.835687
1016.317737	2580.947261
1016.610703	2583.757704
1016.903635	2576.397620
1017.196531	2580.614545
1017.489393	2582.915832
1017.782219	2577.269739
1018.075011	2578.698906
1018.367768	2583.132601
1018.660490	2584.687797
1018.953177	2584.687797
1019.245829	2584.687797
