Dividing Wavelength (nm)	Counts (n)	Blue Motor Position (mm): 14.000000	Red Motor Position (mm): 0.000000	
326.493990	2061.209341
326.888308	2061.209341
327.282561	2061.209341
327.676750	2038.642615
328.070874	2040.338964
328.464933	2044.739891
328.858929	2052.331869
329.252859	2065.864846
329.646726	2076.683162
330.040528	2095.620257
330.434265	2111.391507
330.827938	2132.546709
331.221547	2153.674184
331.615091	2173.271670
332.008571	2194.696574
332.401986	2215.259440
332.795338	2234.395660
333.188625	2253.073135
333.581847	2272.287493
333.975006	2289.626542
334.368100	2309.987762
334.761129	2324.856646
335.154095	2343.098061
335.546996	2380.919318
335.939833	2458.822788
336.332606	2468.423666
336.725315	2482.990080
337.117960	2493.309322
337.510540	2503.752072
337.903056	2510.693741
338.295508	2513.990656
338.687896	2525.996163
339.080220	2529.403983
339.472480	2535.097967
339.864676	2537.973945
340.256807	2537.812628
340.648875	2540.103832
341.040879	2544.126673
341.432818	2543.559543
341.824694	2543.559543
342.216506	2545.422250
342.608253	2545.944009
342.999937	2546.553989
343.391557	2544.093906
343.783113	2538.901517
344.174605	2540.794471
344.566033	2539.519059
344.957397	2534.634181
345.348697	2532.421114
345.739934	2531.102852
346.131106	2528.052954
346.522215	2528.786442
346.913260	2526.401976
347.304241	2527.198479
347.695159	2523.352078
348.086012	2521.005421
348.476802	2520.904598
348.867528	2517.209432
349.258191	2511.961591
349.648789	2514.938393
350.039324	2508.941940
350.429796	2516.118023
350.820203	2515.011489
351.210548	2513.413443
351.600828	2509.652743
351.991045	2511.212980
352.381198	2508.054697
352.771288	2512.629544
353.161314	2510.073679
353.551276	2505.713081
353.941175	2508.321878
354.331010	2509.987979
354.720782	2513.375635
355.110490	2515.681963
355.500135	2507.865654
355.889717	2511.172651
356.279235	2510.902949
356.668689	2511.117198
357.058080	2512.599297
357.447408	2515.417302
357.836672	2511.538134
358.225873	2512.639626
358.615010	2510.691220
359.004084	2516.627179
359.393095	2514.832528
359.782043	2513.221880
360.170927	2514.625841
360.559748	2515.815553
360.948505	2513.846983
361.337199	2521.073477
361.725830	2515.903773
362.114398	2517.035512
362.502903	2517.993332
362.891344	2518.479803
363.279722	2519.145235
363.668037	2521.796882
364.056289	2516.785975
364.444478	2521.469207
364.832603	2522.089269
365.220665	2519.800585
365.608665	2521.393590
365.996601	2522.686646
366.384474	2521.950637
366.772284	2523.515916
367.160031	2523.347037
367.547715	2522.721934
367.935336	2521.504495
368.322893	2521.998528
368.710388	2520.607170
369.097820	2522.754702
369.485189	2521.640607
369.872495	2522.795031
370.259738	2524.304856
370.646918	2527.914323
371.034035	2526.061698
371.421090	2526.006246
371.808081	2525.146729
372.195010	2525.696215
372.581875	2526.712007
372.968678	2526.223015
373.355418	2526.490197
373.742096	2525.426513
374.128710	2528.108407
374.515262	2528.912471
374.901751	2528.408356
375.288177	2527.906761
375.674540	2527.770650
376.060841	2529.469518
376.447079	2527.821061
376.833254	2529.003212
377.219367	2530.218130
377.605417	2527.755526
377.991404	2529.373737
378.377329	2532.766433
378.763191	2529.265352
379.148991	2532.158974
379.534727	2529.141843
379.920402	2530.550846
380.306013	2531.637215
380.691563	2531.730476
381.077049	2530.245856
381.462474	2529.603109
381.847835	2531.317101
382.233134	2534.248532
382.618371	2530.361803
383.003545	2532.748789
383.388657	2531.785929
383.773706	2534.319108
384.158693	2532.264838
384.543618	2535.410518
384.928480	2529.983716
385.313280	2532.259797
385.698017	2534.901362
386.082692	2533.391536
386.467305	2532.673172
386.851856	2536.403626
387.236344	2534.881197
387.620770	2533.908254
388.005133	2531.586803
388.389435	2534.303985
388.773674	2529.431710
389.157851	2535.692823
389.541965	2534.871115
389.926018	2535.632329
390.310008	2538.503266
390.693936	2536.058307
391.077802	2538.541075
391.461606	2536.663245
391.845348	2539.004861
392.229027	2537.374048
392.612645	2535.977648
392.996200	2539.350180
393.379694	2538.644418
393.763125	2536.859850
394.146494	2539.687937
394.529801	2539.934954
394.913047	2534.077133
395.296230	2536.254912
395.679351	2539.655170
396.062410	2539.052752
396.445408	2538.868750
396.828343	2541.031405
397.211217	2540.292876
397.594028	2539.261960
397.976778	2538.314223
398.359466	2540.363452
398.742092	2539.221631
399.124656	2542.674821
399.507158	2542.258926
399.889598	2542.450490
400.271977	2542.387475
400.654294	2541.787578
401.036549	2541.911086
401.418742	2541.590973
401.800874	2542.732794
402.182944	2540.232382
402.564952	2544.587939
402.946898	2544.598021
403.328783	2544.552651
403.710606	2543.408309
404.092367	2545.649102
404.474067	2541.906045
404.855705	2545.931406
405.237282	2541.739687
405.618797	2545.989380
406.000250	2543.463762
406.381642	2543.216745
406.762972	2542.490819
407.144240	2543.539379
407.525447	2546.115408
407.906593	2538.775488
408.287677	2543.965356
408.668700	2544.320758
409.049661	2548.557848
409.430560	2547.083310
409.811399	2545.182795
410.192176	2545.442414
410.572891	2544.219935
410.953545	2545.674307
411.334138	2546.528783
411.714669	2544.870243
412.095139	2545.404606
412.475547	2547.312682
412.855894	2546.100285
413.236180	2545.734801
413.616405	2548.028526
413.996568	2545.243289
414.376670	2547.368135
414.756711	2546.433001
415.136691	2545.944009
415.516609	2549.366953
415.896466	2549.906356
416.276262	2546.054915
416.655997	2547.433670
417.035670	2550.622200
417.415283	2550.463404
417.794834	2548.436860
418.174324	2549.326623
418.553753	2548.227652
418.933121	2548.257899
419.312428	2549.223280
419.691674	2547.852086
420.070859	2548.903167
420.449983	2548.774617
420.829045	2546.838814
421.208047	2548.731767
421.586988	2549.883671
421.965867	2548.908208
422.344686	2550.400389
422.723444	2550.768393
423.102141	2550.861655
423.480777	2548.454504
423.859352	2551.330482
424.237866	2547.617672
424.616319	2550.279402
424.994712	2549.908877
425.373044	2547.834442
425.751314	2550.004659
426.129524	2545.218083
426.507673	2548.091541
426.885762	2544.968546
427.263789	2550.453321
427.641756	2550.478527
428.019662	2552.011038
428.397508	2549.906356
428.775292	2550.425595
429.153016	2550.435677
429.530679	2553.162942
429.908282	2550.284443
430.285824	2551.350647
430.663305	2550.304607
431.040726	2549.102292
431.418086	2551.380894
431.795385	2549.845862
432.172624	2550.876778
432.549802	2548.260419
432.926920	2545.762528
433.303977	2550.556665
433.680974	2550.012220
434.057910	2550.710420
434.434786	2550.206305
434.811601	2550.828887
435.188355	2550.697817
435.565050	2548.714123
435.941683	2551.038095
436.318257	2551.005328
436.694770	2552.011038
437.071222	2552.590771
437.447614	2550.977601
437.823946	2548.015923
438.200218	2550.264278
438.576429	2550.760832
438.952580	2549.407282
439.328670	2549.671943
439.704700	2549.780327
440.080670	2550.481048
440.456580	2549.598846
440.832429	2550.344937
441.208218	2547.194215
441.583947	2551.370811
441.959616	2552.000956
442.335224	2547.912580
442.710773	2550.574309
443.086261	2550.803682
443.461689	2550.453321
443.837057	2552.447098
444.212365	2548.149514
444.587612	2547.552137
444.962800	2547.174051
445.337927	2548.146993
445.712995	2545.593649
446.088002	2552.192519
446.462949	2551.693445
446.837837	2550.667570
447.212664	2553.026830
447.587431	2551.123795
447.962139	2550.644885
448.336786	2551.206974
448.711374	2551.703528
449.085901	2550.995245
449.460369	2550.607077
449.834776	2550.972560
450.209124	2550.120605
450.583412	2555.302911
450.957640	2549.886192
451.331808	2555.161759
451.705917	2550.667570
452.079965	2555.282747
452.453954	2550.957437
452.827883	2552.621018
453.201752	2548.756973
453.575562	2553.472972
453.949311	2551.189330
454.323001	2551.547252
454.696632	2552.152190
455.070202	2549.989535
455.443713	2553.946841
455.817164	2551.837118
456.190556	2552.091696
456.563888	2556.842984
456.937160	2550.687735
457.310373	2551.017931
457.683526	2552.487427
458.056619	2553.818292
458.429653	2549.646737
458.802628	2554.093034
459.175542	2552.026161
459.548398	2552.825184
459.921194	2553.387273
460.293930	2552.454659
460.666607	2553.626728
461.039224	2551.905174
461.411782	2552.928528
461.784280	2552.956254
462.156719	2554.251831
462.529099	2553.417520
462.901419	2553.414999
463.273680	2552.089176
463.645882	2548.998948
464.018024	2553.145297
464.390106	2551.065822
464.762130	2555.217212
465.134094	2553.561193
465.505999	2556.434650
465.877845	2556.802655
466.249631	2556.459856
466.621358	2554.972716
466.993026	2556.341389
467.364634	2558.756102
467.736184	2556.976574
468.107674	2556.041440
468.479105	2557.447922
468.850477	2554.629917
469.221790	2556.888354
469.593043	2554.725699
469.964238	2557.483210
470.335373	2554.733261
470.706449	2554.655123
471.077467	2556.056564
471.448425	2558.219219
471.819324	2558.060422
472.190164	2557.405072
472.560945	2557.745350
472.931667	2555.307953
473.302330	2557.299208
473.672934	2556.621173
474.043479	2559.229970
474.413965	2554.856769
474.784393	2556.086811
475.154761	2557.021945
475.525070	2556.689229
475.895321	2556.543035
476.265513	2557.475649
476.635645	2556.240566
477.005719	2557.324414
477.375734	2559.711400
477.745691	2559.847512
478.115588	2557.926832
478.485427	2561.427913
478.855207	2561.863973
479.224928	2558.073025
479.594591	2560.238201
479.964194	2561.170814
480.333739	2561.347255
480.703226	2560.754919
481.072653	2561.914385
481.442022	2562.211813
481.811333	2560.810372
482.180584	2559.600495
482.549777	2560.238201
482.918912	2557.034548
483.287988	2563.381360
483.657005	2562.113510
484.025964	2562.753737
484.394864	2559.388767
484.763706	2560.432285
485.132489	2560.684343
485.501213	2565.753223
485.869879	2563.217523
486.238487	2564.351783
486.607036	2562.542008
486.975527	2563.235167
487.343959	2563.789694
487.712333	2562.383212
488.080648	2563.570404
488.448905	2564.568552
488.817104	2561.427913
489.185244	2563.197358
489.553326	2564.936556
489.921350	2565.251628
490.289315	2568.200703
490.657222	2569.130796
491.025070	2571.346383
491.392861	2570.000395
491.760593	2570.585169
492.128267	2572.064748
492.495883	2569.440827
492.863440	2568.712381
493.230939	2567.779767
493.598380	2566.590055
493.965763	2570.073492
494.333088	2569.140879
494.700354	2568.835889
495.067563	2569.503842
495.434713	2569.292113
495.801805	2567.472257
496.168839	2569.856723
496.535815	2570.970817
496.902733	2570.118862
497.269593	2569.188770
497.636395	2569.168605
498.003139	2572.694892
498.369825	2571.792526
498.736453	2574.280335
499.103023	2575.767475
499.469535	2577.869637
499.835989	2571.681620
500.202385	2571.127093
500.568723	2568.972000
500.935003	2572.478123
501.301226	2572.581466
501.667390	2578.104050
502.033497	2580.123032
502.399546	2575.908628
502.765537	2578.401478
503.131470	2577.688155
503.497345	2582.220152
503.863163	2582.696541
504.228923	2580.183526
504.594625	2584.690318
504.960269	2583.334247
505.325856	2582.676377
505.691385	2585.776686
506.056856	2586.545462
506.422270	2585.307859
506.787625	2587.084866
507.152924	2585.716193
507.518164	2588.055288
507.883347	2589.567634
508.248472	2589.028231
508.613540	2592.604929
508.978550	2593.824888
509.343503	2594.134919
509.708398	2593.827409
510.073236	2599.796135
510.438016	2599.612133
510.802738	2598.251022
511.167403	2599.556680
511.532010	2601.190014
511.896561	2604.930550
512.261053	2603.287134
512.625488	2605.812752
512.989866	2605.618668
513.354186	2606.843668
513.718449	2606.999944
514.082655	2609.099585
514.446803	2611.685697
514.810894	2614.712909
515.174927	2613.311469
515.538904	2613.530759
515.902822	2617.127622
516.266684	2616.938579
516.630488	2620.227932
516.994235	2618.947479
517.357925	2623.749178
517.721558	2625.203551
518.085133	2624.452419
518.448651	2623.918056
518.812112	2626.010135
519.175516	2628.233284
519.538863	2626.557100
519.902152	2632.702267
520.265385	2638.071096
520.628560	2636.256280
520.991678	2637.171250
521.354739	2640.105201
521.717743	2641.451189
522.080690	2641.945222
522.443580	2645.932775
522.806413	2649.116264
523.169189	2647.828249
523.531908	2650.472334
523.894569	2653.446615
524.257174	2654.074239
524.619722	2655.838642
524.982213	2658.462563
525.344647	2660.161432
525.707025	2661.532626
526.069345	2665.489932
526.431608	2663.717966
526.793815	2668.847340
527.155964	2667.652587
527.518057	2670.629388
527.880093	2675.050480
528.242072	2674.485871
528.603995	2675.597445
528.965860	2678.624658
529.327669	2680.741942
529.689421	2682.617252
530.051117	2681.999710
530.412755	2687.580268
530.774337	2687.008097
531.135862	2690.095803
531.497331	2690.854497
531.858743	2695.116793
532.220098	2697.385312
532.581396	2696.445137
532.942638	2700.364634
533.303824	2702.560056
533.664953	2703.724563
534.026025	2705.244471
534.387040	2710.736808
534.747999	2712.387786
535.108902	2713.789227
535.469748	2715.145297
535.830537	2720.451111
536.191270	2720.572099
536.551947	2720.304918
536.912567	2722.132336
537.273131	2727.027297
537.633638	2726.142574
537.994089	2733.089284
538.354483	2733.910992
538.714821	2740.940881
539.075103	2743.622775
539.435328	2744.346181
539.795497	2747.164186
540.155609	2752.117119
540.515665	2757.763212
540.875665	2757.692635
541.235609	2760.926536
541.595496	2767.255704
541.955328	2774.283073
542.315102	2773.960439
542.674821	2775.011519
543.034483	2777.590070
543.394090	2782.658950
543.753640	2787.185906
544.113134	2796.622946
544.472571	2792.272430
544.831953	2803.252063
545.191278	2805.853299
545.550548	2805.981848
545.909761	2815.547437
546.268918	2823.436843
546.628019	2830.338183
546.987064	2832.047134
547.346053	2832.024449
547.704986	2844.397961
548.063863	2843.997189
548.422684	2853.593026
548.781449	2856.879858
549.140158	2865.661548
549.498811	2874.949874
549.857408	2876.210162
550.215949	2887.393962
550.574434	2895.933677
550.932864	2904.833834
551.291237	2917.721544
551.649555	2924.645568
552.007817	2933.893565
552.366022	2941.820780
552.724173	2949.054835
553.082267	2964.536219
553.440305	2976.244299
553.798288	2980.264619
554.156215	2996.456805
554.514086	3008.210255
554.871902	3011.701254
555.229661	3029.993081
555.587365	3036.871735
555.945014	3053.837739
556.302606	3068.109245
556.660143	3086.506936
557.017625	3104.783639
557.375050	3115.213787
557.732421	3136.754637
558.089735	3154.088645
558.446994	3169.481808
558.804197	3192.839994
559.161345	3208.921275
559.518437	3216.203222
559.875474	3240.793970
560.232455	3263.055706
560.589381	3286.111423
560.946251	3300.738331
561.303065	3335.209741
561.659825	3353.093234
562.016528	3372.864639
562.373177	3391.224522
562.729770	3426.673915
563.086307	3443.236626
563.442789	3479.331288
563.799216	3504.158971
564.155587	3528.540511
564.511904	3557.643092
564.868164	3588.252978
565.224370	3626.293525
565.580520	3649.278666
565.936615	3685.524563
566.292654	3710.979869
566.648638	3753.156683
567.004567	3787.192033
567.360441	3827.087724
567.716260	3857.715254
568.072023	3902.142943
568.427732	3938.903037
568.783385	3964.927994
569.138982	4018.616282
569.494525	4063.346440
569.850013	4094.261316
570.205445	4137.660610
570.560823	4170.783511
570.916145	4212.148699
571.271412	4267.677009
571.626625	4302.405518
571.981782	4346.525696
572.336884	4377.236405
572.691931	4435.618008
573.046923	4471.780725
573.401860	4511.225233
573.756743	4564.747164
574.111570	4618.937047
574.466342	4666.354140
574.821059	4726.154827
575.175722	4749.951594
575.530330	4809.437210
575.884882	4844.435420
576.239380	4892.916197
576.593823	4956.268377
576.948211	5000.953165
577.302544	5030.574985
577.656823	5090.499181
578.011047	5162.254964
578.365216	5210.526533
578.719330	5251.788377
579.073389	5310.457326
579.427394	5374.840422
579.781344	5433.138846
580.135239	5486.610365
580.489080	5551.313574
580.842866	5576.224436
581.196597	5679.076577
581.550273	5744.989664
581.903895	5810.731351
582.257463	5910.352113
582.610975	5941.740857
582.964434	6033.328540
583.317837	6068.939251
583.671186	6134.484333
584.024481	6225.414146
584.377721	6259.477222
584.730906	6349.973496
585.084037	6430.334529
585.437113	6482.954093
585.790135	6568.119346
586.143103	6599.114881
586.496016	6685.555546
586.848874	6771.482013
587.201679	6857.468974
587.554428	6885.510392
587.907124	6992.332442
588.259765	7047.984260
588.612352	7148.535115
588.964884	7169.776017
589.317362	7286.130888
589.669786	7367.003599
590.022155	7436.480781
590.374470	7574.626041
590.726731	7608.487471
591.078937	7602.526307
591.431090	7731.123621
591.783188	7754.875017
592.135232	7816.361971
592.487222	7938.531813
592.839157	8043.168523
593.191038	8080.462979
593.542866	8139.532700
593.894639	8140.009089
594.246358	8268.871063
594.598022	8358.109569
594.949633	8386.624855
595.301190	8472.200963
595.652692	8547.248620
596.004141	8706.899442
596.355535	8631.476218
596.706876	8716.850679
597.058162	8759.924818
597.409395	8928.322042
597.760573	9060.574193
598.111698	9081.164785
598.462768	9162.980192
598.813785	9254.434284
599.164748	9276.539744
599.515657	9417.719778
599.866511	9429.064895
600.217312	9645.078337
600.568060	9548.257936
600.918753	9795.420668
601.269392	9883.202280
601.619978	9921.187374
601.970510	10052.847189
602.320988	10176.413432
602.671412	10331.933028
603.021783	10406.862218
603.372100	10417.146172
603.722363	10544.722652
604.072572	10651.892542
604.422728	10755.752914
604.772830	10806.492127
605.122878	10941.237129
605.472872	11018.018943
605.822813	11170.594505
606.172701	11225.653988
606.522534	11402.568241
606.872314	11557.974411
607.222041	11628.847993
607.571714	11803.488685
607.921333	11801.401648
608.270899	11957.826131
608.620411	12158.557315
608.969870	12212.658978
609.319276	12320.010350
609.668627	12447.037344
610.017926	12669.349708
610.367171	12822.963748
610.716362	12955.674644
611.065500	13043.332748
611.414585	13232.522210
611.763616	13392.994740
612.112594	13480.738543
612.461518	13639.398778
612.810389	13865.514693
613.159207	13927.720011
613.507971	14036.987020
613.856682	14310.308300
614.205340	14384.866965
614.553945	14709.978538
614.902496	14635.263597
615.250994	14887.759870
615.599439	15031.420152
615.947830	15189.205746
616.296169	15328.455018
616.644454	15468.568848
616.992686	15644.305992
617.340864	15925.967860
617.688990	15903.970786
618.037063	16256.266781
618.385082	16329.986094
618.733048	16587.200887
619.080961	16673.480235
619.428821	16803.466387
619.776628	16948.530630
620.124382	17011.136720
620.472083	17176.282399
620.819731	17348.694902
621.167326	17314.788101
621.514868	17441.583202
621.862357	17379.907206
622.209793	17519.141354
622.557176	17491.793095
622.904506	17518.380140
623.251783	17495.095051
623.599007	17499.584198
623.946179	17590.211541
624.293297	17617.627857
624.640363	17508.028131
624.987376	17569.303356
625.334336	17610.421527
625.681243	17571.274447
626.028097	17645.848236
626.374899	17702.835959
626.721647	17813.892579
627.068343	17859.411677
627.414987	17844.807455
627.761577	17849.329370
628.108115	18114.557076
628.454600	17916.006191
628.801032	18143.236201
629.147412	18212.398311
629.493739	18300.036250
629.840014	18208.572075
630.186236	18522.691412
630.532405	18398.404285
630.878521	18609.711810
631.224585	18631.658473
631.570597	18583.497810
631.916556	18777.993087
632.262462	18836.069700
632.608316	18918.293440
632.954117	18975.303849
633.299866	19066.445390
633.645562	19137.954157
633.991206	18999.322426
634.336797	18904.914218
634.682336	18970.668508
635.027823	18963.169791
635.373257	19005.434825
635.718639	18957.241394
636.063968	19006.337192
636.409245	18789.895251
636.754470	18870.639412
637.099642	18860.468885
637.444762	18686.274334
637.789829	18845.622687
638.134845	18758.456095
638.479808	18811.151277
638.824719	18893.974914
639.169577	18716.606957
639.514383	18871.244351
639.859137	18766.746273
640.203839	18955.698801
640.548489	18901.433301
640.893086	18988.095777
641.237632	18937.817829
641.582125	19089.874152
641.926566	19070.395134
642.270955	19189.016004
642.615292	19238.376462
642.959576	19274.927348
643.303809	19366.915803
643.647990	19514.961888
643.992118	19584.796993
644.336195	19596.134548
644.680219	19742.643081
645.024192	19950.930955
645.368112	20343.654484
645.711981	20440.815163
646.055797	20958.967640
646.399562	20935.692633
646.743274	21542.904655
647.086935	21875.847661
647.430544	21929.009148
647.774101	22065.125343
648.117606	22334.940500
648.461059	22521.901773
648.804460	22365.936035
649.147810	22158.288387
649.491108	22033.645858
649.834354	22038.213144
650.177548	21629.443622
650.520690	21417.516035
650.863781	21493.723158
651.206820	21477.203297
651.549807	21301.793828
651.892742	21024.114471
652.235626	21042.620547
652.578458	21042.093747
652.921238	20694.670026
653.263967	20969.009619
653.606644	20860.307218
653.949269	20880.686083
654.291843	20711.895649
654.634365	21026.808968
654.976836	20791.379522
655.319255	20928.715676
655.661622	20912.611710
656.003938	20907.013509
656.346203	20860.501303
656.688416	21112.614448
657.030577	21021.737567
657.372687	20982.373718
657.714746	21175.117194
658.056753	21383.581508
658.398708	21032.581089
658.740612	21142.405146
659.082465	21353.548834
659.424266	21356.263495
659.766016	21430.862490
660.107715	21399.849312
660.449362	21546.118390
660.790958	21601.510589
661.132503	21608.550560
661.473996	21744.308833
661.815438	21867.310467
662.156829	22022.081451
662.498168	21953.909928
662.839456	22005.911950
663.180693	22161.098830
663.521879	22294.386938
663.863013	22340.642045
664.204097	22381.750134
664.545129	22753.099171
664.886110	22785.780971
665.227040	22913.458274
665.567918	22979.247853
665.908746	23099.280246
666.249522	23222.659966
666.590248	23305.060146
666.930922	23446.502320
667.271545	23508.243852
667.612118	23612.746971
667.952639	23526.444938
668.293109	23621.677375
668.633528	23589.759310
668.973896	23611.365695
669.314213	23671.912473
669.654480	23595.110495
669.994695	23640.233863
670.334859	23646.227795
670.674973	23588.937602
671.015035	23795.992914
671.355047	23794.359580
671.695008	23795.103150
672.034918	23781.136633
672.374777	23921.933540
672.714585	23860.272666
673.054342	24018.549774
673.394049	23946.791469
673.733705	24175.924514
674.073310	23996.162009
674.412864	24106.800213
674.752368	23921.915896
675.091820	24166.031250
675.431223	23896.586618
675.770574	23794.828407
676.109875	23711.833371
676.449125	23612.162197
676.788324	23585.123969
677.127473	23247.616198
677.466571	23227.381007
677.805619	23029.442622
678.144616	23038.483931
678.483562	23041.317059
678.822458	22835.113703
679.161303	22824.759172
679.500098	22800.478455
679.838842	22786.789202
680.177535	22897.074524
680.516179	23140.645434
680.854771	23297.057315
681.193314	23970.570592
681.531805	24835.521687
681.870247	25497.780588
682.208638	26141.629195
682.546978	26399.234677
682.885268	26566.600985
683.223508	26229.441054
683.561697	26051.896657
683.899836	25951.055936
684.237925	25642.718802
684.575963	25563.360958
684.913951	25278.639110
685.251889	25468.821680
685.589776	25518.557703
685.927614	25542.669542
686.265401	25742.866364
686.603137	25870.979728
686.940824	26321.021176
687.278460	26618.441691
687.616046	26792.769832
687.953582	27374.917237
688.291068	27336.112955
688.628504	27647.263053
688.965889	27681.736983
689.303224	27493.966606
689.640510	27301.896123
689.977745	26803.278117
690.314930	26196.739089
690.652065	25875.037857
690.989150	25347.796179
691.326185	24668.382231
691.663170	24169.194574
692.000105	23560.510535
692.336990	23063.452766
692.673825	22722.151527
693.010610	22325.337102
693.347345	21923.569743
693.684030	21399.912326
694.020665	21256.413361
694.357251	20688.630724
694.693786	20709.768282
695.030272	20532.251611
695.366707	20122.050402
695.703093	19911.037784
696.039429	19986.322376
696.375716	19793.067223
696.711952	19810.751590
697.048139	19699.878973
697.384276	19577.545293
697.720363	19695.518375
698.056400	19618.315625
698.392388	19497.282562
698.728326	19519.836684
699.064214	19383.102948
699.400053	19408.522966
699.735842	19088.664275
700.071581	18932.340615
700.407270	18726.525427
700.742910	18600.252085
701.078501	18381.377788
701.414042	18219.549187
701.749533	17953.204865
702.084974	17689.262653
702.420366	17915.197086
702.755709	17558.575780
703.091002	17282.824665
703.426246	17373.522584
703.761440	17329.896439
704.096584	17131.965616
704.431679	17078.748675
704.766725	17043.584106
705.101721	16995.325141
705.436668	17124.308103
705.771565	16890.968215
706.106413	17176.020259
706.441212	17272.386956
706.775961	17376.998460
707.110661	17460.331254
707.445311	17818.903486
707.779913	17713.288792
708.114465	17999.666660
708.448967	18299.171692
708.783421	18901.224093
709.117825	19250.840715
709.452180	19463.970617
709.786485	19882.726664
710.120742	20592.717731
710.454949	20702.693023
710.789107	21162.111017
711.123216	21811.204945
711.457275	22003.585458
711.791286	22520.626361
712.125247	22663.439729
712.459159	22428.884923
712.793023	23141.711638
713.126837	22207.568187
713.460602	22472.778249
713.794318	22187.111184
714.127985	21963.110034
714.461602	21158.705717
714.795171	21161.614463
715.128691	20283.016965
715.462162	19814.056067
715.795584	19433.181770
716.128957	19203.335402
716.462281	18862.550881
716.795556	18614.984857
717.128782	18157.671545
717.461960	17608.762987
717.795088	17586.468485
718.128167	17263.421264
718.461198	16856.771548
718.794180	16744.779794
719.127113	16452.092923
719.459997	16276.360820
719.792833	15934.691577
720.125619	15982.474154
720.458357	15679.566343
720.791046	15547.382248
721.123686	15407.422173
721.456278	15209.380444
721.788821	15220.700355
722.121315	14970.608713
722.453761	15066.942642
722.786158	14961.925325
723.118506	15044.433890
723.450805	14938.287355
723.783056	15106.777840
724.115259	15022.872875
724.447412	15010.758983
724.779518	15224.090531
725.111574	15282.247802
725.443582	15542.341094
725.775542	15498.732593
726.107453	15999.631721
726.439315	15922.832263
726.771129	16318.761965
727.102895	16711.999692
727.434612	16974.260679
727.766281	17128.124256
728.097901	17445.706866
728.429473	17522.397940
728.760996	17540.263789
729.092471	17679.578596
729.423897	17587.358248
729.755276	17467.643447
730.086606	17586.849092
730.417887	18163.980549
730.749120	18703.361325
731.080305	18911.198016
731.411442	19316.355550
731.742530	19443.170817
732.073570	19605.208625
732.404562	19920.242931
732.735506	19779.020048
733.066401	19582.896478
733.397249	19116.304922
733.728048	18520.947173
734.058798	17700.811936
734.389501	16982.671844
734.720156	16497.246538
735.050762	15946.964266
735.381320	15591.242807
735.711831	15325.468135
736.042293	14981.003572
736.372707	15014.827194
736.703073	14811.207428
737.033391	15010.663201
737.363661	15003.368651
737.693883	15127.237363
738.024056	15322.476210
738.354182	15528.142684
738.684260	15866.469642
739.014290	16132.786238
739.344272	16358.544231
739.674207	16696.455294
740.004093	16856.910179
740.333931	16913.141730
740.663722	16995.554513
740.993464	17036.743261
741.323159	16896.516005
741.652806	16633.887013
741.982405	16476.582848
742.311956	16139.511137
742.641460	16034.700508
742.970915	15736.070116
743.300323	15399.918415
743.629683	15196.890985
743.958996	14893.814296
744.288260	14599.098359
744.617477	14305.362928
744.946647	14269.359007
745.275768	13965.384992
745.604842	13779.449594
745.933869	13604.115742
746.262847	13578.453749
746.591778	13498.160771
746.920662	13390.418710
747.249498	13397.771233
747.578286	13545.812278
747.907027	13719.260737
748.235720	13987.876100
748.564365	14052.438157
748.892963	13977.738339
749.221514	14074.576384
749.550017	13944.935551
749.878473	13924.463425
750.206881	13709.858986
750.535242	13634.743273
750.863555	13560.870204
751.191821	13463.137355
751.520039	13486.182989
751.848210	13418.392073
752.176334	13471.719919
752.504411	13394.149164
752.832440	13228.718660
753.160421	13335.699506
753.488356	13228.287641
753.816243	13138.328251
754.144082	12980.177172
754.471875	12925.092484
754.799620	12887.329201
755.127318	12875.028785
755.454969	12860.701826
755.782572	12837.187364
756.110129	12851.385774
756.437638	12762.212803
756.765100	12764.786312
757.092515	12794.519038
757.419882	12826.726970
757.747203	12842.677180
758.074477	12925.503338
758.401703	12914.420361
758.728882	13109.366822
759.056014	13149.698573
759.383099	13319.043534
759.710138	13442.718161
760.037129	13563.325246
760.364073	13617.936066
760.690970	13646.955468
761.017820	13672.141072
761.344623	13902.055497
761.671379	14282.062715
761.998088	14977.605834
762.324751	16731.700521
762.651366	20087.793241
762.977935	24480.838705
763.304456	27386.703455
763.630931	28421.990097
763.957359	27234.359785
764.283740	25026.286510
764.610074	22810.840547
764.936362	20222.739888
765.262602	18366.778606
765.588796	16474.195862
765.914943	15217.829418
766.241044	14136.378410
766.567097	13354.656765
766.893104	12640.960450
767.219064	12184.972962
767.544978	11715.089532
767.870845	11337.161790
768.196665	11123.515169
768.522438	10890.349201
768.848165	10693.872751
769.173846	10495.236166
769.499479	10366.018790
769.825066	10198.637358
770.150607	9976.793822
770.476101	9897.161235
770.801548	9778.578173
771.126949	9621.241241
771.452303	9511.439869
771.777611	9311.865629
772.102872	9303.444382
772.428087	9166.468670
772.753256	9009.398919
773.078378	8924.200899
773.403453	8744.657684
773.728482	8633.291034
774.053465	8562.432575
774.378401	8459.519940
774.703291	8335.484870
775.028135	8219.354330
775.352932	8187.940379
775.677683	8083.356602
776.002388	7976.282494
776.327046	7981.800037
776.651658	7890.287971
776.976224	7785.913401
777.300743	7787.569420
777.625216	7701.032973
777.949643	7660.451685
778.274024	7673.709920
778.598359	7583.415293
778.922647	7601.548323
779.246889	7552.553349
779.571086	7558.937970
779.895236	7576.700476
780.219339	7580.773728
780.543397	7578.177534
780.867409	7655.246694
781.191374	7668.961153
781.515294	7638.870505
781.839167	7722.709935
782.162995	7705.118829
782.486776	7650.124881
782.810511	7601.676872
783.134201	7516.811568
783.457844	7514.507761
783.781441	7456.736138
784.104993	7390.432362
784.428498	7368.972170
784.751958	7357.972372
785.075372	7330.314081
785.398739	7273.538086
785.722061	7321.769326
786.045337	7328.438772
786.368568	7480.928635
786.691752	7505.519383
787.014891	7844.267278
787.337983	8202.239612
787.661030	8783.598077
787.984031	9411.047811
788.306987	9801.800248
788.629897	10003.683336
788.952760	9959.432088
789.275579	9746.977700
789.598351	9359.055871
789.921078	8995.455088
790.243759	8596.997247
790.566395	8308.527300
790.888984	8054.823671
791.211529	7848.327927
791.534027	7631.170143
791.856480	7430.290244
792.178888	7358.756271
792.501249	7257.184583
792.823566	7106.597756
793.145836	7104.084741
793.468062	7074.662046
793.790241	7035.822477
794.112375	7105.796212
794.434464	7249.847184
794.756507	7289.074922
795.078505	7448.047709
795.400457	7760.647138
795.722364	8103.770754
796.044226	8389.793221
796.366042	8661.443357
796.687812	8613.804453
797.009538	8695.428296
797.331218	8592.508099
797.652852	8502.145416
797.974442	8355.709979
798.295986	8265.816124
798.617484	8076.893842
798.938938	7929.119979
799.260346	7837.184457
799.581709	7635.586194
799.903026	7561.871922
800.224299	7453.308153
800.545526	7283.315404
800.866708	7186.696649
801.187845	7116.796010
801.508936	7014.896647
801.829983	6976.034392
802.150984	6823.385733
802.471940	6782.227232
802.792851	6769.200891
803.113717	6735.513380
803.434538	6697.185488
803.755314	6645.773280
804.076045	6643.403938
804.396731	6594.900476
804.717372	6621.411904
805.037967	6626.808459
805.358518	6666.623492
805.679024	6746.737509
805.999485	6757.442399
806.319901	6798.946219
806.640272	6822.097718
806.960598	6900.497743
807.280879	6903.020840
807.601115	6979.477500
807.921306	6926.658811
808.241453	6942.530883
808.561554	6961.548636
808.881611	6937.804802
809.201623	6936.098371
809.521590	6882.455453
809.841513	6862.023657
810.161390	6903.774493
810.481223	6777.521315
810.801011	6761.230827
811.120755	6739.269040
811.440453	6655.976575
811.760107	6629.770137
812.079716	6594.408963
812.399281	6534.769593
812.718801	6525.100660
813.038276	6479.241283
813.357707	6418.076964
813.677093	6459.427028
813.996434	6362.604107
814.315731	6412.236787
814.634983	6401.221866
814.954191	6415.632004
815.273354	6519.096646
815.592473	6583.734320
815.911547	6706.302414
816.230577	6786.754188
816.549562	6942.246058
816.868502	7041.274484
817.187399	7134.200594
817.506250	7290.599871
817.825058	7319.160528
818.143821	7592.353258
818.462539	7860.139351
818.781213	8224.322387
819.099843	8777.180688
819.418429	9765.826574
819.736970	10734.597712
820.055466	11904.299159
820.373919	13442.216566
820.692327	15789.087931
821.010691	19931.643501
821.329011	28872.379384
821.647286	41724.954870
821.965517	55044.923455
822.283704	60473.971405
822.601847	62477.411643
822.919945	59770.584250
823.237999	55558.332207
823.556010	49418.128685
823.873976	42755.298661
824.191897	36282.232791
824.509775	31482.272950
824.827609	27003.301019
825.145398	24419.467698
825.463144	23072.756215
825.780845	23388.657601
826.098502	25152.544728
826.416116	28898.979032
826.733685	32502.368075
827.051210	33630.762308
827.368692	31839.461386
827.686129	27919.480319
828.003522	23849.197251
828.320872	20151.591564
828.638177	17329.367118
828.955439	15199.714032
829.272656	13388.326632
829.589830	11918.011098
829.906960	10656.900928
830.224046	9721.275377
830.541088	8978.816759
830.858086	8520.008745
831.175041	8149.068042
831.491952	8032.337604
831.808819	8078.207063
832.125642	8482.217735
832.442421	9372.356955
832.759157	11165.001345
833.075849	14070.488008
833.392497	17245.273110
833.709101	19405.568850
834.025662	19237.874867
834.342179	17551.223258
834.658653	15380.283121
834.975083	13472.466010
835.291469	11866.195598
835.607811	10544.037055
835.924110	9643.477771
836.240366	8780.603631
836.556578	7983.942527
836.872746	7344.368818
837.188871	6844.641758
837.504952	6424.920330
837.820990	6115.698474
838.136984	5902.422378
838.452935	5801.085103
838.768842	5838.992060
839.084706	6259.449496
839.400526	7468.192160
839.716303	9038.622488
840.032037	10121.043918
840.347727	10040.355210
840.663373	9072.362931
840.978977	8035.853809
841.294537	7234.007878
841.610054	6638.922352
841.925527	6209.267330
842.240957	5846.435323
842.556344	5514.674468
842.871687	5232.596705
843.186987	4949.266214
843.502244	4725.068459
843.817458	4562.602153
844.132629	4429.024179
844.447756	4335.936752
844.762840	4258.781893
845.077881	4180.097043
845.392879	4119.376345
845.707833	4069.811720
846.022745	4029.149773
846.337613	3999.890916
846.652438	3954.800316
846.967221	3938.920681
847.281960	3903.456164
847.596656	3886.361611
847.911309	3867.837891
848.225919	3842.223789
848.540485	3826.891119
848.855009	3814.867967
849.169490	3795.469607
849.483928	3780.799850
849.798323	3772.111421
850.112675	3751.697268
850.426984	3760.670522
850.741251	3749.146445
851.055474	3740.248808
851.369654	3744.145620
851.683792	3741.887183
851.997887	3746.368769
852.311938	3745.020260
852.625947	3751.220879
852.939914	3743.253336
853.253837	3750.275663
853.567718	3752.697938
853.881555	3738.698653
854.195350	3752.148452
854.509103	3751.389758
854.822812	3749.274994
855.136479	3739.671596
855.450103	3751.510746
855.763685	3735.648755
856.077224	3739.011205
856.390720	3757.550048
856.704173	3774.964714
857.017584	3790.216725
857.330953	3799.472283
857.644278	3819.049604
857.957561	3824.582271
858.270802	3825.323320
858.584000	3830.177952
858.897155	3822.041529
859.210268	3807.833037
859.523339	3783.761528
859.836367	3782.740694
860.149352	3775.120990
860.462295	3769.593365
860.775195	3759.221191
861.088054	3753.761621
861.400869	3753.444028
861.713642	3751.420005
862.026373	3764.532046
862.339062	3769.825258
862.651708	3786.713123
862.964312	3821.613031
863.276873	3833.424455
863.589392	3890.923855
863.901869	3935.374229
864.214303	3982.834172
864.526696	4015.193339
864.839045	4059.253023
865.151353	4087.428032
865.463619	4091.534052
865.775842	4103.700877
866.088023	4120.273670
866.400162	4111.764203
866.712258	4116.853247
867.024313	4119.978763
867.336325	4117.758134
867.648296	4123.288280
867.960224	4124.525883
868.272110	4139.666989
868.583954	4134.328407
868.895755	4152.088392
869.207515	4145.963390
869.519233	4190.771686
869.830909	4201.766443
870.142542	4228.020772
870.454134	4240.865632
870.765684	4272.173718
871.077191	4309.969769
871.388657	4333.068336
871.700081	4366.483624
872.011463	4409.532557
872.322803	4444.737455
872.634101	4477.406653
872.945357	4515.812683
873.256571	4567.824788
873.567744	4600.748564
873.878874	4617.059217
874.189963	4657.033047
874.501010	4664.345240
874.812015	4660.093027
875.122979	4705.019790
875.433900	4703.971230
875.744780	4716.299372
876.055618	4744.537395
876.366415	4745.074278
876.677169	4767.890540
876.987882	4815.635308
877.298554	4863.049881
877.609183	4950.128252
877.919771	5051.342018
878.230317	5195.766035
878.540822	5410.599847
878.851285	5732.744701
879.161707	6195.711667
879.472087	6953.427338
879.782425	8180.575254
880.092722	10356.680052
880.402977	13627.504176
880.713191	17335.131677
881.023363	20997.373671
881.333494	23159.093537
881.643583	24365.749163
881.953631	24386.475867
882.263637	23560.167737
882.573602	22110.548660
882.883526	20571.295348
883.193408	18917.597761
883.503248	17241.608191
883.813048	15709.770416
884.122806	14286.405669
884.432522	12835.528824
884.742197	11574.113665
885.051831	10497.164407
885.361424	9498.983178
885.670975	8690.661885
885.980485	8000.883325
886.289954	7430.335615
886.599382	6958.518903
886.908768	6586.625422
887.218113	6221.739145
887.527417	5938.043171
887.836680	5673.569117
888.145901	5454.490653
888.455082	5290.819511
888.764221	5139.461387
889.073319	5008.527498
889.382376	4937.724493
889.691392	4875.405749
890.000366	4848.435576
890.309300	4836.041899
890.618193	4834.585006
890.927044	4821.677131
891.235855	4842.446685
891.544625	4875.284761
891.853353	4941.911171
892.162041	5054.863264
892.470687	5241.280092
892.779293	5491.432228
893.087858	5866.330237
893.396381	6436.814932
893.704864	7238.076089
894.013306	8380.893063
894.321707	9544.436742
894.630068	10344.142702
894.938387	10538.522033
895.246665	10302.601074
895.554903	9708.659890
895.863100	9017.774796
896.171256	8469.357752
896.479371	7965.053324
896.787446	7474.801112
897.095480	7049.536936
897.403473	6727.578604
897.711425	6411.349544
898.019336	6147.926570
898.327207	5881.657865
898.635038	5648.837216
898.942827	5406.977778
899.250576	5212.812696
899.558284	5020.515362
899.865952	4900.820726
900.173579	4757.326802
900.481165	4648.906707
900.788711	4560.081576
901.096216	4483.715657
901.403681	4420.078651
901.711105	4394.121750
902.018489	4380.687075
902.325832	4452.483188
902.633135	4575.389039
902.940397	4914.053755
903.247619	5705.882913
903.554800	7138.810729
903.861941	9036.137199
904.169041	10536.205623
904.476101	11153.608337
904.783121	10795.938472
905.090100	10068.404190
905.397039	9242.201924
905.703938	8497.000919
906.010796	7813.591857
906.317614	7265.106756
906.624391	6730.363842
906.931129	6312.747095
907.237826	5907.980250
907.544483	5540.230597
907.851099	5171.399618
908.157675	4815.400895
908.464211	4491.748735
908.770707	4264.647275
909.077163	4066.542532
909.383578	3922.862086
909.689954	3808.478305
909.996289	3734.615319
910.302584	3670.847243
910.608839	3640.103766
910.915054	3607.747120
911.221229	3593.614246
911.527363	3609.824076
911.833458	3620.060139
912.139513	3647.907472
912.445527	3678.963501
912.751502	3759.173300
913.057436	3860.071994
913.363331	3996.737675
913.669186	4197.000032
913.975000	4454.003096
914.280775	4880.106625
914.586510	5453.883194
914.892205	6246.856694
915.197859	7267.859226
915.503475	8476.427970
915.809050	9514.149489
916.114585	10151.621037
916.420081	10415.653990
916.725536	10370.225632
917.030952	9938.889386
917.336328	9528.108444
917.641665	9132.340059
917.946961	8654.786514
918.252218	8239.904593
918.557435	7736.545382
918.862612	7311.901267
919.167750	6936.824297
919.472848	6511.822261
919.777906	6142.305684
920.082925	5790.254184
920.387904	5429.657929
920.692843	5165.042723
920.997743	4923.757976
921.302603	4690.957491
921.607423	4526.454559
921.912204	4367.721227
922.216946	4250.287548
922.521647	4128.780617
922.826310	4025.371428
923.130932	3929.584464
923.435516	3835.272037
923.740059	3763.957355
924.044564	3690.558155
924.349028	3630.911222
924.653454	3569.298240
924.957840	3496.042713
925.262186	3450.266515
925.566493	3388.363667
925.870761	3330.274451
926.174989	3294.409162
926.479178	3257.308790
926.783328	3222.194633
927.087438	3190.153059
927.391509	3153.796258
927.695541	3127.564614
927.999533	3098.338524
928.303486	3077.750452
928.607400	3066.173442
928.911275	3053.958726
929.215110	3031.802855
929.518906	3029.849408
929.822663	3024.737678
930.126381	3021.912111
930.430060	3029.330169
930.733699	3030.827392
931.037299	3037.151519
931.340861	3038.580687
931.644383	3045.666028
931.947866	3046.394475
932.251309	3040.992879
932.554714	3036.574307
932.858080	3034.860315
933.161407	3023.406813
933.464694	3015.716533
933.767943	3010.350225
934.071153	3006.607168
934.374323	2998.858915
934.677455	2990.835918
934.980548	2984.060608
935.283602	2980.309989
935.586617	2976.289669
935.889593	2985.267964
936.192530	2986.492964
936.495428	3003.809328
936.798287	3021.188706
937.101108	3052.630382
937.403890	3104.715584
937.706632	3166.162208
938.009336	3242.964187
938.312002	3318.987308
938.614628	3383.791340
938.917216	3431.798248
939.219765	3463.875110
939.522275	3495.621777
939.824747	3502.082015
940.127179	3498.830471
940.429573	3493.222187
940.731929	3489.705983
941.034246	3480.841113
941.336524	3464.729586
941.638763	3446.926751
941.940964	3435.009463
942.243126	3395.320459
942.545250	3371.959752
942.847335	3333.994823
943.149381	3298.573155
943.451389	3267.360851
943.753359	3230.913309
944.055290	3209.911862
944.357182	3187.203984
944.659036	3171.994823
944.960851	3163.331600
945.262628	3146.075731
945.564367	3147.300731
945.866067	3141.334525
946.167729	3137.268835
946.469352	3137.699853
946.770937	3134.675161
947.072484	3115.090278
947.373992	3122.677215
947.675462	3113.943416
947.976893	3100.576797
948.278286	3087.086669
948.579641	3083.031061
948.880958	3073.992272
949.182236	3081.274218
949.483476	3072.285841
949.784678	3071.829617
950.085841	3074.080492
950.386967	3083.255392
950.688054	3099.051848
950.989103	3123.022534
951.290114	3139.471819
951.591087	3168.455933
951.892021	3198.367619
952.192917	3220.377297
952.493776	3246.334198
952.794596	3251.912235
953.095378	3259.375663
953.396122	3255.804006
953.696828	3250.044487
953.997496	3237.756675
954.298126	3216.299004
954.598718	3195.814275
954.899272	3169.675892
955.199788	3144.661687
955.500266	3109.764299
955.800706	3077.357242
956.101108	3037.448948
956.401472	3005.752693
956.701798	2977.391161
957.002087	2932.655962
957.302337	2907.742580
957.602550	2877.780482
957.902724	2851.879033
958.202861	2825.539004
958.502960	2807.085861
958.803022	2789.088942
959.103045	2765.201434
959.403031	2752.119640
959.702979	2734.654562
960.002889	2723.102758
960.302762	2713.690924
960.602596	2698.512010
960.902393	2689.926925
961.202153	2680.913342
961.501875	2673.510407
961.801559	2668.033194
962.101205	2661.318377
962.400814	2656.385608
962.700385	2651.200781
962.999918	2643.628968
963.299414	2637.687968
963.598873	2634.721249
963.898293	2625.372429
964.197677	2630.234622
964.497022	2628.671864
964.796331	2623.625669
965.095601	2620.540483
965.394835	2621.488220
965.694030	2619.983436
965.993189	2617.016717
966.292309	2615.491768
966.591393	2617.488065
966.890439	2614.251644
967.189447	2614.420523
967.488419	2612.507405
967.787353	2615.839607
968.086249	2618.312293
968.385108	2618.536625
968.683930	2620.850514
968.982714	2626.300002
969.281462	2630.090949
969.580172	2636.684778
969.878844	2640.904224
970.177480	2648.390338
970.476078	2656.988026
970.774639	2663.778460
971.073162	2671.776250
971.371649	2677.313958
971.670098	2681.843435
971.968510	2689.117820
972.266885	2690.652851
972.565223	2697.108048
972.863524	2699.994109
973.161788	2702.229861
973.460014	2703.361600
973.758204	2709.441231
974.056356	2710.532641
974.354471	2714.021120
974.652550	2709.831921
974.950591	2710.986345
975.248595	2709.726057
975.546563	2703.759851
975.844493	2704.079964
976.142386	2697.677699
976.440243	2693.488500
976.738062	2688.911132
977.035845	2682.486182
977.333590	2675.231961
977.631299	2671.443534
977.928971	2663.589417
978.226606	2658.071874
978.524204	2656.183962
978.821765	2652.786224
979.119290	2652.529125
979.416777	2654.704383
979.714228	2655.329486
980.011642	2657.310659
980.309020	2667.778615
980.606360	2685.538600
980.903664	2707.681869
981.200931	2741.820562
981.498162	2788.993160
981.795356	2865.694315
982.092513	2950.242027
982.389633	3052.706000
982.686717	3146.758807
982.983764	3220.175651
983.280775	3267.136520
983.577749	3274.433590
983.874686	3267.300357
984.171587	3229.418607
984.468451	3194.042309
984.765279	3147.565392
985.062070	3103.263732
985.358824	3060.318142
985.655543	3002.135665
985.952224	2948.820422
986.248869	2886.713406
986.545478	2830.267607
986.842050	2777.481685
987.138586	2730.442678
987.435086	2693.044878
987.731549	2664.519509
988.027975	2640.047228
988.324366	2624.064250
988.620719	2610.390120
988.917037	2596.163984
989.213318	2588.592171
989.509563	2581.937848
989.805772	2576.664801
990.101944	2574.091292
990.398080	2572.662125
990.694180	2568.598955
990.990244	2569.592062
991.286271	2571.908472
991.582262	2571.790005
991.878217	2571.303534
992.174136	2576.369893
992.470019	2585.575040
992.765865	2582.681418
993.061676	2588.824064
993.357450	2598.936618
993.653188	2602.041969
993.948890	2623.030813
994.244556	2640.647125
994.540186	2663.773419
994.835780	2693.657379
995.131337	2728.426217
995.426859	2769.231837
995.722345	2817.271512
996.017795	2869.913761
996.313208	2904.385171
996.608586	2932.718976
996.903928	2942.793722
997.199234	2941.009154
997.494504	2939.217024
997.789738	2926.094900
998.084936	2902.283010
998.380099	2870.828731
998.675225	2842.237827
998.970316	2813.087354
999.265371	2775.326592
999.560390	2742.566653
999.855373	2714.255533
1000.150320	2684.507684
1000.445232	2661.000784
1000.740108	2640.435397
1001.034948	2623.005607
1001.329752	2607.420880
1001.624521	2593.484611
1001.919254	2583.316603
1002.213951	2577.461303
1002.508613	2565.213820
1002.803239	2561.455640
1003.097829	2554.841646
1003.392384	2550.052550
1003.686903	2545.535676
1003.981386	2542.999975
1004.275834	2538.586445
1004.570246	2538.972093
1004.864623	2535.937319
1005.158964	2535.425642
1005.453270	2532.214427
1005.747540	2530.419776
1006.041775	2527.369878
1006.335974	2526.374250
1006.630138	2525.303005
1006.924266	2524.302336
1007.218359	2521.355781
1007.512416	2521.146573
1007.806438	2517.791686
1008.100425	2520.150946
1008.394376	2518.933507
1008.688292	2521.514578
1008.982172	2519.205729
1009.276017	2520.448374
1009.569827	2518.545338
1009.863602	2517.968126
1010.157341	2517.804288
1010.451045	2518.555420
1010.744714	2512.735408
1011.038347	2516.423012
1011.331945	2513.725995
1011.625508	2517.456449
1011.919036	2514.605676
1012.212528	2513.773886
1012.505986	2513.594925
1012.799408	2512.090141
1013.092795	2510.237517
1013.386147	2510.376148
1013.679464	2507.986641
1013.972745	2509.579646
1014.265992	2509.998062
1014.559204	2511.175171
1014.852380	2509.128463
1015.145521	2509.927486
1015.438628	2510.129132
1015.731699	2509.378000
1016.024736	2514.774555
1016.317737	2513.370594
1016.610703	2512.075017
1016.903635	2518.368898
1017.196531	2516.912004
1017.489393	2517.269926
1017.782219	2520.002232
1018.075011	2519.999711
1018.367768	2520.433250
1018.660490	2522.908457
1018.953177	2522.908457
1019.245829	2522.908457
