Dividing Wavelength (nm)	Counts (n)	Blue Motor Position (mm): 34.000000	Red Motor Position (mm): 0.000000	
326.493990	2098.836513
326.888308	2098.836513
327.282561	2098.836513
327.676750	2074.918758
328.070874	2078.482854
328.464933	2083.786148
328.858929	2094.914495
329.252859	2107.832452
329.646726	2122.857611
330.040528	2138.402009
330.434265	2156.759371
330.827938	2178.726198
331.221547	2196.337469
331.615091	2217.487630
332.008571	2238.637791
332.401986	2261.189393
332.795338	2277.328647
333.188625	2296.938736
333.581847	2316.243834
333.975006	2334.959118
334.368100	2353.755060
334.761129	2368.994468
335.154095	2384.541387
335.546996	2428.865732
335.939833	2513.662981
336.332606	2522.011131
336.725315	2535.468492
337.117960	2550.569268
337.510540	2555.333158
337.903056	2565.004612
338.295508	2573.083061
338.687896	2578.769482
339.080220	2584.803744
339.472480	2587.717531
339.864676	2593.237594
340.256807	2595.309508
340.648875	2596.968048
341.040879	2599.493666
341.432818	2600.779160
341.824694	2601.820158
342.216506	2600.393512
342.608253	2601.865529
342.999937	2600.627926
343.391557	2599.909561
343.783113	2597.895620
344.174605	2597.038624
344.566033	2595.097780
344.957397	2589.668457
345.348697	2590.374219
345.739934	2591.727768
346.131106	2589.187027
346.522215	2587.830957
346.913260	2584.917170
347.304241	2582.043712
347.695159	2581.325348
348.086012	2581.025399
348.476802	2579.502970
348.867528	2579.694534
349.258191	2573.821590
349.648789	2577.022723
350.039324	2571.719429
350.429796	2574.751683
350.820203	2571.827814
351.210548	2574.111456
351.600828	2572.856209
351.991045	2571.245560
352.381198	2572.251271
352.771288	2570.786815
353.161314	2570.260015
353.551276	2571.185067
353.941175	2569.299675
354.331010	2569.201372
354.720782	2575.079358
355.110490	2576.778227
355.500135	2571.422001
355.889717	2570.363358
356.279235	2572.543657
356.668689	2571.820252
357.058080	2573.130952
357.447408	2569.397977
357.836672	2570.640622
358.225873	2573.030129
358.615010	2569.234140
359.004084	2573.829152
359.393095	2577.504153
359.782043	2575.245716
360.170927	2575.525500
360.559748	2576.591704
360.948505	2580.057497
361.337199	2580.266705
361.725830	2578.315779
362.114398	2580.826273
362.502903	2582.976325
362.891344	2582.356263
363.279722	2580.332240
363.668037	2582.086562
364.056289	2582.661253
364.444478	2583.830801
364.832603	2584.876840
365.220665	2583.712334
365.608665	2584.534042
365.996601	2587.296594
366.384474	2587.094948
366.772284	2589.862542
367.160031	2584.874320
367.547715	2587.883889
367.935336	2588.876996
368.322893	2589.325659
368.710388	2588.362798
369.097820	2591.999991
369.485189	2589.300453
369.872495	2590.162490
370.259738	2587.553693
370.646918	2593.867738
371.034035	2591.326997
371.421090	2593.776998
371.808081	2593.073757
372.195010	2592.400762
372.581875	2590.782552
372.968678	2593.391349
373.355418	2593.988726
373.742096	2594.704570
374.128710	2598.293871
374.515262	2597.928388
374.901751	2596.572317
375.288177	2600.574993
375.674540	2595.964858
376.060841	2598.107349
376.447079	2596.589961
376.833254	2599.259252
377.219367	2599.309664
377.605417	2599.196238
377.991404	2598.548450
378.377329	2598.992071
378.763191	2596.849581
379.148991	2602.278903
379.534727	2601.704212
379.920402	2601.792432
380.306013	2604.141610
380.691563	2602.581373
381.077049	2604.905345
381.462474	2605.525407
381.847835	2604.945674
382.233134	2607.511621
382.618371	2607.236878
383.003545	2608.073710
383.388657	2610.357352
383.773706	2609.233175
384.158693	2610.407764
384.543618	2609.031529
384.928480	2610.816097
385.313280	2613.029164
385.698017	2611.133690
386.082692	2611.912548
386.467305	2613.308948
386.851856	2615.582508
387.236344	2614.889350
387.620770	2615.542179
388.005133	2616.167282
388.389435	2617.440174
388.773674	2619.179372
389.157851	2616.101747
389.541965	2618.942437
389.926018	2621.236162
390.310008	2621.616770
390.693936	2618.808847
391.077802	2621.286574
391.461606	2625.773201
391.845348	2622.814044
392.229027	2621.833539
392.612645	2623.008128
392.996200	2626.370578
393.379694	2626.688170
393.763125	2628.235805
394.146494	2630.544653
394.529801	2632.372071
394.913047	2631.958697
395.296230	2632.392236
395.679351	2631.530199
396.062410	2632.803090
396.445408	2631.719242
396.828343	2635.424490
397.211217	2632.659417
397.594028	2634.960704
397.976778	2633.690333
398.359466	2636.760396
398.742092	2634.209572
399.124656	2639.641415
399.507158	2642.955974
399.889598	2640.407671
400.271977	2643.442445
400.654294	2646.522590
401.036549	2646.663742
401.418742	2646.472179
401.800874	2647.800523
402.182944	2649.630462
402.564952	2651.692293
402.946898	2653.171872
403.328783	2651.004176
403.710606	2655.606749
404.092367	2657.262768
404.474067	2657.749240
404.855705	2661.686381
405.237282	2661.535146
405.618797	2664.610250
406.000250	2667.773574
406.381642	2670.904131
406.762972	2673.991837
407.144240	2676.605676
407.525447	2677.051818
407.906593	2679.464010
408.287677	2681.785461
408.668700	2688.049095
409.049661	2692.548325
409.430560	2697.682740
409.811399	2703.318750
410.192176	2708.009544
410.572891	2716.216542
410.953545	2723.944631
411.334138	2728.758933
411.714669	2743.796695
412.095139	2748.706779
412.475547	2764.344438
412.855894	2777.363218
413.236180	2795.728141
413.616405	2809.009061
413.996568	2831.399346
414.376670	2853.719054
414.756711	2870.591796
415.136691	2903.422311
415.516609	2938.720470
415.896466	2975.110039
416.276262	3020.263654
416.655997	3073.049576
417.035670	3121.580764
417.415283	3196.431816
417.794834	3250.684714
418.174324	3297.645583
418.553753	3353.062987
418.933121	3447.330043
419.312428	3510.641894
419.691674	3576.456678
420.070859	3695.347251
420.449983	3748.697782
420.829045	3886.321282
421.208047	3961.068991
421.586988	4105.351855
421.965867	4240.089294
422.344686	4354.044577
422.723444	4539.289337
423.102141	4471.629490
423.480777	4764.444912
423.859352	4816.179753
424.237866	5126.969408
424.616319	5220.974324
424.994712	5479.827492
425.373044	5592.046097
425.751314	5889.685903
426.129524	5856.832703
426.507673	6261.317244
426.885762	6362.871288
427.263789	6583.888075
427.641756	6802.258257
428.019662	6996.798905
428.397508	7189.741506
428.775292	7460.693443
429.153016	7652.345510
429.530679	7869.878860
429.908282	8074.020385
430.285824	8175.304727
430.663305	8618.147408
431.040726	8685.666102
431.418086	8813.005648
431.795385	9257.700952
432.172624	9643.712184
432.549802	9671.877111
432.926920	9963.858221
433.303977	10120.433939
433.680974	10442.276324
434.057910	10802.035748
434.434786	11026.367094
434.811601	11204.738240
435.188355	11953.127776
435.565050	11992.693272
435.941683	12191.390350
436.318257	12922.702977
436.694770	13037.031305
437.071222	13606.714457
437.447614	13287.100262
437.823946	13509.979756
438.200218	13835.648377
438.576429	13901.173295
438.952580	14295.850270
439.328670	14477.167971
439.704700	14958.641013
440.080670	14866.546694
440.456580	15477.053110
440.832429	15799.742409
441.208218	15297.106603
441.583947	15782.728515
441.959616	16057.930145
442.335224	16428.596105
442.710773	16722.296248
443.086261	17318.261456
443.461689	16976.685474
443.837057	17265.026871
444.212365	17980.538001
444.587612	18160.610537
444.962800	17980.774936
445.337927	18500.323813
445.712995	17564.849496
446.088002	19319.786056
446.462949	19654.823661
446.837837	19972.678493
447.212664	20123.277923
447.587431	22871.641903
447.962139	25619.481603
448.336786	27802.686867
448.711374	26460.439326
449.085901	23296.033960
449.460369	23483.091015
449.834776	23619.822231
450.209124	26073.407260
450.583412	25715.392076
450.957640	26268.270542
451.331808	25149.391487
451.705917	23985.754547
452.079965	24142.635255
452.453954	24604.904022
452.827883	24606.330668
453.201752	24502.185471
453.575562	24752.209058
453.949311	25908.322075
454.323001	26074.400368
454.696632	25940.058659
455.070202	27540.471250
455.443713	27780.011757
455.817164	28424.296424
456.190556	29023.808084
456.563888	28500.382559
456.937160	28997.498302
457.310373	27379.131642
457.683526	27872.204379
458.056619	27923.004086
458.429653	27939.960007
458.802628	28585.482277
459.175542	28764.846531
459.548398	30163.454172
459.921194	31800.362196
460.293930	32549.770045
460.666607	34653.735932
461.039224	36452.563297
461.411782	36859.127313
461.784280	35611.086335
462.156719	35115.757682
462.529099	34589.352835
462.901419	33291.787562
463.273680	32248.150248
463.645882	32412.171751
464.018024	32425.803031
464.390106	33382.488002
464.762130	36289.512217
465.134094	40605.549014
465.505999	46072.622387
465.877845	50590.509505
466.249631	51639.944146
466.621358	49844.101143
466.993026	47689.895117
467.364634	45594.796620
467.736184	43627.095642
468.107674	42362.922972
468.479105	41559.010168
468.850477	40854.730728
469.221790	39397.602853
469.593043	37619.789538
469.964238	36730.083857
470.335373	36691.113217
470.706449	38594.710883
471.077467	41397.032853
471.448425	46039.565021
471.819324	48739.112988
472.190164	46697.619600
472.560945	43095.334570
472.931667	39963.008586
473.302330	38858.277530
473.672934	38027.518061
474.043479	38565.441944
474.413965	37765.456199
474.784393	37390.948880
475.154761	38316.141763
475.525070	38380.550065
475.895321	37886.375836
476.265513	38520.263123
476.635645	39534.397083
477.005719	39370.451199
477.375734	39887.855065
477.745691	40611.734510
478.115588	42001.578105
478.485427	44120.420437
478.855207	47603.083928
479.224928	50253.457959
479.594591	51784.133748
479.964194	50704.704243
480.333739	50866.442102
480.703226	50943.944802
481.072653	51609.488015
481.442022	52060.888053
481.811333	52274.970734
482.180584	50986.847541
482.549777	50473.862247
482.918912	49946.797009
483.287988	49630.734307
483.657005	48784.110327
484.025964	48114.135940
484.394864	48125.012229
484.763706	47692.660190
485.132489	46808.615725
485.501213	46633.665002
485.869879	46796.973181
486.238487	46375.099180
486.607036	46567.020948
486.975527	46011.347162
487.343959	46228.888074
487.712333	46298.531615
488.080648	46200.581995
488.448905	46671.738316
488.817104	46473.746999
489.185244	47505.542642
489.553326	49281.831008
489.921350	52021.083103
490.289315	54773.732064
490.657222	55266.436797
491.025070	55497.752661
491.392861	54600.603717
491.760593	53381.471236
492.128267	51705.169115
492.495883	50192.969154
492.863440	48793.862439
493.230939	47396.920900
493.598380	46307.416648
493.965763	45976.880793
494.333088	45140.928936
494.700354	44653.532538
495.067563	44342.616854
495.434713	44198.011356
495.801805	44269.157161
496.168839	43870.873239
496.535815	43540.965008
496.902733	43561.699274
497.269593	43122.466060
497.636395	43056.464753
498.003139	43465.342659
498.369825	42909.106785
498.736453	43215.271182
499.103023	42732.885691
499.469535	42594.695061
499.835989	42695.097201
500.202385	42343.184334
500.568723	42369.085782
500.935003	42569.219590
501.301226	42346.224149
501.667390	42977.497599
502.033497	43231.433121
502.399546	42645.086435
502.765537	41933.651078
503.131470	42315.558811
503.497345	42690.053527
503.863163	41310.085553
504.228923	41948.159518
504.594625	42375.089796
504.960269	41622.445527
505.325856	42325.686489
505.691385	41687.428521
506.056856	41834.342867
506.422270	42266.523507
506.787625	41824.179901
507.152924	42038.315514
507.518164	42136.262612
507.883347	41314.436068
508.248472	41563.285066
508.613540	42074.697521
508.978550	42369.819270
509.343503	42116.188738
509.708398	42321.469563
510.073236	42859.312788
510.438016	42872.727298
510.802738	42292.130048
511.167403	42937.622072
511.532010	43166.886187
511.896561	43463.129593
512.261053	44344.187174
512.625488	43853.750960
512.989866	43728.122886
513.354186	43580.336420
513.718449	43577.687293
514.082655	44266.742448
514.446803	43909.654836
514.810894	44460.703363
515.174927	44365.105442
515.538904	44266.671872
515.902822	44924.098827
516.266684	44383.157814
516.630488	44812.795191
516.994235	44638.623326
517.357925	45237.509882
517.721558	45403.699081
518.085133	45717.556278
518.448651	45834.415265
518.812112	45615.430063
519.175516	45717.921762
519.538863	46044.041566
519.902152	46006.159815
520.265385	46497.296749
520.628560	46495.250041
520.991678	46301.112685
521.354739	46516.884152
521.717743	46849.479318
522.080690	46725.066162
522.443580	47275.774411
522.806413	47305.086200
523.169189	47283.053837
523.531908	47451.148592
523.894569	47292.614386
524.257174	47452.638253
524.619722	47743.739682
524.982213	47742.726410
525.344647	47652.285589
525.707025	47695.505922
526.069345	48104.091441
526.431608	48018.515334
526.793815	48342.595991
527.155964	47878.648520
527.518057	48025.676293
527.880093	47807.394331
528.242072	48345.293008
528.603995	48028.837096
528.965860	48028.010347
529.327669	48132.062283
529.689421	48026.964307
530.051117	47968.628075
530.412755	48125.329822
530.774337	48185.770736
531.135862	47986.080550
531.497331	48185.332156
531.858743	48086.094522
532.220098	48424.547508
532.581396	48123.159605
532.942638	47780.673695
533.303824	48096.532231
533.664953	48057.637208
534.026025	47780.187224
534.387040	48257.150954
534.747999	48197.758600
535.108902	48359.498980
535.469748	47860.303761
535.830537	47984.119541
536.191270	48174.914611
536.551947	47834.379628
536.912567	48135.336512
537.273131	48271.593860
537.633638	47754.172349
537.994089	48075.712265
538.354483	47652.502359
538.714821	48249.039737
539.075103	48604.642730
539.435328	48343.321917
539.795497	48210.185044
540.155609	48213.401300
540.515665	48681.404379
540.875665	48122.463926
541.235609	48464.929671
541.595496	48427.085729
541.955328	49111.523187
542.315102	48454.166808
542.674821	48234.291842
543.034483	48265.461296
543.394090	48246.466228
543.753640	48204.082727
544.113134	49208.787209
544.472571	48207.649344
544.831953	49446.008786
545.191278	48638.191608
545.550548	48356.197024
545.909761	48842.184419
546.268918	49016.255462
546.628019	49339.458958
546.987064	48905.410571
547.346053	48134.348446
547.704986	49008.860089
548.063863	48583.946272
548.422684	48744.814533
548.781449	48577.672557
549.140158	48975.107043
549.498811	48830.700671
549.857408	48242.637472
550.215949	49083.849773
550.574434	49013.964257
550.932864	48748.809647
551.291237	49480.144959
551.649555	49082.592005
552.007817	49306.699020
552.366022	48960.729673
552.724173	49126.530702
553.082267	49513.318272
553.440305	49777.033633
553.798288	49077.356767
554.156215	49391.806300
554.514086	49611.038519
554.871902	49341.573722
555.229661	49353.337255
555.587365	49162.451444
555.945014	49263.370303
556.302606	49189.131751
556.660143	49403.935316
557.017625	49477.087499
557.375050	49264.101270
557.732421	49598.370099
558.089735	49560.808462
558.446994	49475.504577
558.804197	49933.944587
559.161345	49861.155367
559.518437	49086.609805
559.875474	49405.293907
560.232455	49578.628941
560.589381	49749.942472
560.946251	49438.255491
561.303065	50103.529003
561.659825	49888.864069
562.016528	49563.389533
562.373177	49264.519686
562.729770	49740.712119
563.086307	49246.744577
563.442789	49718.767977
563.799216	49721.696887
564.155587	49526.286640
564.511904	49535.096057
564.868164	49603.907807
565.224370	49843.896977
565.580520	49585.588254
565.936615	49772.695720
566.292654	49484.054374
566.648638	49732.409339
567.004567	49690.224963
567.360441	49728.694008
567.716260	49586.195713
568.072023	49876.924096
568.427732	49818.297998
568.783385	49356.891268
569.138982	49743.560371
569.494525	49699.583866
569.850013	49442.757242
570.205445	49413.868910
570.560823	49355.429334
570.916145	49242.565461
571.271412	49257.159601
571.626625	49003.478657
571.981782	49026.889776
572.336884	48722.557839
572.691931	49030.224499
573.046923	48617.616139
573.401860	48461.670565
573.756743	48415.493596
574.111570	48530.517603
574.466342	48372.732009
574.821059	48463.210638
575.175722	47977.883634
575.530330	47994.249740
575.884882	47695.193370
576.239380	47634.470151
576.593823	47610.514588
576.948211	47524.081485
577.302544	47041.063329
577.656823	47038.245324
578.011047	47269.619162
578.365216	46984.708270
578.719330	46757.959691
579.073389	46597.955988
579.427394	46663.942172
579.781344	46621.230996
580.135239	46256.304389
580.489080	46338.223139
580.842866	45787.829963
581.196597	46244.513131
581.550273	46182.098605
581.903895	46048.855868
582.257463	46449.476364
582.610975	45813.469271
582.964434	46104.772346
583.317837	45715.423870
583.671186	45547.830710
584.024481	45756.421053
584.377721	45275.013546
584.730906	45548.942285
585.084037	45591.507267
585.437113	45298.278471
585.790135	45304.814327
586.143103	44896.995063
586.496016	45009.964801
586.848874	45020.165575
587.201679	45042.142486
587.554428	44496.987068
587.907124	44683.877764
588.259765	44435.371565
588.612352	44694.343199
588.964884	44051.885950
589.317362	44359.139236
589.669786	44262.848157
590.022155	44024.875448
590.374470	44441.466320
590.726731	43949.127070
591.078937	43456.485352
591.431090	43579.302983
591.783188	43216.039958
592.135232	42876.767783
592.487222	43137.367711
592.839157	43195.920713
593.191038	42850.599153
593.542866	42599.050618
593.894639	41993.550068
594.246358	42282.375415
594.598022	42242.827563
594.949633	41844.594054
595.301190	41790.938533
595.652692	41626.251598
596.004141	41946.813530
596.355535	40958.321399
596.706876	40877.872145
597.058162	40724.709288
597.409395	41178.607219
597.760573	41258.885073
598.111698	40839.783707
598.462768	40840.736485
598.813785	40886.726932
599.164748	40310.205455
599.515657	40705.323531
599.866511	40176.614878
600.217312	40797.521194
600.568060	39776.926995
600.918753	40517.704388
601.269392	40450.679727
601.619978	40104.662489
601.970510	40294.199791
602.320988	40483.021250
602.671412	40798.874744
603.021783	40546.398636
603.372100	40188.287669
603.722363	40280.487853
604.072572	40344.389519
604.422728	40387.219162
604.772830	40169.050626
605.122878	40286.610334
605.472872	40207.524713
605.822813	40475.782153
606.172701	40293.693155
606.522534	40563.558723
606.872314	40809.743472
607.222041	40567.916801
607.571714	40941.741044
607.921333	40386.228575
608.270899	40676.720024
608.620411	41027.415453
608.969870	40802.277523
609.319276	40834.545948
609.668627	40857.785668
610.017926	41351.266738
610.367171	41491.816628
610.716362	41569.233628
611.065500	41509.069977
611.414585	41690.669983
611.763616	41990.790036
612.112594	41922.374016
612.461518	42130.104843
612.810389	42442.101854
613.159207	42301.952736
613.507971	42366.262736
613.856682	42850.337013
614.205340	42752.647014
614.553945	43446.856748
614.902496	42886.235070
615.250994	43357.789642
615.599439	43428.796814
615.947830	43622.102379
616.296169	43691.735837
616.644454	43801.398578
616.992686	43972.449969
617.340864	44487.305532
617.688990	44186.497361
618.037063	44818.055635
618.385082	44769.610147
618.733048	45070.320015
619.080961	45070.708184
619.428821	45094.729282
619.776628	45203.598040
620.124382	45043.256581
620.472083	45158.104147
620.819731	45297.923070
621.167326	44966.704139
621.514868	44960.995032
621.862357	44509.723543
622.209793	44536.197162
622.557176	44200.489083
622.904506	43935.926809
623.251783	43593.556846
623.599007	43360.048079
623.946179	43158.215402
624.293297	43103.977628
624.640363	42508.009900
624.987376	42484.046775
625.334336	42244.365115
625.681243	41874.155380
626.028097	41840.230935
626.374899	41684.754189
626.721647	41674.810513
627.068343	41573.221180
627.414987	41314.841881
627.761577	41091.198653
628.108115	41418.551019
628.454600	40865.206246
628.801032	41064.102451
629.147412	41023.599300
629.493739	41007.291167
629.840014	40657.845944
630.186236	40998.017965
630.532405	40572.242111
630.878521	40805.680302
631.224585	40667.310711
631.570597	40374.770033
631.916556	40533.783148
632.262462	40488.014512
632.608316	40501.360967
632.954117	40389.492722
633.299866	40396.787272
633.645562	40311.803500
633.991206	39815.388478
634.336797	39376.137620
634.682336	39371.724090
635.027823	39135.210796
635.373257	38948.037794
635.718639	38694.145122
636.063968	38571.566946
636.409245	37976.594845
636.754470	38028.249028
637.099642	37783.190978
637.444762	37299.588048
637.789829	37449.852242
638.134845	37105.743080
638.479808	37048.223515
638.824719	36948.675850
639.169577	36553.376292
639.514383	36616.191589
639.859137	36291.662269
640.203839	36551.306898
640.548489	36183.111103
640.893086	36252.840343
641.237632	36004.278691
641.582125	36108.093693
641.926566	36041.721861
642.270955	36002.176530
642.615292	36019.311412
642.959576	35989.412328
643.303809	35973.691490
643.647990	36138.416233
643.992118	36084.314570
644.336195	36090.069047
644.680219	36168.625348
645.024192	36477.587585
645.368112	36988.226222
645.711981	36980.798082
646.055797	37861.684264
646.399562	37771.208155
646.743274	38741.688244
647.086935	39172.336373
647.430544	39068.816279
647.774101	39186.328096
648.117606	39438.297568
648.461059	39740.575235
648.804460	39336.579686
649.147810	38734.567614
649.491108	38470.638005
649.834354	38111.259188
650.177548	37246.643330
650.520690	36811.339696
650.863781	36845.513678
651.206820	36683.143153
651.549807	36244.068736
651.892742	35746.486686
652.235626	35554.897634
652.578458	35425.400474
652.921238	34811.123275
653.263967	35138.745343
653.606644	34810.667051
653.949269	34766.357829
654.291843	34328.382383
654.634365	34733.960854
654.976836	34338.217674
655.319255	34344.851833
655.661622	34333.110985
656.003938	34113.725011
656.346203	33982.811287
656.688416	34195.931107
657.030577	34007.492776
657.372687	33826.976619
657.714746	34088.244499
658.056753	34229.331272
658.398708	33667.550128
658.740612	33718.301945
659.082465	34000.843494
659.424266	33829.741692
659.766016	33942.366110
660.107715	33815.767613
660.449362	33934.842187
660.790958	33919.040691
661.132503	33908.872683
661.473996	33957.645847
661.815438	34077.663117
662.156829	34276.796256
662.498168	34029.875499
662.839456	34058.393307
663.180693	34194.325499
663.521879	34367.592478
663.863013	34328.160572
664.204097	34315.577852
664.545129	34766.796410
664.886110	34727.316613
665.227040	34789.685769
665.567918	34921.804329
665.908746	34980.904296
666.249522	35137.984129
666.590248	35148.661293
666.930922	35246.994040
667.271545	35210.513730
667.612118	35288.439886
667.952639	35067.125671
668.293109	35132.577492
668.633528	35021.576325
668.973896	34935.546514
669.314213	34975.013707
669.654480	34728.992797
669.994695	34752.585397
670.334859	34622.450531
670.674973	34522.267681
671.015035	34671.014487
671.355047	34614.210765
671.695008	34556.068617
672.034918	34462.870285
672.374777	34554.762958
672.714585	34375.459198
673.054342	34587.853092
673.394049	34351.019684
673.733705	34639.618180
674.073310	34300.489679
674.412864	34379.436669
674.752368	33983.988396
675.091820	34282.011329
675.431223	33850.798591
675.770574	33561.053233
676.109875	33428.284364
676.449125	33146.035201
676.788324	33065.938828
677.127473	32518.749305
677.466571	32440.124949
677.805619	32090.992277
678.144616	32080.836873
678.483562	32002.696468
678.822458	31676.314524
679.161303	31608.967229
679.500098	31522.208971
679.838842	31408.382238
680.177535	31544.929452
680.516179	31835.806549
680.854771	32087.544128
681.193314	32935.367903
681.531805	34064.505706
681.870247	34805.799817
682.208638	35514.961614
682.546978	35736.016210
682.885268	35834.293504
683.223508	35316.869473
683.561697	34978.219881
683.899836	34783.346518
684.237925	34277.771719
684.575963	34121.649705
684.913951	33671.013401
685.251889	33803.101714
685.589776	33802.814368
685.927614	33789.198212
686.265401	33926.388173
686.603137	34019.538613
686.940824	34518.338101
687.278460	34887.622785
687.616046	35005.812637
687.953582	35619.026153
688.291068	35464.383717
688.628504	35772.373011
688.965889	35684.523344
689.303224	35329.121998
689.640510	34973.634952
689.977745	34245.586472
690.314930	33443.617033
690.652065	32943.874850
690.989150	32211.460731
691.326185	31297.381071
691.663170	30601.845513
692.000105	29842.302425
692.336990	29166.843263
692.673825	28688.732670
693.010610	28189.978553
693.347345	27588.692407
693.684030	26910.773161
694.020665	26637.764433
694.357251	25940.187208
694.693786	25899.621043
695.030272	25663.780743
695.366707	25113.584171
695.703093	24817.446629
696.039429	24801.955164
696.375716	24538.539752
696.711952	24499.148176
697.048139	24327.350694
697.384276	24157.652852
697.720363	24287.772595
698.056400	24069.236055
698.392388	23852.214382
698.728326	23826.126411
699.064214	23623.492191
699.400053	23559.335946
699.735842	23190.799874
700.071581	22920.341970
700.407270	22619.203604
700.742910	22428.937855
701.078501	22160.851814
701.414042	21871.623174
701.749533	21567.818037
702.084974	21218.844162
702.420366	21424.326634
702.755709	20975.621092
703.091002	20678.379538
703.426246	20688.744150
703.761440	20586.948130
704.096584	20310.803805
704.431679	20269.068092
704.766725	20167.345169
705.101721	20099.019891
705.436668	20199.164933
705.771565	19852.754484
706.106413	20212.050122
706.441212	20201.602330
706.775961	20329.670323
707.110661	20392.142822
707.445311	20748.970815
707.779913	20574.544371
708.114465	20817.084365
708.448967	21099.164649
708.783421	21790.359774
709.117825	22045.046428
709.452180	22264.828133
709.786485	22665.617507
710.120742	23475.183965
710.454949	23485.382219
710.789107	23933.490385
711.123216	24653.364633
711.457275	24762.692137
711.791286	25299.222141
712.125247	25373.450611
712.459159	25079.165693
712.793023	25750.246614
713.126837	24638.606656
713.460602	24920.432361
713.794318	24551.293871
714.127985	24170.207846
714.461602	23255.742538
714.795171	23225.437642
715.128691	22205.239173
715.462162	21671.126403
715.795584	21246.376424
716.128957	20988.476034
716.462281	20583.240362
716.795556	20337.055614
717.128782	19823.120061
717.461960	19282.486558
717.795088	19198.226192
718.128167	18788.287123
718.461198	18320.735227
718.794180	18178.206685
719.127113	17823.067479
719.459997	17609.700642
719.792833	17247.405518
720.125619	17227.525728
720.458357	16890.759007
720.791046	16723.642236
721.123686	16556.424643
721.456278	16318.572922
721.788821	16283.541944
722.121315	16007.153123
722.453761	16098.120744
722.786158	16010.744945
723.118506	16018.906573
723.450805	15881.076385
723.783056	16033.329314
724.115259	15931.455156
724.447412	15857.839187
724.779518	16089.437356
725.111574	16120.790812
725.443582	16324.183726
725.775542	16305.717980
726.107453	16766.910460
726.439315	16651.773027
726.771129	17043.581586
727.102895	17406.174138
727.434612	17617.713556
727.766281	17727.426708
728.097901	18000.420312
728.429473	18041.001601
728.760996	18022.987037
729.092471	18120.581255
729.423897	18000.490888
729.755276	17872.732926
730.086606	17985.223754
730.417887	18513.740844
730.749120	19022.529378
731.080305	19188.441313
731.411442	19516.708648
731.742530	19587.940152
732.073570	19683.769966
732.404562	19987.933025
732.735506	19800.152564
733.066401	19510.974336
733.397249	18980.786103
733.728048	18345.197427
734.058798	17504.070825
734.389501	16826.207032
734.720156	16361.352153
735.050762	15833.601319
735.381320	15476.060003
735.711831	15222.900819
736.042293	14876.558426
736.372707	14884.460435
736.703073	14674.929916
737.033391	14853.086814
737.363661	14826.282999
737.693883	14918.972174
738.024056	15078.292800
738.354182	15259.466828
738.684260	15531.694177
739.014290	15745.686117
739.344272	15928.775783
739.674207	16202.018924
740.004093	16324.077862
740.333931	16312.337015
740.663722	16369.549070
740.993464	16354.397882
741.323159	16190.285639
741.652806	15907.658390
741.982405	15710.181270
742.311956	15364.239649
742.641460	15253.009110
742.970915	14950.134066
743.300323	14617.712820
743.629683	14407.209359
743.958996	14134.036794
744.288260	13859.014125
744.617477	13560.514803
744.946647	13491.483763
745.275768	13207.835680
745.604842	13028.824307
745.933869	12851.731093
746.262847	12803.799802
746.591778	12725.424983
746.920662	12627.024181
747.249498	12613.314763
747.578286	12737.382600
747.907027	12885.010270
748.235720	13097.323505
748.564365	13124.850726
748.892963	13022.555632
749.221514	13077.138725
749.550017	12930.960387
749.878473	12885.395918
750.206881	12659.287565
750.535242	12566.353894
750.863555	12484.462870
751.191821	12384.108621
751.520039	12396.283007
751.848210	12307.919142
752.176334	12337.883761
752.504411	12250.389494
752.832440	12083.403794
753.160421	12140.691466
753.488356	12023.925740
753.816243	11936.920466
754.144082	11785.645521
754.471875	11726.500184
754.799620	11672.655620
755.127318	11640.684622
755.454969	11602.419744
755.782572	11557.747559
756.110129	11571.416648
756.437638	11484.192083
756.765100	11476.990795
757.092515	11478.999695
757.419882	11496.794968
757.747203	11495.025523
758.074477	11561.921634
758.401703	11517.128462
758.728882	11674.306598
759.056014	11717.000129
759.383099	11822.531644
759.710138	11932.791761
760.037129	12018.093125
760.364073	12027.610824
760.690970	12011.627845
761.017820	12017.619257
761.344623	12216.013866
761.671379	12554.608006
761.998088	13209.025392
762.324751	14813.528879
762.651366	17715.680819
762.977935	21308.548974
763.304456	23418.959976
763.630931	23828.498274
763.957359	22644.628663
764.283740	20758.153277
764.610074	18894.088340
764.936362	16793.063966
765.262602	15289.764163
765.588796	13835.555116
765.914943	12819.198006
766.241044	11966.980866
766.567097	11339.571462
766.893104	10784.379106
767.219064	10424.717985
767.544978	10046.797805
767.870845	9738.967307
768.196665	9542.405157
768.522438	9352.842648
768.848165	9184.868882
769.173846	9016.511987
769.499479	8896.487155
769.825066	8742.772292
770.150607	8557.804796
770.476101	8491.127975
770.801548	8381.896253
771.126949	8243.009944
771.452303	8150.149370
771.777611	7986.531160
772.102872	7967.594065
772.428087	7851.518977
772.753256	7725.782518
773.078378	7639.586349
773.403453	7490.189234
773.728482	7385.071094
774.053465	7325.192269
774.378401	7232.006540
774.703291	7135.375183
775.028135	7035.794750
775.352932	7002.893660
775.677683	6920.959786
776.002388	6832.321178
776.327046	6831.938050
776.651658	6744.353043
776.976224	6665.174161
777.300743	6652.445247
777.625216	6587.437048
777.949643	6545.650923
778.274024	6545.298043
778.598359	6479.112734
778.922647	6483.254042
779.246889	6441.719975
779.571086	6446.136026
779.895236	6456.114990
780.219339	6451.799762
780.543397	6444.600995
780.867409	6499.867164
781.191374	6494.389951
781.515294	6462.824766
781.839167	6509.331931
782.162995	6485.227653
782.486776	6433.069355
782.810511	6394.713736
783.134201	6317.405121
783.457844	6310.672660
783.781441	6262.590135
784.104993	6211.455191
784.428498	6186.723290
784.751958	6171.970353
785.075372	6152.014946
785.398739	6109.079439
785.722061	6131.484847
786.045337	6131.966277
786.368568	6241.923925
786.691752	6264.417553
787.014891	6515.719072
787.337983	6796.647453
787.661030	7228.548309
787.984031	7650.787793
788.306987	7895.825679
788.629897	7977.646126
788.952760	7892.185966
789.275579	7714.031589
789.598351	7415.807009
789.921078	7154.922257
790.243759	6875.496140
790.566395	6679.349885
790.888984	6486.941646
791.211529	6349.756726
791.534027	6187.207241
791.856480	6057.072375
792.178888	5995.887891
792.501249	5929.521100
792.823566	5823.041849
793.145836	5815.616229
793.468062	5799.202232
793.790241	5759.813177
794.112375	5798.945133
794.434464	5894.989197
794.756507	5924.938692
795.078505	6046.896806
795.400457	6259.046204
795.722364	6492.857440
796.044226	6683.503796
796.366042	6837.054822
796.687812	6779.689011
797.009538	6810.119937
797.331218	6723.296144
797.652852	6659.394478
797.974442	6536.801178
798.295986	6465.751156
798.617484	6338.363718
798.938938	6229.943623
799.260346	6166.283932
799.581709	6028.965422
799.903026	5974.740250
800.224299	5904.769035
800.545526	5791.993382
800.866708	5725.069544
801.187845	5675.880486
801.508936	5597.485502
801.829983	5567.619186
802.150984	5464.320903
802.471940	5432.927117
802.792851	5414.882307
803.113717	5394.967229
803.434538	5371.934197
803.755314	5334.785934
804.076045	5325.502649
804.396731	5290.086023
804.717372	5308.836595
805.037967	5306.215195
805.358518	5332.207384
805.679024	5384.058172
805.999485	5391.844234
806.319901	5413.803500
806.640272	5426.053504
806.960598	5475.504703
807.280879	5465.457683
807.601115	5500.153424
807.921306	5463.584894
808.241453	5462.715295
808.561554	5470.292150
808.881611	5437.615390
809.201623	5434.255461
809.521590	5392.108895
809.841513	5376.446030
810.161390	5393.941354
810.481223	5301.655471
810.801011	5292.921672
811.120755	5271.153970
811.440453	5218.899890
811.760107	5193.651271
812.079716	5163.961395
812.399281	5114.807624
812.718801	5107.795379
813.038276	5074.400256
813.357707	5040.715266
813.677093	5062.485489
813.996434	5000.343185
814.315731	5017.931771
814.634983	5024.371845
814.954191	5024.001320
815.273354	5089.443059
815.592473	5127.062669
815.911547	5202.296849
816.230577	5254.669397
816.549562	5341.490669
816.868502	5394.049739
817.187399	5447.299447
817.506250	5531.219535
817.825058	5560.259102
818.143821	5716.885231
818.462539	5886.207507
818.781213	6119.880111
819.099843	6487.039948
819.418429	7112.737881
819.736970	7729.994402
820.055466	8436.557484
820.373919	9366.184062
820.692327	10872.634587
821.010691	13690.410214
821.329011	20063.421783
821.647286	29540.856549
821.965517	39532.264675
822.283704	44500.233571
822.601847	45699.448453
822.919945	41133.693059
823.237999	36208.624383
823.556010	31171.619406
823.873976	26609.163447
824.191897	22511.330473
824.509775	19516.615387
824.827609	16815.976010
825.145398	15302.840916
825.463144	14604.494915
825.780845	14947.926041
826.098502	16235.764408
826.416116	18632.631416
826.733685	20747.841597
827.051210	21110.378696
827.368692	19611.696590
827.686129	17106.006194
828.003522	14718.805599
828.320872	12568.196436
828.638177	10972.497324
828.955439	9759.429350
829.272656	8720.792862
829.589830	7889.592292
829.906960	7171.671490
830.224046	6646.322766
830.541088	6245.183031
830.858086	5988.575697
831.175041	5791.680831
831.491952	5737.193519
831.808819	5781.482577
832.125642	6038.306680
832.442421	6602.595797
832.759157	7737.989672
833.075849	9493.805913
833.392497	11275.611822
833.709101	12300.695169
834.025662	11984.763537
834.342179	10927.923441
834.658653	9658.392024
834.975083	8590.589940
835.291469	7721.832774
835.607811	6996.020046
835.924110	6485.600699
836.240366	6005.229149
836.556578	5557.854471
836.872746	5206.465884
837.188871	4940.038382
837.504952	4724.604673
837.820990	4561.077204
838.136984	4449.392961
838.452935	4406.505344
838.768842	4443.129327
839.084706	4744.998661
839.400526	5497.768959
839.716303	6374.957454
840.032037	6892.714201
840.347727	6718.015535
840.663373	6120.961438
840.978977	5558.570315
841.294537	5133.240603
841.610054	4804.126354
841.925527	4573.309563
842.240957	4372.931260
842.556344	4186.806819
842.871687	4030.583982
843.186987	3877.519427
843.502244	3762.681943
843.817458	3671.832789
844.132629	3604.036831
844.447756	3558.477403
844.762840	3514.374869
845.077881	3468.823003
845.392879	3438.387036
845.707833	3410.567429
846.022745	3386.760580
846.337613	3375.264228
846.652438	3351.028881
846.967221	3339.590503
847.281960	3321.273471
847.596656	3310.699651
847.911309	3298.142136
848.225919	3288.508491
848.540485	3278.605145
848.855009	3269.447889
849.169490	3257.641506
849.483928	3250.278901
849.798323	3245.484764
850.112675	3233.287692
850.426984	3235.747775
850.741251	3227.450036
851.055474	3225.501630
851.369654	3227.172772
851.683792	3224.571537
851.997887	3226.877865
852.311938	3226.756877
852.625947	3224.947103
852.939914	3220.352091
853.253837	3222.882751
853.567718	3222.252606
853.881555	3216.488047
854.195350	3222.038357
854.509103	3218.282698
854.822812	3216.104919
855.136479	3209.916903
855.450103	3216.712378
855.763685	3210.237016
856.077224	3211.703992
856.390720	3217.264385
856.704173	3231.311560
857.017584	3234.696695
857.330953	3237.996130
857.644278	3247.690269
857.957561	3251.894591
858.270802	3242.258425
858.584000	3246.150196
858.897155	3239.939495
859.210268	3232.395408
859.523339	3221.723285
859.836367	3214.721122
860.149352	3214.428736
860.462295	3206.539330
860.775195	3200.908361
861.088054	3195.070705
861.400869	3195.569779
861.713642	3196.661189
862.026373	3202.395501
862.339062	3203.368444
862.651708	3211.608210
862.964312	3232.385326
863.276873	3238.661562
863.589392	3269.896551
863.901869	3293.572330
864.214303	3314.132676
864.526696	3332.434585
864.839045	3351.008717
865.151353	3362.134543
865.463619	3364.871890
865.775842	3363.626725
866.088023	3369.534957
866.400162	3362.013556
866.712258	3366.293495
867.024313	3363.790562
867.336325	3362.515150
867.648296	3364.032538
867.960224	3358.457022
868.272110	3363.120089
868.583954	3365.441540
868.895755	3370.943960
869.207515	3369.749206
869.519233	3388.719068
869.830909	3393.654358
870.142542	3404.341604
870.454134	3414.350815
870.765684	3423.561003
871.077191	3444.731328
871.388657	3456.056281
871.700081	3477.329950
872.011463	3495.828464
872.322803	3512.865043
872.634101	3527.527239
872.945357	3550.293090
873.256571	3580.066145
873.567744	3592.144749
873.878874	3598.181531
874.189963	3611.222996
874.501010	3615.190384
874.812015	3608.599075
875.122979	3626.626242
875.433900	3626.749750
875.744780	3624.216570
876.055618	3636.985813
876.366415	3633.782159
876.677169	3640.958242
876.987882	3659.439112
877.298554	3680.906866
877.609183	3716.935992
877.919771	3769.427007
878.230317	3841.712112
878.540822	3944.541568
878.851285	4097.898509
879.161707	4327.054239
879.472087	4715.644022
879.782425	5357.692937
880.092722	6564.724129
880.402977	8498.064602
880.713191	10815.041924
881.023363	13091.647166
881.333494	14299.694150
881.643583	14701.862281
881.953631	14274.241364
882.263637	13477.877688
882.573602	12480.626552
882.883526	11574.816906
883.193408	10645.313836
883.503248	9759.371377
883.813048	8955.514026
884.122806	8201.982513
884.432522	7450.021321
884.742197	6807.281767
885.051831	6255.272900
885.361424	5763.775524
885.670975	5378.906113
885.980485	5055.430394
886.289954	4793.086227
886.599382	4577.372733
886.908768	4401.000404
887.218113	4234.869179
887.527417	4105.457719
887.836680	3984.946416
888.145901	3886.288514
888.455082	3810.214982
888.764221	3741.584714
889.073319	3679.712112
889.382376	3649.208090
889.691392	3622.978967
890.000366	3616.876650
890.309300	3612.652163
890.618193	3614.361114
890.927044	3607.726956
891.235855	3619.021661
891.544625	3634.248466
891.853353	3664.674350
892.162041	3721.697362
892.470687	3816.849141
892.779293	3938.938325
893.087858	4115.724029
893.396381	4398.754570
893.704864	4819.829548
894.013306	5380.095825
894.321707	5929.508498
894.630068	6245.367033
894.938387	6265.544251
895.246665	6088.708136
895.554903	5778.896465
895.863100	5452.481753
896.171256	5192.063307
896.479371	4955.809632
896.787446	4738.455243
897.095480	4544.854771
897.403473	4403.077360
897.711425	4259.724588
898.019336	4137.811844
898.327207	4017.880274
898.635038	3916.752207
898.942827	3811.467709
899.250576	3730.025348
899.558284	3644.925630
899.865952	3592.361519
900.173579	3528.832898
900.481165	3482.928151
900.788711	3443.350052
901.096216	3410.292686
901.403681	3381.479971
901.711105	3373.217520
902.018489	3370.354145
902.325832	3403.784556
902.633135	3467.537508
902.940397	3649.230775
903.247619	4070.784663
903.554800	4825.571422
903.861941	5763.268888
904.169041	6418.830616
904.476101	6588.064671
904.783121	6315.149205
905.090100	5923.600265
905.397039	5527.093351
905.703938	5179.604095
906.010796	4868.302763
906.317614	4618.894197
906.624391	4386.955750
906.931129	4196.231256
907.237826	4016.766179
907.544483	3846.052545
907.851099	3676.339580
908.157675	3517.510467
908.464211	3375.975031
908.770707	3276.747479
909.077163	3200.772250
909.383578	3142.761172
909.689954	3097.521857
909.996289	3066.160839
910.302584	3046.568395
910.608839	3035.550953
910.915054	3021.776000
911.221229	3017.312058
911.527363	3022.781710
911.833458	3029.771270
912.139513	3044.080585
912.445527	3057.182544
912.751502	3092.488265
913.057436	3137.135244
913.363331	3194.173379
913.669186	3285.163686
913.975000	3405.281779
914.280775	3600.011470
914.586510	3868.578941
914.892205	4249.657404
915.197859	4738.795521
915.503475	5305.416172
915.809050	5767.294249
916.114585	6029.840062
916.420081	6078.091466
916.725536	6013.554614
917.030952	5785.825531
917.336328	5585.003605
917.641665	5383.148244
917.946961	5167.044061
918.252218	4966.630469
918.557435	4749.830607
918.862612	4556.068817
919.167750	4385.440883
919.472848	4198.247717
919.777906	4034.198489
920.082925	3882.507649
920.387904	3729.463259
920.692843	3622.550469
920.997743	3525.798123
921.302603	3432.065429
921.607423	3367.795759
921.912204	3302.613640
922.216946	3255.085641
922.521647	3207.703836
922.826310	3166.318484
923.130932	3126.889099
923.435516	3085.115578
923.740059	3059.771177
924.044564	3025.526619
924.349028	3004.431910
924.653454	2975.399905
924.957840	2949.821091
925.262186	2928.307967
925.566493	2909.776685
925.870761	2882.405740
926.174989	2871.496683
926.479178	2858.097297
926.783328	2840.309585
927.087438	2831.391784
927.391509	2816.399392
927.695541	2805.318936
927.999533	2796.691002
928.303486	2782.716923
928.607400	2777.511932
928.911275	2774.898093
929.215110	2765.188831
929.518906	2764.374685
929.822663	2763.752102
930.126381	2763.588265
930.430060	2768.266456
930.733699	2769.015067
931.037299	2770.522372
931.340861	2770.172012
931.644383	2772.153185
931.947866	2771.442382
932.251309	2768.573966
932.554714	2770.209820
932.858080	2768.034562
933.161407	2764.883841
933.464694	2759.121802
933.767943	2756.349168
934.071153	2755.955958
934.374323	2746.002200
934.677455	2747.421284
934.980548	2741.331571
935.283602	2742.977507
935.586617	2739.761251
935.889593	2741.772672
936.192530	2746.854155
936.495428	2751.426481
936.798287	2758.854621
937.101108	2773.209307
937.403890	2789.845115
937.706632	2818.027685
938.009336	2849.416430
938.312002	2878.506408
938.614628	2898.872669
938.917216	2920.284970
939.219765	2930.188317
939.522275	2940.061417
939.824747	2940.772220
940.127179	2935.683175
940.429573	2928.330652
940.731929	2928.991043
941.034246	2922.661874
941.336524	2918.954106
941.638763	2914.250709
941.940964	2907.152765
942.243126	2887.610732
942.545250	2880.598487
942.847335	2864.706249
943.149381	2852.909949
943.451389	2837.577280
943.753359	2827.179900
944.055290	2819.119095
944.357182	2811.028043
944.659036	2802.180818
944.960851	2799.708132
945.262628	2796.958183
945.564367	2796.837195
945.866067	2795.415590
946.167729	2794.425003
946.469352	2793.439457
946.770937	2790.661782
947.072484	2784.738426
947.373992	2782.812705
947.675462	2781.759104
947.976893	2772.770727
948.278286	2768.878956
948.579641	2768.871394
948.880958	2765.967689
949.182236	2765.009870
949.483476	2763.631115
949.784678	2760.437544
950.085841	2762.668254
950.386967	2767.134717
950.688054	2772.468257
950.989103	2779.699792
951.290114	2788.862090
951.591087	2799.133441
951.892021	2812.837817
952.192917	2820.207984
952.493776	2829.168635
952.794596	2837.557115
953.095378	2835.064265
953.396122	2833.612412
953.696828	2833.347752
953.997496	2828.651917
954.298126	2815.887715
954.598718	2810.347487
954.899272	2798.722587
955.199788	2788.788993
955.500266	2777.522014
955.800706	2761.092894
956.101108	2748.973960
956.401472	2736.161867
956.701798	2722.245762
957.002087	2707.603731
957.302337	2700.659541
957.602550	2693.233922
957.902724	2682.100533
958.202861	2671.007474
958.502960	2660.698315
958.803022	2658.124806
959.103045	2648.980153
959.403031	2644.188536
959.702979	2635.822741
960.002889	2634.741414
960.302762	2630.216978
960.602596	2624.545680
960.902393	2623.618108
961.202153	2620.772376
961.501875	2616.807509
961.801559	2613.876078
962.101205	2611.471447
962.400814	2606.384923
962.700385	2609.880963
962.999918	2605.628750
963.299414	2603.211517
963.598873	2604.297886
963.898293	2601.792432
964.197677	2598.150198
964.497022	2598.593820
964.796331	2598.578697
965.095601	2595.967379
965.394835	2597.842688
965.694030	2593.726586
965.993189	2595.276741
966.292309	2593.542584
966.591393	2593.358582
966.890439	2593.580392
967.189447	2593.416555
967.488419	2593.650969
967.787353	2593.197265
968.086249	2594.147522
968.385108	2595.017121
968.683930	2593.497213
968.982714	2598.545929
969.281462	2597.552822
969.580172	2597.656165
969.878844	2602.362082
970.177480	2604.938112
970.476078	2608.252671
970.774639	2609.956581
971.073162	2612.111674
971.371649	2613.427415
971.670098	2613.379524
971.968510	2616.787344
972.266885	2615.650564
972.565223	2619.267592
972.863524	2619.181892
973.161788	2621.692387
973.460014	2624.517954
973.758204	2627.777060
974.056356	2625.175824
974.354471	2626.335290
974.652550	2623.355968
974.950591	2623.648355
975.248595	2623.207254
975.546563	2624.225567
975.844493	2620.074177
976.142386	2619.791872
976.440243	2620.603498
976.738062	2616.893208
977.035845	2611.226952
977.333590	2608.547578
977.631299	2608.247630
977.928971	2606.178236
978.226606	2604.532299
978.524204	2603.798811
978.821765	2603.433328
979.119290	2602.793101
979.416777	2603.826538
979.714228	2603.521548
980.011642	2600.834613
980.309020	2609.497836
980.606360	2611.514297
980.903664	2620.691718
981.200931	2634.033132
981.498162	2652.332520
981.795356	2682.420647
982.092513	2715.485575
982.389633	2757.475866
982.686717	2798.140333
982.983764	2830.605364
983.280775	2847.823425
983.577749	2846.512725
983.874686	2838.948474
984.171587	2817.858807
984.468451	2805.606282
984.765279	2789.782100
985.062070	2773.025305
985.358824	2752.860689
985.655543	2731.408059
985.952224	2712.586911
986.248869	2682.168589
986.545478	2658.742347
986.842050	2639.618730
987.138586	2622.753550
987.435086	2607.728391
987.731549	2598.568614
988.027975	2594.202975
988.324366	2586.338775
988.620719	2584.934814
988.917037	2582.033630
989.213318	2575.969122
989.509563	2576.599266
989.805772	2573.277145
990.101944	2572.059707
990.398080	2571.537947
990.694180	2571.850499
990.990244	2569.594582
991.286271	2567.878070
991.582262	2570.834706
991.878217	2570.685992
992.174136	2572.936868
992.470019	2571.628688
992.765865	2574.734039
993.061676	2577.796540
993.357450	2581.784092
993.653188	2583.460276
993.948890	2589.945721
994.244556	2595.347317
994.540186	2604.726384
994.835780	2614.624689
995.131337	2633.642442
995.426859	2644.649802
995.722345	2660.589930
996.017795	2679.935358
996.313208	2694.526978
996.608586	2702.449151
996.903928	2707.669266
997.199234	2707.255891
997.494504	2700.959490
997.789738	2694.355578
998.084936	2683.232272
998.380099	2673.946467
998.675225	2660.753767
998.970316	2651.301604
999.265371	2637.062865
999.560390	2626.163890
999.855373	2616.285749
1000.150320	2602.445262
1000.445232	2598.099787
1000.740108	2588.745926
1001.034948	2583.911459
1001.329752	2579.026581
1001.624521	2575.079358
1001.919254	2566.665672
1002.213951	2566.985785
1002.508613	2562.302553
1002.803239	2561.440516
1003.097829	2560.333983
1003.392384	2559.103941
1003.686903	2560.805331
1003.981386	2558.332645
1004.275834	2557.105124
1004.570246	2560.611246
1004.864623	2556.089331
1005.158964	2553.170503
1005.453270	2554.866852
1005.747540	2554.208981
1006.041775	2551.496840
1006.335974	2551.222097
1006.630138	2554.035061
1006.924266	2548.111705
1007.218359	2550.803682
1007.512416	2551.320400
1007.806438	2549.152704
1008.100425	2552.129505
1008.394376	2546.357384
1008.688292	2549.379556
1008.982172	2551.108671
1009.276017	2550.256716
1009.569827	2546.501057
1009.863602	2549.253527
1010.157341	2547.602549
1010.451045	2549.225800
1010.744714	2548.048691
1011.038347	2546.642209
1011.331945	2546.659853
1011.625508	2545.558361
1011.919036	2545.502908
1012.212528	2548.459545
1012.505986	2545.636499
1012.799408	2544.562733
1013.092795	2542.694986
1013.386147	2546.692621
1013.679464	2545.041643
1013.972745	2543.945192
1014.265992	2542.836138
1014.559204	2545.011396
1014.852380	2541.359080
1015.145521	2544.421581
1015.438628	2547.005172
1015.731699	2546.763197
1016.024736	2547.310162
1016.317737	2546.422919
1016.610703	2546.985007
1016.903635	2542.447969
1017.196531	2541.764893
1017.489393	2546.349822
1017.782219	2542.016950
1018.075011	2542.395037
1018.367768	2549.160265
1018.660490	2548.116747
1018.953177	2548.116747
1019.245829	2548.116747
