Dividing Wavelength (nm)	Counts (n)	Blue Motor Position (mm): 19.000000	Red Motor Position (mm): 0.000000	
326.493990	2182.610408
326.888308	2182.610408
327.282561	2182.610408
327.676750	2141.716568
328.070874	2137.411422
328.464933	2141.474592
328.858929	2142.412247
329.252859	2148.199491
329.646726	2154.808444
330.040528	2170.761175
330.434265	2182.912877
330.827938	2201.834848
331.221547	2214.694831
331.615091	2233.074878
332.008571	2252.006931
332.401986	2272.897473
332.795338	2292.489917
333.188625	2310.590180
333.581847	2327.815803
333.975006	2346.432784
334.368100	2365.604292
334.761129	2384.435522
335.154095	2400.610064
335.546996	2424.915988
335.939833	2454.068980
336.332606	2467.281845
336.725315	2480.918166
337.117960	2490.755978
337.510540	2507.595952
337.903056	2515.011489
338.295508	2526.671678
338.687896	2534.084695
339.080220	2542.248843
339.472480	2546.803526
339.864676	2554.695452
340.256807	2557.974723
340.648875	2563.635939
341.040879	2564.729869
341.432818	2567.162226
341.824694	2571.452248
342.216506	2572.989800
342.608253	2573.032649
342.999937	2572.631878
343.391557	2573.486353
343.783113	2572.773030
344.174605	2573.410736
344.566033	2568.588872
344.957397	2570.370920
345.348697	2568.225909
345.739934	2567.734397
346.131106	2567.429407
346.522215	2564.364385
346.913260	2562.713407
347.304241	2558.423386
347.695159	2558.551935
348.086012	2557.193344
348.476802	2553.760318
348.867528	2549.031716
349.258191	2546.170861
349.648789	2546.985007
350.039324	2542.629451
350.429796	2546.067518
350.820203	2546.697662
351.210548	2546.763197
351.600828	2543.519214
351.991045	2543.320089
352.381198	2539.745911
352.771288	2540.754141
353.161314	2539.045190
353.551276	2537.956301
353.941175	2537.704243
354.331010	2537.386651
354.720782	2540.552495
355.110490	2538.044521
355.500135	2535.448327
355.889717	2538.208359
356.279235	2535.574356
356.668689	2536.476722
357.058080	2535.826413
357.447408	2537.064017
357.836672	2539.267001
358.225873	2539.284645
358.615010	2538.709953
359.004084	2538.173071
359.393095	2541.225489
359.782043	2539.566950
360.170927	2542.069883
360.559748	2538.669624
360.948505	2539.829090
361.337199	2544.842517
361.725830	2541.285983
362.114398	2542.137938
362.502903	2543.741025
362.891344	2543.806560
363.279722	2544.033412
363.668037	2545.865871
364.056289	2546.238917
364.444478	2546.024668
364.832603	2545.112219
365.220665	2548.666232
365.608665	2546.496016
365.996601	2549.591284
366.384474	2550.725544
366.772284	2550.077755
367.160031	2551.627910
367.547715	2547.491643
367.935336	2549.553475
368.322893	2546.095244
368.710388	2547.743701
369.097820	2549.014072
369.485189	2548.540203
369.872495	2554.403065
370.259738	2550.773435
370.646918	2555.481872
371.034035	2554.269475
371.421090	2554.952551
371.808081	2552.694114
372.195010	2553.402396
372.581875	2553.054557
372.968678	2552.931048
373.355418	2554.455998
373.742096	2553.064639
374.128710	2554.531615
374.515262	2557.203426
374.901751	2556.537994
375.288177	2554.607232
375.674540	2554.982798
376.060841	2558.937583
376.447079	2554.251831
376.833254	2560.202913
377.219367	2555.507078
377.605417	2556.943807
377.991404	2557.397511
378.377329	2557.654610
378.763191	2558.556976
379.148991	2559.933211
379.534727	2556.704352
379.920402	2557.276523
380.306013	2558.365412
380.691563	2559.660989
381.077049	2558.574620
381.462474	2560.195351
381.847835	2557.699980
382.233134	2558.335165
382.618371	2559.189641
383.003545	2559.852553
383.388657	2559.691236
383.773706	2560.059240
384.158693	2558.998077
384.543618	2560.684343
384.928480	2563.071329
385.313280	2561.553942
385.698017	2561.594271
386.082692	2559.247614
386.467305	2558.846843
386.851856	2561.087635
387.236344	2559.615618
387.620770	2561.974878
388.005133	2559.048489
388.389435	2562.247101
388.773674	2559.993705
389.157851	2564.634087
389.541965	2564.931515
389.926018	2563.497307
390.310008	2564.379509
390.693936	2566.337997
391.077802	2564.165260
391.461606	2566.471588
391.845348	2565.972513
392.229027	2567.109294
392.612645	2565.854046
392.996200	2563.991340
393.379694	2564.709704
393.763125	2563.940928
394.146494	2565.798594
394.529801	2567.996537
394.913047	2566.133830
395.296230	2568.404870
395.679351	2568.004098
396.062410	2569.846640
396.445408	2565.526371
396.828343	2565.226423
397.211217	2568.805642
397.594028	2569.758420
397.976778	2569.584500
398.359466	2568.835889
398.742092	2571.565674
399.124656	2568.462843
399.507158	2571.106929
399.889598	2570.176836
400.271977	2571.041394
400.654294	2569.521486
401.036549	2569.811352
401.418742	2571.769840
401.800874	2571.971487
402.182944	2570.028122
402.564952	2568.127607
402.946898	2571.633729
403.328783	2571.759758
403.710606	2572.142886
404.092367	2570.174315
404.474067	2571.137176
404.855705	2573.075499
405.237282	2572.843606
405.618797	2575.694379
406.000250	2573.824111
406.381642	2574.388720
406.762972	2569.934860
407.144240	2571.479974
407.525447	2571.807649
407.906593	2570.285221
408.287677	2575.044070
408.668700	2572.352094
409.049661	2574.635736
409.430560	2574.383679
409.811399	2574.237485
410.192176	2572.152968
410.572891	2575.142372
410.953545	2574.781930
411.334138	2574.280335
411.714669	2576.934502
412.095139	2579.853331
412.475547	2573.209090
412.855894	2579.540779
413.236180	2575.233113
413.616405	2574.913000
413.996568	2575.349060
414.376670	2578.139338
414.756711	2577.610017
415.136691	2578.688824
415.516609	2578.555233
415.896466	2577.506673
416.276262	2576.596745
416.655997	2577.743608
417.035670	2577.249575
417.415283	2579.795357
417.794834	2579.210583
418.174324	2578.187229
418.553753	2576.309399
418.933121	2582.126891
419.312428	2579.034143
419.691674	2579.049267
420.070859	2579.046746
420.449983	2576.795871
420.829045	2581.375759
421.208047	2579.361818
421.586988	2580.579257
421.965867	2581.131263
422.344686	2580.281829
422.723444	2580.866603
423.102141	2581.695872
423.480777	2579.444997
423.859352	2578.527507
424.237866	2580.569174
424.616319	2580.002045
424.994712	2581.922724
425.373044	2580.869123
425.751314	2578.502301
426.129524	2576.513566
426.507673	2576.821077
426.885762	2574.812177
427.263789	2583.351891
427.641756	2581.282498
428.019662	2583.785431
428.397508	2582.356263
428.775292	2582.406675
429.153016	2581.905080
429.530679	2581.874833
429.908282	2580.977508
430.285824	2586.779876
430.663305	2584.279464
431.040726	2581.978177
431.418086	2581.736202
431.795385	2586.621080
432.172624	2583.036819
432.549802	2587.087386
432.926920	2585.348188
433.303977	2585.675863
433.680974	2583.583784
434.057910	2584.294587
434.434786	2584.206367
434.811601	2584.266861
435.188355	2587.185689
435.565050	2587.057139
435.941683	2586.081676
436.318257	2587.316759
436.694770	2584.975143
437.071222	2585.743919
437.447614	2585.970771
437.823946	2588.206522
438.200218	2585.882551
438.576429	2587.639393
438.952580	2586.873137
439.328670	2589.073601
439.704700	2591.039651
440.080670	2587.742736
440.456580	2589.786924
440.832429	2587.682242
441.208218	2589.124012
441.583947	2586.361460
441.959616	2588.677870
442.335224	2588.783735
442.710773	2590.475042
443.086261	2586.432036
443.461689	2588.382963
443.837057	2590.717017
444.212365	2589.060998
444.587612	2585.713672
444.962800	2586.051429
445.337927	2586.631162
445.712995	2585.950606
446.088002	2590.800196
446.462949	2591.553849
446.837837	2591.072418
447.212664	2589.870103
447.587431	2591.092583
447.962139	2590.364136
448.336786	2591.906729
448.711374	2593.832450
449.085901	2594.676843
449.460369	2592.141143
449.834776	2594.855804
450.209124	2593.020824
450.583412	2593.383787
450.957640	2593.537543
451.331808	2593.303129
451.705917	2593.580392
452.079965	2591.299270
452.453954	2593.121647
452.827883	2591.034610
453.201752	2593.328335
453.575562	2594.187852
453.949311	2595.407811
454.323001	2596.068202
454.696632	2594.099631
455.070202	2595.049889
455.443713	2593.424117
455.817164	2596.579879
456.190556	2597.043665
456.563888	2598.734972
456.937160	2597.467122
457.310373	2596.524426
457.683526	2595.561566
458.056619	2595.700198
458.429653	2596.418562
458.802628	2598.167843
459.175542	2598.384612
459.548398	2598.523244
459.921194	2598.256063
460.293930	2600.383430
460.666607	2597.802359
461.039224	2601.487442
461.411782	2601.328646
461.784280	2603.808894
462.156719	2601.021136
462.529099	2606.616816
462.901419	2600.254880
463.273680	2599.758327
463.645882	2598.707246
464.018024	2600.474170
464.390106	2598.243460
464.762130	2604.807042
465.134094	2601.880652
465.505999	2605.308637
465.877845	2605.815273
466.249631	2612.509925
466.621358	2611.791561
466.993026	2609.482712
467.364634	2610.871550
467.736184	2608.441714
468.107674	2606.057248
468.479105	2608.093874
468.850477	2606.876436
469.221790	2607.350304
469.593043	2606.838627
469.964238	2608.804677
470.335373	2606.662187
470.706449	2609.447424
471.077467	2608.600510
471.448425	2609.570932
471.819324	2614.332302
472.190164	2616.865482
472.560945	2614.163424
472.931667	2611.690738
473.302330	2609.780140
473.672934	2609.656632
474.043479	2611.816767
474.413965	2612.615789
474.784393	2613.515635
475.154761	2612.509925
475.525070	2611.378186
475.895321	2612.267950
476.265513	2614.178547
476.635645	2615.244751
477.005719	2615.247272
477.375734	2614.032354
477.745691	2618.531583
478.115588	2618.942437
478.485427	2620.429578
478.855207	2623.353447
479.224928	2623.479476
479.594591	2625.926956
479.964194	2627.187245
480.333739	2628.208078
480.703226	2626.738582
481.072653	2628.896196
481.442022	2632.982051
481.811333	2631.063892
482.180584	2628.951648
482.549777	2629.947276
482.918912	2628.253449
483.287988	2635.951291
483.657005	2636.299130
484.025964	2634.691002
484.394864	2635.474902
484.763706	2637.637557
485.132489	2638.610499
485.501213	2637.950108
485.869879	2639.149903
486.238487	2641.393216
486.607036	2639.800212
486.975527	2641.829276
487.343959	2641.665438
487.712333	2643.351704
488.080648	2644.107877
488.448905	2647.366983
488.817104	2649.499392
489.185244	2653.834784
489.553326	2655.165648
489.921350	2660.297543
490.289315	2670.339522
490.657222	2675.678103
491.025070	2679.491736
491.392861	2682.234124
491.760593	2683.350740
492.128267	2681.162879
492.495883	2681.780420
492.863440	2682.405523
493.230939	2680.076510
493.598380	2691.139322
493.965763	2692.646627
494.333088	2693.675023
494.700354	2697.995292
495.067563	2701.869418
495.434713	2707.931406
495.801805	2714.260574
496.168839	2716.909701
496.535815	2722.802810
496.902733	2731.647514
497.269593	2737.333936
497.636395	2748.931110
498.003139	2758.504261
498.369825	2761.851587
498.736453	2770.154368
499.103023	2786.701955
499.469535	2798.276444
499.835989	2809.384627
500.202385	2817.488282
500.568723	2827.134530
500.935003	2850.704444
501.301226	2855.806092
501.667390	2891.568038
502.033497	2913.708785
502.399546	2929.875766
502.765537	2940.489915
503.131470	2966.706436
503.497345	2990.513285
503.863163	3004.298320
504.228923	3036.491128
504.594625	3067.779050
504.960269	3078.748600
505.325856	3123.577061
505.691385	3143.587921
506.056856	3187.075435
506.422270	3224.889130
506.787625	3247.445773
507.152924	3301.091211
507.518164	3335.809638
507.883347	3362.963813
508.248472	3396.482445
508.613540	3467.121613
508.978550	3514.095085
509.343503	3568.108528
509.708398	3627.793269
510.073236	3684.765869
510.438016	3749.509408
510.802738	3794.912560
511.167403	3858.383207
511.532010	3904.789549
511.896561	4013.007999
512.261053	4091.360132
512.625488	4135.883603
512.989866	4195.069270
513.354186	4249.128083
513.718449	4344.496632
514.082655	4431.711114
514.446803	4502.511599
514.810894	4614.339515
515.174927	4652.440555
515.538904	4738.392228
515.902822	4862.313872
516.266684	4938.216005
516.630488	5001.711858
516.994235	5095.303400
517.357925	5214.544333
517.721558	5336.625955
518.085133	5447.216268
518.448651	5523.662845
518.812112	5604.235607
519.175516	5708.521957
519.538863	5856.104256
519.902152	5925.836017
520.265385	6084.738227
520.628560	6159.173384
520.991678	6277.431292
521.354739	6401.307565
521.717743	6540.206477
522.080690	6611.992508
522.443580	6808.612632
522.806413	6903.134266
523.169189	7073.779844
523.531908	7173.929927
523.894569	7257.935715
524.257174	7396.302785
524.619722	7563.328815
524.982213	7620.548432
525.344647	7796.968652
525.707025	7933.697347
526.069345	8080.505829
526.431608	8212.866365
526.793815	8409.466323
527.155964	8378.924493
527.518057	8569.162516
527.880093	8701.071868
528.242072	8855.094241
528.603995	8927.535622
528.965860	9021.916104
529.327669	9221.197957
529.689421	9329.686108
530.051117	9426.544318
530.412755	9659.561572
530.774337	9711.127535
531.135862	9821.249020
531.497331	10023.043888
531.858743	10025.645123
532.220098	10361.759015
532.581396	10347.265697
532.942638	10542.628053
533.303824	10690.810250
533.664953	10851.184477
534.026025	10912.845350
534.387040	11111.043355
534.747999	11336.088024
535.108902	11505.296874
535.469748	11484.441620
535.830537	11722.880635
536.191270	11882.793597
536.551947	12054.611244
536.912567	12011.285047
537.273131	12308.002321
537.633638	12321.958756
537.994089	12619.470012
538.354483	12547.371429
538.714821	12939.555554
539.075103	13159.853978
539.435328	13205.942727
539.795497	13138.734063
540.155609	13493.346469
540.515665	13775.129325
540.875665	13550.528277
541.235609	13835.396319
541.595496	14002.964273
541.955328	14315.082272
542.315102	14421.811061
542.674821	14374.492270
543.034483	14443.152786
543.394090	14648.892357
543.753640	14685.768397
544.113134	15172.920299
544.472571	15134.799093
544.831953	15468.115145
545.191278	15356.259503
545.550548	15486.580891
545.909761	15692.058322
546.268918	16011.526323
546.628019	16104.908657
546.987064	16142.377033
547.346053	16118.751666
547.704986	16306.592620
548.063863	16563.557875
548.422684	16640.138043
548.781449	16546.778395
549.140158	16926.881395
549.498811	16834.923187
549.857408	16744.825165
550.215949	17189.545675
550.574434	17073.601657
550.932864	17369.668622
551.291237	17568.847131
551.649555	17661.874064
552.007817	17800.485630
552.366022	17865.229169
552.724173	17985.374988
553.082267	18075.079801
553.440305	18547.297284
553.798288	18125.241802
554.156215	18643.943765
554.514086	18810.294280
554.871902	18449.571996
555.229661	18784.876783
555.587365	18807.892171
555.945014	18765.465820
556.302606	19108.070197
556.660143	19132.479464
557.017625	19462.430545
557.375050	19225.992868
557.732421	19601.044632
558.089735	19584.020655
558.446994	19720.802282
558.804197	19835.591876
559.161345	19925.084960
559.518437	19769.716598
559.875474	20073.662887
560.232455	20276.707961
560.589381	20274.356263
560.946251	20301.787701
561.303065	20688.613080
561.659825	20840.548416
562.016528	20602.948753
562.373177	20480.100875
562.729770	20838.277376
563.086307	20851.439829
563.442789	21056.503885
563.799216	20982.396403
564.155587	21061.018238
564.511904	21139.345166
564.868164	21132.965586
565.224370	21217.656970
565.580520	21173.294817
565.936615	21382.752238
566.292654	21138.566308
566.648638	21515.193432
567.004567	21389.656098
567.360441	21417.523597
567.716260	21223.038402
568.072023	21602.934715
568.427732	21429.269485
568.783385	21290.947786
569.138982	21530.458046
569.494525	21643.337042
569.850013	21458.561110
570.205445	21608.210282
570.560823	21454.124894
570.916145	21302.043365
571.271412	21492.074701
571.626625	21324.526911
571.981782	21459.060184
572.336884	21312.995272
572.691931	21488.634113
573.046923	21262.145153
573.401860	21214.942309
573.756743	21238.696226
574.111570	21195.848939
574.466342	21167.469763
574.821059	21293.397786
575.175722	21032.974299
575.530330	21068.272458
575.884882	21113.640323
576.239380	21062.409597
576.593823	20979.018830
576.948211	20977.582101
577.302544	20863.652024
577.656823	20765.929257
578.011047	20877.890763
578.365216	20788.400200
578.719330	20692.877896
579.073389	20613.784713
579.427394	20782.590270
579.781344	20584.896381
580.135239	20504.643732
580.489080	20494.324490
580.842866	20271.051786
581.196597	20463.104624
581.550273	20455.679005
581.903895	20384.172758
582.257463	20705.742921
582.610975	20247.738970
582.964434	20557.311187
583.317837	20287.889240
583.671186	20391.089221
584.024481	20368.535099
584.377721	20163.380302
584.730906	20210.754545
585.084037	20275.016654
585.437113	20175.806746
585.790135	20387.018489
586.143103	19877.493947
586.496016	19889.902747
586.848874	20147.903960
587.201679	20103.987948
587.554428	19762.018756
587.907124	20096.045610
588.259765	19893.111441
588.612352	19977.197888
588.964884	19541.780827
589.317362	19736.283666
589.669786	19777.648854
590.022155	19854.208857
590.374470	20016.972591
590.726731	19839.244192
591.078937	19593.112376
591.431090	19707.140755
591.783188	19457.623805
592.135232	19432.158416
592.487222	19531.575011
592.839157	19572.667977
593.191038	19458.531212
593.542866	19354.728813
593.894639	19074.211287
594.246358	19297.335277
594.598022	19219.976251
594.949633	18972.316965
595.301190	18916.123223
595.652692	19087.492207
596.004141	19337.160392
596.355535	18675.617335
596.706876	18679.899795
597.058162	18569.818639
597.409395	18791.994892
597.760573	18890.748575
598.111698	18673.268157
598.462768	18618.909395
598.813785	18576.697293
599.164748	18405.562723
599.515657	18428.880580
599.866511	18230.082678
600.217312	18596.486343
600.568060	18125.569477
600.918753	18429.150282
601.269392	18342.447477
601.619978	18106.319831
601.970510	18329.872319
602.320988	18259.112163
602.671412	18482.641966
603.021783	18384.730155
603.372100	18120.475391
603.722363	18258.832379
604.072572	18195.886011
604.422728	18322.361000
604.772830	18094.422708
605.122878	18032.381227
605.472872	18043.169297
605.822813	18028.577677
606.172701	17985.659814
606.522534	18188.480556
606.872314	18211.047282
607.222041	18044.278351
607.571714	18260.516124
607.921333	18087.660000
608.270899	18163.015168
608.620411	18358.367441
608.969870	18105.535932
609.319276	18117.289382
609.668627	18154.230957
610.017926	18290.072409
610.367171	18405.429133
610.716362	18438.050439
611.065500	18262.749355
611.414585	18388.841216
611.763616	18381.279485
612.112594	18328.922061
612.461518	18301.225962
612.810389	18490.594386
613.159207	18341.777004
613.507971	18240.283453
613.856682	18535.445532
614.205340	18481.227922
614.553945	18611.884547
614.902496	18343.927056
615.250994	18598.618751
615.599439	18531.095016
615.947830	18509.102982
616.296169	18562.393019
616.644454	18526.426907
616.992686	18501.097630
617.340864	18710.116471
617.688990	18482.175659
618.037063	18647.028951
618.385082	18493.954315
618.733048	18785.184293
619.080961	18637.415471
619.428821	18683.703346
619.776628	18578.418847
620.124382	18497.253750
620.472083	18532.690541
620.819731	18553.049241
621.167326	18252.727542
621.514868	18304.172517
621.862357	18047.434113
622.209793	18061.236792
622.557176	17903.930107
622.904506	17739.777535
623.251783	17639.214077
623.599007	17408.699756
623.946179	17349.020056
624.293297	17295.472920
624.640363	17058.180767
624.987376	17070.408086
625.334336	16858.772886
625.681243	16705.330245
626.028097	16720.456227
626.374899	16651.158006
626.721647	16520.329981
627.068343	16345.250708
627.414987	16271.753206
627.761577	16257.431287
628.108115	16315.860781
628.454600	16016.559916
628.801032	16109.077692
629.147412	16044.104780
629.493739	16072.365489
629.840014	15878.941457
630.186236	15987.051522
630.532405	15747.379944
630.878521	15945.232630
631.224585	15826.921790
631.570597	15655.799823
631.916556	15700.290526
632.262462	15674.986454
632.608316	15581.205869
632.954117	15531.522778
633.299866	15528.331727
633.645562	15460.815554
633.991206	15199.588003
634.336797	15074.017902
634.682336	15038.550864
635.027823	14934.541777
635.373257	14823.157483
635.718639	14713.560278
636.063968	14662.422813
636.409245	14428.445219
636.754470	14454.916318
637.099642	14295.194920
637.444762	14072.771651
637.789829	14114.315800
638.134845	13953.341675
638.479808	13977.798833
638.824719	13930.217903
639.169577	13775.852731
639.514383	13830.473632
639.859137	13644.013955
640.203839	13732.808838
640.548489	13565.825658
640.893086	13555.957600
641.237632	13429.601079
641.582125	13568.799939
641.926566	13410.658943
642.270955	13415.959716
642.615292	13390.073391
642.959576	13399.863312
643.303809	13431.844392
643.647990	13363.687992
643.992118	13426.367178
644.336195	13193.770861
644.680219	13391.225295
645.024192	13315.668481
645.368112	13549.240262
645.711981	13611.143111
646.055797	13800.690496
646.399562	13753.391870
646.743274	14028.901010
647.086935	14299.527792
647.430544	14267.587041
647.774101	14282.428198
648.117606	14449.431543
648.461059	14418.771245
648.804460	14412.474844
649.147810	14142.881498
649.491108	14037.050035
649.834354	14064.143716
650.177548	13762.160957
650.520690	13575.325713
650.863781	13495.773785
651.206820	13528.385009
651.549807	13363.829144
651.892742	13173.432325
652.235626	13107.486471
652.578458	13104.741563
652.921238	12804.583701
653.263967	12992.270900
653.606644	12816.949652
653.949269	12791.292699
654.291843	12601.672218
654.634365	12753.781473
654.976836	12606.768824
655.319255	12628.249181
655.661622	12572.536869
656.003938	12494.020898
656.346203	12426.731577
656.688416	12484.782984
657.030577	12444.415944
657.372687	12372.113195
657.714746	12339.859893
658.056753	12531.209490
658.398708	12356.493180
658.740612	12354.932943
659.082465	12458.158130
659.424266	12416.800503
659.766016	12430.620827
660.107715	12343.686129
660.449362	12415.749423
660.790958	12380.121068
661.132503	12329.283552
661.473996	12377.502189
661.815438	12408.235583
662.156829	12412.326479
662.498168	12399.390879
662.839456	12389.658931
663.180693	12413.367478
663.521879	12502.850479
663.863013	12484.984630
664.204097	12464.215076
664.545129	12578.122468
664.886110	12547.988971
665.227040	12630.318575
665.567918	12639.080100
665.908746	12672.878516
666.249522	12654.768171
666.590248	12698.782485
666.930922	12810.106285
667.271545	12809.450935
667.612118	12884.798541
667.952639	12790.786063
668.293109	12789.651804
668.633528	12754.991350
668.973896	12730.788771
669.314213	12818.615753
669.654480	12558.179663
669.994695	12616.087397
670.334859	12640.158907
670.674973	12581.144639
671.015035	12626.956125
671.355047	12566.283318
671.695008	12537.150490
672.034918	12540.996890
672.374777	12586.944487
672.714585	12500.264367
673.054342	12529.515662
673.394049	12483.373981
673.733705	12573.398907
674.073310	12488.369765
674.412864	12504.947599
674.752368	12383.044937
675.091820	12381.126778
675.431223	12378.278526
675.770574	12260.280238
676.109875	12175.689677
676.449125	12140.956127
676.788324	12067.713203
677.127473	11917.328022
677.466571	11908.087587
677.805619	11801.073973
678.144616	11723.331819
678.483562	11695.255112
678.822458	11557.901314
679.161303	11534.543128
679.500098	11529.096161
679.838842	11486.296765
680.177535	11501.069866
680.516179	11562.977756
680.854771	11506.655465
681.193314	11720.725542
681.531805	11876.560210
681.870247	12273.916559
682.208638	12673.223835
682.546978	12999.081499
682.885268	13071.757293
683.223508	12754.373809
683.561697	12596.104263
683.899836	12492.861433
684.237925	12289.521451
684.575963	12210.105634
684.913951	12148.240594
685.251889	12089.460740
685.589776	12185.398939
685.927614	12116.236829
686.265401	12071.705796
686.603137	12115.442847
686.940824	12268.719130
687.278460	12387.990309
687.616046	12430.139397
687.953582	12615.129578
688.291068	12527.829396
688.628504	12750.991195
688.965889	12759.188111
689.303224	12739.547776
689.640510	12629.761527
689.977745	12330.644664
690.314930	12106.338523
690.652065	12023.451872
690.989150	11734.155176
691.326185	11514.076043
691.663170	11301.886316
692.000105	11058.796836
692.336990	10954.893614
692.673825	10709.384381
693.010610	10580.938302
693.347345	10380.524710
693.684030	10175.448051
694.020665	10123.680442
694.357251	9927.299773
694.693786	9884.036591
695.030272	9707.339108
695.366707	9589.734029
695.703093	9520.735757
696.039429	9514.787195
696.375716	9448.158265
696.711952	9312.286566
697.048139	9346.909210
697.384276	9305.309609
697.720363	9314.101381
698.056400	9258.557948
698.392388	9208.726142
698.728326	9179.600876
699.064214	9112.994631
699.400053	9156.313266
699.735842	8973.543713
700.071581	8929.098380
700.407270	8848.386986
700.742910	8779.517263
701.078501	8681.539917
701.414042	8567.672855
701.749533	8499.965117
702.084974	8363.710291
702.420366	8467.769788
702.755709	8353.438940
703.091002	8228.115855
703.426246	8248.038495
703.761440	8205.874284
704.096584	8156.160946
704.431679	8087.984381
704.766725	8078.340654
705.101721	8028.748303
705.436668	8068.603665
705.771565	7962.764640
706.106413	8049.187661
706.441212	8094.666430
706.775961	8040.811784
707.110661	8068.003768
707.445311	8218.976243
707.779913	8117.394472
708.114465	8244.335768
708.448967	8293.804610
708.783421	8417.257427
709.117825	8604.982434
709.452180	8644.046335
709.786485	8723.104231
710.120742	9006.989248
710.454949	9006.341459
710.789107	9105.687478
711.123216	9316.702617
711.457275	9476.081216
711.791286	9640.004416
712.125247	9628.883630
712.459159	9625.758115
712.793023	9881.294203
713.126837	9460.398186
713.460602	9601.641235
713.794318	9422.249255
714.127985	9464.544535
714.461602	9152.202205
714.795171	9102.877035
715.128691	8853.357564
715.462162	8598.386084
715.795584	8545.413640
716.128957	8407.817866
716.462281	8229.514775
716.795556	8276.619317
717.128782	8083.797703
717.461960	7811.721588
717.795088	7885.788741
718.128167	7791.577138
718.461198	7628.021942
718.794180	7560.687250
719.127113	7560.062147
719.459997	7414.798779
719.792833	7180.226328
720.125619	7240.165648
720.458357	7100.329081
720.791046	7084.585558
721.123686	7094.352793
721.456278	6931.775582
721.788821	6952.043541
722.121315	6838.819225
722.453761	6906.559730
722.786158	6850.272727
723.118506	6863.805704
723.450805	6832.117011
723.783056	6903.814822
724.115259	6804.609955
724.447412	6804.856972
724.779518	6844.508168
725.111574	6846.900195
725.443582	6931.420180
725.775542	6908.629124
726.107453	7098.506704
726.439315	7015.254569
726.771129	7059.876342
727.102895	7228.903710
727.434612	7345.440063
727.766281	7373.340329
728.097901	7462.460368
728.429473	7446.547966
728.760996	7420.192813
729.092471	7400.978455
729.423897	7352.923656
729.755276	7364.525872
730.086606	7293.248998
730.417887	7387.243832
730.749120	7563.283445
731.080305	7758.139164
731.411442	7888.440388
731.742530	7885.556848
732.073570	7987.952765
732.404562	8078.827125
732.735506	7919.682939
733.066401	8064.517810
733.397249	8002.032708
733.728048	7771.352028
734.058798	7438.346008
734.389501	7222.292237
734.720156	7041.352622
735.050762	6807.599360
735.381320	6702.244285
735.711831	6661.766341
736.042293	6553.091667
736.372707	6568.643626
736.703073	6435.763852
737.033391	6470.242824
737.363661	6478.391849
737.693883	6509.173134
738.024056	6585.818837
738.354182	6632.202494
738.684260	6671.619276
739.014290	6784.830988
739.344272	6890.448202
739.674207	6919.495331
740.004093	6980.881461
740.333931	7001.487178
740.663722	7010.634351
740.993464	7083.073212
741.323159	7086.622184
741.652806	6833.520973
741.982405	6831.101219
742.311956	6893.377113
742.641460	6747.924701
742.970915	6547.352313
743.300323	6540.327465
743.629683	6482.641542
743.958996	6354.003898
744.288260	6266.534838
744.617477	6212.249173
744.946647	6222.502880
745.275768	6052.578186
745.604842	6003.570609
745.933869	5989.878835
746.262847	5949.133709
746.591778	5939.076608
746.920662	5898.903653
747.249498	5884.438062
747.578286	5933.133087
747.907027	6009.322566
748.235720	6069.692904
748.564365	6040.880189
748.892963	6059.056069
749.221514	6213.529626
749.550017	6064.107305
749.878473	5931.857675
750.206881	5982.818699
750.535242	5926.584628
750.863555	5858.473599
751.191821	5879.049068
751.520039	5883.452516
751.848210	5789.387106
752.176334	5803.898067
752.504411	5864.530545
752.832440	5785.197907
753.160421	5710.805600
753.488356	5754.991313
753.816243	5796.054032
754.144082	5648.968286
754.471875	5612.757678
754.799620	5659.219472
755.127318	5670.544424
755.454969	5620.450479
755.782572	5588.464357
756.110129	5632.821470
756.437638	5624.231344
756.765100	5563.893774
757.092515	5553.395571
757.419882	5603.008086
757.747203	5586.843627
758.074477	5652.403832
758.401703	5640.841946
758.728882	5589.873360
759.056014	5636.430936
759.383099	5775.697853
759.710138	5786.037259
760.037129	5759.669504
760.364073	5770.424806
760.690970	5852.890521
761.017820	5836.736143
761.344623	5788.552795
761.671379	5885.237084
761.998088	5998.864692
762.324751	6230.452779
762.651366	6801.086189
762.977935	8071.756907
763.304456	9690.463845
763.630931	10607.933680
763.957359	10266.824005
764.283740	9331.989916
764.610074	8519.857510
764.936362	7535.282356
765.262602	6938.129956
765.588796	6398.786988
765.914943	6052.958793
766.241044	5898.485237
766.567097	5706.757553
766.893104	5445.335917
767.219064	5268.512405
767.544978	5204.063774
767.870845	5129.361436
768.196665	5024.666753
768.522438	4952.303510
768.848165	4923.213531
769.173846	4857.302965
769.499479	4814.037262
769.825066	4760.076752
770.150607	4696.394376
770.476101	4671.622146
770.801548	4675.473587
771.126949	4603.281744
771.452303	4543.443248
771.777611	4504.139892
772.102872	4520.979866
772.428087	4484.759176
772.753256	4442.058082
773.078378	4400.929828
773.403453	4335.203264
773.728482	4320.354546
774.053465	4274.180097
774.378401	4259.265843
774.703291	4263.500413
775.028135	4192.334444
775.352932	4142.931136
775.677683	4131.028972
776.002388	4149.731653
776.327046	4163.310001
776.651658	4088.277467
776.976224	4022.462683
777.300743	4031.587171
777.625216	4049.611817
777.949643	4048.018812
778.274024	4005.113552
778.598359	3957.499854
778.922647	3977.228409
779.246889	3971.552070
779.571086	3971.168942
779.895236	3953.242599
780.219339	3940.211217
780.543397	3932.155453
780.867409	3981.644460
781.191374	3999.520392
781.515294	3939.306329
781.839167	3931.883230
782.162995	3947.730097
782.486776	3937.247018
782.810511	3941.607616
783.134201	3944.395374
783.457844	3901.971544
783.781441	3844.547761
784.104993	3849.092361
784.428498	3866.587685
784.751958	3869.458622
785.075372	3844.865353
785.398739	3808.241371
785.722061	3817.323009
786.045337	3860.366901
786.368568	3895.518867
786.691752	3808.463181
787.014891	3852.207794
787.337983	3976.497442
787.661030	4131.149960
787.984031	4290.147952
788.306987	4464.990291
788.629897	4544.159091
788.952760	4502.199047
789.275579	4433.893933
789.598351	4374.972927
789.921078	4239.388574
790.243759	4035.415927
790.566395	4013.496991
790.888984	4013.925489
791.211529	3905.240732
791.534027	3847.272504
791.856480	3840.625743
792.178888	3780.726753
792.501249	3724.732137
792.823566	3734.476687
793.145836	3768.489352
793.468062	3719.585118
793.790241	3670.935463
794.112375	3700.673230
794.434464	3760.123557
794.756507	3789.029533
795.078505	3772.320629
795.400457	3799.472283
795.722364	3930.811985
796.044226	4035.846946
796.366042	4109.253708
796.687812	4095.171245
797.009538	4100.862707
797.331218	4057.216397
797.652852	4028.527191
797.974442	4009.655631
798.295986	4012.004809
798.617484	3932.641924
798.938938	3843.652956
799.260346	3884.655181
799.581709	3884.808936
799.903026	3812.123059
800.224299	3775.635188
800.545526	3770.415073
800.866708	3729.775811
801.187845	3668.838343
801.508936	3704.111297
801.829983	3706.775547
802.150984	3628.292343
802.471940	3613.718367
802.792851	3624.947537
803.113717	3626.404431
803.434538	3630.631438
803.755314	3576.060948
804.076045	3544.969632
804.396731	3565.237591
804.717372	3591.721292
805.037967	3576.186977
805.358518	3568.000143
805.679024	3592.535439
805.999485	3605.057665
806.319901	3607.096812
806.640272	3622.651292
806.960598	3637.865494
807.280879	3611.578397
807.601115	3623.898977
807.921306	3634.596306
808.241453	3679.749921
808.561554	3663.666119
808.881611	3591.572578
809.201623	3628.158752
809.521590	3639.324908
809.841513	3612.258953
810.161390	3639.886997
810.481223	3623.898977
810.801011	3566.321439
811.120755	3553.615210
811.440453	3589.669543
811.760107	3597.213629
812.079716	3557.010427
812.399281	3522.107999
812.718801	3542.794374
813.038276	3515.262112
813.357707	3513.480064
813.677093	3530.602343
813.996434	3484.208604
814.315731	3487.354284
814.634983	3494.071622
814.954191	3505.313395
815.273354	3537.387736
815.592473	3533.407745
815.911547	3536.976882
816.230577	3575.705547
816.549562	3624.209008
816.868502	3666.499248
817.187399	3692.209132
817.506250	3689.010520
817.825058	3657.465500
818.143821	3746.305754
818.462539	3848.623533
818.781213	3891.427971
819.099843	3949.837300
819.418429	4179.832382
819.736970	4416.963218
820.055466	4657.569929
820.373919	5016.545454
820.692327	5419.530251
821.010691	5827.200801
821.329011	7131.163299
821.647286	9755.300645
821.965517	14178.862734
822.283704	18188.780505
822.601847	20443.028229
822.919945	18699.086427
823.237999	16196.682863
823.556010	13745.860386
823.873976	11698.405833
824.191897	9639.797728
824.509775	8288.934856
824.827609	7167.381468
825.145398	6621.742100
825.463144	6497.684345
825.780845	6613.517457
826.098502	6782.978364
826.416116	7607.554858
826.733685	8900.998988
827.051210	10017.720429
827.368692	10120.260019
827.686129	8918.499354
828.003522	7416.391783
828.320872	6405.249748
828.638177	5717.096960
828.955439	5168.127909
829.272656	4675.027445
829.589830	4389.067993
829.906960	4215.949729
830.224046	4035.736041
830.541088	3906.183428
830.858086	3861.191130
831.175041	3789.281591
831.491952	3769.192593
831.808819	3780.628450
832.125642	3848.767206
832.442421	3988.886077
832.759157	4249.322168
833.075849	4777.950163
833.392497	5617.614830
833.709101	6380.101952
834.025662	6734.190077
834.342179	6405.821919
834.658653	5755.432414
834.975083	5124.330364
835.291469	4552.209814
835.607811	4140.569356
835.924110	4007.208151
836.240366	3814.744459
836.556578	3608.520937
836.872746	3499.695029
837.188871	3465.185810
837.504952	3399.232394
837.820990	3316.749035
838.136984	3269.286572
838.452935	3292.879172
838.768842	3288.591670
839.084706	3313.343736
839.400526	3457.944193
839.716303	3778.775826
840.032037	4284.811891
840.347727	4564.505188
840.663373	4310.020180
840.978977	3935.391873
841.294537	3631.609422
841.610054	3406.312695
841.925527	3298.293371
842.240957	3229.438771
842.556344	3177.519928
842.871687	3122.457925
843.186987	3071.564956
843.502244	3034.199924
843.817458	3002.793535
844.132629	2967.132413
844.447756	2978.248157
844.762840	2966.151909
845.077881	2932.605550
845.392879	2916.050401
845.707833	2910.053949
846.022745	2908.718043
846.337613	2912.866913
846.652438	2898.897875
846.967221	2897.390570
847.281960	2883.280381
847.596656	2879.277704
847.911309	2877.956922
848.225919	2872.953577
848.540485	2868.461909
848.855009	2866.170704
849.169490	2859.491176
849.483928	2852.113447
849.798323	2848.009948
850.112675	2845.302848
850.426984	2853.918180
850.741251	2854.213087
851.055474	2846.376614
851.369654	2840.947291
851.683792	2844.191274
851.997887	2849.799557
852.311938	2851.639578
852.625947	2842.893177
852.939914	2847.195801
853.253837	2853.139322
853.567718	2836.551405
853.881555	2832.760457
854.195350	2848.579598
854.509103	2844.007272
854.822812	2835.835561
855.136479	2835.187773
855.450103	2836.725325
855.763685	2827.774756
856.077224	2825.392811
856.390720	2836.642146
856.704173	2849.076152
857.017584	2841.232116
857.330953	2835.654080
857.644278	2846.464834
857.957561	2855.904395
858.270802	2860.597709
858.584000	2857.366329
858.897155	2844.793692
859.210268	2845.242354
859.523339	2844.624813
859.836367	2843.687158
860.149352	2837.965449
860.462295	2834.897907
860.775195	2842.351252
861.088054	2840.405367
861.400869	2827.759633
861.713642	2820.540700
862.026373	2837.234481
862.339062	2839.991992
862.651708	2845.242354
862.964312	2848.186388
863.276873	2841.630367
863.589392	2848.123374
863.901869	2864.121475
864.214303	2885.138046
864.526696	2897.433420
864.839045	2894.713718
865.151353	2897.312432
865.463619	2892.742626
865.775842	2893.057698
866.088023	2908.624782
866.400162	2918.386976
866.712258	2890.771535
867.024313	2881.082437
867.336325	2888.553428
867.648296	2905.902558
867.960224	2899.086918
868.272110	2887.683828
868.583954	2894.743964
868.895755	2908.408012
869.207515	2893.493758
869.519233	2896.737741
869.830909	2906.041190
870.142542	2918.691966
870.454134	2918.976791
870.765684	2920.017789
871.077191	2921.880496
871.388657	2927.420724
871.700081	2938.944801
872.011463	2951.020885
872.322803	2950.962912
872.634101	2950.635237
872.945357	2965.252063
873.256571	2991.839108
873.567744	2986.402224
873.878874	2974.459730
874.189963	3002.420490
874.501010	3002.468381
874.812015	2992.804489
875.122979	2994.337000
875.433900	2987.571771
875.744780	2993.381701
876.055618	3000.824965
876.366415	2998.193483
876.677169	3009.168074
876.987882	3006.965090
877.298554	2998.979903
877.609183	3015.479599
877.919771	3041.703681
878.230317	3068.948597
878.540822	3117.431894
878.851285	3155.381701
879.161707	3193.807896
879.472087	3289.473872
879.782425	3499.478259
880.092722	3918.924944
880.402977	4431.406124
880.713191	5032.591446
881.023363	6136.248737
881.333494	7391.485963
881.643583	7965.033159
881.953631	7680.770056
882.263637	7083.370640
882.573602	6519.424321
882.883526	5956.944977
883.193408	5386.966918
883.503248	4927.080096
883.813048	4632.235611
884.122806	4344.612578
884.432522	4037.742420
884.742197	3809.312616
885.051831	3618.804891
885.361424	3482.348418
885.670975	3413.824014
885.980485	3336.482632
886.289954	3260.676281
886.599382	3218.854869
886.908768	3181.288190
887.218113	3136.091725
887.527417	3083.247830
887.836680	3031.142464
888.145901	3025.705580
888.455082	3018.438756
888.764221	2969.529482
889.073319	2941.392282
889.382376	2937.845830
889.691392	2942.287086
890.000366	2938.579318
890.309300	2929.827875
890.618193	2939.506890
890.927044	2957.402986
891.235855	2957.581947
891.544625	2940.973866
891.853353	2952.838221
892.162041	2972.909575
892.470687	3008.061541
892.779293	3059.690518
893.087858	3102.852877
893.396381	3170.706808
893.704864	3281.894498
894.013306	3513.429653
894.321707	3803.313643
894.630068	4010.404243
894.938387	4012.224099
895.246665	3964.691060
895.554903	3852.621168
895.863100	3658.153618
896.171256	3494.366529
896.479371	3361.259903
896.787446	3245.741863
897.095480	3144.870895
897.403473	3080.238261
897.711425	3044.191491
898.019336	3031.525592
898.327207	3007.955677
898.635038	2974.636171
898.942827	2959.880713
899.250576	2949.342181
899.558284	2916.665422
899.865952	2899.669172
900.173579	2881.107643
900.481165	2871.935264
900.788711	2862.634335
901.096216	2837.884790
901.403681	2823.583037
901.711105	2831.749706
902.018489	2829.055209
902.325832	2830.512103
902.633135	2839.157682
902.940397	2868.774460
903.247619	2944.048970
903.554800	3126.846249
903.861941	3450.843728
904.169041	3862.186758
904.476101	4164.945855
904.783121	4134.426710
905.090100	3896.532139
905.397039	3634.492962
905.703938	3391.915160
906.010796	3208.407077
906.317614	3100.423041
906.624391	3013.117818
906.931129	2940.749534
907.237826	2882.562016
907.544483	2835.041579
907.851099	2805.991930
908.157675	2783.757921
908.464211	2766.940632
908.770707	2756.011411
909.077163	2739.683113
909.383578	2726.777759
909.689954	2713.945502
909.996289	2713.426263
910.302584	2713.834597
910.608839	2715.339381
910.915054	2708.906869
911.221229	2702.708770
911.527363	2705.625078
911.833458	2711.959288
912.139513	2715.651933
912.445527	2716.521532
912.751502	2724.670557
913.057436	2736.015674
913.363331	2748.653847
913.669186	2768.573966
913.975000	2797.908440
914.280775	2856.234590
914.586510	2924.214550
914.892205	2998.536281
915.197859	3119.486165
915.503475	3302.361582
915.809050	3508.053262
916.114585	3650.223883
916.420081	3674.282789
916.725536	3620.473513
917.030952	3512.194570
917.336328	3384.935682
917.641665	3258.851383
917.946961	3162.462001
918.252218	3097.022783
918.557435	3019.502440
918.862612	2962.769294
919.167750	2913.053435
919.472848	2878.148486
919.777906	2852.015144
920.082925	2825.768377
920.387904	2795.914664
920.692843	2780.334978
920.997743	2770.585386
921.302603	2757.344796
921.607423	2747.822056
921.912204	2736.366034
922.216946	2725.308263
922.521647	2713.872406
922.826310	2709.857127
923.130932	2703.601055
923.435516	2691.761905
923.740059	2687.159331
924.044564	2680.129442
924.349028	2672.038390
924.653454	2669.600992
924.957840	2661.852739
925.262186	2655.558858
925.566493	2654.336379
925.870761	2648.090389
926.174989	2646.262971
926.479178	2640.349697
926.783328	2637.206538
927.087438	2633.949953
927.391509	2634.854840
927.695541	2629.947276
927.999533	2628.578603
928.303486	2624.301184
928.607400	2625.816051
928.911275	2625.145577
929.215110	2622.158694
929.518906	2622.924949
929.822663	2622.660288
930.126381	2620.361522
930.430060	2622.970319
930.733699	2621.873868
931.037299	2624.185237
931.340861	2625.770680
931.644383	2623.812192
931.947866	2623.547532
932.251309	2623.754219
932.554714	2622.745988
932.858080	2619.459156
933.161407	2616.966305
933.464694	2618.375308
933.767943	2611.315172
934.071153	2614.846500
934.374323	2620.008642
934.677455	2614.496140
934.980548	2613.518156
935.283602	2613.397168
935.586617	2613.681993
935.889593	2613.939092
936.192530	2612.787189
936.495428	2614.680142
936.798287	2614.516304
937.101108	2621.233642
937.403890	2624.550721
937.706632	2625.480814
938.009336	2634.101187
938.312002	2641.541930
938.614628	2649.577529
938.917216	2656.224291
939.219765	2658.243273
939.522275	2657.580361
939.824747	2652.587098
940.127179	2650.638692
940.429573	2648.110554
940.731929	2644.783392
941.034246	2644.806077
941.336524	2639.739718
941.638763	2637.090591
941.940964	2635.427011
942.243126	2631.872997
942.545250	2632.674541
942.847335	2630.922740
943.149381	2623.794548
943.451389	2623.706328
943.753359	2619.527211
944.055290	2620.089300
944.357182	2619.035699
944.659036	2619.597787
944.960851	2617.777931
945.262628	2613.913887
945.564367	2617.606532
945.866067	2614.700307
946.167729	2617.334309
946.469352	2616.104268
946.770937	2618.796244
947.072484	2613.195522
947.373992	2616.842797
947.675462	2611.978083
947.976893	2608.502208
948.278286	2607.748555
948.579641	2605.875767
948.880958	2603.395519
949.182236	2607.471292
949.483476	2606.067331
949.784678	2608.320726
950.085841	2605.807711
950.386967	2606.697475
950.688054	2609.986828
950.989103	2610.856427
951.290114	2609.018926
951.591087	2611.925151
951.892021	2614.145780
952.192917	2616.429422
952.493776	2617.329268
952.794596	2620.031327
953.095378	2620.104423
953.396122	2617.490585
953.696828	2617.417488
953.997496	2616.124432
954.298126	2610.921962
954.598718	2610.601848
954.899272	2606.654625
955.199788	2606.374841
955.500266	2604.799480
955.800706	2601.885693
956.101108	2598.230857
956.401472	2600.585076
956.701798	2595.327152
957.002087	2594.626432
957.302337	2593.383787
957.602550	2593.721545
957.902724	2590.777511
958.202861	2590.132243
958.502960	2587.546131
958.803022	2590.527974
959.103045	2588.556883
959.403031	2584.949937
959.702979	2585.522108
960.002889	2582.305852
960.302762	2584.526480
960.602596	2587.576378
960.902393	2584.760894
961.202153	2586.515215
961.501875	2579.182857
961.801559	2584.276943
962.101205	2581.675708
962.400814	2583.858527
962.700385	2582.842735
962.999918	2581.085893
963.299414	2577.859554
963.598873	2580.359967
963.898293	2577.942733
964.197677	2581.038002
964.497022	2582.615883
964.796331	2579.946592
965.095601	2581.559761
965.394835	2579.278639
965.694030	2579.545820
965.993189	2578.167065
966.292309	2580.793506
966.591393	2579.664287
966.890439	2580.662436
967.189447	2580.160841
967.488419	2581.141345
967.787353	2580.947261
968.086249	2579.487847
968.385108	2579.946592
968.683930	2578.862744
968.982714	2581.310224
969.281462	2581.058166
969.580172	2580.808629
969.878844	2579.739905
970.177480	2581.330389
970.476078	2581.547158
970.774639	2579.303845
971.073162	2581.279977
971.371649	2582.368866
971.670098	2582.706624
971.968510	2580.198650
972.266885	2579.641602
972.565223	2583.157807
972.863524	2578.754359
973.161788	2582.126891
973.460014	2579.361818
973.758204	2579.888619
974.056356	2580.561613
974.354471	2581.103537
974.652550	2580.206211
974.950591	2582.462128
975.248595	2578.477096
975.546563	2578.678742
975.844493	2581.496747
976.142386	2579.805440
976.440243	2579.616396
976.738062	2580.133115
977.035845	2578.406519
977.333590	2580.014647
977.631299	2576.942064
977.928971	2573.619944
978.226606	2575.122208
978.524204	2576.309399
978.821765	2575.268401
979.119290	2579.157651
979.416777	2579.228227
979.714228	2577.476427
980.011642	2579.931468
980.309020	2578.983732
980.606360	2578.920717
980.903664	2576.132959
981.200931	2579.452559
981.498162	2578.661098
981.795356	2580.465831
982.092513	2581.126222
982.389633	2584.571851
982.686717	2586.573189
982.983764	2592.317583
983.280775	2594.966710
983.577749	2592.350351
983.874686	2594.762543
984.171587	2592.141143
984.468451	2591.417737
984.765279	2585.262489
985.062070	2584.975143
985.358824	2584.362643
985.655543	2581.269895
985.952224	2579.835687
986.248869	2578.938361
986.545478	2577.836869
986.842050	2577.978021
987.138586	2579.223186
987.435086	2577.695717
987.731549	2575.696899
988.027975	2577.615058
988.324366	2575.452403
988.620719	2575.182702
988.917037	2576.979873
989.213318	2574.857547
989.509563	2574.920562
989.805772	2572.742783
990.101944	2571.507700
990.398080	2575.984245
990.694180	2575.916189
990.990244	2574.234965
991.286271	2574.963411
991.582262	2575.981724
991.878217	2576.556416
992.174136	2578.933320
992.470019	2576.425346
992.765865	2574.663463
993.061676	2570.070972
993.357450	2571.268246
993.653188	2568.092319
993.948890	2577.047928
994.244556	2574.948288
994.540186	2575.802763
994.835780	2575.752352
995.131337	2574.391240
995.426859	2575.928792
995.722345	2577.693196
996.017795	2579.472723
996.313208	2581.330389
996.608586	2578.295614
996.903928	2579.160172
997.199234	2582.545307
997.494504	2579.936510
997.789738	2580.695203
998.084936	2579.003896
998.380099	2576.944585
998.675225	2577.478947
998.970316	2578.086406
999.265371	2577.494071
999.560390	2575.570870
999.855373	2575.162537
1000.150320	2575.018864
1000.445232	2574.396282
1000.740108	2575.560788
1001.034948	2575.870819
1001.329752	2574.855027
1001.624521	2573.521641
1001.919254	2573.897207
1002.213951	2576.014492
1002.508613	2574.371076
1002.803239	2571.111970
1003.097829	2571.555591
1003.392384	2571.467371
1003.686903	2571.795046
1003.981386	2573.451065
1004.275834	2573.108267
1004.570246	2572.488205
1004.864623	2575.568350
1005.158964	2573.806467
1005.453270	2571.633729
1005.747540	2572.561302
1006.041775	2572.019377
1006.335974	2572.762948
1006.630138	2571.104408
1006.924266	2574.194635
1007.218359	2572.541137
1007.512416	2569.561815
1007.806438	2569.783626
1008.100425	2570.718760
1008.394376	2567.341187
1008.688292	2572.057186
1008.982172	2570.154151
1009.276017	2573.602300
1009.569827	2571.096846
1009.863602	2573.307392
1010.157341	2572.704974
1010.451045	2571.981569
1010.744714	2573.425859
1011.038347	2571.535427
1011.331945	2573.458627
1011.625508	2573.904769
1011.919036	2571.822773
1012.212528	2574.328226
1012.505986	2573.531724
1012.799408	2572.102557
1013.092795	2570.645663
1013.386147	2572.392423
1013.679464	2570.131465
1013.972745	2573.786302
1014.265992	2572.011816
1014.559204	2572.357135
1014.852380	2572.034501
1015.145521	2567.752041
1015.438628	2572.410067
1015.731699	2572.142886
1016.024736	2572.251271
1016.317737	2571.792526
1016.610703	2572.737742
1016.903635	2573.703123
1017.196531	2570.688513
1017.489393	2571.129614
1017.782219	2571.931157
1018.075011	2571.053997
1018.367768	2571.754717
1018.660490	2573.713205
1018.953177	2573.713205
1019.245829	2573.713205
