Dividing Wavelength (nm)	Counts (n)	Blue Motor Position (mm): 4.900000	Red Motor Position (mm): 0.000000	
326.493990	2141.633388
326.888308	2141.633388
327.282561	2141.633388
327.676750	2108.369335
328.070874	2109.874119
328.464933	2112.334202
328.858929	2116.422578
329.252859	2127.230812
329.646726	2138.555764
330.040528	2152.300470
330.434265	2170.136072
330.827938	2185.609894
331.221547	2205.293079
331.615091	2223.070708
332.008571	2244.659450
332.401986	2261.093611
332.795338	2281.837959
333.188625	2300.671710
333.581847	2321.400935
333.975006	2339.181084
334.368100	2358.821420
334.761129	2372.563605
335.154095	2392.075391
335.546996	2407.123235
335.939833	2422.967582
336.332606	2435.651125
336.725315	2449.695779
337.117960	2458.636266
337.510540	2466.820579
337.903056	2479.365490
338.295508	2487.922849
338.687896	2493.329487
339.080220	2502.554798
339.472480	2510.534945
339.864676	2512.092661
340.256807	2518.336130
340.648875	2521.713703
341.040879	2521.932993
341.432818	2523.432737
341.824694	2526.056657
342.216506	2525.769312
342.608253	2527.180835
342.999937	2526.384332
343.391557	2530.069416
343.783113	2527.707635
344.174605	2522.984074
344.566033	2522.762263
344.957397	2519.850997
345.348697	2518.636079
345.739934	2516.395286
346.131106	2515.021572
346.522215	2516.012158
346.913260	2513.451252
347.304241	2509.952691
347.695159	2508.977228
348.086012	2509.060407
348.476802	2503.089160
348.867528	2505.813904
349.258191	2502.915241
349.648789	2503.789881
350.039324	2499.681340
350.429796	2500.747544
350.820203	2497.024652
351.210548	2495.953407
351.600828	2495.517347
351.991045	2496.061792
352.381198	2494.516678
352.771288	2494.496514
353.161314	2493.155567
353.551276	2494.647748
353.941175	2493.216061
354.331010	2495.230002
354.720782	2495.724035
355.110490	2494.955259
355.500135	2495.562718
355.889717	2493.957110
356.279235	2493.306801
356.668689	2494.594816
357.058080	2491.774291
357.447408	2492.636328
357.836672	2491.696153
358.225873	2491.691112
358.615010	2495.771926
359.004084	2495.083808
359.393095	2498.940291
359.782043	2499.542709
360.170927	2497.082626
360.559748	2500.644201
360.948505	2498.456340
361.337199	2500.535816
361.725830	2499.381392
362.114398	2499.701505
362.502903	2500.881135
362.891344	2502.234685
363.279722	2502.088491
363.668037	2500.034221
364.056289	2504.818276
364.444478	2502.209479
364.832603	2502.464057
365.220665	2504.828358
365.608665	2502.292658
365.996601	2504.727535
366.384474	2505.161075
366.772284	2506.963287
367.160031	2505.564367
367.547715	2504.228461
367.935336	2505.725684
368.322893	2506.607886
368.710388	2502.779129
369.097820	2510.454286
369.485189	2506.781806
369.872495	2506.199552
370.259738	2508.894049
370.646918	2505.866836
371.034035	2510.950840
371.421090	2506.628050
371.808081	2510.784482
372.195010	2510.237517
372.581875	2506.827176
372.968678	2509.889677
373.355418	2510.091323
373.742096	2511.306241
374.128710	2512.594256
374.515262	2512.047291
374.901751	2509.708195
375.288177	2514.182219
375.674540	2510.666015
376.060841	2514.033505
376.447079	2510.950840
376.833254	2509.884636
377.219367	2506.509583
377.605417	2508.916734
377.991404	2510.794564
378.377329	2510.960922
378.763191	2511.006292
379.148991	2511.001251
379.534727	2513.511746
379.920402	2512.604338
380.306013	2511.797754
380.691563	2510.532424
381.077049	2513.783968
381.462474	2512.876561
381.847835	2512.788340
382.233134	2512.962260
382.618371	2516.506191
383.003545	2514.582991
383.388657	2513.499143
383.773706	2514.905625
384.158693	2513.428567
384.543618	2514.577950
384.928480	2513.519308
385.313280	2521.932993
385.698017	2517.574916
386.082692	2516.344874
386.467305	2516.128105
386.851856	2517.723630
387.236344	2518.321007
387.620770	2518.389062
388.005133	2516.659947
388.389435	2518.605832
388.773674	2516.659947
389.157851	2516.604494
389.541965	2517.900070
389.926018	2518.878054
390.310008	2517.680780
390.693936	2520.556758
391.077802	2520.602129
391.461606	2517.602642
391.845348	2520.191275
392.229027	2519.656912
392.612645	2519.377128
392.996200	2519.477952
393.379694	2521.817047
393.763125	2520.501306
394.146494	2519.687159
394.529801	2522.429547
394.913047	2520.831501
395.296230	2522.001049
395.679351	2521.852335
396.062410	2518.946110
396.445408	2522.532891
396.828343	2521.103724
397.211217	2516.312107
397.594028	2516.009638
397.976778	2520.108096
398.359466	2523.188241
398.742092	2518.547859
399.124656	2521.938035
399.507158	2526.273427
399.889598	2525.817202
400.271977	2522.419465
400.654294	2527.798376
401.036549	2523.268899
401.418742	2527.032121
401.800874	2522.908457
402.182944	2523.727644
402.564952	2524.627490
402.946898	2525.882738
403.328783	2526.109589
403.710606	2524.529188
404.092367	2523.180679
404.474067	2524.302336
404.855705	2525.227388
405.237282	2527.390043
405.618797	2527.299302
406.000250	2526.933818
406.381642	2522.752181
406.762972	2526.848118
407.144240	2528.000022
407.525447	2527.967255
407.906593	2525.779394
408.287677	2524.408200
408.668700	2528.912471
409.049661	2529.119158
409.430560	2526.245701
409.811399	2529.051103
410.192176	2526.762419
410.572891	2527.110258
410.953545	2525.144208
411.334138	2529.842564
411.714669	2527.546318
412.095139	2529.593027
412.475547	2526.863242
412.855894	2527.052285
413.236180	2530.258459
413.616405	2530.654190
413.996568	2530.142512
414.376670	2529.819879
414.756711	2529.217461
415.136691	2529.930784
415.516609	2529.719056
415.896466	2530.076978
416.276262	2529.146885
416.655997	2528.907430
417.035670	2526.648993
417.415283	2530.525640
417.794834	2526.311236
418.174324	2529.426669
418.553753	2529.819879
418.933121	2531.780887
419.312428	2530.593696
419.691674	2530.770136
420.070859	2531.039838
420.449983	2531.952287
420.829045	2529.958510
421.208047	2532.206865
421.586988	2528.012625
421.965867	2532.504293
422.344686	2530.150074
422.723444	2533.401618
423.102141	2532.272400
423.480777	2531.556556
423.859352	2531.591844
424.237866	2534.069571
424.616319	2532.819365
424.994712	2532.353058
425.373044	2537.096784
425.751314	2533.404139
426.129524	2532.826927
426.507673	2532.655528
426.885762	2534.167874
427.263789	2532.484128
427.641756	2531.659900
428.019662	2536.040662
428.397508	2533.996475
428.775292	2536.751465
429.153016	2530.704601
429.530679	2535.849099
429.908282	2532.184180
430.285824	2536.784233
430.663305	2532.695857
431.040726	2535.554191
431.418086	2533.300795
431.795385	2535.145858
432.172624	2536.512010
432.549802	2537.714326
432.926920	2534.004036
433.303977	2534.228368
433.680974	2536.403626
434.057910	2540.081147
434.434786	2535.160981
434.811601	2537.036290
435.188355	2535.531506
435.565050	2539.662732
435.941683	2536.811959
436.318257	2536.917823
436.694770	2531.153264
437.071222	2535.438245
437.447614	2534.871115
437.823946	2534.961856
438.200218	2537.933616
438.576429	2535.125693
438.952580	2535.712988
439.328670	2537.971424
439.704700	2535.166022
440.080670	2537.696682
440.456580	2537.419418
440.832429	2537.921013
441.208218	2536.665766
441.583947	2540.232382
441.959616	2539.108205
442.335224	2539.614841
442.710773	2538.931764
443.086261	2537.593338
443.461689	2537.406815
443.837057	2539.471168
444.212365	2536.428831
444.587612	2538.553678
444.962800	2537.731970
445.337927	2538.475540
445.712995	2537.923533
446.088002	2540.920499
446.462949	2539.098122
446.837837	2541.293545
447.212664	2538.508307
447.587431	2542.538710
447.962139	2537.424459
448.336786	2542.079965
448.711374	2538.475540
449.085901	2541.611137
449.460369	2540.728936
449.834776	2542.042156
450.209124	2540.093750
450.583412	2541.270860
450.957640	2536.421270
451.331808	2538.561239
451.705917	2539.405633
452.079965	2540.978473
452.453954	2540.887732
452.827883	2542.639533
453.201752	2540.958308
453.575562	2540.212217
453.949311	2542.712630
454.323001	2541.782537
454.696632	2543.128525
455.070202	2541.686755
455.443713	2539.897145
455.817164	2540.628112
456.190556	2536.756506
456.563888	2536.322967
456.937160	2537.379089
457.310373	2542.710109
457.683526	2540.670962
458.056619	2541.424615
458.429653	2538.851106
458.802628	2541.984183
459.175542	2541.628782
459.548398	2541.563247
459.921194	2538.654501
460.293930	2544.139276
460.666607	2542.185829
461.039224	2542.392516
461.411782	2543.146169
461.784280	2542.495860
462.156719	2540.421425
462.529099	2539.670293
462.901419	2542.730274
463.273680	2541.268339
463.645882	2541.462423
464.018024	2541.008720
464.390106	2542.959646
464.762130	2545.263453
465.134094	2543.728422
465.505999	2543.478885
465.877845	2543.748587
466.249631	2542.029553
466.621358	2542.674821
466.993026	2543.259595
467.364634	2546.778320
467.736184	2545.757487
468.107674	2542.301776
468.479105	2542.490819
468.850477	2543.627599
469.221790	2542.881508
469.593043	2543.307486
469.964238	2542.125335
470.335373	2543.761190
470.706449	2545.961653
471.077467	2545.639019
471.448425	2544.663556
471.819324	2544.136756
472.190164	2546.506098
472.560945	2547.221942
472.931667	2543.549461
473.302330	2543.486447
473.672934	2544.794626
474.043479	2539.292207
474.413965	2544.305634
474.784393	2542.321940
475.154761	2544.149358
475.525070	2540.600386
475.895321	2542.679862
476.265513	2537.792463
476.635645	2543.839328
477.005719	2545.079451
477.375734	2542.329502
477.745691	2544.875285
478.115588	2544.487116
478.485427	2545.946530
478.855207	2546.632127
479.224928	2543.836807
479.594591	2547.083310
479.964194	2545.132383
480.333739	2548.283105
480.703226	2545.386962
481.072653	2544.494677
481.442022	2545.374359
481.811333	2546.344781
482.180584	2544.751776
482.549777	2546.430481
482.918912	2545.049204
483.287988	2547.146324
483.657005	2546.196067
484.025964	2545.192877
484.394864	2544.199770
484.763706	2547.922662
485.132489	2546.054915
485.501213	2548.136911
485.869879	2542.538710
486.238487	2544.892929
486.607036	2547.862168
486.975527	2545.386962
487.343959	2548.036088
487.712333	2548.038609
488.080648	2544.252702
488.448905	2546.236396
488.817104	2547.544576
489.185244	2547.771427
489.553326	2543.977959
489.921350	2544.572815
490.289315	2547.763866
490.657222	2545.724719
491.025070	2546.528783
491.392861	2547.768907
491.760593	2545.991900
492.128267	2546.924514
492.495883	2543.158772
492.863440	2546.632127
493.230939	2547.431150
493.598380	2547.753783
493.965763	2542.999975
494.333088	2543.678011
494.700354	2541.560726
495.067563	2546.700182
495.434713	2544.081303
495.801805	2546.312013
496.168839	2547.925183
496.535815	2547.481561
496.902733	2544.981149
497.269593	2548.353681
497.636395	2546.110367
498.003139	2549.727395
498.369825	2547.776469
498.736453	2548.457024
499.103023	2549.855945
499.469535	2545.429812
499.835989	2546.498536
500.202385	2547.836962
500.568723	2548.053732
500.935003	2549.664381
501.301226	2546.969884
501.667390	2550.261757
502.033497	2547.952909
502.399546	2546.823691
502.765537	2546.838814
503.131470	2546.937117
503.497345	2546.987528
503.863163	2550.019782
504.228923	2546.710265
504.594625	2546.465769
504.960269	2547.869730
505.325856	2546.584236
505.691385	2547.743701
506.056856	2549.808054
506.422270	2549.687066
506.787625	2546.657332
507.152924	2548.895605
507.518164	2549.117416
507.883347	2546.339740
508.248472	2551.254865
508.613540	2549.112374
508.978550	2546.080120
509.343503	2547.143804
509.708398	2548.464586
510.073236	2547.186654
510.438016	2550.339895
510.802738	2550.395348
511.167403	2550.201264
511.532010	2546.596839
511.896561	2545.102137
512.261053	2546.826211
512.625488	2547.378217
512.989866	2543.950233
513.354186	2548.469627
513.718449	2545.734801
514.082655	2548.028526
514.446803	2546.596839
514.810894	2549.964329
515.174927	2551.302756
515.538904	2548.217570
515.902822	2548.535162
516.266684	2549.281253
516.630488	2548.071376
516.994235	2549.586243
517.357925	2548.663712
517.721558	2548.658671
518.085133	2548.235214
518.448651	2550.002138
518.812112	2549.699669
519.175516	2548.928372
519.538863	2549.419885
519.902152	2550.052550
520.265385	2550.039947
520.628560	2548.827549
520.991678	2548.159596
521.354739	2550.959957
521.717743	2551.070863
522.080690	2549.886192
522.443580	2550.639844
522.806413	2547.471479
523.169189	2548.885522
523.531908	2549.500543
523.894569	2546.364946
524.257174	2550.803682
524.619722	2547.778989
524.982213	2549.036757
525.344647	2549.510626
525.707025	2549.147662
526.069345	2551.615307
526.431608	2549.152704
526.793815	2549.515667
527.155964	2551.466593
527.518057	2549.797971
527.880093	2552.865513
528.242072	2550.372663
528.603995	2551.431305
528.965860	2552.182437
529.327669	2550.952396
529.689421	2552.477345
530.051117	2549.369473
530.412755	2549.112374
530.774337	2548.247817
531.135862	2549.989535
531.497331	2551.534649
531.858743	2546.823691
532.220098	2547.534493
532.581396	2544.560212
532.942638	2549.019113
533.303824	2546.546427
533.664953	2550.705379
534.026025	2549.868547
534.387040	2549.155224
534.747999	2552.079093
535.108902	2548.870399
535.469748	2549.649257
535.830537	2553.765359
536.191270	2550.375183
536.551947	2552.744526
536.912567	2547.660522
537.273131	2551.857283
537.633638	2548.809905
537.994089	2549.397200
538.354483	2547.199257
538.714821	2552.179917
539.075103	2549.024154
539.435328	2550.972560
539.795497	2550.402910
540.155609	2550.662529
540.515665	2549.712272
540.875665	2550.019782
541.235609	2549.624052
541.595496	2552.099258
541.955328	2547.715975
542.315102	2550.453321
542.674821	2548.184802
543.034483	2550.859134
543.394090	2551.670760
543.753640	2549.228321
544.113134	2549.283774
544.472571	2551.272509
544.831953	2552.512633
545.191278	2548.948537
545.550548	2550.322251
545.909761	2551.421223
546.268918	2553.535987
546.628019	2551.733774
546.987064	2550.763352
547.346053	2549.465255
547.704986	2550.266799
548.063863	2551.232180
548.422684	2552.618497
548.781449	2549.281253
549.140158	2551.761501
549.498811	2550.927190
549.857408	2551.489278
550.215949	2550.231511
550.574434	2545.633978
550.932864	2549.399720
551.291237	2545.573484
551.649555	2551.126315
552.007817	2549.077086
552.366022	2552.003476
552.724173	2550.770914
553.082267	2552.595812
553.440305	2554.496327
553.798288	2551.653116
554.156215	2550.385266
554.514086	2551.716130
554.871902	2552.605894
555.229661	2550.372663
555.587365	2550.269319
555.945014	2552.179917
556.302606	2552.147149
556.660143	2551.501881
557.017625	2551.983312
557.375050	2552.409289
557.732421	2552.779814
558.089735	2553.326779
558.446994	2549.296377
558.804197	2551.708569
559.161345	2548.202446
559.518437	2553.644372
559.875474	2549.573640
560.232455	2553.215874
560.589381	2551.960626
560.946251	2553.273847
561.303065	2551.794268
561.659825	2551.242262
562.016528	2550.932231
562.373177	2551.511964
562.729770	2549.992056
563.086307	2551.748898
563.442789	2550.566747
563.799216	2551.244783
564.155587	2549.724875
564.511904	2549.334185
564.868164	2550.481048
565.224370	2554.261913
565.580520	2549.797971
565.936615	2552.384083
566.292654	2550.503733
566.648638	2550.261757
567.004567	2550.901984
567.360441	2551.083466
567.716260	2550.513815
568.072023	2551.083466
568.427732	2547.501726
568.783385	2549.336706
569.138982	2545.429812
569.494525	2546.395193
569.850013	2544.978628
570.205445	2553.803168
570.560823	2549.881150
570.916145	2552.613456
571.271412	2552.343754
571.626625	2552.011038
571.981782	2550.917107
572.336884	2554.093034
572.691931	2549.908877
573.046923	2549.306459
573.401860	2548.746891
573.756743	2550.665050
574.111570	2550.433157
574.466342	2551.620348
574.821059	2551.932900
575.175722	2554.050185
575.530330	2552.699155
575.884882	2549.734957
576.239380	2550.629762
576.593823	2550.876778
576.948211	2552.873075
577.302544	2552.207643
577.656823	2553.150339
578.011047	2548.550286
578.365216	2553.472973
578.719330	2551.038095
579.073389	2551.537169
579.427394	2551.461552
579.781344	2551.370811
580.135239	2550.168496
580.489080	2550.455842
580.842866	2551.078424
581.196597	2556.936245
581.550273	2548.837632
581.903895	2550.135729
582.257463	2552.462221
582.610975	2552.056408
582.964434	2551.774104
583.317837	2554.372818
583.671186	2552.820143
584.024481	2553.447767
584.377721	2552.933569
584.730906	2550.508774
585.084037	2549.709751
585.437113	2551.464073
585.790135	2554.904660
586.143103	2548.424257
586.496016	2551.529608
586.848874	2547.000131
587.201679	2549.553475
587.554428	2547.027857
587.907124	2550.402910
588.259765	2544.575336
588.612352	2551.887530
588.964884	2551.028013
589.317362	2552.043805
589.669786	2550.370142
590.022155	2552.273178
590.374470	2553.417520
590.726731	2554.156049
591.078937	2552.678991
591.431090	2552.056408
591.783188	2550.849052
592.135232	2551.234700
592.487222	2550.750749
592.839157	2552.857952
593.191038	2553.785524
593.542866	2553.788045
593.894639	2551.111192
594.246358	2550.012220
594.598022	2549.286294
594.949633	2553.102448
595.301190	2553.031872
595.652692	2552.200081
596.004141	2550.322251
596.355535	2550.899463
596.706876	2552.764690
597.058162	2552.212684
597.409395	2551.927859
597.760573	2552.603373
598.111698	2551.285112
598.462768	2552.386604
598.813785	2552.429454
599.164748	2550.576830
599.515657	2550.949875
599.866511	2554.879454
600.217312	2552.482386
600.568060	2551.098589
600.918753	2551.701007
601.269392	2550.357539
601.619978	2550.841490
601.970510	2552.318548
602.320988	2549.966850
602.671412	2551.958106
603.021783	2551.459032
603.372100	2551.706048
603.722363	2552.353836
604.072572	2552.542880
604.422728	2554.327448
604.772830	2548.333516
605.122878	2550.914587
605.472872	2549.603887
605.822813	2543.720860
606.172701	2550.052550
606.522534	2551.234700
606.872314	2550.836449
607.222041	2552.316028
607.571714	2552.598332
607.921333	2551.171686
608.270899	2549.777807
608.620411	2551.587581
608.969870	2553.573796
609.319276	2552.038764
609.668627	2557.536142
610.017926	2557.500854
610.367171	2557.929353
610.716362	2558.372974
611.065500	2557.911708
611.414585	2553.609084
611.763616	2556.459856
612.112594	2553.999773
612.461518	2555.993549
612.810389	2554.433312
613.159207	2554.887016
613.507971	2554.614794
613.856682	2554.463559
614.205340	2554.118240
614.553945	2555.847356
614.902496	2552.421892
615.250994	2553.553631
615.599439	2553.372149
615.947830	2552.847869
616.296169	2551.769062
616.644454	2551.935421
616.992686	2551.769062
617.340864	2553.157900
617.688990	2554.266954
618.037063	2551.189330
618.385082	2551.569937
618.733048	2552.298384
619.080961	2553.601522
619.428821	2554.541697
619.776628	2549.689587
620.124382	2556.187634
620.472083	2552.598332
620.819731	2553.803168
621.167326	2553.220915
621.514868	2553.273847
621.862357	2553.064639
622.209793	2551.285112
622.557176	2551.706048
622.904506	2548.893084
623.251783	2548.484751
623.599007	2548.260419
623.946179	2550.970040
624.293297	2550.934752
624.640363	2552.184958
624.987376	2552.358878
625.334336	2550.826367
625.681243	2553.596481
626.028097	2550.980122
626.374899	2554.647561
626.721647	2551.138918
627.068343	2552.016079
627.414987	2550.907025
627.761577	2554.004814
628.108115	2552.091696
628.454600	2552.452139
628.801032	2550.332334
629.147412	2552.689073
629.493739	2553.714948
629.840014	2553.495658
630.186236	2552.885678
630.532405	2553.649413
630.878521	2551.643034
631.224585	2552.837787
631.570597	2555.612942
631.916556	2550.692776
632.262462	2550.533980
632.608316	2553.079762
632.954117	2549.757642
633.299866	2551.766542
633.645562	2552.126984
633.991206	2552.573127
634.336797	2551.471634
634.682336	2549.399720
635.027823	2550.934752
635.373257	2550.377704
635.718639	2552.089176
636.063968	2552.545400
636.409245	2550.811243
636.754470	2554.249310
637.099642	2551.637993
637.444762	2551.496840
637.789829	2549.114895
638.134845	2551.751418
638.479808	2551.234700
638.824719	2550.423074
639.169577	2549.187992
639.514383	2551.481717
639.859137	2552.981460
640.203839	2554.012376
640.548489	2552.575647
640.893086	2548.431819
641.237632	2546.246478
641.582125	2550.559186
641.926566	2546.405275
642.270955	2552.779814
642.615292	2551.333003
642.959576	2553.087324
643.303809	2553.881306
643.647990	2550.690256
643.992118	2549.558517
644.336195	2552.041285
644.680219	2553.641851
645.024192	2553.268806
645.368112	2552.172355
645.711981	2551.864844
646.055797	2549.850903
646.399562	2550.176058
646.743274	2550.730585
647.086935	2552.573127
647.430544	2552.081614
647.774101	2550.566747
648.117606	2553.641851
648.461059	2554.335010
648.804460	2552.399207
649.147810	2550.637323
649.491108	2552.532797
649.834354	2553.001625
650.177548	2552.701676
650.520690	2552.580688
650.863781	2554.597150
651.206820	2554.642520
651.549807	2552.300904
651.892742	2551.741336
652.235626	2552.126984
652.578458	2551.872406
652.921238	2550.728064
653.263967	2550.629762
653.606644	2552.300904
653.949269	2552.719320
654.291843	2550.042467
654.634365	2551.045657
654.976836	2549.780327
655.319255	2552.041285
655.661622	2551.348126
656.003938	2551.716130
656.346203	2549.006510
656.688416	2551.176727
657.030577	2550.952396
657.372687	2551.068342
657.714746	2548.275543
658.056753	2551.441387
658.398708	2548.300749
658.740612	2548.404092
659.082465	2543.567105
659.424266	2550.297046
659.766016	2544.910573
660.107715	2552.084135
660.449362	2549.422405
660.790958	2551.726213
661.132503	2550.758311
661.473996	2551.091027
661.815438	2550.770914
662.156829	2554.024979
662.498168	2546.362425
662.839456	2552.575647
663.180693	2550.460883
663.521879	2550.793599
663.863013	2552.144628
664.204097	2549.417364
664.545129	2550.770914
664.886110	2550.602035
665.227040	2550.150852
665.567918	2552.694114
665.908746	2551.610266
666.249522	2551.622869
666.590248	2546.942158
666.930922	2546.896787
667.271545	2550.329813
667.612118	2553.563713
667.952639	2550.977601
668.293109	2553.223435
668.633528	2550.798640
668.973896	2549.866027
669.314213	2549.480379
669.654480	2551.459032
669.994695	2551.378373
670.334859	2550.838970
670.674973	2550.390307
671.015035	2550.864175
671.355047	2551.249824
671.695008	2551.030533
672.034918	2548.920811
672.374777	2551.242262
672.714585	2552.520194
673.054342	2551.698486
673.394049	2552.784855
673.733705	2553.122612
674.073310	2549.009031
674.412864	2552.285781
674.752368	2551.879968
675.091820	2551.542211
675.431223	2551.401058
675.770574	2549.508105
676.109875	2545.437373
676.449125	2547.675646
676.788324	2547.796633
677.127473	2547.899977
677.466571	2545.823022
677.805619	2550.705379
678.144616	2549.069525
678.483562	2550.677653
678.822458	2550.120605
679.161303	2550.985163
679.500098	2552.016079
679.838842	2553.493137
680.177535	2548.976263
680.516179	2548.313352
680.854771	2550.344937
681.193314	2549.908877
681.531805	2549.404761
681.870247	2551.070863
682.208638	2550.453321
682.546978	2552.631100
682.885268	2551.053219
683.223508	2549.576161
683.561697	2550.108002
683.899836	2551.075904
684.237925	2549.319062
684.575963	2548.930893
684.913951	2550.917108
685.251889	2551.065822
685.589776	2548.721685
685.927614	2550.571788
686.265401	2549.351829
686.603137	2550.476007
686.940824	2548.073897
687.278460	2547.647919
687.616046	2551.028013
687.953582	2549.989535
688.291068	2548.199926
688.628504	2550.047508
688.965889	2549.228321
689.303224	2550.138249
689.640510	2549.124977
689.977745	2549.921480
690.314930	2550.402910
690.652065	2551.443908
690.989150	2550.725544
691.326185	2550.932231
691.663170	2550.667570
692.000105	2554.012376
692.336990	2550.100441
692.673825	2551.562375
693.010610	2552.313507
693.347345	2549.092210
693.684030	2547.400903
694.020665	2549.528270
694.357251	2545.714637
694.693786	2547.153886
695.030272	2550.155893
695.366707	2551.020451
695.703093	2548.578012
696.039429	2549.843342
696.375716	2551.055739
696.711952	2546.133052
697.048139	2552.482386
697.384276	2551.809392
697.720363	2547.564740
698.056400	2550.123126
698.392388	2550.302087
698.728326	2551.252344
699.064214	2549.871068
699.400053	2552.094217
699.735842	2550.566747
700.071581	2549.757642
700.407270	2549.906356
700.742910	2551.665719
701.078501	2549.324103
701.414042	2550.846531
701.749533	2550.743188
702.084974	2548.378887
702.420366	2550.367622
702.755709	2550.488609
703.091002	2549.898794
703.426246	2549.785368
703.761440	2549.175389
704.096584	2549.674463
704.431679	2551.758980
704.766725	2548.885522
705.101721	2548.232693
705.436668	2552.265616
705.771565	2548.782179
706.106413	2549.893753
706.441212	2549.966850
706.775961	2548.184802
707.110661	2551.973229
707.445311	2550.332334
707.779913	2548.146993
708.114465	2551.297715
708.448967	2548.751932
708.783421	2549.233362
709.117825	2549.251006
709.452180	2550.382745
709.786485	2549.634134
710.120742	2547.554658
710.454949	2549.591284
710.789107	2545.195398
711.123216	2547.050542
711.457275	2549.308979
711.791286	2547.529452
712.125247	2547.887374
712.459159	2550.355019
712.793023	2546.143135
713.126837	2549.702189
713.460602	2549.072045
713.794318	2548.666232
714.127985	2549.682025
714.461602	2550.619679
714.795171	2546.485933
715.128691	2551.406099
715.462162	2547.879812
715.795584	2550.105482
716.128957	2549.964329
716.462281	2550.647406
716.795556	2546.904349
717.128782	2548.290666
717.461960	2549.712272
717.795088	2547.577343
718.128167	2551.128836
718.461198	2550.541542
718.794180	2549.734957
719.127113	2546.881664
719.459997	2549.901315
719.792833	2550.014741
720.125619	2551.232180
720.458357	2549.881150
720.791046	2552.222766
721.123686	2548.724206
721.456278	2548.585574
721.788821	2550.450801
722.121315	2548.804864
722.453761	2551.539690
722.786158	2547.484082
723.118506	2547.300080
723.450805	2549.044319
723.783056	2549.009031
724.115259	2548.257899
724.447412	2549.659340
724.779518	2549.550955
725.111574	2548.996428
725.443582	2549.750080
725.775542	2546.082641
726.107453	2550.501212
726.439315	2548.804864
726.771129	2554.680329
727.102895	2548.633465
727.434612	2550.092879
727.766281	2550.183620
728.097901	2546.559030
728.429473	2545.961653
728.760996	2546.533824
729.092471	2544.676159
729.423897	2548.479710
729.755276	2548.802343
730.086606	2547.378217
730.417887	2548.920811
730.749120	2547.158927
731.080305	2551.829556
731.411442	2548.494833
731.742530	2549.089689
732.073570	2550.937272
732.404562	2551.234700
732.735506	2549.911397
733.066401	2551.353167
733.397249	2549.838301
733.728048	2551.345606
734.058798	2549.813095
734.389501	2548.940975
734.720156	2549.803012
735.050762	2548.162117
735.381320	2550.634803
735.711831	2548.053732
736.042293	2549.356870
736.372707	2548.295707
736.703073	2549.530790
737.033391	2550.506253
737.363661	2548.797302
737.693883	2551.098589
738.024056	2553.112530
738.354182	2545.076931
738.684260	2550.024823
739.014290	2547.320244
739.344272	2549.140101
739.674207	2546.778320
740.004093	2547.884853
740.333931	2549.031716
740.663722	2550.985163
740.993464	2547.771428
741.323159	2551.350647
741.652806	2549.054401
741.982405	2548.998948
742.311956	2550.095399
742.641460	2545.530635
742.970915	2548.020965
743.300323	2550.108002
743.629683	2549.377035
743.958996	2547.778989
744.288260	2548.141952
744.617477	2547.836963
744.946647	2541.548123
745.275768	2544.875285
745.604842	2545.661705
745.933869	2545.853268
746.262847	2544.245140
746.591778	2550.743188
746.920662	2548.499874
747.249498	2546.952240
747.578286	2547.282436
747.907027	2549.021634
748.235720	2546.838814
748.564365	2548.504915
748.892963	2548.565409
749.221514	2549.949206
749.550017	2548.625903
749.878473	2548.832590
750.206881	2549.634134
750.535242	2548.905687
750.863555	2549.135060
751.191821	2546.821170
751.520039	2547.239586
751.848210	2549.979453
752.176334	2546.851417
752.504411	2549.235883
752.832440	2548.421736
753.160421	2549.124977
753.488356	2549.094730
753.816243	2550.047508
754.144082	2548.404092
754.471875	2547.910059
754.799620	2549.949206
755.127318	2548.774617
755.454969	2546.833773
755.782572	2548.638506
756.110129	2549.092210
756.437638	2547.668084
756.765100	2549.412323
757.092515	2548.358722
757.419882	2548.300749
757.747203	2545.855789
758.074477	2547.854607
758.401703	2547.642878
758.728882	2545.155069
759.056014	2547.494164
759.383099	2548.242775
759.710138	2549.629093
760.037129	2547.627755
760.364073	2549.684545
760.690970	2548.187323
761.017820	2549.036757
761.344623	2549.447611
761.671379	2548.509957
761.998088	2544.419060
762.324751	2545.271015
762.651366	2546.173382
762.977935	2544.960984
763.304456	2546.211190
763.630931	2548.699000
763.957359	2549.051881
764.283740	2550.327292
764.610074	2549.233362
764.936362	2547.826880
765.262602	2548.026006
765.588796	2550.337375
765.914943	2549.961809
766.241044	2546.586756
766.567097	2548.641027
766.893104	2547.947868
767.219064	2547.216901
767.544978	2548.792261
767.870845	2548.383928
768.196665	2546.027188
768.522438	2548.686397
768.848165	2548.958619
769.173846	2548.762014
769.499479	2549.727395
769.825066	2549.127498
770.150607	2547.211859
770.476101	2547.801674
770.801548	2551.212015
771.126949	2547.458876
771.452303	2546.521221
771.777611	2546.080120
772.102872	2546.589277
772.428087	2547.574822
772.753256	2545.540717
773.078378	2549.147663
773.403453	2548.870399
773.728482	2548.739329
774.053465	2547.715975
774.378401	2548.076417
774.703291	2547.975594
775.028135	2548.058773
775.352932	2548.247817
775.677683	2547.804195
776.002388	2547.446273
776.327046	2549.359391
776.651658	2545.583567
776.976224	2551.179248
777.300743	2547.025337
777.625216	2547.068187
777.949643	2548.961140
778.274024	2549.860986
778.598359	2543.297403
778.922647	2543.761190
779.246889	2546.168341
779.571086	2543.136087
779.895236	2545.323947
780.219339	2546.722867
780.543397	2548.091541
780.867409	2549.122457
781.191374	2546.947199
781.515294	2544.978628
781.839167	2549.203115
782.162995	2548.560368
782.486776	2546.125491
782.810511	2547.209339
783.134201	2545.830583
783.457844	2547.690769
783.781441	2546.208670
784.104993	2548.819987
784.428498	2548.232693
784.751958	2548.018444
785.075372	2549.598846
785.398739	2547.731098
785.722061	2548.434339
786.045337	2549.087169
786.368568	2546.536345
786.691752	2547.688248
787.014891	2545.646581
787.337983	2546.387631
787.661030	2548.686397
787.984031	2549.157745
788.306987	2548.426778
788.629897	2549.107333
788.952760	2547.945347
789.275579	2547.718495
789.598351	2550.760832
789.921078	2547.650440
790.243759	2546.889226
790.566395	2546.722867
790.888984	2546.369987
791.211529	2548.731767
791.534027	2550.231511
791.856480	2547.063145
792.178888	2550.271840
792.501249	2546.853937
792.823566	2549.838301
793.145836	2547.892415
793.468062	2549.503064
793.790241	2547.128680
794.112375	2550.680173
794.434464	2547.489123
794.756507	2544.955943
795.078505	2546.082641
795.400457	2545.810419
795.722364	2543.738504
796.044226	2545.639019
796.366042	2541.878319
796.687812	2544.547610
797.009538	2547.242106
797.331218	2547.368135
797.652852	2545.248330
797.974442	2550.072714
798.295986	2544.892929
798.617484	2548.141952
798.938938	2548.865358
799.260346	2547.378218
799.581709	2546.861499
799.903026	2549.999618
800.224299	2545.933927
800.545526	2548.139432
800.866708	2544.731612
801.187845	2547.451314
801.508936	2545.870913
801.829983	2546.347302
802.150984	2546.538865
802.471940	2547.678166
802.792851	2542.705068
803.113717	2548.625903
803.434538	2547.632796
803.755314	2550.579350
804.076045	2545.334030
804.396731	2547.315203
804.717372	2547.516849
805.037967	2546.153217
805.358518	2546.054915
805.679024	2547.869730
805.999485	2548.416695
806.319901	2549.296377
806.640272	2542.364790
806.960598	2545.132383
807.280879	2545.593649
807.601115	2547.589946
807.921306	2547.068187
808.241453	2547.814277
808.561554	2547.325285
808.881611	2545.628937
809.201623	2549.256047
809.521590	2547.973074
809.841513	2545.749925
810.161390	2545.969215
810.481223	2547.980635
810.801011	2547.143804
811.120755	2543.892260
811.440453	2548.237734
811.760107	2546.758156
812.079716	2543.047866
812.399281	2540.363452
812.718801	2544.658515
813.038276	2544.471992
813.357707	2542.868905
813.677093	2548.036088
813.996434	2546.001983
814.315731	2545.870912
814.634983	2547.660522
814.954191	2548.136911
815.273354	2545.392003
815.592473	2547.262271
815.911547	2545.134904
816.230577	2546.402754
816.549562	2547.302600
816.868502	2545.717157
817.187399	2546.957281
817.506250	2546.939637
817.825058	2546.057435
818.143821	2547.582384
818.462539	2546.503577
818.781213	2546.954761
819.099843	2546.128011
819.418429	2545.283618
819.736970	2546.571633
820.055466	2544.494677
820.373919	2550.002138
820.692327	2548.756973
821.010691	2548.124308
821.329011	2547.267312
821.647286	2549.132539
821.965517	2549.893753
822.283704	2549.039278
822.601847	2549.392158
822.919945	2548.905687
823.237999	2548.194884
823.556010	2551.080945
823.873976	2548.905687
824.191897	2547.481561
824.509775	2548.499874
824.827609	2546.954761
825.145398	2544.235058
825.463144	2546.647250
825.780845	2545.470141
826.098502	2550.039947
826.416116	2548.610780
826.733685	2545.449976
827.051210	2548.262940
827.368692	2547.098433
827.686129	2547.731098
828.003522	2549.467776
828.320872	2543.108360
828.638177	2544.993752
828.955439	2544.421581
829.272656	2543.899821
829.589830	2542.387475
829.906960	2544.240099
830.224046	2545.467620
830.541088	2545.833104
830.858086	2545.465100
831.175041	2547.126160
831.491952	2548.509957
831.808819	2543.957795
832.125642	2546.836293
832.442421	2546.148176
832.759157	2546.334699
833.075849	2546.848896
833.392497	2547.700851
833.709101	2548.222611
834.025662	2543.672969
834.342179	2546.246478
834.658653	2546.102806
834.975083	2548.817467
835.291469	2550.594474
835.607811	2546.080120
835.924110	2546.206149
836.240366	2547.451314
836.556578	2545.006355
836.872746	2544.083823
837.188871	2546.337219
837.504952	2547.075748
837.820990	2546.090203
838.136984	2546.453166
838.452935	2547.209339
838.768842	2547.799154
839.084706	2547.272353
839.400526	2546.611962
839.716303	2546.450645
840.032037	2545.654143
840.347727	2544.119112
840.663373	2542.533669
840.978977	2544.275387
841.294537	2545.714637
841.610054	2544.630789
841.925527	2547.398382
842.240957	2543.980480
842.556344	2546.228834
842.871687	2544.955943
843.186987	2548.310831
843.502244	2547.345450
843.817458	2542.747918
844.132629	2545.949050
844.447756	2545.029040
844.762840	2543.478885
845.077881	2545.102137
845.392879	2543.864533
845.707833	2544.890408
846.022745	2542.563916
846.337613	2545.649102
846.652438	2546.380069
846.967221	2543.428473
847.281960	2545.331509
847.596656	2546.861499
847.911309	2546.551468
848.225919	2545.397044
848.540485	2546.856458
848.855009	2545.855789
849.169490	2542.107691
849.483928	2544.567774
849.798323	2543.083154
850.112675	2546.569112
850.426984	2544.323278
850.741251	2546.044832
851.055474	2545.003834
851.369654	2546.133052
851.683792	2546.105326
851.997887	2542.591642
852.311938	2547.390820
852.625947	2546.806047
852.939914	2544.051056
853.253837	2545.923845
853.567718	2543.521735
853.881555	2545.724719
854.195350	2543.761190
854.509103	2546.395193
854.822812	2547.146324
855.136479	2547.274874
855.450103	2545.485264
855.763685	2548.081458
856.077224	2546.183464
856.390720	2548.061294
856.704173	2544.461910
857.017584	2543.635161
857.330953	2544.575336
857.644278	2547.075748
857.957561	2549.440049
858.270802	2542.395037
858.584000	2544.920655
858.897155	2544.908052
859.210268	2545.200439
859.523339	2545.606252
859.836367	2545.316386
860.149352	2546.387631
860.462295	2547.690769
860.775195	2540.711292
861.088054	2538.039480
861.400869	2542.384955
861.713642	2540.242464
862.026373	2544.527445
862.339062	2544.938299
862.651708	2548.114226
862.964312	2546.138094
863.276873	2545.964174
863.589392	2544.562733
863.901869	2545.432332
864.214303	2547.111036
864.526696	2547.015254
864.839045	2545.840666
865.151353	2545.840666
865.463619	2546.077600
865.775842	2545.671787
866.088023	2542.710109
866.400162	2547.542055
866.712258	2547.567261
867.024313	2546.798485
867.336325	2544.424101
867.648296	2544.343443
867.960224	2548.262940
868.272110	2546.173382
868.583954	2544.648433
868.895755	2543.262115
869.207515	2545.205480
869.519233	2544.076262
869.830909	2546.213711
870.142542	2546.596839
870.454134	2545.613814
870.765684	2545.938968
871.077191	2543.269677
871.388657	2547.080789
871.700081	2545.449976
872.011463	2543.554502
872.322803	2543.524255
872.634101	2544.787064
872.945357	2544.295552
873.256571	2545.729760
873.567744	2543.761190
873.878874	2546.473330
874.189963	2546.213711
874.501010	2546.838814
874.812015	2543.385624
875.122979	2545.288659
875.433900	2544.837476
875.744780	2544.537527
876.055618	2544.834955
876.366415	2543.531817
876.677169	2545.447456
876.987882	2544.804708
877.298554	2539.435880
877.609183	2541.969059
877.919771	2540.585263
878.230317	2542.763041
878.540822	2547.053063
878.851285	2546.314534
879.161707	2543.551982
879.472087	2545.507949
879.782425	2545.611293
880.092722	2547.741181
880.402977	2544.751776
880.713191	2544.204811
881.023363	2548.000800
881.333494	2546.470810
881.643583	2546.521221
881.953631	2546.864020
882.263637	2546.115408
882.573602	2547.131201
882.883526	2546.634647
883.193408	2546.836293
883.503248	2546.007024
883.813048	2547.814277
884.122806	2544.610624
884.432522	2542.763041
884.742197	2545.127342
885.051831	2547.098433
885.361424	2547.156407
885.670975	2545.376879
885.980485	2542.447969
886.289954	2543.819163
886.599382	2544.655994
886.908768	2544.240099
887.218113	2544.638350
887.527417	2545.737322
887.836680	2543.471323
888.145901	2543.922507
888.455082	2542.841179
888.764221	2543.304965
889.073319	2545.376879
889.382376	2543.791437
889.691392	2541.979142
890.000366	2546.019627
890.309300	2543.216745
890.618193	2544.598021
890.927044	2544.666077
891.235855	2545.291180
891.544625	2545.449976
891.853353	2545.074410
892.162041	2543.420912
892.470687	2546.233876
892.779293	2545.795295
893.087858	2544.144317
893.396381	2542.339584
893.704864	2539.393030
894.013306	2540.678524
894.321707	2545.669266
894.630068	2543.642723
894.938387	2544.991231
895.246665	2544.852599
895.554903	2542.707588
895.863100	2546.047353
896.171256	2543.879657
896.479371	2544.910573
896.787446	2542.957126
897.095480	2544.834955
897.403473	2545.775131
897.711425	2542.624409
898.019336	2546.022147
898.327207	2546.513660
898.635038	2545.974256
898.942827	2543.342774
899.250576	2542.906714
899.558284	2544.290511
899.865952	2544.368649
900.173579	2545.891077
900.481165	2544.668597
900.788711	2542.911755
901.096216	2546.425439
901.403681	2545.041643
901.711105	2544.414019
902.018489	2546.760676
902.325832	2547.776469
902.633135	2544.040974
902.940397	2548.560368
903.247619	2544.159441
903.554800	2543.776313
903.861941	2541.041487
904.169041	2546.924514
904.476101	2544.890408
904.783121	2545.976777
905.090100	2544.862682
905.397039	2544.257743
905.703938	2546.339740
906.010796	2545.901159
906.317614	2543.509132
906.624391	2545.341591
906.931129	2544.456869
907.237826	2547.138763
907.544483	2545.525593
907.851099	2544.744215
908.157675	2544.179605
908.464211	2542.687424
908.770707	2542.221117
909.077163	2542.488298
909.383578	2540.010571
909.689954	2539.708102
909.996289	2539.115766
910.302584	2541.873278
910.608839	2543.098278
910.915054	2542.205994
911.221229	2543.468803
911.527363	2545.202960
911.833458	2541.774975
912.139513	2544.217414
912.445527	2544.280428
912.751502	2544.698844
913.057436	2542.377393
913.363331	2544.839997
913.669186	2542.558874
913.975000	2542.959646
914.280775	2541.308668
914.586510	2542.208514
914.892205	2545.127342
915.197859	2544.497198
915.503475	2546.783361
915.809050	2544.106509
916.114585	2543.932589
916.420081	2544.343443
916.725536	2548.293187
917.030952	2545.684390
917.336328	2541.469985
917.641665	2545.112219
917.946961	2546.359904
918.252218	2543.506611
918.557435	2546.122970
918.862612	2546.632127
919.167750	2544.698844
919.472848	2542.142979
919.777906	2542.354708
920.082925	2543.463762
920.387904	2542.831097
920.692843	2540.426466
920.997743	2545.442414
921.302603	2543.224307
921.607423	2543.332692
921.912204	2542.508463
922.216946	2541.752290
922.521647	2543.627599
922.826310	2543.050387
923.130932	2545.661705
923.435516	2542.291693
923.740059	2543.194060
924.044564	2543.856972
924.349028	2542.011909
924.653454	2538.714995
924.957840	2540.620551
925.262186	2538.904038
925.566493	2541.608617
925.870761	2538.278935
926.174989	2543.768751
926.479178	2544.630789
926.783328	2543.957795
927.087438	2543.904862
927.391509	2544.343443
927.695541	2541.848072
927.999533	2540.691127
928.303486	2542.972249
928.607400	2543.862013
928.911275	2542.455531
929.215110	2543.481406
929.518906	2540.597866
929.822663	2544.852599
930.126381	2544.184647
930.430060	2543.713299
930.733699	2542.798329
931.037299	2541.354039
931.340861	2544.736653
931.644383	2540.736497
931.947866	2544.066179
932.251309	2544.139276
932.554714	2541.197763
932.858080	2545.712116
933.161407	2543.683052
933.464694	2545.245809
933.767943	2543.236910
934.071153	2543.887218
934.374323	2544.030891
934.677455	2541.157434
934.980548	2545.192877
935.283602	2542.085006
935.586617	2542.894111
935.889593	2542.400078
936.192530	2541.611138
936.495428	2544.575336
936.798287	2540.663401
937.101108	2543.872095
937.403890	2541.117104
937.706632	2542.952084
938.009336	2543.373021
938.312002	2543.468803
938.614628	2542.944523
938.917216	2543.486447
939.219765	2541.873277
939.522275	2542.760521
939.824747	2542.352187
940.127179	2541.391847
940.429573	2539.128369
940.731929	2540.597866
941.034246	2539.864378
941.336524	2542.407640
941.638763	2542.546272
941.940964	2539.309851
942.243126	2541.676673
942.545250	2542.752959
942.847335	2543.005017
943.149381	2544.388813
943.451389	2542.417722
943.753359	2542.579039
944.055290	2541.558205
944.357182	2541.568288
944.659036	2542.889070
944.960851	2543.496529
945.262628	2543.869574
945.564367	2544.509801
945.866067	2541.722043
946.167729	2540.653318
946.469352	2540.081147
946.770937	2542.498381
947.072484	2542.422763
947.373992	2543.085675
947.675462	2541.023843
947.976893	2541.696837
948.278286	2539.332536
948.579641	2542.717671
948.880958	2544.063659
949.182236	2541.119625
949.483476	2540.852444
949.784678	2541.699358
950.085841	2543.466282
950.386967	2543.194060
950.688054	2542.745397
950.989103	2543.557023
951.290114	2540.537372
951.591087	2541.787578
951.892021	2541.081816
952.192917	2543.980480
952.493776	2540.343287
952.794596	2541.543082
953.095378	2543.042825
953.396122	2541.981662
953.696828	2542.994934
953.997496	2541.270860
954.298126	2543.637681
954.598718	2544.103988
954.899272	2541.560726
955.199788	2543.156251
955.500266	2542.095088
955.800706	2538.616692
956.101108	2539.022505
956.401472	2540.081147
956.701798	2537.820190
957.002087	2542.624409
957.302337	2543.940151
957.602550	2542.148020
957.902724	2541.840510
958.202861	2541.190201
958.502960	2543.549461
958.803022	2542.783206
959.103045	2540.184491
959.403031	2544.313196
959.702979	2542.369831
960.002889	2543.383103
960.302762	2540.796991
960.602596	2543.068031
960.902393	2541.222969
961.202153	2541.356559
961.501875	2544.872764
961.801559	2541.545603
962.101205	2544.348484
962.400814	2543.100798
962.700385	2542.793288
962.999918	2541.157434
963.299414	2542.475695
963.598873	2542.382434
963.898293	2539.463606
964.197677	2542.553833
964.497022	2539.781199
964.796331	2542.175747
965.095601	2542.647095
965.394835	2541.079296
965.694030	2540.612989
965.993189	2542.584080
966.292309	2540.842362
966.591393	2542.604245
966.890439	2541.994265
967.189447	2542.548792
967.488419	2539.755993
967.787353	2540.650798
968.086249	2543.161292
968.385108	2541.880839
968.683930	2541.651467
968.982714	2541.868236
969.281462	2543.153731
969.580172	2542.374872
969.878844	2542.823535
970.177480	2541.086857
970.476078	2542.626930
970.774639	2541.802701
971.073162	2540.202135
971.371649	2537.172402
971.670098	2537.164840
971.968510	2537.855478
972.266885	2537.797505
972.565223	2541.580891
972.863524	2539.456044
973.161788	2542.521066
973.460014	2542.984852
973.758204	2541.404450
974.056356	2539.077958
974.354471	2542.170706
974.652550	2542.160623
974.950591	2539.710623
975.248595	2540.754141
975.546563	2544.499719
975.844493	2538.621733
976.142386	2539.695499
976.440243	2538.541075
976.738062	2541.583411
977.035845	2538.654501
977.333590	2542.412681
977.631299	2544.177085
977.928971	2542.722712
978.226606	2541.442259
978.524204	2541.767413
978.821765	2544.179605
979.119290	2542.596683
979.416777	2539.937474
979.714228	2540.247505
980.011642	2542.100129
980.309020	2543.708258
980.606360	2541.437218
980.903664	2541.354039
981.200931	2539.849254
981.498162	2538.863709
981.795356	2540.560057
982.092513	2541.936292
982.389633	2540.055942
982.686717	2542.616848
982.983764	2540.499563
983.280775	2542.387475
983.577749	2542.952084
983.874686	2544.189688
984.171587	2538.611651
984.468451	2541.850592
984.765279	2542.422763
985.062070	2542.132897
985.358824	2542.581560
985.655543	2542.752959
985.952224	2542.067362
986.248869	2542.233720
986.545478	2536.635519
986.842050	2540.146682
987.138586	2537.832793
987.435086	2536.930426
987.731549	2535.566794
988.027975	2544.051056
988.324366	2542.997455
988.620719	2541.830428
988.917037	2541.777496
989.213318	2541.023843
989.509563	2538.740200
989.805772	2543.642722
990.101944	2538.823379
990.398080	2541.749769
990.694180	2540.771785
990.990244	2541.510314
991.286271	2540.875129
991.582262	2541.081816
991.878217	2540.091230
992.174136	2541.485109
992.470019	2540.313040
992.765865	2541.512835
993.061676	2540.986034
993.357450	2539.879501
993.653188	2541.875798
993.948890	2540.073586
994.244556	2540.396219
994.540186	2542.291693
994.835780	2540.471837
995.131337	2541.938812
995.426859	2540.791950
995.722345	2537.840354
996.017795	2542.011909
996.313208	2542.873947
996.608586	2541.323792
996.903928	2539.803884
997.199234	2538.873791
997.494504	2539.934954
997.789738	2539.816487
998.084936	2542.024512
998.380099	2539.468647
998.675225	2539.027546
998.970316	2541.908566
999.265371	2543.226827
999.560390	2543.342774
999.855373	2543.257074
1000.150320	2542.631971
1000.445232	2540.686086
1000.740108	2540.799512
1001.034948	2541.152393
1001.329752	2541.543082
1001.624521	2541.492670
1001.919254	2536.171732
1002.213951	2540.227341
1002.508613	2536.595189
1002.803239	2541.437218
1003.097829	2538.220962
1003.392384	2542.672300
1003.686903	2540.098791
1003.981386	2541.354039
1004.275834	2541.081816
1004.570246	2541.059131
1004.864623	2541.757331
1005.158964	2540.164326
1005.453270	2539.274563
1005.747540	2540.527289
1006.041775	2541.452341
1006.335974	2540.219779
1006.630138	2541.452341
1006.924266	2541.089378
1007.218359	2542.447969
1007.512416	2541.359080
1007.806438	2541.477547
1008.100425	2540.996117
1008.394376	2538.795653
1008.688292	2541.538041
1008.982172	2540.426466
1009.276017	2542.694986
1009.569827	2540.434028
1009.863602	2543.718340
1010.157341	2540.275232
1010.451045	2538.994779
1010.744714	2540.038297
1011.038347	2541.273380
1011.331945	2539.894625
1011.625508	2541.603576
1011.919036	2539.950077
1012.212528	2539.753472
1012.505986	2542.584080
1012.799408	2541.041487
1013.092795	2541.293545
1013.386147	2540.126518
1013.679464	2542.208514
1013.972745	2541.011240
1014.265992	2541.195242
1014.559204	2542.581560
1014.852380	2541.167516
1015.145521	2538.830941
1015.438628	2540.161806
1015.731699	2541.268339
1016.024736	2541.260777
1016.317737	2542.475695
1016.610703	2542.263967
1016.903635	2537.779861
1017.196531	2535.367668
1017.489393	2538.115097
1017.782219	2537.159799
1018.075011	2538.853626
1018.367768	2540.275232
1018.660490	2540.544933
1018.953177	2540.544933
1019.245829	2540.544933
