Dividing Wavelength (nm)	Counts (n)	Blue Motor Position (mm): 15.400000	Red Motor Position (mm): 0.000000	
326.493990	2057.546942
326.888308	2057.546942
327.282561	2057.546942
327.676750	2034.400484
328.070874	2038.095650
328.464933	2043.708975
328.858929	2054.733978
329.252859	2063.797973
329.646726	2075.054870
330.040528	2094.647314
330.434265	2109.591815
330.827938	2129.799280
331.221547	2152.106386
331.615091	2171.729077
332.008571	2193.116172
332.401986	2214.283977
332.795338	2230.902141
333.188625	2252.846283
333.581847	2270.084509
333.975006	2290.864145
334.368100	2307.865437
334.761129	2321.206850
335.154095	2338.162771
335.546996	2381.977960
335.939833	2464.592389
336.332606	2473.590849
336.725315	2484.913280
337.117960	2497.216216
337.510540	2508.173164
337.903056	2515.089627
338.295508	2523.657068
338.687896	2533.938501
339.080220	2533.094108
339.472480	2539.735828
339.864676	2541.285983
340.256807	2546.730429
340.648875	2547.733619
341.040879	2545.192877
341.432818	2551.171686
341.824694	2548.068856
342.216506	2549.886192
342.608253	2548.502395
342.999937	2549.119936
343.391557	2549.734957
343.783113	2547.806716
344.174605	2541.822866
344.566033	2542.248843
344.957397	2542.967208
345.348697	2541.316230
345.739934	2537.371527
346.131106	2537.394212
346.522215	2536.547298
346.913260	2537.182484
347.304241	2532.020342
347.695159	2531.745599
348.086012	2528.836854
348.476802	2526.769981
348.867528	2522.472397
349.258191	2518.033661
349.648789	2520.375277
350.039324	2514.784637
350.429796	2523.518436
350.820203	2521.716224
351.210548	2520.604649
351.600828	2520.221522
351.991045	2517.648013
352.381198	2518.837725
352.771288	2519.041892
353.161314	2516.296983
353.551276	2514.008300
353.941175	2514.716582
354.331010	2516.153311
354.720782	2519.208250
355.110490	2520.783610
355.500135	2516.294463
355.889717	2516.075173
356.279235	2519.203209
356.668689	2518.754546
357.058080	2518.205060
357.447408	2519.419978
357.836672	2516.019720
358.225873	2520.614732
358.615010	2519.745133
359.004084	2519.200688
359.393095	2520.350071
359.782043	2521.542304
360.170927	2520.314783
360.559748	2521.963240
360.948505	2521.935514
361.337199	2522.553055
361.725830	2522.300998
362.114398	2523.127747
362.502903	2525.144208
362.891344	2527.586647
363.279722	2524.133457
363.668037	2527.551359
364.056289	2528.244518
364.444478	2527.526154
364.832603	2526.739734
365.220665	2525.996163
365.608665	2526.845598
365.996601	2525.774353
366.384474	2529.577903
366.772284	2530.714683
367.160031	2526.376771
367.547715	2530.286185
367.935336	2532.088398
368.322893	2529.850126
368.710388	2527.412728
369.097820	2529.756864
369.485189	2526.233098
369.872495	2533.159643
370.259738	2532.600075
370.646918	2536.670807
371.034035	2531.833820
371.421090	2534.104859
371.808081	2529.225022
372.195010	2532.385826
372.581875	2534.941691
372.968678	2531.425486
373.355418	2530.669313
373.742096	2533.159643
374.128710	2533.562935
374.515262	2535.965045
374.901751	2533.313398
375.288177	2535.032432
375.674540	2533.620909
376.060841	2536.504449
376.447079	2536.640560
376.833254	2534.339273
377.219367	2537.096784
377.605417	2539.075437
377.991404	2538.641898
378.377329	2537.011085
378.763191	2535.100487
379.148991	2534.412370
379.534727	2535.534027
379.920402	2537.633667
380.306013	2536.658204
380.691563	2540.098791
381.077049	2537.928575
381.462474	2537.623585
381.847835	2537.416898
382.233134	2540.255067
382.618371	2536.738862
383.003545	2535.712988
383.388657	2538.420087
383.773706	2540.411343
384.158693	2539.052752
384.543618	2539.566950
384.928480	2541.785057
385.313280	2538.324305
385.698017	2538.939326
386.082692	2542.621889
386.467305	2540.028215
386.851856	2541.215407
387.236344	2540.315561
387.620770	2539.526620
388.005133	2538.513348
388.389435	2538.757844
388.773674	2535.304654
389.157851	2542.987373
389.541965	2541.777496
389.926018	2542.261446
390.310008	2543.443597
390.693936	2543.022661
391.077802	2544.782023
391.461606	2544.290511
391.845348	2544.930737
392.229027	2545.074410
392.612645	2545.795295
392.996200	2543.007537
393.379694	2546.153217
393.763125	2546.516180
394.146494	2544.988711
394.529801	2545.248330
394.913047	2548.046170
395.296230	2543.824204
395.679351	2543.819163
396.062410	2547.957950
396.445408	2545.303783
396.828343	2546.024668
397.211217	2545.392003
397.594028	2548.875440
397.976778	2543.378062
398.359466	2546.715306
398.742092	2545.749925
399.124656	2547.763866
399.507158	2548.383928
399.889598	2548.802343
400.271977	2546.944678
400.654294	2546.730429
401.036549	2548.270502
401.418742	2549.813095
401.800874	2548.514998
402.182944	2547.239586
402.564952	2547.990718
402.946898	2550.544062
403.328783	2550.286963
403.710606	2547.017775
404.092367	2550.599515
404.474067	2549.934082
404.855705	2552.016079
405.237282	2548.794782
405.618797	2551.176727
406.000250	2550.957437
406.381642	2552.991542
406.762972	2547.105995
407.144240	2544.754297
407.525447	2549.835780
407.906593	2545.752445
408.287677	2550.281922
408.668700	2550.801161
409.049661	2551.494320
409.430560	2551.769062
409.811399	2556.011193
410.192176	2553.213353
410.572891	2552.908363
410.953545	2553.689742
411.334138	2554.713096
411.714669	2551.688404
412.095139	2554.720658
412.475547	2554.680329
412.855894	2555.668395
413.236180	2552.328631
413.616405	2553.404917
413.996568	2553.856100
414.376670	2555.738971
414.756711	2553.735112
415.136691	2555.393652
415.516609	2556.159908
415.896466	2554.750905
416.276262	2553.150339
416.655997	2555.509599
417.035670	2556.245607
417.415283	2553.475493
417.794834	2554.166131
418.174324	2554.118240
418.553753	2556.041440
418.933121	2554.423230
419.312428	2556.386759
419.691674	2556.306101
420.070859	2556.611091
420.449983	2554.672767
420.829045	2554.637479
421.208047	2558.010011
421.586988	2559.492110
421.965867	2558.188972
422.344686	2556.124619
422.723444	2558.599826
423.102141	2556.739640
423.480777	2555.597819
423.859352	2556.049002
424.237866	2555.640669
424.616319	2558.703170
424.994712	2558.572100
425.373044	2557.062274
425.751314	2554.990360
426.129524	2551.738816
426.507673	2555.154197
426.885762	2551.459032
427.263789	2556.963972
427.641756	2554.478683
428.019662	2555.549928
428.397508	2557.009342
428.775292	2556.011193
429.153016	2554.821481
429.530679	2558.504044
429.908282	2557.931873
430.285824	2554.269475
430.663305	2555.799465
431.040726	2556.414486
431.418086	2557.964641
431.795385	2557.460525
432.172624	2557.563869
432.549802	2558.531770
432.926920	2556.031358
433.303977	2557.021945
433.680974	2557.367264
434.057910	2555.176882
434.434786	2556.739640
434.811601	2556.724517
435.188355	2556.089331
435.565050	2554.471121
435.941683	2557.397511
436.318257	2555.701162
436.694770	2555.537325
437.071222	2557.286605
437.447614	2557.158056
437.823946	2556.543035
438.200218	2557.377346
438.576429	2558.015052
438.952580	2557.944476
439.328670	2559.101421
439.704700	2558.047820
440.080670	2555.640669
440.456580	2557.523540
440.832429	2557.636966
441.208218	2558.504044
441.583947	2557.949517
441.959616	2559.993705
442.335224	2556.119578
442.710773	2558.400700
443.086261	2556.966492
443.461689	2558.254507
443.837057	2557.972202
444.212365	2557.158056
444.587612	2556.308622
444.962800	2557.072356
445.337927	2556.001111
445.712995	2554.781152
446.088002	2557.883982
446.462949	2557.382387
446.837837	2556.782490
447.212664	2559.459343
447.587431	2558.829198
447.962139	2555.640669
448.336786	2557.311811
448.711374	2560.941442
449.085901	2559.517316
449.460369	2558.572100
449.834776	2559.850032
450.209124	2560.949004
450.583412	2558.466235
450.957640	2558.282233
451.331808	2559.345917
451.705917	2559.597974
452.079965	2559.499672
452.453954	2557.286605
452.827883	2561.879097
453.201752	2555.892726
453.575562	2564.881104
453.949311	2558.819116
454.323001	2559.292985
454.696632	2560.270968
455.070202	2559.938252
455.443713	2559.285423
455.817164	2561.808520
456.190556	2562.012687
456.563888	2561.874055
456.937160	2559.121585
457.310373	2558.425906
457.683526	2561.546380
458.056619	2557.672254
458.429653	2560.124775
458.802628	2563.830023
459.175542	2561.919426
459.548398	2560.427244
459.921194	2563.661144
460.293930	2562.577296
460.666607	2563.071329
461.039224	2564.709704
461.411782	2563.434292
461.784280	2562.421021
462.156719	2560.840619
462.529099	2561.730383
462.901419	2561.241391
463.273680	2561.516133
463.645882	2559.729044
464.018024	2559.746688
464.390106	2557.248797
464.762130	2565.828841
465.134094	2563.109138
465.505999	2565.218861
465.877845	2566.567370
466.249631	2566.201886
466.621358	2565.801114
466.993026	2566.038048
467.364634	2567.885631
467.736184	2564.313974
468.107674	2564.084601
468.479105	2564.709704
468.850477	2562.587379
469.221790	2564.313974
469.593043	2565.417987
469.964238	2565.962431
470.335373	2566.282544
470.706449	2566.123748
471.077467	2564.767678
471.448425	2566.340518
471.819324	2563.895558
472.190164	2568.924109
472.560945	2565.662483
472.931667	2565.271793
473.302330	2565.397822
473.672934	2567.736917
474.043479	2567.149623
474.413965	2567.472257
474.784393	2567.890672
475.154761	2570.227247
475.525070	2565.372616
475.895321	2570.282700
476.265513	2567.850343
476.635645	2570.776733
477.005719	2564.613922
477.375734	2568.888821
477.745691	2568.540981
478.115588	2568.183059
478.485427	2568.329253
478.855207	2572.561302
479.224928	2571.139696
479.594591	2571.535427
479.964194	2571.134655
480.333739	2573.279666
480.703226	2572.871332
481.072653	2573.700602
481.442022	2575.391909
481.811333	2573.451065
482.180584	2569.503842
482.549777	2574.726477
482.918912	2568.208265
483.287988	2573.904769
483.657005	2573.098184
484.025964	2574.015674
484.394864	2573.970304
484.763706	2578.444328
485.132489	2575.326374
485.501213	2576.967270
485.869879	2575.396951
486.238487	2576.332085
486.607036	2576.100192
486.975527	2578.189750
487.343959	2578.451890
487.712333	2576.695048
488.080648	2578.035995
488.448905	2578.139338
488.817104	2579.593711
489.185244	2579.250913
489.553326	2583.576223
489.921350	2584.786100
490.289315	2585.837180
490.657222	2591.637028
491.025070	2590.033941
491.392861	2589.192068
491.760593	2589.025710
492.128267	2587.301635
492.495883	2586.731985
492.863440	2590.485124
493.230939	2587.775504
493.598380	2588.635021
493.965763	2589.194589
494.333088	2588.206522
494.700354	2588.425813
495.067563	2588.410689
495.434713	2589.779362
495.801805	2592.070567
496.168839	2590.127202
496.535815	2591.485793
496.902733	2593.088880
497.269593	2592.534353
497.636395	2596.040476
498.003139	2596.516865
498.369825	2594.518047
498.736453	2596.688264
499.103023	2599.642380
499.469535	2600.214551
499.835989	2598.538367
500.202385	2597.222626
500.568723	2597.273038
500.935003	2598.500559
501.301226	2598.961824
501.667390	2604.116404
502.033497	2605.248143
502.399546	2605.658997
502.765537	2605.568256
503.131470	2609.802826
503.497345	2608.091354
503.863163	2608.882815
504.228923	2611.103443
504.594625	2614.642333
504.960269	2613.339195
505.325856	2615.050667
505.691385	2616.875564
506.056856	2616.822632
506.422270	2618.912191
506.787625	2622.057871
507.152924	2621.374794
507.518164	2622.130967
507.883347	2621.672222
508.248472	2625.256483
508.613540	2627.028448
508.978550	2629.528861
509.343503	2626.778911
509.708398	2631.157153
510.073236	2632.755199
510.438016	2635.870632
510.802738	2634.083543
511.167403	2635.235447
511.532010	2637.897176
511.896561	2638.920530
512.261053	2645.365645
512.625488	2644.259112
512.989866	2645.305152
513.354186	2647.422436
513.718449	2646.862868
514.082655	2653.370998
514.446803	2652.206491
514.810894	2655.982315
515.174927	2656.904847
515.538904	2660.219405
515.902822	2662.371978
516.266684	2663.281906
516.630488	2668.587721
516.994235	2666.041938
517.357925	2669.290962
517.721558	2673.933864
518.085133	2676.605676
518.448651	2676.774554
518.812112	2675.398319
519.175516	2679.544668
519.538863	2681.258661
519.902152	2688.031451
520.265385	2693.884231
520.628560	2694.617718
520.991678	2697.902030
521.354739	2702.733976
521.717743	2706.381251
522.080690	2706.615665
522.443580	2713.481716
522.806413	2717.136553
523.169189	2720.100751
523.531908	2724.242059
523.894569	2728.587534
524.257174	2731.483677
524.619722	2736.625653
524.982213	2741.394585
525.344647	2746.914648
525.707025	2751.444125
526.069345	2755.431678
526.431608	2761.506268
526.793815	2767.172525
527.155964	2769.493977
527.518057	2777.491767
527.880093	2781.093672
528.242072	2790.250927
528.603995	2795.506330
528.965860	2799.887093
529.327669	2807.789102
529.689421	2816.434681
530.051117	2824.167811
530.412755	2833.688030
530.774337	2841.232116
531.135862	2847.752849
531.497331	2858.361957
531.858743	2863.458564
532.220098	2877.989690
532.581396	2883.315669
532.942638	2892.329252
533.303824	2902.716549
533.664953	2915.110226
534.026025	2925.918460
534.387040	2938.158381
534.747999	2950.582305
535.108902	2966.666106
535.469748	2973.554843
535.830537	2988.660661
536.191270	3005.004081
536.551947	3014.622603
536.912567	3033.201775
537.273131	3050.366904
537.633638	3058.470559
537.994089	3080.601224
538.354483	3094.388780
538.714821	3122.934314
539.075103	3143.550112
539.435328	3162.272958
539.795497	3177.474557
540.155609	3198.682692
540.515665	3229.559759
540.875665	3239.122828
541.235609	3268.411932
541.595496	3293.814306
541.955328	3322.241372
542.315102	3339.172088
542.674821	3361.862321
543.034483	3388.048595
543.394090	3415.238058
543.753640	3441.562963
544.113134	3490.540293
544.472571	3508.201976
544.831953	3559.536046
545.191278	3577.432142
545.550548	3599.585492
545.909761	3648.593069
546.268918	3689.456662
546.628019	3738.749065
546.987064	3761.961058
547.346053	3780.578039
547.704986	3839.882173
548.063863	3873.862070
548.422684	3921.042229
548.781449	3953.348463
549.140158	4012.632433
549.498811	4048.303637
549.857408	4076.776074
550.215949	4149.769461
550.574434	4199.394580
550.932864	4248.019029
551.291237	4324.674815
551.649555	4372.313718
552.007817	4431.501906
552.366022	4475.173422
552.724173	4532.501423
553.082267	4608.827013
553.440305	4686.339794
553.798288	4718.640988
554.156215	4795.463131
554.514086	4868.532136
554.871902	4913.100977
555.229661	4995.271784
555.587365	5045.093508
555.945014	5126.573678
556.302606	5200.754256
556.660143	5280.830465
557.017625	5361.093196
557.375050	5424.485705
557.732421	5524.822311
558.089735	5609.440599
558.446994	5674.612636
558.804197	5791.348115
559.161345	5865.218663
559.518437	5906.823305
559.875474	6003.862996
560.232455	6110.654799
560.589381	6201.819025
560.946251	6275.664367
561.303065	6419.609474
561.659825	6494.523541
562.016528	6563.489046
562.373177	6620.169260
562.729770	6775.615759
563.086307	6834.325037
563.442789	6982.189641
563.799216	7070.576191
564.155587	7165.057497
564.511904	7257.504696
564.868164	7376.690176
565.224370	7523.135695
565.580520	7596.272755
565.936615	7734.929692
566.292654	7801.286400
566.648638	7960.591903
567.004567	8072.177843
567.360441	8197.551339
567.716260	8280.226262
568.072023	8445.699617
568.427732	8564.549860
568.783385	8617.295452
569.138982	8799.301271
569.494525	8948.587480
569.850013	9014.797995
570.205445	9154.500971
570.560823	9246.623016
570.916145	9358.029996
571.271412	9531.506182
571.626625	9604.171894
571.981782	9747.496939
572.336884	9812.795005
572.691931	9996.718982
573.046923	10081.586807
573.401860	10186.576398
573.756743	10330.488737
574.111570	10492.692903
574.466342	10611.210430
574.821059	10778.914495
575.175722	10826.145066
575.530330	10990.632875
575.884882	11056.367000
576.239380	11178.136071
576.593823	11339.972233
576.948211	11476.423665
577.302544	11523.520645
577.656823	11668.867192
578.011047	11874.639531
578.365216	11984.418217
578.719330	12071.254613
579.073389	12216.563352
579.427394	12380.897406
579.781344	12521.296061
580.135239	12616.669651
580.489080	12798.998103
580.842866	12832.456241
581.196597	13119.497020
581.550273	13274.235238
581.903895	13424.491869
582.257463	13692.431717
582.610975	13713.420561
582.964434	13963.003047
583.317837	13986.983815
583.671186	14142.884019
584.024481	14369.831724
584.377721	14411.305296
584.730906	14622.282626
585.084037	14833.494369
585.437113	14919.229273
585.790135	15117.608759
586.143103	15144.382327
586.496016	15360.413413
586.848874	15562.205761
587.201679	15740.183697
587.554428	15742.321146
587.907124	16001.282699
588.259765	16096.003459
588.612352	16325.005434
588.964884	16306.138916
589.317362	16586.790033
589.669786	16746.372799
590.022155	16867.254627
590.374470	17202.030092
590.726731	17226.162096
591.078937	17154.358421
591.431090	17442.142771
591.783188	17438.513140
592.135232	17533.291873
592.487222	17815.175552
592.839157	18041.762815
593.191038	18073.930417
593.542866	18168.260488
593.894639	18101.598790
594.246358	18396.433194
594.598022	18558.158450
594.949633	18549.346513
595.301190	18709.113282
595.652692	18857.108956
596.004141	19218.910047
596.355535	18920.440971
596.706876	19095.086705
597.058162	19132.287900
597.409395	19510.099696
597.760573	19778.639440
598.111698	19755.039279
598.462768	19878.708865
598.813785	20046.768331
599.164748	20029.343583
599.515657	20312.308589
599.866511	20249.079917
600.217312	20737.539999
600.568060	20377.629340
600.918753	20947.405754
601.269392	21057.406251
601.619978	21078.745456
601.970510	21337.459992
602.320988	21571.777863
602.671412	21856.852593
603.021783	21934.118358
603.372100	21877.246581
603.722363	22085.675607
604.072572	22261.430395
604.422728	22419.442842
604.772830	22446.796142
605.122878	22683.841278
605.472872	22763.579729
605.822813	23061.955543
606.172701	23078.876176
606.522534	23412.449326
606.872314	23672.093955
607.222041	23726.493046
607.571714	24060.182143
607.921333	23917.215020
608.270899	24197.591394
608.620411	24565.754421
608.969870	24553.806886
609.319276	24725.990016
609.668627	24887.052361
610.017926	25276.473934
610.367171	25478.651930
610.716362	25652.604505
611.065500	25721.882562
611.414585	26003.773802
611.763616	26254.021720
612.112594	26330.496024
612.461518	26540.069392
612.810389	26922.017455
613.159207	26937.997912
613.507971	27061.163383
613.856682	27509.334563
614.205340	27541.539974
614.553945	28118.520197
614.902496	27829.034458
615.250994	28240.185924
615.599439	28412.391740
615.947830	28624.657084
616.296169	28759.087013
616.644454	28916.275231
616.992686	29153.174174
617.340864	29587.076368
617.688990	29384.858043
618.037063	29976.870986
618.385082	29974.194133
618.733048	30336.300214
619.080961	30377.851925
619.428821	30513.900064
619.776628	30651.470632
620.124382	30642.520063
620.472083	30860.963342
620.819731	31061.051779
621.167326	30876.260723
621.514868	31013.044871
621.862357	30779.379828
622.209793	30964.662397
622.557176	30787.657403
622.904506	30744.820198
623.251783	30597.356366
623.599007	30512.513747
623.946179	30575.424826
624.293297	30507.757418
624.640363	30230.299872
624.987376	30225.583873
625.334336	30191.926609
625.681243	30002.217907
626.028097	30050.562573
626.374899	30026.347390
626.721647	30100.394379
627.068343	30033.531035
627.414987	29930.557906
627.761577	29840.709421
628.108115	30174.370791
628.454600	29718.098477
628.801032	29982.456584
629.147412	30014.021769
629.493739	30034.783761
629.840014	29790.935588
630.186236	30186.598109
630.532405	29859.865805
630.878521	30122.267945
631.224585	30034.561951
631.570597	29848.548415
631.916556	30050.683561
632.262462	30056.619519
632.608316	30072.897405
632.954117	30054.151874
633.299866	30114.623035
633.645562	30131.367228
633.991206	29797.239551
634.336797	29551.621933
634.682336	29561.691637
635.027823	29456.457551
635.373257	29440.252762
635.718639	29274.182031
636.063968	29256.346428
636.409245	28805.647110
636.754470	28843.511217
637.099642	28749.589479
637.444762	28358.090951
637.789829	28552.427432
638.134845	28312.773498
638.479808	28308.939701
638.824719	28322.573502
639.169577	27984.417943
639.514383	28138.652045
639.859137	27877.784936
640.203839	28083.484177
640.548489	27902.806703
640.893086	27965.009500
641.237632	27807.677609
641.582125	27933.456918
641.926566	27832.482607
642.270955	27914.134176
642.615292	27910.726356
642.959576	27883.282314
643.303809	27934.099666
643.647990	28057.144149
643.992118	28086.909642
644.336195	27994.742226
644.680219	28139.231777
645.024192	28357.959881
645.368112	28864.444608
645.711981	28905.250228
646.055797	29599.054149
646.399562	29469.141094
646.743274	30250.003222
647.086935	30647.021814
647.430544	30636.949588
647.774101	30725.573073
648.117606	31038.303572
648.461059	31209.710365
648.804460	30908.473696
649.147810	30527.206190
649.491108	30273.217735
649.834354	30203.470851
650.177548	29549.887776
650.520690	29178.319449
650.863781	29216.483504
651.206820	29098.434805
651.549807	28783.864284
651.892742	28309.181676
652.235626	28264.799358
652.578458	28193.189767
652.921238	27616.421274
653.263967	27948.847561
653.606644	27718.363487
653.949269	27672.657865
654.291843	27377.296662
654.634365	27724.503612
654.976836	27354.041819
655.319255	27458.854969
655.661622	27383.192291
656.003938	27307.063306
656.346203	27178.879367
656.688416	27445.755531
657.030577	27264.594106
657.372687	27143.999623
657.714746	27331.028952
658.056753	27533.940435
658.398708	27011.802925
658.740612	27092.378208
659.082465	27303.191700
659.424266	27251.237568
659.766016	27288.632848
660.107715	27188.165172
660.449362	27306.609602
660.790958	27329.332603
661.132503	27293.976471
661.473996	27395.316266
661.815438	27504.842895
662.156829	27643.640984
662.498168	27492.885278
662.839456	27487.166089
663.180693	27656.823601
663.521879	27776.132589
663.863013	27759.915197
664.204097	27769.934491
664.545129	28180.748200
664.886110	28147.050607
665.227040	28263.183668
665.567918	28287.444221
665.908746	28382.061637
666.249522	28480.505290
666.590248	28540.663899
666.930922	28654.755293
667.271545	28679.908130
667.612118	28754.179450
667.952639	28605.548590
668.293109	28655.574481
668.633528	28563.235666
668.973896	28548.656649
669.314213	28552.603872
669.654480	28396.764163
669.994695	28420.006403
670.334859	28357.516259
670.674973	28230.421209
671.015035	28430.318083
671.355047	28393.883143
671.695008	28359.915849
672.034918	28293.806157
672.374777	28411.675896
672.714585	28303.732189
673.054342	28437.854608
673.394049	28328.655654
673.733705	28555.331136
674.073310	28293.675087
674.412864	28377.136430
674.752368	28106.333207
675.091820	28359.749491
675.431223	27987.840886
675.770574	27817.490215
676.109875	27687.201594
676.449125	27505.289037
676.788324	27430.717769
677.127473	26982.309655
677.466571	26921.102485
677.805619	26678.184405
678.144616	26635.833672
678.483562	26604.515503
678.822458	26317.988922
679.161303	26277.737829
679.500098	26210.241820
679.838842	26167.457547
680.177535	26264.194769
680.516179	26506.273497
680.854771	26649.059139
681.193314	27401.353048
681.531805	28389.512463
681.870247	29129.788261
682.208638	29849.097901
682.546978	30105.196078
682.885268	30258.631157
683.223508	29844.381901
683.561697	29589.906976
683.899836	29453.679875
684.237925	29058.667663
684.575963	28931.839794
684.913951	28595.544421
685.251889	28779.982596
685.589776	28797.886254
685.927614	28814.562391
686.265401	28999.580298
686.603137	29129.216090
686.940824	29626.825866
687.278460	29955.506576
687.616046	30117.861977
687.953582	30764.609248
688.291068	30699.341429
688.628504	31019.449657
688.965889	31033.862316
689.303224	30792.963218
689.640510	30516.783604
689.977745	29918.706153
690.314930	29219.417456
690.652065	28807.494693
690.989150	28165.881837
691.326185	27360.716307
691.663170	26755.132577
692.000105	26060.864870
692.336990	25465.232378
692.673825	25070.071452
693.010610	24591.943215
693.347345	24116.315391
693.684030	23508.513554
694.020665	23327.233662
694.357251	22672.173528
694.693786	22689.474768
695.030272	22459.252833
695.366707	21994.256803
695.703093	21727.189075
696.039429	21793.208026
696.375716	21568.491031
696.711952	21581.595511
697.048139	21447.964604
697.384276	21294.567334
697.720363	21412.437073
698.056400	21315.062145
698.392388	21151.189357
698.728326	21159.610604
699.064214	21006.208293
699.400053	21016.769510
699.735842	20642.017695
700.071581	20447.656008
700.407270	20211.861078
700.742910	20060.359282
701.078501	19811.532969
701.414042	19608.187947
701.749533	19316.116096
702.084974	19016.212812
702.420366	19245.789479
702.755709	18848.236525
703.091002	18549.646462
703.426246	18623.572463
703.761440	18562.098112
704.096584	18330.341146
704.431679	18260.264067
704.766725	18215.672540
705.101721	18144.163773
705.436668	18275.758053
705.771565	17996.084920
706.106413	18319.026276
706.441212	18389.511689
706.775961	18498.854316
707.110661	18590.315971
707.445311	18932.580070
707.779913	18828.273556
708.114465	19131.113311
708.448967	19444.884809
708.783421	20064.306505
709.117825	20439.280131
709.452180	20660.657361
709.786485	21114.086465
710.120742	21872.523020
710.454949	21988.593066
710.789107	22475.114824
711.123216	23188.664945
711.457275	23396.055494
711.791286	23946.239463
712.125247	24100.337454
712.459159	23836.140663
712.793023	24575.713220
713.126837	23565.730650
713.460602	23823.051307
713.794318	23484.043793
714.127985	23218.400191
714.461602	22332.699707
714.795171	22328.329027
715.128691	21361.239114
715.462162	20841.554126
715.795584	20421.434447
716.128957	20151.268930
716.462281	19783.365522
716.795556	19522.783239
717.128782	19035.659063
717.461960	18445.483621
717.795088	18408.882323
718.128167	18060.838541
718.461198	17621.174308
718.794180	17501.557810
719.127113	17166.817633
719.459997	16979.039693
719.792833	16617.868746
720.125619	16658.820560
720.458357	16321.685834
720.791046	16180.513362
721.123686	16030.387801
721.456278	15804.960003
721.788821	15811.563915
722.121315	15549.978442
722.453761	15647.282793
722.786158	15534.146698
723.118506	15618.404544
723.450805	15498.046996
723.783056	15679.304203
724.115259	15574.417956
724.447412	15575.791670
724.779518	15790.189423
725.111574	15838.758419
725.443582	16112.306551
725.775542	16061.363170
726.107453	16580.251656
726.439315	16496.593708
726.771129	16914.575938
727.102895	17333.674784
727.434612	17604.193182
727.766281	17762.956760
728.097901	18083.163291
728.429473	18167.474068
728.760996	18186.625412
729.092471	18316.006625
729.423897	18201.315334
729.755276	18084.529443
730.086606	18193.783850
730.417887	18776.904198
730.749120	19327.942642
731.080305	19539.807215
731.411442	19955.954465
731.742530	20070.219779
732.073570	20224.448840
732.404562	20548.567306
732.735506	20386.526977
733.066401	20181.720020
733.397249	19685.196613
733.728048	19075.726154
734.058798	18208.483855
734.389501	17445.772401
734.720156	16938.617201
735.050762	16366.756270
735.381320	15984.248640
735.711831	15722.060749
736.042293	15352.007289
736.372707	15385.392331
736.703073	15170.233364
737.033391	15369.512696
737.363661	15375.705753
737.693883	15496.269989
738.024056	15701.185331
738.354182	15913.254070
738.684260	16275.576921
739.014290	16555.635702
739.344272	16775.056964
739.674207	17120.680993
740.004093	17293.532076
740.333931	17349.075509
740.663722	17434.833097
740.993464	17475.487483
741.323159	17315.675344
741.652806	17019.502514
741.982405	16859.541662
742.311956	16499.547824
742.641460	16389.257461
742.970915	16067.851135
743.300323	15728.208436
743.629683	15500.285268
743.958996	15194.292271
744.288260	14880.485485
744.617477	14578.646398
744.946647	14540.683989
745.275768	14225.662285
745.604842	14027.877655
745.933869	13848.770500
746.262847	13815.302280
746.591778	13730.840268
746.920662	13618.727527
747.249498	13639.484478
747.578286	13785.929997
747.907027	13961.573879
748.235720	14230.965579
748.564365	14304.160613
748.892963	14211.158886
749.221514	14322.444878
749.550017	14186.462273
749.878473	14162.209282
750.206881	13935.425414
750.535242	13858.205020
750.863555	13785.498978
751.191821	13680.121219
751.520039	13692.184700
751.848210	13626.425369
752.176334	13681.134491
752.504411	13603.299076
752.832440	13423.440789
753.160421	13529.141182
753.488356	13427.808948
753.816243	13338.517511
754.144082	13180.005990
754.471875	13117.830919
754.799620	13090.374275
755.127318	13067.994072
755.454969	13057.488308
755.782572	13020.110672
756.110129	13040.091286
756.437638	12947.293726
756.765100	12952.889406
757.092515	12974.578971
757.419882	13022.414480
757.747203	13030.739945
758.074477	13116.653810
758.401703	13088.604830
758.728882	13303.388230
759.056014	13345.693593
759.383099	13510.136032
759.710138	13635.186894
760.037129	13759.106017
760.364073	13821.056757
760.690970	13839.613244
761.017820	13870.704561
761.344623	14089.581378
761.671379	14480.106964
761.998088	15174.490618
762.324751	16962.053525
762.651366	20389.481093
762.977935	24864.130235
763.304456	27809.943608
763.630931	28839.669857
763.957359	27621.684238
764.283740	25353.109555
764.610074	23109.599488
764.936362	20476.466203
765.262602	18593.524665
765.588796	16667.723237
765.914943	15382.196239
766.241044	14288.439774
766.567097	13499.000123
766.893104	12774.102365
767.219064	12308.145994
767.544978	11839.464880
767.870845	11454.885335
768.196665	11234.622200
768.522438	11002.587971
768.848165	10803.858125
769.173846	10597.329613
769.499479	10463.870106
769.825066	10296.513881
770.150607	10063.108458
770.476101	9983.846396
770.801548	9858.646820
771.126949	9703.568324
771.452303	9589.164379
771.777611	9390.371518
772.102872	9385.723574
772.428087	9237.206141
772.753256	9084.958254
773.078378	8999.062033
773.403453	8814.079413
773.728482	8698.808390
774.053465	8625.643603
774.378401	8529.574334
774.703291	8403.726970
775.028135	8280.531252
775.352932	8253.316583
775.677683	8145.017475
776.002388	8036.055455
776.327046	8043.135756
776.651658	7950.827188
776.976224	7847.133174
777.300743	7842.326433
777.625216	7756.571365
777.949643	7719.385294
778.274024	7731.859629
778.598359	7637.791698
778.922647	7658.523444
779.246889	7609.243644
779.571086	7616.568441
779.895236	7619.522557
780.219339	7635.235833
780.543397	7639.639281
780.867409	7718.795479
781.191374	7729.540698
781.515294	7693.559463
781.839167	7787.032538
782.162995	7755.961386
782.486776	7704.871812
782.810511	7653.184862
783.134201	7567.160092
783.457844	7564.800832
783.781441	7510.053901
784.104993	7444.458407
784.428498	7421.329593
784.751958	7409.250989
785.075372	7378.046247
785.398739	7326.384502
785.722061	7365.413115
786.045337	7373.342850
786.368568	7529.185080
786.691752	7555.469656
787.014891	7902.227944
787.337983	8259.350844
787.661030	8852.787913
787.984031	9478.964756
788.306987	9875.469150
788.629897	10086.900183
788.952760	10036.760867
789.275579	9809.414911
789.598351	9413.200383
789.921078	9059.381960
790.243759	8647.736460
790.566395	8358.351544
790.888984	8104.988193
791.211529	7897.985813
791.534027	7670.644898
791.856480	7473.303890
792.178888	7392.625263
792.501249	7295.124307
792.823566	7141.827860
793.145836	7146.485886
793.468062	7116.934642
793.790241	7066.266005
794.112375	7136.794267
794.434464	7289.281610
794.756507	7333.081675
795.078505	7493.453382
795.400457	7807.618089
795.722364	8156.609608
796.044226	8445.840769
796.366042	8711.572591
796.687812	8664.205910
797.009538	8746.512828
797.331218	8632.870097
797.652852	8554.875886
797.974442	8401.171105
798.295986	8311.919997
798.617484	8117.147456
798.938938	7983.461097
799.260346	7873.712657
799.581709	7669.803025
799.903026	7596.872653
800.224299	7494.779205
800.545526	7316.776063
800.866708	7224.709470
801.187845	7154.952504
801.508936	7047.608694
801.829983	7008.007910
802.150984	6855.180290
802.471940	6813.376522
802.792851	6802.487630
803.113717	6767.302896
803.434538	6732.264357
803.755314	6675.160686
804.076045	6673.678587
804.396731	6623.682944
804.717372	6655.243088
805.037967	6664.065107
805.358518	6701.704882
805.679024	6779.439474
805.999485	6795.445138
806.319901	6832.457289
806.640272	6853.194076
806.960598	6937.638444
807.280879	6934.822959
807.601115	7017.704570
807.921306	6963.260108
808.241453	6977.851728
808.561554	7003.150758
808.881611	6966.262115
809.201623	6968.870912
809.521590	6909.823877
809.841513	6899.250057
810.161390	6935.271622
810.481223	6807.342261
810.801011	6793.910106
811.120755	6765.994717
811.440453	6686.989754
811.760107	6661.153840
812.079716	6632.167206
812.399281	6560.764303
812.718801	6546.737292
813.038276	6511.761767
813.357707	6441.616632
813.677093	6483.737992
813.996434	6391.424383
814.315731	6434.397699
814.634983	6427.821514
814.954191	6442.007321
815.273354	6545.774432
815.592473	6612.426047
815.911547	6735.210911
816.230577	6814.644372
816.549562	6970.504246
816.868502	7067.022178
817.187399	7167.562950
817.506250	7319.679767
817.825058	7351.625559
818.143821	7619.915767
818.462539	7892.672437
818.781213	8260.346472
819.099843	8821.263058
819.418429	9817.233741
819.736970	10794.307659
820.055466	11971.744757
820.373919	13514.854552
820.692327	15883.717950
821.010691	20045.760100
821.329011	29070.479086
821.647286	42027.212372
821.965517	55391.921198
822.283704	60736.897825
822.601847	62715.510380
822.919945	60021.036335
823.237999	55841.793767
823.556010	49676.719712
823.873976	42982.916839
824.191897	36461.433207
824.509775	31619.150360
824.827609	27116.457279
825.145398	24536.621593
825.463144	23172.389580
825.780845	23489.178208
826.098502	25282.324193
826.416116	29082.018287
826.733685	32704.616647
827.051210	33839.226623
827.368692	32034.874153
827.686129	28071.592096
828.003522	23958.802018
828.320872	20259.424365
828.638177	17403.020896
828.955439	15254.274440
829.272656	13441.064663
829.589830	11957.145575
829.906960	10694.631444
830.224046	9748.273277
830.541088	9008.166357
830.858086	8550.343888
831.175041	8173.467227
831.491952	8060.482366
831.808819	8103.349818
832.125642	8511.552209
832.442421	9405.880628
832.759157	11213.731659
833.075849	14146.158248
833.392497	17355.205552
833.709101	19516.123874
834.025662	19345.143059
834.342179	17639.793810
834.658653	15446.566733
834.975083	13516.301363
835.291469	11905.103223
835.607811	10592.464900
835.924110	9682.072844
836.240366	8814.243251
836.556578	8004.356680
836.872746	7360.618978
837.188871	6858.787236
837.504952	6441.349450
837.820990	6134.864941
838.136984	5914.740437
838.452935	5820.327188
838.768842	5853.687023
839.084706	6283.526047
839.400526	7492.122517
839.716303	9075.070030
840.032037	10163.992029
840.347727	10083.477240
840.663373	9108.195452
840.978977	8066.226761
841.294537	7256.080570
841.610054	6657.554457
841.925527	6226.745011
842.240957	5861.475606
842.556344	5534.990318
842.871687	5242.429475
843.186987	4960.326506
843.502244	4740.070933
843.817458	4574.335438
844.132629	4438.940128
844.447756	4347.533927
844.762840	4267.379581
845.077881	4189.944937
845.392879	4128.793220
845.707833	4081.618103
846.022745	4037.061864
846.337613	4006.535157
846.652438	3963.098055
846.967221	3949.832259
847.281960	3915.907814
847.596656	3897.058940
847.911309	3877.584962
848.225919	3853.039584
848.540485	3837.401925
848.855009	3826.709638
849.169490	3802.905309
849.483928	3790.312507
849.798323	3781.061990
850.112675	3760.380656
850.426984	3773.343983
850.741251	3755.644492
851.055474	3751.107453
851.369654	3752.859254
851.683792	3750.527721
851.997887	3757.471910
852.311938	3761.688835
852.625947	3767.017335
852.939914	3753.527207
853.253837	3761.048609
853.567718	3761.025924
853.881555	3751.840941
854.195350	3765.310904
854.509103	3760.095831
854.822812	3759.054833
855.136479	3749.106115
855.450103	3757.605501
855.763685	3742.275352
856.077224	3750.789861
856.390720	3766.639248
856.704173	3789.737815
857.017584	3805.448571
857.330953	3810.855209
857.644278	3834.654496
857.957561	3834.500741
858.270802	3838.790763
858.584000	3840.522399
858.897155	3833.976461
859.210268	3818.414419
859.523339	3794.567241
859.836367	3794.065646
860.149352	3788.371663
860.462295	3780.373872
860.775195	3765.941049
861.088054	3767.534053
861.400869	3763.990122
861.713642	3763.070112
862.026373	3775.257101
862.339062	3778.813635
862.651708	3799.016059
862.964312	3828.821881
863.276873	3846.596990
863.589392	3901.101945
863.901869	3946.742031
864.214303	3995.094258
864.526696	4025.991490
864.839045	4069.920105
865.151353	4097.235597
865.463619	4102.677523
865.775842	4110.002319
866.088023	4134.139364
866.400162	4121.733084
866.712258	4128.266420
867.024313	4132.669868
867.336325	4128.904126
867.648296	4135.802945
867.960224	4137.025424
868.272110	4149.565295
868.583954	4152.108557
868.895755	4163.373015
869.207515	4156.937982
869.519233	4205.418759
869.830909	4214.225654
870.142542	4239.655755
870.454134	4251.731839
870.765684	4284.509421
871.077191	4321.791275
871.388657	4343.493442
871.700081	4378.537023
872.011463	4423.176440
872.322803	4459.303869
872.634101	4488.698837
872.945357	4530.250548
873.256571	4586.703909
873.567744	4616.502170
873.878874	4628.255620
874.189963	4666.764994
874.501010	4675.478628
874.812015	4674.253628
875.122979	4722.515114
875.433900	4722.429415
875.744780	4735.375098
876.055618	4764.528091
876.366415	4759.766721
876.677169	4780.705153
876.987882	4825.243747
877.298554	4877.074371
877.609183	4959.925734
877.919771	5067.468669
878.230317	5211.764136
878.540822	5425.486374
878.851285	5753.042907
879.161707	6218.969031
879.472087	6978.008004
879.782425	8214.262764
880.092722	10393.019210
880.402977	13705.490826
880.713191	17430.817818
881.023363	21114.840117
881.333494	23282.397639
881.643583	24497.262784
881.953631	24507.277036
882.263637	23682.113248
882.573602	22202.937887
882.883526	20652.583953
883.193408	18991.954780
883.503248	17297.050801
883.813048	15765.689415
884.122806	14341.936499
884.432522	12870.718599
884.742197	11613.001126
885.051831	10526.168686
885.361424	9529.615749
885.670975	8711.423877
885.980485	8022.998867
886.289954	7447.954447
886.599382	6980.110165
886.908768	6598.451969
887.218113	6237.795220
887.527417	5955.770388
887.836680	5690.769534
888.145901	5471.471780
888.455082	5308.176204
888.764221	5151.436648
889.073319	5021.521073
889.382376	4947.852171
889.691392	4888.195156
890.000366	4865.782186
890.309300	4844.682437
890.618193	4854.787430
890.927044	4836.298998
891.235855	4863.284294
891.544625	4886.967635
891.853353	4953.006751
892.162041	5071.801541
892.470687	5260.615438
892.779293	5505.197099
893.087858	5883.941508
893.396381	6462.456762
893.704864	7261.194821
894.013306	8414.305831
894.321707	9582.736908
894.630068	10391.690866
894.938387	10589.445249
895.246665	10350.716367
895.554903	9753.412733
895.863100	9059.651661
896.171256	8497.391608
896.479371	7991.920153
896.787446	7500.821028
897.095480	7071.153403
897.403473	6751.839157
897.711425	6436.109171
898.019336	6167.221587
898.327207	5892.960132
898.635038	5669.306821
898.942827	5426.257671
899.250576	5230.466817
899.558284	5042.401532
899.865952	4916.042490
900.173579	4768.472793
900.481165	4659.798119
900.788711	4569.894182
901.096216	4495.154035
901.403681	4430.917132
901.711105	4405.784459
902.018489	4393.632758
902.325832	4463.112461
902.633135	4586.013271
902.940397	4935.496303
903.247619	5729.001644
903.554800	7165.052455
903.861941	9079.778468
904.169041	10593.427760
904.476101	11210.578417
904.783121	10843.287509
905.090100	10112.320202
905.397039	9276.985886
905.703938	8526.108541
906.010796	7841.676125
906.317614	7289.989892
906.624391	6757.823007
906.931129	6328.122614
907.237826	5926.390544
907.544483	5557.486467
907.851099	5182.787584
908.157675	4829.750539
908.464211	4505.748020
908.770707	4271.886372
909.077163	4074.857915
909.383578	3932.168056
909.689954	3818.724450
909.996289	3743.500352
910.302584	3681.892411
910.608839	3647.360507
910.915054	3616.780868
911.221229	3604.354424
911.527363	3617.514356
911.833458	3626.696818
912.139513	3653.377124
912.445527	3689.476827
912.751502	3768.138992
913.057436	3868.863766
913.363331	4004.677492
913.669186	4210.928740
913.975000	4467.387359
914.280775	4890.556937
914.586510	5468.512622
914.892205	6269.277226
915.197859	7299.684031
915.503475	8510.581787
915.809050	9555.779338
916.114585	10199.491834
916.420081	10459.917842
916.725536	10427.588922
917.030952	9982.097116
917.336328	9566.471625
917.641665	9161.530860
917.946961	8682.888426
918.252218	8266.289993
918.557435	7758.970955
918.862612	7332.310378
919.167750	6962.599717
919.472848	6540.269492
919.777906	6171.020096
920.082925	5805.722965
920.387904	5445.318273
920.692843	5178.401780
920.997743	4940.570224
921.302603	4703.333524
921.607423	4543.667579
921.912204	4376.427300
922.216946	4262.945886
922.521647	4138.547853
922.826310	4035.357954
923.130932	3942.174746
923.435516	3844.809901
923.740059	3776.524951
924.044564	3699.982592
924.349028	3639.947491
924.653454	3574.503231
924.957840	3505.661234
925.262186	3459.133905
925.566493	3397.972106
925.870761	3343.537727
926.174989	3307.982469
926.479178	3269.238681
926.783328	3224.773183
927.087438	3200.484904
927.391509	3165.461488
927.695541	3139.106335
927.999533	3107.072323
928.303486	3086.680856
928.607400	3071.224678
928.911275	3058.349571
929.215110	3041.174360
929.518906	3034.598175
929.822663	3031.596168
930.126381	3032.400232
930.430060	3038.409287
930.733699	3040.617313
931.037299	3049.469579
931.340861	3047.606873
931.644383	3060.529870
931.947866	3053.353788
932.251309	3047.059907
932.554714	3046.369269
932.858080	3045.539999
933.161407	3034.353679
933.464694	3024.677184
933.767943	3019.671318
934.071153	3015.477078
934.374323	3006.965090
934.677455	2998.644666
934.980548	2993.222905
935.283602	2987.682677
935.586617	2985.467090
935.889593	2993.911022
936.192530	2998.475787
936.495428	3010.955163
936.798287	3034.232691
937.101108	3065.485325
937.403890	3117.371401
937.706632	3180.085875
938.009336	3257.016403
938.312002	3329.672033
938.614628	3393.586302
938.917216	3443.755865
939.219765	3480.180722
939.522275	3507.372706
939.824747	3513.137266
940.127179	3509.046369
940.429573	3508.464116
940.731929	3502.661748
941.034246	3488.874192
941.336524	3475.149651
941.638763	3460.663895
941.940964	3444.897687
942.243126	3403.066192
942.545250	3381.553068
942.847335	3342.779033
943.149381	3311.362562
943.451389	3277.831327
943.753359	3244.025350
944.055290	3222.318141
944.357182	3195.741178
944.659036	3178.243333
944.960851	3171.533557
945.262628	3158.154335
945.564367	3158.877741
945.866067	3151.845331
946.167729	3149.912049
946.469352	3147.308293
946.770937	3141.364772
947.072484	3126.843729
947.373992	3127.894809
947.675462	3121.444653
947.976893	3102.656273
948.278286	3094.769387
948.579641	3088.233531
948.880958	3083.996442
949.182236	3085.387800
949.483476	3079.393868
949.784678	3080.492840
950.085841	3081.808581
950.386967	3091.021289
950.688054	3106.855554
950.989103	3128.555200
951.290114	3149.425577
951.591087	3178.200483
951.892021	3206.143599
952.192917	3234.563104
952.493776	3258.619490
952.794596	3268.235491
953.095378	3270.544340
953.396122	3266.929832
953.696828	3258.874068
953.997496	3247.067686
954.298126	3223.089438
954.598718	3201.087322
954.899272	3176.431038
955.199788	3149.662512
955.500266	3120.002883
955.800706	3084.243458
956.101108	3046.336502
956.401472	3017.387676
956.701798	2983.062459
957.002087	2939.600151
957.302337	2915.054773
957.602550	2885.632079
957.902724	2858.326669
958.202861	2833.055365
958.502960	2813.830925
958.803022	2795.493727
959.103045	2771.886004
959.403031	2756.513005
959.702979	2741.497929
960.002889	2728.995867
960.302762	2716.708055
960.602596	2702.860005
960.902393	2696.596371
961.202153	2687.055988
961.501875	2680.905780
961.801559	2675.408402
962.101205	2668.507062
962.400814	2661.265445
962.700385	2655.823519
962.999918	2651.014258
963.299414	2643.248361
963.598873	2642.507311
963.898293	2635.245529
964.197677	2637.108235
964.497022	2632.208234
964.796331	2629.848974
965.095601	2625.064919
965.394835	2626.516771
965.694030	2625.503499
965.993189	2622.856893
966.292309	2621.616770
966.591393	2620.482510
966.890439	2621.087448
967.189447	2621.316821
967.488419	2618.894547
967.787353	2621.828498
968.086249	2621.833539
968.385108	2626.365537
968.683930	2625.385032
968.982714	2628.664303
969.281462	2634.990951
969.580172	2639.543113
969.878844	2647.472848
970.177480	2655.959630
970.476078	2665.046310
970.774639	2668.025632
971.073162	2677.523166
971.371649	2681.689679
971.670098	2689.183355
971.968510	2691.466997
972.266885	2697.254242
972.565223	2702.865046
972.863524	2702.930581
973.161788	2706.645912
973.460014	2711.187991
973.758204	2712.077755
974.056356	2716.929865
974.354471	2717.776779
974.652550	2716.423229
974.950591	2715.427602
975.248595	2716.887016
975.546563	2713.199412
975.844493	2708.743032
976.142386	2704.566436
976.440243	2696.855991
976.738062	2694.499251
977.035845	2687.706297
977.333590	2681.944258
977.631299	2674.702640
977.928971	2670.679799
978.226606	2665.540343
978.524204	2660.136226
978.821765	2655.773107
979.119290	2660.947852
979.416777	2658.835608
979.714228	2658.921308
980.011642	2666.190652
980.309020	2675.993176
980.606360	2689.788293
980.903664	2711.349308
981.200931	2745.498084
981.498162	2795.133285
981.795356	2870.349821
982.092513	2958.247379
982.389633	3059.133471
982.686717	3154.199550
982.983764	3227.286198
983.280775	3276.056841
983.577749	3284.646967
983.874686	3268.971500
984.171587	3238.462437
984.468451	3197.873586
984.765279	3154.441525
985.062070	3108.009978
985.358824	3066.044893
985.655543	3009.135307
985.952224	2957.433233
986.248869	2892.914026
986.545478	2836.012002
986.842050	2781.343209
987.138586	2736.726477
987.435086	2698.539736
987.731549	2669.328770
988.027975	2645.562250
988.324366	2628.898716
988.620719	2612.565378
988.917037	2602.969542
989.213318	2596.857143
989.509563	2587.727613
989.805772	2582.409196
990.101944	2577.453741
990.398080	2578.293093
990.694180	2575.336457
990.990244	2571.306054
991.286271	2575.207907
991.582262	2577.534400
991.878217	2578.714030
992.174136	2580.707806
992.470019	2584.607139
992.765865	2585.590164
993.061676	2591.037130
993.357450	2602.866198
993.653188	2608.209821
993.948890	2625.493417
994.244556	2645.516880
994.540186	2668.721311
994.835780	2700.533512
995.131337	2735.536764
995.426859	2776.072682
995.722345	2823.520022
996.017795	2872.968700
996.313208	2913.799526
996.608586	2938.775923
996.903928	2948.734722
997.199234	2950.547017
997.494504	2945.815894
997.789738	2931.446085
998.084936	2907.868608
998.380099	2875.537168
998.675225	2848.665298
998.970316	2817.334527
999.265371	2781.396141
999.560390	2744.121849
999.855373	2715.568754
1000.150320	2690.110927
1000.445232	2663.392812
1000.740108	2641.436066
1001.034948	2625.516102
1001.329752	2610.231324
1001.624521	2598.387133
1001.919254	2586.434557
1002.213951	2581.486664
1002.508613	2573.559450
1002.803239	2564.780281
1003.097829	2560.109652
1003.392384	2555.116389
1003.686903	2551.915256
1003.981386	2545.558361
1004.275834	2543.088196
1004.570246	2542.208514
1004.864623	2537.787422
1005.158964	2536.340611
1005.453270	2535.498738
1005.747540	2531.528830
1006.041775	2529.106555
1006.335974	2527.937008
1006.630138	2528.778880
1006.924266	2527.357275
1007.218359	2526.608664
1007.512416	2525.323169
1007.806438	2522.792510
1008.100425	2522.817716
1008.394376	2519.914011
1008.688292	2522.048940
1008.982172	2523.525998
1009.276017	2521.532222
1009.569827	2523.160514
1009.863602	2519.808147
1010.157341	2523.551204
1010.451045	2519.908970
1010.744714	2522.447191
1011.038347	2518.053826
1011.331945	2517.826974
1011.625508	2518.119361
1011.919036	2516.100378
1012.212528	2516.909484
1012.505986	2514.870337
1012.799408	2512.344719
1013.092795	2515.412261
1013.386147	2515.268588
1013.679464	2514.267919
1013.972745	2512.085099
1014.265992	2512.710202
1014.559204	2513.766324
1014.852380	2511.054183
1015.145521	2511.207939
1015.438628	2511.853206
1015.731699	2512.052332
1016.024736	2514.368742
1016.317737	2514.247754
1016.610703	2517.060718
1016.903635	2519.024248
1017.196531	2519.868641
1017.489393	2520.100534
1017.782219	2520.758405
1018.075011	2523.135309
1018.367768	2522.681605
1018.660490	2523.354599
1018.953177	2523.354599
1019.245829	2523.354599
