Dividing Wavelength (nm)	Counts (n)	Blue Motor Position (mm): 40.400000	Red Motor Position (mm): 0.000000	
326.493990	2129.592593
326.888308	2129.592593
327.282561	2129.592593
327.676750	2096.651173
328.070874	2096.232757
328.464933	2099.048241
328.858929	2104.086875
329.252859	2115.217742
329.646726	2125.282406
330.040528	2139.027112
330.434265	2155.773825
330.827938	2171.711433
331.221547	2189.211798
331.615091	2209.207535
332.008571	2230.463560
332.401986	2250.280336
332.795338	2268.834303
333.188625	2288.532612
333.581847	2303.847637
333.975006	2324.874290
334.368100	2343.607217
334.761129	2361.372243
335.154095	2376.651981
335.546996	2398.162584
335.939833	2422.980185
336.332606	2440.959460
336.725315	2452.813733
337.117960	2461.605505
337.510540	2468.607668
337.903056	2480.414050
338.295508	2487.874958
338.687896	2496.581031
339.080220	2505.599655
339.472480	2511.507887
339.864676	2515.571057
340.256807	2521.360823
340.648875	2522.016173
341.040879	2527.780732
341.432818	2527.448016
341.824694	2530.245856
342.216506	2529.993798
342.608253	2526.664116
342.999937	2529.373737
343.391557	2527.463139
343.783113	2526.903571
344.174605	2524.332583
344.566033	2525.245032
344.957397	2524.566996
345.348697	2522.381656
345.739934	2522.265710
346.131106	2522.364012
346.522215	2518.898219
346.913260	2516.685152
347.304241	2514.093999
347.695159	2511.190295
348.086012	2508.468072
348.476802	2510.030829
348.867528	2507.180057
349.258191	2503.691578
349.648789	2501.561691
350.039324	2503.263080
350.429796	2502.597648
350.820203	2500.906341
351.210548	2496.381905
351.600828	2498.582369
351.991045	2496.676813
352.381198	2497.198572
352.771288	2499.121772
353.161314	2493.989878
353.551276	2497.838799
353.941175	2497.306957
354.331010	2494.131030
354.720782	2495.643376
355.110490	2497.085146
355.500135	2496.550784
355.889717	2497.627070
356.279235	2497.695126
356.668689	2498.889879
357.058080	2496.182780
357.447408	2494.148674
357.836672	2494.723366
358.225873	2496.424755
358.615010	2495.345948
359.004084	2499.746875
359.393095	2499.323418
359.782043	2501.833913
360.170927	2499.371309
360.559748	2500.699653
360.948505	2502.368275
361.337199	2505.186280
361.725830	2503.472288
362.114398	2504.293996
362.502903	2501.506238
362.891344	2506.340705
363.279722	2504.225941
363.668037	2504.747700
364.056289	2504.909017
364.444478	2504.951867
364.832603	2505.811383
365.220665	2507.560664
365.608665	2505.879439
365.996601	2506.368431
366.384474	2508.158041
366.772284	2507.112001
367.160031	2507.633761
367.547715	2511.192815
367.935336	2510.328257
368.322893	2509.577125
368.710388	2512.160717
369.097820	2514.552744
369.485189	2510.792043
369.872495	2513.047960
370.259738	2511.306241
370.646918	2513.569719
371.034035	2512.843793
371.421090	2512.213649
371.808081	2513.118536
372.195010	2514.421674
372.581875	2514.875378
372.968678	2516.110461
373.355418	2518.620955
373.742096	2515.485358
374.128710	2516.659947
374.515262	2517.978208
374.901751	2518.799916
375.288177	2516.768331
375.674540	2518.041223
376.060841	2517.310255
376.447079	2518.963754
376.833254	2518.013496
377.219367	2517.542148
377.605417	2519.362005
377.991404	2518.293280
378.377329	2520.581964
378.763191	2517.335461
379.148991	2519.437622
379.534727	2519.666995
379.920402	2523.606657
380.306013	2522.651358
380.691563	2521.640607
381.077049	2525.250073
381.462474	2525.907943
381.847835	2525.214785
382.233134	2525.673530
382.618371	2523.989784
383.003545	2527.899199
383.388657	2527.621936
383.773706	2527.445495
384.158693	2527.586647
384.543618	2527.511030
384.928480	2524.743437
385.313280	2528.736031
385.698017	2531.425486
386.082692	2531.072605
386.467305	2535.718029
386.851856	2537.873122
387.236344	2543.499050
387.620770	2549.003990
388.005133	2557.394990
388.389435	2560.669220
388.773674	2571.122052
389.157851	2580.322158
389.541965	2593.194744
389.926018	2602.525920
390.310008	2619.297839
390.693936	2633.145888
391.077802	2652.037612
391.461606	2667.150992
391.845348	2691.303160
392.229027	2710.535162
392.612645	2729.981413
392.996200	2762.053233
393.379694	2790.414765
393.763125	2827.331135
394.146494	2845.456603
394.529801	2889.228942
394.913047	2928.048347
395.296230	2947.169444
395.679351	2988.159066
396.062410	3031.031559
396.445408	3052.239693
396.828343	3098.010849
397.211217	3134.405459
397.594028	3141.218579
397.976778	3201.510779
398.359466	3246.520721
398.742092	3294.255407
399.124656	3293.063174
399.507158	3365.779298
399.889598	3414.779313
400.271977	3484.105261
400.654294	3506.424969
401.036549	3547.487688
401.418742	3564.088208
401.800874	3661.805934
402.182944	3710.506000
402.564952	3790.501550
402.946898	3814.835200
403.328783	3849.016743
403.710606	3823.218639
404.092367	3993.160976
404.474067	3998.368488
404.855705	4032.013149
405.237282	4003.583562
405.618797	4122.348105
406.000250	4178.766178
406.381642	4266.625928
406.762972	4265.063170
407.144240	4305.092453
407.525447	4323.212880
407.906593	4401.068460
408.287677	4463.155311
408.668700	4420.756686
409.049661	4486.831090
409.430560	4537.643400
409.811399	4488.144310
410.192176	4651.989372
410.572891	4610.152836
410.953545	4723.364549
411.334138	4623.206904
411.714669	4700.659192
412.095139	4607.412969
412.475547	4760.220425
412.855894	4747.332715
413.236180	4767.434316
413.616405	4726.215321
413.996568	4814.077592
414.376670	4766.058081
414.756711	4727.901587
415.136691	4763.083800
415.516609	4838.922918
415.896466	4879.065627
416.276262	4917.529630
416.655997	4898.143873
417.035670	5083.733952
417.415283	5173.426161
417.794834	5122.860868
418.174324	5078.198765
418.553753	4988.720805
418.933121	5171.893651
419.312428	5243.178087
419.691674	5181.542419
420.070859	5305.564886
420.449983	5216.217996
420.829045	5334.312066
421.208047	5245.413838
421.586988	5316.597451
421.965867	5326.636909
422.344686	5458.112722
422.723444	5317.918233
423.102141	5133.429647
423.480777	5430.676242
423.859352	5201.311304
424.237866	5461.500377
424.616319	5453.061486
424.994712	5561.600049
425.373044	5437.895174
425.751314	5584.164253
426.129524	5387.730653
426.507673	5579.458336
426.885762	5662.009751
427.263789	5595.441314
427.641756	5477.710207
428.019662	5596.187405
428.397508	5610.123675
428.775292	5549.574376
429.153016	5655.662938
429.530679	5577.542698
429.908282	5666.554351
430.285824	5532.225245
430.663305	5812.039531
431.040726	5543.590527
431.418086	5545.894334
431.795385	5648.862422
432.172624	5663.317930
432.549802	5654.236292
432.926920	5669.379918
433.303977	5679.230332
433.680974	5716.429007
434.057910	5737.203602
434.434786	5739.615794
434.811601	5706.941555
435.188355	5943.601043
435.565050	5816.064892
435.941683	5793.573784
436.318257	6009.625035
436.694770	5991.484443
437.071222	6033.351226
437.447614	5959.878929
437.823946	5872.964395
438.200218	6030.071955
438.576429	5895.513477
438.952580	5991.398743
439.328670	6037.013624
439.704700	5943.885868
440.080670	5935.757008
440.456580	6202.015630
440.832429	6084.655048
441.208218	5933.574188
441.583947	6083.742599
441.959616	6090.172591
442.335224	6015.886148
442.710773	6154.560729
443.086261	6182.753382
443.461689	5977.848122
443.837057	6125.949660
444.212365	6278.772239
444.587612	6175.322721
444.962800	6331.127142
445.337927	6304.456918
445.712995	5914.614408
446.088002	6495.393140
446.462949	6325.234033
446.837837	6258.209372
447.212664	6434.420384
447.587431	6572.464821
447.962139	7112.390042
448.336786	8042.795478
448.711374	7782.860983
449.085901	6851.291040
449.460369	6777.231449
449.834776	6710.766356
450.209124	7104.319154
450.583412	7253.126454
450.957640	7391.107876
451.331808	7162.259656
451.705917	6710.403393
452.079965	6638.803885
452.453954	6854.648448
452.827883	6727.855868
453.201752	6819.378016
453.575562	6619.035000
453.949311	6823.010167
454.323001	6708.626386
454.696632	6785.864425
455.070202	6928.173677
455.443713	7081.157573
455.817164	7182.028541
456.190556	7260.781446
456.563888	7334.364648
456.937160	7377.108592
457.310373	7041.546707
457.683526	7062.235602
458.056619	6950.614374
458.429653	6942.114988
458.802628	6879.294650
459.175542	6986.789694
459.548398	7339.730957
459.921194	7499.096953
460.293930	7505.171544
460.666607	8026.525154
461.039224	8344.193463
461.411782	8458.350392
461.784280	8485.406265
462.156719	8377.684369
462.529099	8252.663754
462.901419	7845.172165
463.273680	7735.035556
463.645882	7745.531238
464.018024	7611.970908
464.390106	7782.893750
464.762130	8165.580342
465.134094	8638.579204
465.505999	9657.177106
465.877845	10879.089784
466.249631	11523.298834
466.621358	11137.547221
466.993026	10516.272901
467.364634	10264.384087
467.736184	9896.465556
468.107674	9572.740300
468.479105	9601.174928
468.850477	9361.536118
469.221790	9136.473805
469.593043	8811.016912
469.964238	8669.947784
470.335373	8680.204011
470.706449	8738.000840
471.077467	8722.716062
471.448425	10029.287357
471.819324	11100.245203
472.190164	11119.855292
472.560945	9878.939984
472.931667	9090.289274
473.302330	8952.123850
473.672934	8600.578986
474.043479	8957.089386
474.413965	8897.223164
474.784393	8786.912635
475.154761	8939.538609
475.525070	9028.441878
475.895321	8853.738171
476.265513	9030.662506
476.635645	9190.860293
477.005719	9195.283906
477.375734	9306.937902
477.745691	9544.313233
478.115588	9679.824490
478.485427	9927.277088
478.855207	10464.568306
479.224928	11274.598550
479.594591	11903.031309
479.964194	11719.709750
480.333739	11650.963535
480.703226	11573.128119
481.072653	11660.115749
481.442022	11896.790361
481.811333	12085.132910
482.180584	11894.962942
482.549777	11595.941861
482.918912	11427.995821
483.287988	11449.188831
483.657005	11461.524535
484.025964	11148.723459
484.394864	11271.858683
484.763706	11250.879921
485.132489	10995.908442
485.501213	10962.573812
485.869879	11043.486852
486.238487	10881.920392
486.607036	10993.203863
486.975527	10777.344176
487.343959	10961.716816
487.712333	11014.880825
488.080648	10941.224526
488.448905	10981.757923
488.817104	10931.474934
489.185244	11188.893894
489.553326	11348.489263
489.921350	11881.611447
490.289315	12951.011577
490.657222	13282.182617
491.025070	13198.191953
491.392861	13065.365110
491.760593	12693.277545
492.128267	12338.387876
492.495883	12007.002587
492.863440	11673.830208
493.230939	11331.230872
493.598380	11278.104673
493.965763	11137.970678
494.333088	11037.508044
494.700354	10957.134407
495.067563	11017.335867
495.434713	10850.554333
495.801805	10974.198713
496.168839	10907.819320
496.535815	10841.825575
496.902733	10838.677374
497.269593	10772.020718
497.636395	10876.871676
498.003139	10859.497340
498.369825	10728.671836
498.736453	10888.279808
499.103023	10813.433796
499.469535	10845.911430
499.835989	10831.531539
500.202385	10799.184975
500.568723	10651.950515
500.935003	10867.578309
501.301226	10674.376088
501.667390	10933.509040
502.033497	11023.778461
502.399546	10886.694365
502.765537	10791.799685
503.131470	10873.592406
503.497345	11040.406707
503.863163	10657.715075
504.228923	10966.402569
504.594625	11036.378825
504.960269	10775.410893
505.325856	10997.312403
505.691385	10790.877153
506.056856	10944.813827
506.422270	10971.904988
506.787625	10856.810405
507.152924	10974.463374
507.518164	10957.530138
507.883347	10876.632222
508.248472	10800.956941
508.613540	11030.833556
508.978550	10910.097921
509.343503	10888.816690
509.708398	11015.137923
510.073236	11120.170364
510.438016	11128.896601
510.802738	11079.722666
511.167403	11127.958947
511.532010	11032.421519
511.896561	11251.512586
512.261053	11326.381282
512.625488	11196.634585
512.989866	11179.484580
513.354186	11166.037302
513.718449	11072.740668
514.082655	11257.677917
514.446803	11160.872640
514.810894	11275.700042
515.174927	11144.516616
515.538904	11161.838021
515.902822	11320.772999
516.266684	11208.072963
516.630488	11149.267904
516.994235	11209.723941
517.357925	11272.340113
517.721558	11352.333142
518.085133	11368.358971
518.448651	11382.340611
518.812112	11261.557085
519.175516	11277.958479
519.538863	11402.517829
519.902152	11316.823255
520.265385	11472.836884
520.628560	11390.474512
520.991678	11365.472910
521.354739	11431.219638
521.717743	11364.694052
522.080690	11339.647079
522.443580	11477.999026
522.806413	11428.812488
523.169189	11463.556120
523.531908	11520.863957
523.894569	11350.268790
524.257174	11346.364416
524.619722	11468.042747
524.982213	11419.551888
525.344647	11460.420522
525.707025	11415.206413
526.069345	11511.303408
526.431608	11426.725450
526.793815	11536.322655
527.155964	11328.175933
527.518057	11377.463294
527.880093	11327.754997
528.242072	11398.061449
528.603995	11297.089658
528.965860	11214.210568
529.327669	11272.360278
529.689421	11224.214738
530.051117	11193.251971
530.412755	11297.364401
530.774337	11185.932216
531.135862	11162.301807
531.497331	11189.662670
531.858743	11042.922243
532.220098	11213.093953
532.581396	11082.331463
532.942638	11062.809595
533.303824	11028.985973
533.664953	11039.648013
534.026025	10957.782196
534.387040	11057.695344
534.747999	11058.680890
535.108902	11110.821544
535.469748	10866.791889
535.830537	10980.656431
536.191270	10952.657863
536.551947	10980.346400
536.912567	10983.552574
537.273131	10905.906202
537.633638	10878.754547
537.994089	10869.592250
538.354483	10812.624691
538.714821	10965.417023
539.075103	10973.021604
539.435328	10940.213774
539.795497	10760.093348
540.155609	10923.134345
540.515665	11004.843887
540.875665	10743.036603
541.235609	10812.609568
541.595496	10805.194030
541.955328	10963.173710
542.315102	10847.751451
542.674821	10796.465272
543.034483	10796.765221
543.394090	10801.720675
543.753640	10726.151259
544.113134	10955.548964
544.472571	10802.872579
544.831953	10945.496904
545.191278	10757.847513
545.550548	10777.767633
545.909761	10927.194995
546.268918	10896.146528
546.628019	10978.282048
546.987064	10841.026552
547.346053	10767.105592
547.704986	10858.582370
548.063863	10847.771616
548.422684	10839.027734
548.781449	10757.915569
549.140158	10855.436690
549.498811	10746.424259
549.857408	10598.058060
550.215949	10825.172123
550.574434	10674.539926
550.932864	10772.839905
551.291237	10832.305356
551.649555	10783.935485
552.007817	10797.130705
552.366022	10754.880794
552.724173	10748.990206
553.082267	10741.562066
553.440305	10876.455781
553.798288	10672.553711
554.156215	10825.872843
554.514086	10798.264964
554.871902	10650.314661
555.229661	10683.699702
555.587365	10671.530357
555.945014	10561.923069
556.302606	10691.117760
556.660143	10579.103322
557.017625	10737.297250
557.375050	10627.420261
557.732421	10766.747671
558.089735	10677.962869
558.446994	10673.254431
558.804197	10712.719104
559.161345	10712.643487
559.518437	10564.849459
559.875474	10653.790536
560.232455	10682.268014
560.589381	10632.615170
560.946251	10623.142842
561.303065	10736.883875
561.659825	10672.604122
562.016528	10608.606674
562.373177	10480.642025
562.729770	10595.751732
563.086307	10513.217961
563.442789	10606.633063
563.799216	10487.767696
564.155587	10533.795951
564.511904	10482.078754
564.868164	10474.204472
565.224370	10497.892854
565.580520	10419.633981
565.936615	10426.769735
566.292654	10297.685949
566.648638	10425.542214
567.004567	10378.972034
567.360441	10366.780004
567.716260	10276.939081
568.072023	10370.144974
568.427732	10323.892388
568.783385	10221.148631
569.138982	10303.589140
569.494525	10312.343104
569.850013	10193.775166
570.205445	10279.300861
570.560823	10173.920581
570.916145	10090.691131
571.271412	10154.549948
571.626625	10108.110838
571.981782	10080.649153
572.336884	10050.268639
572.691931	10057.235514
573.046923	10003.726186
573.401860	9963.215474
573.756743	9894.249969
574.111570	9931.252038
574.466342	9924.534700
574.821059	9947.943298
575.175722	9840.518830
575.530330	9848.030150
575.884882	9843.578811
576.239380	9774.104149
576.593823	9748.376620
576.948211	9762.575030
577.302544	9642.930805
577.656823	9664.345627
578.011047	9665.328652
578.365216	9634.297829
578.719330	9555.479389
579.073389	9570.905320
579.427394	9515.432463
579.781344	9495.345985
580.135239	9443.754817
580.489080	9450.444428
580.842866	9354.516312
581.196597	9367.585503
581.550273	9401.918281
581.903895	9367.323363
582.257463	9433.899361
582.610975	9311.812697
582.964434	9338.306481
583.317837	9258.673895
583.671186	9240.316533
584.024481	9236.969207
584.377721	9160.915839
584.730906	9135.853743
585.084037	9160.605808
585.437113	9100.638763
585.790135	9119.631310
586.143103	9018.878809
586.496016	8998.139502
586.848874	9052.190754
587.201679	9041.304382
587.554428	8925.239376
587.907124	8969.813259
588.259765	8944.577242
588.612352	8938.111963
588.964884	8822.596443
589.317362	8836.129420
589.669786	8837.049431
590.022155	8881.154486
590.374470	8899.244667
590.726731	8836.134462
591.078937	8684.491513
591.431090	8800.400242
591.783188	8676.481119
592.135232	8669.070623
592.487222	8668.420314
592.839157	8719.083910
593.191038	8655.756936
593.542866	8596.498172
593.894639	8498.730035
594.246358	8554.079383
594.598022	8565.469870
594.949633	8464.513203
595.301190	8439.990510
595.652692	8471.664080
596.004141	8577.591325
596.355535	8356.738375
596.706876	8337.695416
597.058162	8273.695447
597.409395	8348.985080
597.760573	8411.608814
598.111698	8318.927200
598.462768	8302.162843
598.813785	8270.574973
599.164748	8233.209941
599.515657	8230.646514
599.866511	8135.721587
600.217312	8265.634643
600.568060	8125.094835
600.918753	8224.627377
601.269392	8197.006895
601.619978	8109.492464
601.970510	8171.758276
602.320988	8167.863984
602.671412	8223.520843
603.021783	8159.009198
603.372100	8134.113459
603.722363	8139.809963
604.072572	8104.398378
604.422728	8125.195658
604.772830	8050.047178
605.122878	8059.413642
605.472872	8056.056233
605.822813	8081.168741
606.172701	8026.036162
606.522534	8100.143644
606.872314	8105.053728
607.222041	8070.859581
607.571714	8127.582644
607.921333	8081.423319
608.270899	8089.630318
608.620411	8180.608021
608.969870	8079.661436
609.319276	8078.423833
609.668627	8090.076460
610.017926	8134.385682
610.367171	8176.648195
610.716362	8151.157600
611.065500	8146.776838
611.414585	8171.501177
611.763616	8162.858118
612.112594	8143.358935
612.461518	8155.840832
612.810389	8216.216211
613.159207	8154.898137
613.507971	8104.368131
613.856682	8226.835402
614.205340	8182.001900
614.553945	8257.641893
614.902496	8153.741192
615.250994	8209.655150
615.599439	8191.580093
615.947830	8206.849748
616.296169	8181.946448
616.644454	8190.103034
616.992686	8190.977675
617.340864	8247.945234
617.688990	8152.470821
618.037063	8242.808298
618.385082	8188.021038
618.733048	8267.547760
619.080961	8215.780152
619.428821	8234.326557
619.776628	8227.979744
620.124382	8186.402827
620.472083	8169.212493
620.819731	8193.286523
621.167326	8093.484280
621.514868	8096.771112
621.862357	7987.040316
622.209793	8001.211000
622.557176	7939.971063
622.904506	7911.594408
623.251783	7839.395002
623.599007	7795.509238
623.946179	7798.778426
624.293297	7754.892661
624.640363	7678.446084
624.987376	7653.726786
625.334336	7602.957325
625.681243	7553.400263
626.028097	7540.860392
626.374899	7519.967330
626.721647	7513.963316
627.068343	7440.488499
627.414987	7416.510250
627.761577	7369.035184
628.108115	7408.058756
628.454600	7298.809390
628.801032	7350.274530
629.147412	7310.756925
629.493739	7301.297200
629.840014	7234.388485
630.186236	7294.887373
630.532405	7180.402769
630.878521	7230.330357
631.224585	7182.356216
631.570597	7107.548013
631.916556	7143.398179
632.262462	7137.368959
632.608316	7102.272446
632.954117	7077.724547
633.299866	7063.291724
633.645562	7060.539254
633.991206	6981.733416
634.336797	6923.732421
634.682336	6877.663836
635.027823	6842.219484
635.373257	6835.527352
635.718639	6765.752742
636.063968	6781.798734
636.409245	6674.712024
636.754470	6671.299163
637.099642	6628.792153
637.444762	6574.788793
637.789829	6584.145174
638.134845	6528.921854
638.479808	6508.124574
638.824719	6515.038517
639.169577	6438.486075
639.514383	6462.439117
639.859137	6391.003447
640.203839	6406.966261
640.548489	6384.840636
640.893086	6367.594849
641.237632	6332.205949
641.582125	6356.227047
641.926566	6323.078940
642.270955	6339.409758
642.615292	6336.886660
642.959576	6349.973496
643.303809	6338.351116
643.647990	6342.676426
643.992118	6334.837431
644.336195	6284.309946
644.680219	6309.591333
645.024192	6295.173633
645.368112	6390.990844
645.711981	6413.577734
646.055797	6491.186297
646.399562	6447.940759
646.743274	6571.917856
647.086935	6627.335260
647.430544	6619.198838
647.774101	6642.836808
648.117606	6647.119268
648.461059	6639.302959
648.804460	6603.896415
649.147810	6510.816550
649.491108	6479.347147
649.834354	6456.654393
650.177548	6377.707404
650.520690	6292.912675
650.863781	6267.953923
651.206820	6289.814886
651.549807	6208.445622
651.892742	6148.781046
652.235626	6156.060472
652.578458	6139.974150
652.921238	6049.505603
653.263967	6086.086736
653.606644	6029.938364
653.949269	6033.615886
654.291843	5968.335464
654.634365	6019.820769
654.976836	5975.561958
655.319255	5973.157328
655.661622	5952.939781
656.003938	5946.812258
656.346203	5908.809520
656.688416	5945.012566
657.030577	5895.014402
657.372687	5864.727150
657.714746	5849.701991
658.056753	5891.992231
658.398708	5832.983004
658.740612	5821.816848
659.082465	5871.010948
659.424266	5863.860072
659.766016	5864.588518
660.107715	5840.179251
660.449362	5854.533937
660.790958	5843.576989
661.132503	5835.475855
661.473996	5871.310897
661.815438	5857.341860
662.156829	5854.851530
662.498168	5845.001115
662.839456	5822.167209
663.180693	5858.521490
663.521879	5860.336305
663.863013	5850.528740
664.204097	5870.007759
664.545129	5907.773563
664.886110	5904.842132
665.227040	5937.418068
665.567918	5906.188120
665.908746	5929.697541
666.249522	5936.742553
666.590248	5920.149595
666.930922	5952.115552
667.271545	5964.846986
667.612118	5961.592921
667.952639	5940.929232
668.293109	5959.374813
668.633528	5918.380150
668.973896	5923.149082
669.314213	5911.803965
669.654480	5890.182456
669.994695	5886.580552
670.334859	5877.493872
670.674973	5868.976843
671.015035	5875.979005
671.355047	5868.578592
671.695008	5855.070820
672.034918	5831.369835
672.374777	5838.931566
672.714585	5831.021995
673.054342	5829.149207
673.394049	5824.052600
673.733705	5857.316654
674.073310	5839.327296
674.412864	5797.614269
674.752368	5790.294513
675.091820	5798.809022
675.431223	5733.440380
675.770574	5734.798971
676.109875	5685.927505
676.449125	5695.072158
676.788324	5658.455737
677.127473	5604.696873
677.466571	5593.361838
677.805619	5583.128296
678.144616	5568.849228
678.483562	5550.945570
678.822458	5513.749416
679.161303	5511.122975
679.500098	5501.547303
679.838842	5482.930322
680.177535	5488.291589
680.516179	5502.013610
680.854771	5513.048696
681.193314	5598.836532
681.531805	5707.382656
681.870247	5854.052507
682.208638	5958.341377
682.546978	5968.501823
682.885268	5950.220078
683.223508	5861.548703
683.561697	5808.629190
683.899836	5774.354385
684.237925	5733.848714
684.575963	5699.389907
684.913951	5654.395088
685.251889	5715.148554
685.589776	5684.188307
685.927614	5657.571015
686.265401	5731.053394
686.603137	5712.348193
686.940824	5791.050687
687.278460	5810.108769
687.616046	5818.585469
687.953582	5889.214555
688.291068	5869.836359
688.628504	5932.371873
688.965889	5896.519187
689.303224	5838.084652
689.640510	5792.794926
689.977745	5719.504111
690.314930	5623.742352
690.652065	5565.280091
690.989150	5469.387262
691.326185	5397.376900
691.663170	5342.768601
692.000105	5264.771869
692.336990	5186.046690
692.673825	5163.600953
693.010610	5097.435808
693.347345	5027.300755
693.684030	5012.061347
694.020665	4969.055264
694.357251	4874.352148
694.693786	4888.638778
695.030272	4859.994942
695.366707	4818.700330
695.703093	4790.099343
696.039429	4811.042817
696.375716	4790.759735
696.711952	4766.398359
697.048139	4755.600207
697.384276	4736.269903
697.720363	4741.500100
698.056400	4755.217079
698.392388	4703.078946
698.728326	4683.884752
699.064214	4661.161752
699.400053	4656.760824
699.735842	4621.911328
700.071581	4599.579016
700.407270	4571.741765
700.742910	4551.335174
701.078501	4499.731403
701.414042	4498.657637
701.749533	4470.439778
702.084974	4404.405704
702.420366	4457.574753
702.755709	4401.660796
703.091002	4344.592413
703.426246	4392.858941
703.761440	4347.226416
704.096584	4313.652332
704.431679	4335.518337
704.766725	4319.255574
705.101721	4307.358451
705.436668	4336.329962
705.771565	4285.237868
706.106413	4312.223165
706.441212	4343.879090
706.775961	4351.483671
707.110661	4331.931556
707.445311	4359.766287
707.779913	4382.320409
708.114465	4397.196854
708.448967	4416.577570
708.783421	4481.386644
709.117825	4521.284856
709.452180	4523.505484
709.786485	4570.045416
710.120742	4653.153879
710.454949	4640.780367
710.789107	4709.110686
711.123216	4782.381337
711.457275	4772.311632
711.791286	4842.444164
712.125247	4863.995097
712.459159	4761.478192
712.793023	4843.051623
713.126837	4800.050581
713.460602	4792.670332
713.794318	4712.110173
714.127985	4723.248602
714.461602	4635.182165
714.795171	4606.941621
715.128691	4543.440727
715.462162	4485.530472
715.795584	4438.148667
716.128957	4417.898352
716.462281	4367.247359
716.795556	4340.574614
717.128782	4303.693532
717.461960	4230.594281
717.795088	4240.122062
718.128167	4203.878686
718.461198	4144.405674
718.794180	4140.791166
719.127113	4120.644195
719.459997	4098.364816
719.792833	4056.077097
720.125619	4044.268194
720.458357	4012.050179
720.791046	4011.737628
721.123686	3987.540089
721.456278	3949.648257
721.788821	3962.208291
722.121315	3936.571503
722.453761	3909.692071
722.786158	3921.392589
723.118506	3947.621713
723.450805	3898.024321
723.783056	3920.956529
724.115259	3934.648303
724.447412	3938.499745
724.779518	3932.772994
725.111574	3938.595527
725.443582	3968.960917
725.775542	3954.160089
726.107453	4004.067512
726.439315	4003.775125
726.771129	4018.727188
727.102895	4052.495357
727.434612	4102.110393
727.766281	4112.427114
728.097901	4117.248978
728.429473	4118.829380
728.760996	4126.786841
729.092471	4120.099750
729.423897	4104.454529
729.755276	4110.440900
730.086606	4109.969552
730.417887	4149.141838
730.749120	4214.936457
731.080305	4275.505921
731.411442	4305.586486
731.742530	4276.693112
732.073570	4275.941980
732.404562	4332.453315
732.735506	4322.726409
733.066401	4287.186274
733.397249	4222.120101
733.728048	4146.878360
734.058798	4062.393662
734.389501	3991.961181
734.720156	3931.467335
735.050762	3882.525293
735.381320	3877.721073
735.711831	3825.124195
736.042293	3800.397335
736.372707	3819.236127
736.703073	3796.046819
737.033391	3782.294552
737.363661	3800.200730
737.693883	3824.978001
738.024056	3836.365968
738.354182	3826.729802
738.684260	3895.271851
739.014290	3911.050662
739.344272	3912.250457
739.674207	3949.620530
740.004093	3955.629586
740.333931	3952.125984
740.663722	3950.321251
740.993464	3953.668577
741.323159	3926.622786
741.652806	3899.574475
741.982405	3868.699929
742.311956	3838.021987
742.641460	3830.331707
742.970915	3806.625681
743.300323	3763.990122
743.629683	3732.528281
743.958996	3717.553533
744.288260	3694.046633
744.617477	3659.323165
744.946647	3648.746825
745.275768	3619.745067
745.604842	3620.705406
745.933869	3570.528282
746.262847	3563.203485
746.591778	3601.725462
746.920662	3572.217068
747.249498	3539.983930
747.578286	3587.345571
747.907027	3606.587655
748.235720	3604.117490
748.564365	3626.681694
748.892963	3627.268989
749.221514	3609.703088
749.550017	3587.171651
749.878473	3585.311465
750.206881	3554.187381
750.535242	3550.920714
750.863555	3555.288873
751.191821	3548.619427
751.520039	3533.211140
751.848210	3508.736338
752.176334	3541.672717
752.504411	3549.441135
752.832440	3504.496728
753.160421	3488.831342
753.488356	3495.092455
753.816243	3511.209024
754.144082	3467.441727
754.471875	3451.274746
754.799620	3471.709063
755.127318	3467.068681
755.454969	3464.391828
755.782572	3468.500369
756.110129	3445.958849
756.437638	3436.836882
756.765100	3451.352884
757.092515	3456.754480
757.419882	3465.296716
757.747203	3436.176490
758.074477	3439.738066
758.401703	3457.301446
758.728882	3477.997903
759.056014	3484.180878
759.383099	3489.945437
759.710138	3486.091475
760.037129	3502.059330
760.364073	3533.334648
760.690970	3518.493492
761.017820	3496.904750
761.344623	3514.899149
761.671379	3557.522105
761.998088	3611.318778
762.324751	3737.692943
762.651366	3984.890963
762.977935	4455.071821
763.304456	4901.581940
763.630931	4995.526363
763.957359	4639.139471
764.283740	4291.612407
764.610074	4100.829940
764.936362	3906.286772
765.262602	3742.071185
765.588796	3634.591265
765.914943	3544.929302
766.241044	3457.808082
766.567097	3429.877569
766.893104	3379.516442
767.219064	3349.022502
767.544978	3319.932524
767.870845	3266.403032
768.196665	3248.461565
768.522438	3258.097731
768.848165	3253.565733
769.173846	3214.264898
769.499479	3199.897610
769.825066	3183.574353
770.150607	3164.775891
770.476101	3179.881708
770.801548	3174.243178
771.126949	3129.956641
771.452303	3116.174127
771.777611	3118.545989
772.102872	3124.638224
772.428087	3099.538319
772.753256	3089.962647
773.078378	3083.822522
773.403453	3050.263561
773.728482	3037.695964
774.053465	3058.581464
774.378401	3044.703168
774.703291	3014.244516
775.028135	3016.621420
775.352932	3010.395595
775.677683	2995.811537
776.002388	2999.100890
776.327046	2998.349758
776.651658	2987.155876
776.976224	2972.501242
777.300743	2974.739514
777.625216	2966.257773
777.949643	2960.558748
778.274024	2962.847432
778.598359	2954.264868
778.922647	2955.600774
779.246889	2955.099179
779.571086	2941.835903
779.895236	2937.515634
780.219339	2947.071141
780.543397	2959.179993
780.867409	2961.506485
781.191374	2954.211936
781.515294	2949.937037
781.839167	2951.277984
782.162995	2942.700461
782.486776	2952.984415
782.810511	2950.741101
783.134201	2936.731735
783.457844	2941.021757
783.781441	2934.632094
784.104993	2912.498908
784.428498	2915.841193
784.751958	2927.183789
785.075372	2921.575506
785.398739	2908.897004
785.722061	2921.837646
786.045337	2934.982454
786.368568	2920.279929
786.691752	2913.638209
787.014891	2956.286371
787.337983	2987.788541
787.661030	3016.820546
787.984031	3083.331009
788.306987	3129.545787
788.629897	3122.024386
788.952760	3106.696757
789.275579	3091.490117
789.598351	3031.651621
789.921078	2989.250476
790.243759	2980.178919
790.566395	2958.960703
790.888984	2939.227106
791.211529	2919.770773
791.534027	2911.941861
791.856480	2899.880900
792.178888	2888.019065
792.501249	2877.664535
792.823566	2875.244781
793.145836	2870.722866
793.468062	2867.367978
793.790241	2866.568956
794.112375	2871.048021
794.434464	2881.127808
794.756507	2886.100906
795.078505	2894.335631
795.400457	2907.858526
795.722364	2943.877570
796.044226	2971.245995
796.366042	2971.119966
796.687812	2960.851135
797.009538	2982.066831
797.331218	2968.112918
797.652852	2954.768983
797.974442	2934.127979
798.295986	2931.587237
798.617484	2927.811413
798.938938	2911.689803
799.260346	2896.377298
799.581709	2892.016700
799.903026	2884.245762
800.224299	2876.588249
800.545526	2869.356714
800.866708	2852.869620
801.187845	2842.794874
801.508936	2845.930472
801.829983	2851.188395
802.150984	2840.823783
802.471940	2827.036227
802.792851	2825.637307
803.113717	2825.120589
803.434538	2831.540498
803.755314	2821.790907
804.076045	2818.557006
804.396731	2818.158755
804.717372	2817.931903
805.037967	2811.600214
805.358518	2819.439208
805.679024	2830.378512
805.999485	2829.095538
806.319901	2830.726352
806.640272	2823.704024
806.960598	2830.209633
807.280879	2837.007629
807.601115	2844.410564
807.921306	2831.293482
808.241453	2829.244252
808.561554	2835.054182
808.881611	2836.780777
809.201623	2832.841116
809.521590	2828.888851
809.841513	2824.283757
810.161390	2829.302226
810.481223	2824.944148
810.801011	2813.145328
811.120755	2810.095430
811.440453	2814.085503
811.760107	2812.653815
812.079716	2811.819504
812.399281	2800.542443
812.718801	2792.678243
813.038276	2789.620783
813.357707	2796.035652
813.677093	2804.010757
813.996434	2797.306022
814.315731	2791.478448
814.634983	2789.237656
814.954191	2790.409724
815.273354	2803.163843
815.592473	2813.483085
815.911547	2814.004844
816.230577	2821.077583
816.549562	2833.461178
816.868502	2828.515806
817.187399	2841.038032
817.506250	2855.291894
817.825058	2849.726461
818.143821	2861.459746
818.462539	2878.670245
818.781213	2907.240985
819.099843	2943.635595
819.418429	3000.426714
819.736970	3057.810168
820.055466	3133.608957
820.373919	3241.275400
820.692327	3380.693551
821.010691	3553.320303
821.329011	3994.585102
821.647286	4897.589346
821.965517	6285.088805
822.283704	7037.244082
822.601847	7021.654314
822.919945	6384.160081
823.237999	5874.277616
823.556010	5283.441782
823.873976	4727.394951
824.191897	4316.873629
824.509775	4021.361191
824.827609	3748.155858
825.145398	3626.076756
825.463144	3612.105198
825.780845	3706.417625
826.098502	3812.140703
826.416116	4093.207715
826.733685	4412.723608
827.051210	4474.071929
827.368692	4360.605639
827.686129	4092.083538
828.003522	3767.954990
828.320872	3506.646780
828.638177	3308.229485
828.955439	3173.030780
829.272656	3089.183789
829.589830	3023.729447
829.906960	2971.500573
830.224046	2924.607760
830.541088	2890.060732
830.858086	2875.136397
831.175041	2858.540918
831.491952	2859.924715
831.808819	2870.942157
832.125642	2896.281516
832.442421	2943.675924
832.759157	3023.726927
833.075849	3204.621171
833.392497	3484.163234
833.709101	3690.689225
834.025662	3639.503869
834.342179	3479.757265
834.658653	3302.205306
834.975083	3150.859786
835.291469	3056.670867
835.607811	2968.685088
835.924110	2910.840369
836.240366	2858.369519
836.556578	2815.038281
836.872746	2791.599436
837.188871	2770.751744
837.504952	2750.894639
837.820990	2744.608321
838.136984	2731.697926
838.452935	2723.120402
838.768842	2720.872048
839.084706	2736.860067
839.400526	2819.812254
839.716303	2953.826288
840.032037	3033.073226
840.347727	3019.449508
840.663373	2957.466001
840.978977	2880.769886
841.294537	2810.166006
841.610054	2762.343100
841.925527	2740.043556
842.240957	2717.502036
842.556344	2694.010259
842.871687	2680.048784
843.186987	2669.117042
843.502244	2665.482370
843.817458	2662.130002
844.132629	2649.517036
844.447756	2640.329533
844.762840	2634.938019
845.077881	2635.016157
845.392879	2635.159829
845.707833	2629.780918
846.022745	2625.478293
846.337613	2625.692542
846.652438	2623.050978
846.967221	2623.628190
847.281960	2622.834208
847.596656	2618.597118
847.911309	2620.084259
848.225919	2618.829012
848.540485	2615.718620
848.855009	2614.934720
849.169490	2613.392127
849.483928	2616.686521
849.798323	2613.727364
850.112675	2612.265429
850.426984	2612.542693
850.741251	2612.152003
851.055474	2609.497836
851.369654	2618.110647
851.683792	2613.399689
851.997887	2610.115377
852.311938	2609.979266
852.625947	2612.663680
852.939914	2616.454628
853.253837	2615.905142
853.567718	2612.835080
853.881555	2612.336005
854.195350	2616.449587
854.509103	2615.998404
854.822812	2612.522528
855.136479	2609.081941
855.450103	2612.174688
855.763685	2611.405912
856.077224	2612.091509
856.390720	2610.374997
856.704173	2612.605707
857.017584	2615.968157
857.330953	2618.274485
857.644278	2618.755915
857.957561	2620.800103
858.270802	2615.050667
858.584000	2615.927828
858.897155	2616.013527
859.210268	2618.662653
859.523339	2613.409771
859.836367	2608.441714
860.149352	2610.135542
860.462295	2612.436828
860.775195	2608.126642
861.088054	2609.260902
861.400869	2606.657146
861.713642	2605.762341
862.026373	2606.853751
862.339062	2609.626385
862.651708	2614.662498
862.964312	2614.569237
863.276873	2612.840121
863.589392	2617.563682
863.901869	2620.064094
864.214303	2625.256483
864.526696	2630.988275
864.839045	2628.550877
865.151353	2631.459622
865.463619	2633.740745
865.775842	2631.540281
866.088023	2630.516927
866.400162	2634.292751
866.712258	2631.164715
867.024313	2629.780918
867.336325	2627.933335
867.648296	2629.755712
867.960224	2634.328039
868.272110	2634.136475
868.583954	2625.664816
868.895755	2628.409724
869.207515	2634.007926
869.519233	2640.110242
869.830909	2636.904069
870.142542	2630.007770
870.454134	2633.213944
870.765684	2637.259470
871.077191	2641.887249
871.388657	2642.497229
871.700081	2644.727939
872.011463	2641.612506
872.322803	2644.901859
872.634101	2647.911428
872.945357	2654.812768
873.256571	2658.767553
873.567744	2654.734630
873.878874	2658.739827
874.189963	2659.750578
874.501010	2661.953562
874.812015	2668.439007
875.122979	2665.245436
875.433900	2659.009528
875.744780	2656.708242
876.055618	2664.438851
876.366415	2667.861794
876.677169	2666.230981
876.987882	2661.429282
877.298554	2662.082112
877.609183	2672.403874
877.919771	2679.421160
878.230317	2685.793179
878.540822	2696.001515
878.851285	2712.566747
879.161707	2732.718759
879.472087	2772.380037
879.782425	2822.524394
880.092722	2937.573608
880.402977	3124.635703
880.713191	3390.523801
881.023363	3690.200233
881.333494	3887.561406
881.643583	4057.584402
881.953631	4053.249009
882.263637	3878.976321
882.573602	3658.098165
882.883526	3522.672608
883.193408	3408.046852
883.503248	3300.937456
883.813048	3186.231042
884.122806	3072.696695
884.432522	2984.905001
884.742197	2917.719023
885.051831	2878.960112
885.361424	2842.676407
885.670975	2805.986889
885.980485	2777.138886
886.289954	2757.475866
886.599382	2740.250243
886.908768	2731.914695
887.218113	2713.441387
887.527417	2697.685261
887.836680	2690.945238
888.145901	2684.427026
888.455082	2674.997548
888.764221	2667.249294
889.073319	2660.594971
889.382376	2656.904847
889.691392	2657.383756
890.000366	2657.691267
890.309300	2658.684374
890.618193	2659.778304
890.927044	2659.906854
891.235855	2663.405414
891.544625	2660.635300
891.853353	2663.443223
892.162041	2669.706857
892.470687	2689.596729
892.779293	2699.119469
893.087858	2711.918958
893.396381	2734.231105
893.704864	2774.192332
894.013306	2846.376614
894.321707	2944.757252
894.630068	2994.803307
894.938387	3015.030936
895.246665	3006.702950
895.554903	2963.742237
895.863100	2917.948396
896.171256	2860.113758
896.479371	2795.960034
896.787446	2758.443767
897.095480	2738.319481
897.403473	2734.336970
897.711425	2716.060266
898.019336	2698.930426
898.327207	2683.446522
898.635038	2680.953671
898.942827	2681.011644
899.250576	2670.309275
899.558284	2659.798469
899.865952	2652.350164
900.173579	2654.505257
900.481165	2648.541572
900.788711	2640.904224
901.096216	2634.060858
901.403681	2632.762761
901.711105	2630.360651
902.018489	2629.385188
902.325832	2636.016826
902.633135	2634.718728
902.940397	2652.818991
903.247619	2689.931966
903.554800	2758.254724
903.861941	2887.648540
904.169041	3020.714837
904.476101	3080.495360
904.783121	3074.415729
905.090100	3016.812984
905.397039	2938.523865
905.703938	2865.732124
906.010796	2800.068575
906.317614	2746.589494
906.624391	2710.535162
906.931129	2686.007428
907.237826	2659.611946
907.544483	2642.545120
907.851099	2629.256638
908.157675	2619.055863
908.464211	2610.448093
908.770707	2602.851074
909.077163	2596.191710
909.383578	2594.271031
909.689954	2588.206522
909.996289	2588.430854
910.302584	2588.312387
910.608839	2583.452714
910.915054	2587.092427
911.221229	2587.775504
911.527363	2589.204671
911.833458	2587.533528
912.139513	2590.021338
912.445527	2592.216760
912.751502	2598.311515
913.057436	2603.617330
913.363331	2611.070676
913.669186	2623.391256
913.975000	2634.292751
914.280775	2653.275216
914.586510	2671.592248
914.892205	2708.007023
915.197859	2778.109308
915.503475	2859.902030
915.809050	2929.482556
916.114585	2946.267077
916.420081	2963.361630
916.725536	2969.121148
917.030952	2941.609051
917.336328	2895.003584
917.641665	2845.335616
917.946961	2794.304015
918.252218	2758.836977
918.557435	2733.427041
918.862612	2708.579194
919.167750	2691.686287
919.472848	2675.456293
919.777906	2659.445588
920.082925	2646.585605
920.387904	2635.343832
920.692843	2630.025414
920.997743	2628.487862
921.302603	2617.813219
921.607423	2613.462703
921.912204	2607.017588
922.216946	2602.195724
922.521647	2603.884511
922.826310	2595.246494
923.130932	2592.075608
923.435516	2587.321800
923.740059	2583.737540
924.044564	2583.969433
924.349028	2579.402147
924.653454	2573.814028
924.957840	2573.040211
925.262186	2568.356979
925.566493	2570.378482
925.870761	2563.338511
926.174989	2568.505693
926.479178	2563.031000
926.783328	2560.011349
927.087438	2562.726010
927.391509	2561.737944
927.695541	2559.595454
927.999533	2558.776266
928.303486	2556.285936
928.607400	2556.212840
928.911275	2554.876934
929.215110	2555.139074
929.518906	2554.151008
929.822663	2555.050854
930.126381	2555.136553
930.430060	2553.067160
930.733699	2556.651420
931.037299	2554.781152
931.340861	2554.708055
931.644383	2557.639486
931.947866	2557.528581
932.251309	2555.222253
932.554714	2553.200750
932.858080	2557.465566
933.161407	2551.340564
933.464694	2553.777962
933.767943	2553.301573
934.071153	2555.010524
934.374323	2549.092210
934.677455	2557.374826
934.980548	2550.276881
935.283602	2554.403065
935.586617	2551.244783
935.889593	2552.293342
936.192530	2554.579506
936.495428	2553.110009
936.798287	2551.033054
937.101108	2555.285267
937.403890	2556.774928
937.706632	2561.644683
938.009336	2566.151474
938.312002	2567.348748
938.614628	2573.105746
938.917216	2574.678586
939.219765	2577.725964
939.522275	2576.687486
939.824747	2579.583629
940.127179	2569.382854
940.429573	2569.949984
940.731929	2566.653069
941.034246	2565.047462
941.336524	2567.943605
941.638763	2567.192473
941.940964	2565.758264
942.243126	2567.318502
942.545250	2564.243398
942.847335	2562.201730
943.149381	2561.027142
943.451389	2557.775597
943.753359	2557.090000
944.055290	2557.977243
944.357182	2555.688560
944.659036	2557.873900
944.960851	2557.652089
945.262628	2556.210319
945.564367	2555.297870
945.866067	2557.510937
946.167729	2555.439022
946.469352	2553.944320
946.770937	2554.750905
947.072484	2554.526574
947.373992	2557.407593
947.675462	2554.685370
947.976893	2554.539177
948.278286	2551.222097
948.579641	2553.102448
948.880958	2550.279402
949.182236	2552.154711
949.483476	2552.681511
949.784678	2552.341233
950.085841	2553.954403
950.386967	2554.075390
950.688054	2552.961295
950.989103	2555.128992
951.290114	2552.273178
951.591087	2555.454146
951.892021	2554.980277
952.192917	2558.073025
952.493776	2558.067984
952.794596	2558.128478
953.095378	2563.918243
953.396122	2560.747358
953.696828	2562.529405
953.997496	2555.360885
954.298126	2556.217881
954.598718	2555.897767
954.899272	2554.352654
955.199788	2555.239897
955.500266	2550.773435
955.800706	2548.580533
956.101108	2545.432332
956.401472	2546.135573
956.701798	2542.999975
957.002087	2541.701878
957.302337	2544.608103
957.602550	2543.015099
957.902724	2541.303627
958.202861	2542.896632
958.502960	2541.348998
958.803022	2541.197763
959.103045	2539.337577
959.403031	2540.744059
959.702979	2542.301776
960.002889	2541.843031
960.302762	2540.101312
960.602596	2540.910417
960.902393	2541.117104
961.202153	2537.739531
961.501875	2538.856147
961.801559	2537.600900
962.101205	2538.334387
962.400814	2537.419418
962.700385	2540.512166
962.999918	2536.885056
963.299414	2535.861702
963.598873	2536.370858
963.898293	2533.008408
964.197677	2537.394212
964.497022	2537.802546
964.796331	2535.783564
965.095601	2538.445293
965.394835	2535.745755
965.694030	2536.638039
965.993189	2535.085364
966.292309	2536.864891
966.591393	2535.407998
966.890439	2533.908254
967.189447	2534.878677
967.488419	2535.755837
967.787353	2537.023688
968.086249	2535.299613
968.385108	2535.803728
968.683930	2536.149047
968.982714	2536.209541
969.281462	2535.239119
969.580172	2539.236754
969.878844	2534.959335
970.177480	2536.736342
970.476078	2536.209541
970.774639	2540.408822
971.073162	2534.450178
971.371649	2536.282638
971.670098	2536.207021
971.968510	2534.495549
972.266885	2532.874818
972.565223	2537.482433
972.863524	2536.194418
973.161788	2540.499563
973.460014	2538.334387
973.758204	2537.253060
974.056356	2538.004192
974.354471	2538.185673
974.652550	2537.638708
974.950591	2538.057124
975.248595	2537.084181
975.546563	2537.623585
975.844493	2536.920344
976.142386	2538.455375
976.440243	2538.518390
976.738062	2536.416228
977.035845	2537.527803
977.333590	2536.270035
977.631299	2534.054448
977.928971	2535.294572
978.226606	2535.133255
978.524204	2535.322298
978.821765	2534.339273
979.119290	2537.162319
979.416777	2535.851619
979.714228	2537.008564
980.011642	2534.016639
980.309020	2537.545447
980.606360	2536.638039
980.903664	2534.911444
981.200931	2539.650129
981.498162	2538.072248
981.795356	2540.023174
982.092513	2543.589790
982.389633	2543.995603
982.686717	2547.521890
982.983764	2551.617828
983.280775	2554.887016
983.577749	2551.615307
983.874686	2547.017775
984.171587	2548.356201
984.468451	2547.768907
984.765279	2546.112888
985.062070	2541.333874
985.358824	2538.818338
985.655543	2539.972763
985.952224	2536.411187
986.248869	2536.438914
986.545478	2530.452543
986.842050	2534.576207
987.138586	2529.855167
987.435086	2532.910106
987.731549	2531.387678
988.027975	2531.332225
988.324366	2532.700898
988.620719	2533.978831
988.917037	2532.726104
989.213318	2531.216278
989.509563	2532.269879
989.805772	2534.195600
990.101944	2533.245343
990.398080	2534.336752
990.694180	2531.075126
990.990244	2530.069416
991.286271	2532.330373
991.582262	2530.795342
991.878217	2532.491690
992.174136	2534.082174
992.470019	2534.009078
992.765865	2532.852133
993.061676	2529.139323
993.357450	2532.756351
993.653188	2533.618388
993.948890	2533.802390
994.244556	2532.143851
994.540186	2532.141330
994.835780	2534.790456
995.131337	2534.263656
995.426859	2533.580579
995.722345	2534.286341
996.017795	2535.866743
996.313208	2537.673996
996.608586	2536.927906
996.903928	2537.742052
997.199234	2534.545960
997.494504	2536.617875
997.789738	2536.426311
998.084936	2536.675848
998.380099	2535.254243
998.675225	2533.237781
998.970316	2533.066382
999.265371	2533.005888
999.560390	2532.012781
999.855373	2532.794159
1000.150320	2534.243491
1000.445232	2533.608306
1000.740108	2530.545805
1001.034948	2533.008408
1001.329752	2533.699047
1001.624521	2534.896321
1001.919254	2527.203520
1002.213951	2534.082174
1002.508613	2526.631349
1002.803239	2528.768798
1003.097829	2524.826616
1003.392384	2530.593696
1003.686903	2533.878008
1003.981386	2529.124199
1004.275834	2531.102852
1004.570246	2530.969262
1004.864623	2530.495393
1005.158964	2533.510003
1005.453270	2532.635363
1005.747540	2530.644107
1006.041775	2532.852133
1006.335974	2533.336083
1006.630138	2531.312060
1006.924266	2530.465146
1007.218359	2529.963552
1007.512416	2527.059847
1007.806438	2532.529499
1008.100425	2531.475898
1008.394376	2533.328522
1008.688292	2530.840712
1008.982172	2529.451874
1009.276017	2530.495393
1009.569827	2533.235260
1009.863602	2534.031763
1010.157341	2529.542615
1010.451045	2531.422966
1010.744714	2530.346679
1011.038347	2532.095960
1011.331945	2533.724252
1011.625508	2529.809796
1011.919036	2527.868952
1012.212528	2528.867101
1012.505986	2529.129241
1012.799408	2531.848943
1013.092795	2530.147554
1013.386147	2531.513706
1013.679464	2530.452543
1013.972745	2528.408356
1014.265992	2529.945907
1014.559204	2530.432379
1014.852380	2531.533871
1015.145521	2531.485980
1015.438628	2529.986237
1015.731699	2529.671165
1016.024736	2528.612522
1016.317737	2531.312060
1016.610703	2528.390712
1016.903635	2527.163191
1017.196531	2524.750998
1017.489393	2527.732841
1017.782219	2524.935001
1018.075011	2526.593540
1018.367768	2528.141174
1018.660490	2529.199817
1018.953177	2529.199817
1019.245829	2529.199817
