Dividing Wavelength (nm)	Counts (n)	Blue Motor Position (mm): 32.400000	Red Motor Position (mm): 0.000000	
326.493990	2052.233566
326.888308	2052.233566
327.282561	2052.233566
327.676750	2026.145595
328.070874	2029.266069
328.464933	2036.578263
328.858929	2042.184026
329.252859	2052.402445
329.646726	2067.384754
330.040528	2084.519636
330.434265	2102.806422
330.827938	2123.276027
331.221547	2144.088430
331.615091	2163.872439
332.008571	2186.073680
332.401986	2204.788964
332.795338	2224.817468
333.188625	2243.729357
333.581847	2262.716863
333.975006	2280.025664
334.368100	2299.116514
334.761129	2313.246868
335.154095	2331.740341
335.546996	2380.465614
335.939833	2490.387973
336.332606	2497.755620
336.725315	2513.352950
337.117960	2522.122037
337.510540	2530.021525
337.903056	2538.904038
338.295508	2548.525080
338.687896	2551.872406
339.080220	2555.423899
339.472480	2565.095353
339.864676	2565.339849
340.256807	2568.349417
340.648875	2572.042063
341.040879	2573.020047
341.432818	2573.995510
341.824694	2575.379307
342.216506	2574.134142
342.608253	2575.381827
342.999937	2572.006775
343.391557	2568.994685
343.783113	2569.095508
344.174605	2567.716753
344.566033	2566.406053
344.957397	2565.972513
345.348697	2562.673078
345.739934	2561.934549
346.131106	2560.414641
346.522215	2560.918757
346.913260	2557.808365
347.304241	2558.287274
347.695159	2555.577654
348.086012	2555.875082
348.476802	2552.338713
348.867528	2549.190512
349.258191	2544.482075
349.648789	2544.908052
350.039324	2542.142979
350.429796	2546.493495
350.820203	2543.468803
351.210548	2543.604914
351.600828	2542.400078
351.991045	2543.451159
352.381198	2542.405119
352.771288	2543.166333
353.161314	2541.061652
353.551276	2542.105171
353.941175	2540.315561
354.331010	2539.662732
354.720782	2543.501570
355.110490	2546.196067
355.500135	2543.390665
355.889717	2541.104502
356.279235	2540.406302
356.668689	2545.770089
357.058080	2540.943185
357.447408	2540.872608
357.836672	2548.620862
358.225873	2545.334030
358.615010	2546.246478
359.004084	2544.376210
359.393095	2545.129863
359.782043	2543.383103
360.170927	2547.400903
360.559748	2548.885523
360.948505	2550.536500
361.337199	2551.106151
361.725830	2549.044319
362.114398	2548.109185
362.502903	2550.221428
362.891344	2551.723692
363.279722	2551.096068
363.668037	2553.190668
364.056289	2552.026161
364.444478	2552.706717
364.832603	2550.861655
365.220665	2553.082283
365.608665	2555.053374
365.996601	2556.175031
366.384474	2556.079249
366.772284	2554.634958
367.160031	2554.055226
367.547715	2558.325083
367.935336	2555.817109
368.322893	2556.152346
368.710388	2550.551624
369.097820	2553.813250
369.485189	2552.820143
369.872495	2559.862635
370.259738	2558.710731
370.646918	2561.130485
371.034035	2559.562686
371.421090	2560.253324
371.808081	2558.120916
372.195010	2558.481359
372.581875	2559.640824
372.968678	2560.636452
373.355418	2561.178376
373.742096	2561.185938
374.128710	2562.335321
374.515262	2560.810372
374.901751	2561.604354
375.288177	2562.075702
375.674540	2564.094684
376.060841	2561.836247
376.447079	2561.125444
376.833254	2565.049982
377.219367	2562.952862
377.605417	2563.721638
377.991404	2565.554098
378.377329	2565.584345
378.763191	2563.625856
379.148991	2562.960424
379.534727	2566.060734
379.920402	2566.663152
380.306013	2563.698953
380.691563	2568.419994
381.077049	2566.151474
381.462474	2563.885476
381.847835	2566.930333
382.233134	2567.739438
382.618371	2565.554098
383.003545	2569.687844
383.388657	2568.039387
383.773706	2568.087277
384.158693	2570.486867
384.543618	2570.554922
384.928480	2569.700447
385.313280	2570.239850
385.698017	2569.700447
386.082692	2572.440314
386.467305	2570.020560
386.851856	2572.722618
387.236344	2570.862433
387.620770	2569.735735
388.005133	2567.658779
388.389435	2571.505180
388.773674	2568.636763
389.157851	2571.230437
389.541965	2573.138514
389.926018	2574.184553
390.310008	2576.430387
390.693936	2578.202353
391.077802	2574.119018
391.461606	2575.480130
391.845348	2576.485840
392.229027	2576.566498
392.612645	2577.242013
392.996200	2578.030953
393.379694	2578.177147
393.763125	2576.886612
394.146494	2577.221848
394.529801	2581.521952
394.913047	2580.044894
395.296230	2581.043043
395.679351	2580.687642
396.062410	2580.478434
396.445408	2579.807960
396.828343	2582.807447
397.211217	2581.529514
397.594028	2582.721747
397.976778	2582.189905
398.359466	2583.109916
398.742092	2581.209401
399.124656	2582.938517
399.507158	2582.184864
399.889598	2584.632344
400.271977	2586.724423
400.654294	2584.067735
401.036549	2587.909094
401.418742	2587.914136
401.800874	2587.586461
402.182944	2585.998497
402.564952	2587.062181
402.946898	2588.740885
403.328783	2589.492017
403.710606	2587.987232
404.092367	2589.789445
404.474067	2590.114599
404.855705	2592.231884
405.237282	2590.802717
405.618797	2590.711976
406.000250	2591.374888
406.381642	2591.266503
406.762972	2591.347161
407.144240	2591.299270
407.525447	2593.782039
407.906593	2590.984198
408.287677	2593.784559
408.668700	2595.271700
409.049661	2596.615167
409.430560	2598.855960
409.811399	2595.070053
410.192176	2598.704725
410.572891	2600.650611
410.953545	2600.040631
411.334138	2601.673965
411.714669	2603.710591
412.095139	2603.859305
412.475547	2604.784357
412.855894	2606.682351
413.236180	2600.454006
413.616405	2607.340222
413.996568	2608.421549
414.376670	2609.341560
414.756711	2607.577156
415.136691	2613.394648
415.516609	2613.939092
415.896466	2615.068311
416.276262	2617.145266
416.655997	2618.823970
417.035670	2622.042747
417.415283	2628.235805
417.794834	2629.390229
418.174324	2631.547843
418.553753	2636.026908
418.933121	2640.894142
419.312428	2646.293218
419.691674	2650.119453
420.070859	2662.319046
420.449983	2663.733089
420.829045	2675.839420
421.208047	2682.707992
421.586988	2697.297092
421.965867	2710.048690
422.344686	2721.819785
422.723444	2740.290572
423.102141	2742.468351
423.480777	2766.547422
423.859352	2775.099740
424.237866	2809.903866
424.616319	2825.712924
424.994712	2855.082687
425.373044	2871.347969
425.751314	2911.190729
426.129524	2911.493198
426.507673	2958.065898
426.885762	2984.990701
427.263789	3021.753315
427.641756	3056.501988
428.019662	3092.316866
428.397508	3131.186683
428.775292	3160.110303
429.153016	3210.756255
429.530679	3239.130389
429.908282	3284.876340
430.285824	3307.995072
430.663305	3386.916856
431.040726	3408.170360
431.418086	3446.717543
431.795385	3509.865557
432.172624	3585.843307
432.549802	3607.953808
432.926920	3674.570135
433.303977	3714.624623
433.680974	3770.372223
434.057910	3857.143083
434.434786	3919.270263
434.811601	3961.293322
435.188355	4096.393724
435.565050	4122.448928
435.941683	4181.609389
436.318257	4325.763704
436.694770	4363.204353
437.071222	4482.667097
437.447614	4475.322136
437.823946	4529.741391
438.200218	4632.172596
438.576429	4658.232841
438.952580	4770.731230
439.328670	4837.392928
439.704700	4932.763997
440.080670	4956.810301
440.456580	5111.732521
440.832429	5173.710987
441.208218	5132.867558
441.583947	5241.590123
441.959616	5351.777143
442.335224	5433.065749
442.710773	5539.270258
443.086261	5686.434141
443.461689	5631.399865
443.837057	5768.627634
444.212365	5938.501916
444.587612	6007.727041
444.962800	6019.112487
445.337927	6159.251522
445.712995	5982.561601
446.088002	6405.882413
446.462949	6515.903075
446.837837	6599.341733
447.212664	6698.193718
447.587431	7324.342835
447.962139	8002.872060
448.336786	8540.974904
448.711374	8379.496664
449.085901	7724.691108
449.460369	7799.451420
449.834776	7833.133889
450.209124	8533.960138
450.583412	8455.020710
450.957640	8672.654883
451.331808	8469.203997
451.705917	8204.815642
452.079965	8222.061429
452.453954	8432.766537
452.827883	8476.286818
453.201752	8512.951130
453.575562	8600.337011
453.949311	8939.967107
454.323001	9072.380575
454.696632	9072.539371
455.070202	9592.574720
455.443713	9699.971461
455.817164	9894.106296
456.190556	10210.657990
456.563888	10138.493873
456.937160	10383.496470
457.310373	10033.539570
457.683526	10126.059867
458.056619	10220.584022
458.429653	10343.593217
458.802628	10548.949660
459.175542	10653.467903
459.548398	11182.158912
459.921194	11723.694782
460.293930	12056.373127
460.666607	12856.767205
461.039224	13561.056727
461.411782	13846.149100
461.784280	13545.840004
462.156719	13526.297971
462.529099	13500.893076
462.901419	13007.651461
463.273680	12723.363151
463.645882	12996.828103
464.018024	13002.743897
464.390106	13430.780709
464.762130	14574.265636
465.134094	16174.315263
465.505999	18353.976596
465.877845	20278.512694
466.249631	21165.896923
466.621358	20594.996333
466.993026	19835.622123
467.364634	19199.652839
467.736184	18569.206139
468.107674	18081.076253
468.479105	17965.354046
468.850477	17741.194099
469.221790	17353.100870
469.593043	16780.635001
469.964238	16473.459853
470.335373	16609.568487
470.706449	17469.354919
471.077467	18613.497717
471.448425	20916.947102
471.819324	22366.409903
472.190164	21877.223896
472.560945	20246.955071
472.931667	18899.557992
473.302330	18665.088885
473.672934	18239.519718
474.043479	18694.211631
474.413965	18510.368312
474.784393	18359.640332
475.154761	18996.196911
475.525070	19139.710999
475.895321	18997.424432
476.265513	19509.812350
476.635645	20088.859445
477.005719	20163.725621
477.375734	20541.534896
477.745691	21152.941158
478.115588	21809.276703
478.485427	23063.422519
478.855207	24933.438538
479.224928	26638.936502
479.594591	27789.784034
479.964194	27252.323937
480.333739	27609.807280
480.703226	27905.002126
481.072653	28421.067565
481.442022	28919.488967
481.811333	29227.291738
482.180584	28721.490088
482.549777	28520.083389
482.918912	28328.653133
483.287988	28276.976265
483.657005	28118.411812
484.025964	27778.706098
484.394864	27964.018914
484.763706	27919.971832
485.132489	27430.248942
485.501213	27513.059976
485.869879	27698.791207
486.238487	27673.144337
486.607036	27933.885417
486.975527	27653.476275
487.343959	27992.118305
487.712333	28312.599579
488.080648	28308.997674
488.448905	28717.689058
488.817104	28658.488268
489.185244	29533.708193
489.553326	30714.943800
489.921350	32618.811167
490.289315	35004.622925
490.657222	35664.888050
491.025070	36049.127316
491.392861	35656.660887
491.760593	34841.478583
492.128267	33835.980119
492.495883	32906.265321
492.863440	32085.245362
493.230939	31218.260162
493.598380	30718.152494
493.965763	30599.793764
494.333088	30172.089669
494.700354	29987.268366
495.067563	29956.779467
495.434713	29879.433044
495.801805	30169.342240
496.168839	30046.264989
496.535815	29912.082077
496.902733	30060.748224
497.269593	29887.647604
497.636395	30048.704908
498.003139	30339.415647
498.369825	30121.869694
498.736453	30519.836023
499.103023	30387.039427
499.469535	30461.182198
499.835989	30608.935896
500.202385	30473.472531
500.568723	30560.389585
500.935003	30873.954395
501.301226	30780.448553
501.667390	31468.339201
502.033497	31659.575372
502.399546	31473.859265
502.765537	31092.226274
503.131470	31556.821533
503.497345	31982.494044
503.863163	30993.671717
504.228923	31751.450401
504.594625	32142.560761
504.960269	31645.013999
505.325856	32312.271205
505.691385	32014.268436
506.056856	32311.081492
506.422270	32810.556495
506.787625	32366.561911
507.152924	32819.570078
507.518164	33018.259595
507.883347	32592.640017
508.248472	32756.845521
508.613540	33434.033800
508.978550	33673.889379
509.343503	33539.799728
509.708398	33901.963782
510.073236	34499.758929
510.438016	34612.658090
510.802738	34322.108667
511.167403	34879.551898
511.532010	35130.679497
511.896561	35615.585565
512.261053	36356.887238
512.625488	36143.202809
512.989866	36088.712977
513.354186	36149.753788
513.718449	36105.358867
514.082655	36987.737230
514.446803	36710.163738
514.810894	37317.844587
515.174927	37338.145314
515.538904	37346.669905
515.902822	38001.762806
516.266684	37691.308388
516.630488	38044.363077
516.994235	38074.804084
517.357925	38670.653345
517.721558	38924.856048
518.085133	39301.180704
518.448651	39501.175880
518.812112	39398.875745
519.175516	39543.811438
519.538863	40001.452426
519.902152	40048.052852
520.265385	40604.145053
520.628560	40631.571451
520.991678	40589.611407
521.354739	40828.100833
521.717743	41188.787829
522.080690	41099.110743
522.443580	41778.537294
522.806413	41817.235712
523.169189	41952.010960
523.531908	42193.484750
523.894569	42041.499002
524.257174	42256.413473
524.619722	42579.029675
524.982213	42728.099115
525.344647	42771.790795
525.707025	42894.477357
526.069345	43335.653935
526.431608	43256.263324
526.793815	43641.712468
527.155964	43201.322309
527.518057	43463.232936
527.880093	43314.009741
528.242072	43945.071462
528.603995	43680.604970
528.965860	43622.503151
529.327669	43828.323380
529.689421	43897.034307
530.051117	43849.740722
530.412755	44128.740861
530.774337	44206.495618
531.135862	44143.768541
531.497331	44289.742712
531.858743	44293.949555
532.220098	44708.725611
532.581396	44436.755361
532.942638	44206.382192
533.303824	44444.692658
533.664953	44511.450138
534.026025	44193.562538
534.387040	44760.452891
534.747999	44847.057393
535.108902	45154.875288
535.469748	44494.020348
535.830537	44741.246095
536.191270	44991.554507
536.551947	44728.466770
536.912567	44995.156411
537.273131	45159.513150
537.633638	44785.260409
537.994089	44984.456562
538.354483	44728.625566
538.714821	45385.281225
539.075103	45661.821281
539.435328	45527.721548
539.795497	45280.727694
540.155609	45405.496252
540.515665	45988.972001
540.875665	45319.642881
541.235609	45579.040494
541.595496	45695.745726
541.955328	46280.590148
542.315102	45711.073354
542.674821	45593.795951
543.034483	45493.454304
543.394090	45513.681934
543.753640	45490.094375
544.113134	46555.396047
544.472571	45646.692778
544.831953	46789.829866
545.191278	46041.773046
545.550548	45735.681747
545.909761	46374.892493
546.268918	46516.919440
546.628019	46932.297914
546.987064	46370.680608
547.346053	45665.687846
547.704986	46561.130360
548.063863	46217.820221
548.422684	46419.342867
548.781449	46017.076434
549.140158	46547.935139
549.498811	46303.978581
549.857408	45705.679319
550.215949	46544.272741
550.574434	46376.263686
550.932864	46304.394477
551.291237	47024.069600
551.649555	46777.123637
552.007817	46960.654405
552.366022	46629.276677
552.724173	46698.713530
553.082267	47109.023124
553.440305	47441.000749
553.798288	46687.693568
554.156215	47091.921010
554.514086	47288.626833
554.871902	46910.399142
555.229661	47079.308043
555.587365	46765.687780
555.945014	46899.918583
556.302606	46923.692665
556.660143	47023.406688
557.017625	47231.019047
557.375050	46926.843386
557.732421	47344.807972
558.089735	47400.948782
558.446994	47255.307327
558.804197	47751.228316
559.161345	47601.357332
559.518437	46953.778271
559.875474	47208.522898
560.232455	47432.781148
560.589381	47476.331676
560.946251	47289.977862
561.303065	47946.729303
561.659825	47631.211045
562.016528	47437.597970
562.373177	47017.763116
562.729770	47631.087537
563.086307	47160.231165
563.442789	47697.971046
563.799216	47562.525324
564.155587	47452.860063
564.511904	47421.282276
564.868164	47471.545100
565.224370	47787.446485
565.580520	47522.541413
565.936615	47704.461531
566.292654	47370.157414
566.648638	47718.027276
567.004567	47663.330757
567.360441	47774.427706
567.716260	47491.389602
568.072023	47839.919856
568.427732	47795.267836
568.783385	47314.878642
569.138982	47726.803925
569.494525	47845.283643
569.850013	47459.791650
570.205445	47569.661078
570.560823	47358.013274
570.916145	47233.436281
571.271412	47470.297415
571.626625	47115.644680
571.981782	47182.775205
572.336884	46780.239070
572.691931	47114.228116
573.046923	46779.326622
573.401860	46618.022301
573.756743	46625.894063
574.111570	46771.444777
574.466342	46684.678958
574.821059	46832.762852
575.175722	46337.051071
575.530330	46421.079544
575.884882	46075.594147
576.239380	45969.303939
576.593823	46069.194403
576.948211	45984.424880
577.302544	45544.634619
577.656823	45538.960800
578.011047	45795.369008
578.365216	45624.899870
578.719330	45353.897522
579.073389	45332.512947
579.427394	45372.259925
579.781344	45321.810577
580.135239	45064.426906
580.489080	45132.532895
580.842866	44621.264113
581.196597	45107.092712
581.550273	45096.899499
581.903895	45032.856680
582.257463	45475.197766
582.610975	44914.548361
582.964434	45243.496252
583.317837	44758.426347
583.671186	44713.015633
584.024481	44972.960211
584.377721	44534.684816
584.730906	44735.657976
585.084037	44854.974526
585.437113	44547.900201
585.790135	44683.953381
586.143103	44233.049896
586.496016	44402.505762
586.848874	44511.283780
587.201679	44530.692222
587.554428	44028.182445
587.907124	44301.849043
588.259765	44073.235237
588.612352	44228.182662
588.964884	43697.969224
589.317362	43995.977034
589.669786	43998.079195
590.022155	43840.263353
590.374470	44303.310978
590.726731	43879.004620
591.078937	43231.201228
591.431090	43547.889033
591.783188	43099.569139
592.135232	42873.390210
592.487222	43144.016992
592.839157	43291.742965
593.191038	42929.445320
593.542866	42737.261412
593.894639	42151.353306
594.246358	42452.693319
594.598022	42436.322172
594.949633	42015.932791
595.301190	41987.994716
595.652692	41929.615634
596.004141	42405.256061
596.355535	41333.421054
596.706876	41342.235511
597.058162	41062.917779
597.409395	41557.810373
597.760573	41777.405555
598.111698	41367.365663
598.462768	41299.610035
598.813785	41305.596405
599.164748	40921.087437
599.515657	41184.984279
599.866511	40689.088495
600.217312	41383.759495
600.568060	40308.814096
600.918753	41149.156798
601.269392	41063.328633
601.619978	40787.718670
601.970510	41007.059274
602.320988	41126.159054
602.671412	41405.088617
603.021783	41266.189705
603.372100	40841.376712
603.722363	40949.479215
604.072572	40970.117699
604.422728	40967.269447
604.772830	40754.068968
605.122878	40911.809193
605.472872	40770.808120
605.822813	41023.637109
606.172701	40783.995778
606.522534	41109.049378
606.872314	41314.181490
607.222041	41136.359829
607.571714	41479.859011
607.921333	40970.768008
608.270899	41180.830368
608.620411	41586.376071
608.969870	41310.128402
609.319276	41327.984169
609.668627	41360.003058
610.017926	41756.449479
610.367171	41886.755744
610.716362	41941.679115
611.065500	41835.333454
611.414585	42047.366905
611.763616	42237.257088
612.112594	42111.429888
612.461518	42260.244750
612.810389	42643.652226
613.159207	42430.481995
613.507971	42413.856269
613.856682	42910.220880
614.205340	42741.427926
614.553945	43414.293415
614.902496	42745.811209
615.250994	43166.248481
615.599439	43222.535484
615.947830	43339.764996
616.296169	43335.646374
616.644454	43387.935742
616.992686	43550.817943
617.340864	43987.883461
617.688990	43523.615877
618.037063	44232.545781
618.385082	44015.813974
618.733048	44353.175551
619.080961	44235.449485
619.428821	44261.915543
619.776628	44285.858503
620.124382	44093.929173
620.472083	44195.571438
620.819731	44298.980627
621.167326	43835.749000
621.514868	43832.457126
621.862357	43297.414263
622.209793	43387.245104
622.557176	42950.013228
622.904506	42701.363356
623.251783	42333.419619
623.599007	42020.280786
623.946179	41946.448047
624.293297	41686.637060
624.640363	41144.183700
624.987376	41001.698007
625.334336	40797.949692
625.681243	40379.191124
626.028097	40302.192541
626.374899	40115.261515
626.721647	40081.296741
627.068343	39885.526052
627.414987	39585.088406
627.761577	39331.909057
628.108115	39645.693158
628.454600	38920.949154
628.801032	39137.207093
629.147412	39038.226557
629.493739	38949.250192
629.840014	38515.053091
630.186236	38938.512534
630.532405	38390.503823
630.878521	38618.754666
631.224585	38401.783405
631.570597	38074.113446
631.916556	38234.371727
632.262462	38129.034297
632.608316	38056.555107
632.954117	37913.305679
633.299866	37858.548666
633.645562	37773.527086
633.991206	37251.500482
634.336797	36860.576645
634.682336	36735.135093
635.027823	36509.049426
635.373257	36362.891252
635.718639	36052.628398
636.063968	35940.903826
636.409245	35290.448786
636.754470	35247.382209
637.099642	35033.574271
637.444762	34454.370900
637.789829	34597.574957
638.134845	34229.142228
638.479808	34137.756192
638.824719	34088.264664
639.169577	33578.125100
639.514383	33676.319215
639.859137	33303.195693
640.203839	33471.008143
640.548489	33169.249715
640.893086	33165.209230
641.237632	32906.466967
641.582125	32997.641276
641.926566	32801.769764
642.270955	32835.162367
642.615292	32764.974382
642.959576	32661.683660
643.303809	32661.489576
643.647990	32748.830087
643.992118	32690.236756
644.336195	32555.153997
644.680219	32639.563077
645.024192	32846.129397
645.368112	33364.622153
645.711981	33391.352871
646.055797	34118.861947
646.399562	33936.203299
646.743274	34793.305317
647.086935	35185.297878
647.430544	35155.061038
647.774101	35197.031164
648.117606	35474.105582
648.461059	35610.937621
648.804460	35207.960386
649.147810	34684.219789
649.491108	34328.843649
649.834354	34187.530024
650.177548	33353.758466
650.520690	32874.758110
650.863781	32852.977805
651.206820	32680.346012
651.549807	32265.264966
651.892742	31689.890351
652.235626	31607.091920
652.578458	31470.925313
652.921238	30788.670675
653.263967	31099.752717
653.606644	30805.893777
653.949269	30719.657279
654.291843	30325.587762
654.634365	30681.475580
654.976836	30237.503681
655.319255	30299.467023
655.661622	30184.947132
656.003938	30052.894107
656.346203	29857.776247
656.688416	30100.812794
657.030577	29888.978469
657.372687	29702.680108
657.714746	29866.759583
658.056753	30056.382585
658.398708	29429.315979
658.740612	29498.135290
659.082465	29708.147239
659.424266	29600.700086
659.766016	29607.535891
660.107715	29473.116044
660.449362	29580.374154
660.790958	29565.583408
661.132503	29486.553239
661.473996	29555.397757
661.815438	29641.707352
662.156829	29758.982234
662.498168	29556.968076
662.839456	29544.294616
663.180693	29673.491827
663.521879	29757.737069
663.863013	29719.497397
664.204097	29690.568736
664.545129	30106.448804
664.886110	30047.540401
665.227040	30146.969599
665.567918	30137.184719
665.908746	30215.877131
666.249522	30309.191409
666.590248	30329.413998
666.930922	30424.941343
667.271545	30421.520920
667.612118	30466.004061
667.952639	30281.132347
668.293109	30323.528451
668.633528	30194.986589
668.973896	30142.825771
669.314213	30127.324222
669.654480	29932.934810
669.994695	29936.657702
670.334859	29841.253865
670.674973	29667.051753
671.015035	29853.662665
671.355047	29794.154365
671.695008	29720.896317
672.034918	29638.985129
672.374777	29736.707896
672.714585	29609.459091
673.054342	29750.510575
673.394049	29599.192781
673.733705	29809.086262
674.073310	29528.946823
674.412864	29585.440513
674.752368	29284.095460
675.091820	29514.065337
675.431223	29118.964904
675.770574	28902.273426
676.109875	28737.334434
676.449125	28535.272385
676.788324	28437.842005
677.127473	27966.756260
677.466571	27868.758750
677.805619	27582.779133
678.144616	27524.087500
678.483562	27474.406929
678.822458	27159.004618
679.161303	27117.667156
679.500098	27031.922170
679.838842	26962.145039
680.177535	27048.394141
680.516179	27275.682123
680.854771	27430.397656
681.193314	28203.241828
681.531805	29218.930985
681.870247	29971.439143
682.208638	30696.780523
682.546978	30954.670830
682.885268	31093.224423
683.223508	30644.654992
683.561697	30368.218280
683.899836	30218.090197
684.237925	29799.480344
684.575963	29664.737863
684.913951	29280.123031
685.251889	29455.802201
685.589776	29494.036832
685.927614	29505.618883
686.265401	29689.169815
686.603137	29812.453753
686.940824	30313.998149
687.278460	30646.205147
687.616046	30825.876911
687.953582	31495.904230
688.291068	31403.313358
688.628504	31731.542885
688.965889	31730.595148
689.303224	31459.010546
689.640510	31164.581956
689.977745	30512.349909
690.314930	29770.355077
690.652065	29322.420832
690.989150	28656.257557
691.326185	27810.866139
691.663170	27173.734869
692.000105	26441.267818
692.336990	25840.314389
692.673825	25416.189513
693.010610	24930.307982
693.347345	24437.820018
693.684030	23811.877589
694.020665	23626.615186
694.357251	22947.276855
694.693786	22954.962094
695.030272	22727.346436
695.366707	22227.705076
695.703093	21972.728555
696.039429	22041.782281
696.375716	21792.570320
696.711952	21805.649593
697.048139	21668.752019
697.384276	21515.074965
697.720363	21634.918315
698.056400	21536.129344
698.392388	21369.289837
698.728326	21368.757995
699.064214	21198.666944
699.400053	21202.924198
699.735842	20818.034623
700.071581	20611.662387
700.407270	20366.095180
700.742910	20200.084943
701.078501	19946.061201
701.414042	19739.489840
701.749533	19438.739642
702.084974	19127.836561
702.420366	19356.914154
702.755709	18951.035734
703.091002	18646.527357
703.426246	18720.513851
703.761440	18654.565476
704.096584	18414.215864
704.431679	18355.783850
704.766725	18297.971897
705.101721	18232.625941
705.436668	18360.018419
705.771565	18082.008867
706.106413	18406.379390
706.441212	18477.444536
706.775961	18587.104756
707.110661	18670.228341
707.445311	19030.428866
707.779913	18915.001566
708.114465	19208.389158
708.448967	19520.353403
708.783421	20157.920732
709.117825	20519.134529
709.452180	20753.780076
709.786485	21201.895803
710.120742	21977.744503
710.454949	22081.993044
710.789107	22584.525507
711.123216	23307.774808
711.457275	23525.774465
711.791286	24079.850204
712.125247	24218.733993
712.459159	23951.759526
712.793023	24697.152096
713.126837	23664.617924
713.460602	23899.767586
713.794318	23558.821749
714.127985	23276.819603
714.461602	22393.561558
714.795171	22368.370912
715.128691	21374.749407
715.462162	20866.648990
715.795584	20438.128228
716.128957	20169.830458
716.462281	19799.827410
716.795556	19513.250417
717.128782	19035.843065
717.461960	18452.773129
717.795088	18407.616993
718.128167	18062.103871
718.461198	17618.169781
718.794180	17492.743352
719.127113	17161.234555
719.459997	16974.111965
719.792833	16603.078001
720.125619	16643.361861
720.458357	16316.710216
720.791046	16176.097311
721.123686	16036.795107
721.456278	15817.106664
721.788821	15803.835826
722.121315	15541.975610
722.453761	15651.182126
722.786158	15529.297108
723.118506	15611.651918
723.450805	15500.547408
723.783056	15683.238823
724.115259	15574.037349
724.447412	15573.424848
724.779518	15797.189065
725.111574	15844.278483
725.443582	16108.200531
725.775542	16066.933645
726.107453	16579.266111
726.439315	16513.297572
726.771129	16927.720747
727.102895	17355.465171
727.434612	17617.542157
727.766281	17784.515255
728.097901	18101.145087
728.429473	18189.864353
728.760996	18189.168674
729.092471	18317.050144
729.423897	18203.183082
729.755276	18073.423782
730.086606	18198.779634
730.417887	18784.526422
730.749120	19339.176854
731.080305	19551.772394
731.411442	19942.529872
731.742530	20058.244518
732.073570	20217.910463
732.404562	20529.756240
732.735506	20380.835514
733.066401	20160.474077
733.397249	19659.217026
733.728048	19026.463998
734.058798	18172.114450
734.389501	17409.435764
734.720156	16896.001807
735.050762	16326.437122
735.381320	15950.969463
735.711831	15683.251426
736.042293	15320.636189
736.372707	15358.472569
736.703073	15147.583460
737.033391	15358.717065
737.363661	15353.328072
737.693883	15476.435569
738.024056	15687.223855
738.354182	15909.097639
738.684260	16277.129596
739.014290	16550.019857
739.344272	16785.787060
739.674207	17127.468906
740.004093	17307.589333
740.333931	17345.650045
740.663722	17426.938651
740.993464	17462.123384
741.323159	17309.666289
741.652806	16998.594329
741.982405	16832.755491
742.311956	16469.288298
742.641460	16349.636512
742.970915	16017.973959
743.300323	15679.299162
743.629683	15463.860411
743.958996	15141.246729
744.288260	14837.169370
744.617477	14529.812741
744.946647	14489.332276
745.275768	14187.399928
745.604842	13981.627589
745.933869	13810.671980
746.262847	13782.799441
746.591778	13705.085013
746.920662	13592.556377
747.249498	13590.360954
747.578286	13752.547476
747.907027	13934.192852
748.235720	14201.684037
748.564365	14274.082568
748.892963	14193.799673
749.221514	14302.066013
749.550017	14163.693902
749.878473	14133.358758
750.206881	13908.755190
750.535242	13828.868025
750.863555	13764.608437
751.191821	13651.535356
751.520039	13682.094831
751.848210	13598.978807
752.176334	13650.519564
752.504411	13569.989652
752.832440	13401.363055
753.160421	13508.875743
753.488356	13404.430597
753.816243	13321.707783
754.144082	13149.627997
754.471875	13100.343156
754.799620	13071.318713
755.127318	13046.760732
755.454969	13030.220706
755.782572	13000.830779
756.110129	13013.237059
756.437638	12917.571082
756.765100	12930.834358
757.092515	12960.254532
757.419882	12985.422493
757.747203	13004.727591
758.074477	13090.918719
758.401703	13085.968306
758.728882	13280.385445
759.056014	13326.459071
759.383099	13502.042459
759.710138	13613.767032
760.037129	13736.486360
760.364073	13802.031442
760.690970	13833.760465
761.017820	13847.444677
761.344623	14070.132607
761.671379	14451.974805
761.998088	15154.948585
762.324751	16935.617714
762.651366	20369.744976
762.977935	24843.161555
763.304456	27787.656667
763.630931	28819.137238
763.957359	27582.522035
764.283740	25319.981612
764.610074	23041.211195
764.936362	20400.697660
765.262602	18541.764618
765.588796	16611.070750
765.914943	15334.133878
766.241044	14243.959153
766.567097	13453.980099
766.893104	12740.407292
767.219064	12278.501489
767.544978	11798.941565
767.870845	11421.971642
768.196665	11198.779596
768.522438	10966.211005
768.848165	10768.118864
769.173846	10559.568850
769.499479	10427.936762
769.825066	10263.290157
770.150607	10035.538388
770.476101	9955.227766
770.801548	9835.099590
771.126949	9680.772227
771.452303	9567.212675
771.777611	9365.937046
772.102872	9357.263740
772.428087	9211.007264
772.753256	9064.828926
773.078378	8966.234039
773.403453	8793.662740
773.728482	8676.886932
774.053465	8605.564688
774.378401	8503.052824
774.703291	8382.937251
775.028135	8258.269517
775.352932	8226.999239
775.677683	8116.643341
776.002388	8007.993872
776.327046	8022.978702
776.651658	7923.307529
776.976224	7826.348496
777.300743	7825.209196
777.625216	7736.452120
777.949643	7698.562808
778.274024	7703.916513
778.598359	7621.501210
778.922647	7640.748335
779.246889	7592.917867
779.571086	7600.409022
779.895236	7613.271526
780.219339	7622.272506
780.543397	7625.413145
780.867409	7701.421142
781.191374	7714.533183
781.515294	7676.994231
781.839167	7775.364787
782.162995	7748.384532
782.486776	7688.843463
782.810511	7640.977708
783.134201	7545.959519
783.457844	7542.352574
783.781441	7496.450348
784.104993	7427.447034
784.428498	7405.994403
784.751958	7390.286168
785.075372	7360.319029
785.398739	7306.736605
785.722061	7353.558842
786.045337	7355.272834
786.368568	7513.146649
786.691752	7540.573047
787.014891	7886.126499
787.337983	8245.260819
787.661030	8844.422118
787.984031	9464.599988
788.306987	9869.054282
788.629897	10073.692360
788.952760	10023.633703
789.275579	9795.002252
789.598351	9395.760512
789.921078	9036.328763
790.243759	8627.357596
790.566395	8335.653749
790.888984	8084.793331
791.211529	7875.950930
791.534027	7651.982547
791.856480	7459.276879
792.178888	7379.568675
792.501249	7282.518902
792.823566	7124.009901
793.145836	7124.209027
793.468062	7103.142045
793.790241	7061.746610
794.112375	7124.556867
794.434464	7281.389683
794.756507	7316.221536
795.078505	7487.361147
795.400457	7799.539640
795.722364	8151.883527
796.044226	8436.436497
796.366042	8715.885298
796.687812	8659.666351
797.009538	8730.345848
797.331218	8629.101835
797.652852	8545.196870
797.974442	8389.203406
798.295986	8297.615723
798.617484	8106.513142
798.938938	7959.291285
799.260346	7864.532716
799.581709	7657.081674
799.903026	7582.938903
800.224299	7471.030329
800.545526	7306.469424
800.866708	7213.457615
801.187845	7141.298538
801.508936	7034.867178
801.829983	6999.488360
802.150984	6851.838005
802.471940	6798.550488
802.792851	6788.145547
803.113717	6756.887873
803.434538	6725.141206
803.755314	6665.879922
804.076045	6670.096847
804.396731	6618.727490
804.717372	6652.689743
805.037967	6650.222098
805.358518	6693.356731
805.679024	6779.124402
805.999485	6792.559077
806.319901	6833.594069
806.640272	6850.335741
806.960598	6940.302693
807.280879	6939.556603
807.601115	7016.424117
807.921306	6957.916485
808.241453	6975.066490
808.561554	6995.760427
808.881611	6960.510159
809.201623	6967.794626
809.521590	6911.797489
809.841513	6892.520117
810.161390	6928.879439
810.481223	6799.629295
810.801011	6783.696729
811.120755	6759.539519
811.440453	6682.669485
811.760107	6643.023331
812.079716	6616.990812
812.399281	6551.564197
812.718801	6537.012906
813.038276	6492.552450
813.357707	6435.771414
813.677093	6474.752136
813.996434	6378.887034
814.315731	6421.333549
814.634983	6415.390029
814.954191	6424.038128
815.273354	6530.340939
815.592473	6593.486432
815.911547	6720.057203
816.230577	6805.252703
816.549562	6951.516740
816.868502	7051.157667
817.187399	7147.637789
817.506250	7299.300903
817.825058	7333.442117
818.143821	7599.088240
818.462539	7872.860702
818.781213	8243.627485
819.099843	8794.333214
819.418429	9797.991657
819.736970	10779.489187
820.055466	11957.110287
820.373919	13484.045540
820.692327	15830.077552
821.010691	19980.504884
821.329011	28991.317847
821.647286	42043.467573
821.965517	55482.276319
822.283704	60846.472345
822.601847	62814.644671
822.919945	60081.431878
823.237999	55851.762649
823.556010	49644.831894
823.873976	42907.128132
824.191897	36378.922122
824.509775	31540.594059
824.827609	27023.352209
825.145398	24454.254180
825.463144	23087.887239
825.780845	23415.801693
826.098502	25190.607961
826.416116	29010.141516
826.733685	32675.287214
827.051210	33856.255640
827.368692	32072.423187
827.686129	28081.200535
828.003522	23945.556387
828.320872	20228.690971
828.638177	17371.982512
828.955439	15222.424430
829.272656	13408.629879
829.589830	11938.541197
829.906960	10666.491723
830.224046	9729.094207
830.541088	8977.211152
830.858086	8521.354733
831.175041	8141.753328
831.491952	8024.420472
831.808819	8078.426353
832.125642	8478.913259
832.442421	9370.474084
832.759157	11173.904023
833.075849	14118.903250
833.392497	17343.724324
833.709101	19533.851092
834.025662	19373.960815
834.342179	17646.768246
834.658653	15450.619820
834.975083	13515.416641
835.291469	11891.250133
835.607811	10573.908412
835.924110	9665.036265
836.240366	8799.364285
836.556578	7990.062488
836.872746	7353.551280
837.188871	6848.510844
837.504952	6428.257574
837.820990	6122.309947
838.136984	5899.034723
838.452935	5808.929139
838.768842	5840.537173
839.084706	6265.214056
839.400526	7481.904098
839.716303	9071.614319
840.032037	10166.139560
840.347727	10088.704917
840.663373	9100.482487
840.978977	8055.887354
841.294537	7246.451967
841.610054	6643.517364
841.925527	6212.241611
842.240957	5852.797259
842.556344	5520.396178
842.871687	5241.401080
843.186987	4960.737360
843.502244	4733.434254
843.817458	4571.575407
844.132629	4437.241259
844.447756	4344.179039
844.762840	4267.689612
845.077881	4192.299156
845.392879	4130.280361
845.707833	4082.954008
846.022745	4037.147564
846.337613	4007.820651
846.652438	3964.126450
846.967221	3947.631795
847.281960	3915.791867
847.596656	3898.427613
847.911309	3879.046897
848.225919	3855.030840
848.540485	3838.805886
848.855009	3829.603260
849.169490	3805.015032
849.483928	3791.141777
849.798323	3782.826393
850.112675	3766.490534
850.426984	3772.141668
850.741251	3755.949482
851.055474	3752.758431
851.369654	3756.398144
851.683792	3754.338833
851.997887	3761.479628
852.311938	3760.844442
852.625947	3767.917181
852.939914	3756.209101
853.253837	3762.641613
853.567718	3763.405348
853.881555	3754.757249
854.195350	3767.337448
854.509103	3762.936521
854.822812	3762.984412
855.136479	3751.233482
855.450103	3763.115482
855.763685	3747.891197
856.077224	3754.517794
856.390720	3774.019498
856.704173	3791.285450
857.017584	3808.591731
857.330953	3815.603976
857.644278	3834.893951
857.957561	3842.548943
858.270802	3844.570446
858.584000	3845.868543
858.897155	3837.895958
859.210268	3820.836693
859.523339	3801.950011
859.836367	3798.753919
860.149352	3794.272333
860.462295	3783.638019
860.775195	3773.132255
861.088054	3764.796707
861.400869	3764.133795
861.713642	3766.987088
862.026373	3779.078296
862.339062	3779.395888
862.651708	3802.552428
862.964312	3838.160619
863.276873	3849.404912
863.589392	3905.719642
863.901869	3950.497691
864.214303	4000.034589
864.526696	4031.745967
864.839045	4078.837906
865.151353	4103.237091
865.463619	4113.369810
865.775842	4120.145121
866.088023	4137.083398
866.400162	4128.089979
866.712258	4135.901247
867.024313	4138.542812
867.336325	4137.625322
867.648296	4139.228409
867.960224	4139.699757
868.272110	4151.359945
868.583954	4152.509328
868.895755	4172.663862
869.207515	4163.819157
869.519233	4205.058316
869.830909	4219.102971
870.142542	4244.855705
870.454134	4259.487654
870.765684	4285.994041
871.077191	4322.582736
871.388657	4346.182898
871.700081	4386.189494
872.011463	4428.764559
872.322803	4464.564313
872.634101	4500.560672
872.945357	4534.709448
873.256571	4589.915124
873.567744	4616.393785
873.878874	4636.568482
874.189963	4679.801418
874.501010	4688.923386
874.812015	4683.153785
875.122979	4728.307400
875.433900	4727.793202
875.744780	4737.757043
876.055618	4762.899798
876.366415	4766.864665
876.677169	4782.482160
876.987882	4830.161393
877.298554	4881.888673
877.609183	4960.944047
877.919771	5073.510492
878.230317	5217.203541
878.540822	5434.023568
878.851285	5757.370738
879.161707	6213.086004
879.472087	6974.650595
879.782425	8211.253195
880.092722	10400.946424
880.402977	13709.153224
880.713191	17484.765726
881.023363	21215.562371
881.333494	23438.504530
881.643583	24660.190356
881.953631	24644.330886
882.263637	23771.744964
882.573602	22281.060648
882.883526	20728.050027
883.193408	19048.541732
883.503248	17340.833222
883.813048	15793.009948
884.122806	14362.222102
884.432522	12878.786965
884.742197	11622.130655
885.051831	10534.098421
885.361424	9538.752841
885.670975	8716.858241
885.980485	8022.469546
886.289954	7456.118596
886.599382	6984.735423
886.908768	6609.328258
887.218113	6244.895685
887.527417	5958.923630
887.836680	5694.759607
888.145901	5473.594105
888.455082	5308.549249
888.764221	5159.285725
889.073319	5029.085324
889.382376	4957.579077
889.691392	4896.664295
890.000366	4874.105131
890.309300	4857.179457
890.618193	4860.320096
890.927044	4846.391388
891.235855	4869.678998
891.544625	4896.109768
891.853353	4961.581753
892.162041	5076.338579
892.470687	5262.092496
892.779293	5513.172204
893.087858	5880.377412
893.396381	6464.107739
893.704864	7267.695389
894.013306	8424.292357
894.321707	9610.306978
894.630068	10437.666189
894.938387	10645.485235
895.246665	10399.809644
895.554903	9788.799113
895.863100	9089.517977
896.171256	8526.642903
896.479371	8016.026951
896.787446	7517.126640
897.095480	7092.515293
897.403473	6772.031499
897.711425	6454.811852
898.019336	6188.926274
898.327207	5914.768164
898.635038	5682.348286
898.942827	5433.569864
899.250576	5242.043827
899.558284	5047.261204
899.865952	4923.276546
900.173579	4775.855563
900.481165	4669.656096
900.788711	4571.966096
901.096216	4501.841125
901.403681	4439.040951
901.711105	4413.610851
902.018489	4399.669540
902.325832	4468.761074
902.633135	4591.170372
902.940397	4937.391777
903.247619	5733.778138
903.554800	7184.017276
903.861941	9106.320143
904.169041	10627.926897
904.476101	11255.422001
904.783121	10885.119004
905.090100	10138.652669
905.397039	9301.768198
905.703938	8553.789517
906.010796	7851.554266
906.317614	7299.815101
906.624391	6770.549399
906.931129	6339.989491
907.237826	5944.178255
907.544483	5567.961985
907.851099	5190.853430
908.157675	4838.189431
908.464211	4515.913506
908.770707	4281.797281
909.077163	4079.369748
909.383578	3936.959672
909.689954	3820.481292
909.996289	3750.845313
910.302584	3689.242413
910.608839	3658.330058
910.915054	3625.214718
911.221229	3608.616719
911.527363	3622.938638
911.833458	3636.481697
912.139513	3663.522447
912.445527	3694.442364
912.751502	3776.794653
913.057436	3878.462123
913.363331	4010.532792
913.669186	4215.301941
913.975000	4473.787104
914.280775	4896.417278
914.586510	5477.934539
914.892205	6277.390963
915.197859	7316.866803
915.503475	8540.712764
915.809050	9613.979459
916.114585	10260.867882
916.420081	10518.433035
916.725536	10480.268980
917.030952	10036.720538
917.336328	9625.758115
917.641665	9206.069454
917.946961	8724.576247
918.252218	8307.652660
918.557435	7797.203065
918.862612	7360.893721
919.167750	6983.500341
919.472848	6559.960239
919.777906	6184.885790
920.082925	5823.924051
920.387904	5464.860306
920.692843	5196.229821
920.997743	4946.801090
921.302603	4715.056727
921.607423	4552.121594
921.912204	4387.487592
922.216946	4270.744551
922.521647	4149.741735
922.826310	4045.730128
923.130932	3950.122125
923.435516	3850.667721
923.740059	3783.832104
924.044564	3704.580124
924.349028	3646.067451
924.653454	3582.765682
924.957840	3509.409332
925.262186	3464.059112
925.566493	3407.089033
925.870761	3349.904704
926.174989	3312.872388
926.479178	3276.434928
926.783328	3234.742065
927.087438	3207.348435
927.391509	3171.152950
927.695541	3142.884680
927.999533	3115.390227
928.303486	3094.250148
928.607400	3078.448652
928.911275	3066.790983
929.215110	3050.155176
929.518906	3042.893394
929.822663	3042.200235
930.126381	3037.544729
930.430060	3046.288611
930.733699	3047.143086
931.037299	3056.577606
931.340861	3053.931000
931.644383	3064.887948
931.947866	3064.141857
932.251309	3055.022410
932.554714	3057.800086
932.858080	3050.727347
933.161407	3043.402550
933.464694	3037.736293
933.767943	3026.358409
934.071153	3023.258099
934.374323	3013.634537
934.677455	3010.166223
934.980548	3001.195490
935.283602	2992.756598
935.586617	2992.335662
935.889593	3001.951663
936.192530	3005.248577
936.495428	3022.121319
936.798287	3043.856254
937.101108	3075.867581
937.403890	3126.737864
937.706632	3192.590457
938.009336	3268.921088
938.312002	3345.097964
938.614628	3406.511821
938.917216	3458.148359
939.219765	3492.828977
939.522275	3524.003473
939.824747	3530.057898
940.127179	3524.381559
940.429573	3518.246475
940.731929	3518.831249
941.034246	3501.066223
941.336524	3489.562310
941.638763	3471.577993
941.940964	3457.699697
942.243126	3412.876277
942.545250	3389.893657
942.847335	3355.830580
943.149381	3318.352122
943.451389	3284.062194
943.753359	3249.978952
944.055290	3226.219994
944.357182	3202.579503
944.659036	3189.071732
944.960851	3178.818025
945.262628	3162.406548
945.564367	3165.418638
945.866067	3161.710869
946.167729	3158.169459
946.469352	3156.238697
946.770937	3154.552431
947.072484	3135.436375
947.373992	3139.610451
947.675462	3128.943369
947.976893	3113.346039
948.278286	3107.536109
948.579641	3096.748040
948.880958	3091.346444
949.182236	3094.630756
949.483476	3089.191351
949.784678	3091.227977
950.085841	3091.051536
950.386967	3101.239708
950.688054	3115.750670
950.989103	3139.260091
951.290114	3161.544511
951.591087	3190.647092
951.892021	3215.525187
952.192917	3246.709764
952.493776	3272.477622
952.794596	3278.905093
953.095378	3281.599590
953.396122	3278.227058
953.696828	3270.456119
953.997496	3257.828029
954.298126	3235.110069
954.598718	3216.306565
954.899272	3190.044674
955.199788	3161.410921
955.500266	3128.318266
955.800706	3095.969182
956.101108	3053.295815
956.401472	3022.043181
956.701798	2990.276350
957.002087	2952.129939
957.302337	2922.364446
957.602550	2894.196999
957.902724	2864.209696
958.202861	2838.391426
958.502960	2818.945175
958.803022	2797.815179
959.103045	2778.303393
959.403031	2762.191865
959.702979	2746.743249
960.002889	2736.759244
960.302762	2722.102089
960.602596	2708.977445
960.902393	2700.641897
961.202153	2694.055630
961.501875	2684.948785
961.801559	2680.489885
962.101205	2671.841785
962.400814	2667.282062
962.700385	2660.995743
962.999918	2651.120122
963.299414	2648.350008
963.598873	2644.085192
963.898293	2639.901035
964.197677	2640.642084
964.497022	2637.141003
964.796331	2636.218472
965.095601	2631.797380
965.394835	2630.990795
965.694030	2625.717748
965.993189	2626.239508
966.292309	2624.394445
966.591393	2625.054837
966.890439	2626.867131
967.189447	2626.166411
967.488419	2627.396452
967.787353	2625.984929
968.086249	2627.961062
968.385108	2629.906947
968.683930	2634.938019
968.982714	2634.186887
969.281462	2639.351549
969.580172	2646.567961
969.878844	2651.412509
970.177480	2660.385763
970.476078	2667.745848
970.774639	2674.075017
971.073162	2685.278981
971.371649	2688.485155
971.670098	2692.190403
971.968510	2698.766588
972.266885	2702.048379
972.565223	2707.964173
972.863524	2708.049873
973.161788	2713.761500
973.460014	2714.321068
973.758204	2720.264589
974.056356	2721.847511
974.354471	2723.831205
974.652550	2723.075032
974.950591	2722.863303
975.248595	2722.575958
975.546563	2717.776779
975.844493	2714.492467
976.142386	2711.157744
976.440243	2702.068544
976.738062	2697.493697
977.035845	2692.964220
977.333590	2688.938859
977.631299	2680.946109
977.928971	2671.902279
978.226606	2667.307267
978.524204	2665.709222
978.821765	2660.219405
979.119290	2662.152688
979.416777	2661.494817
979.714228	2665.981444
980.011642	2669.437155
980.309020	2679.020388
980.606360	2689.949610
980.903664	2716.156048
981.200931	2751.292891
981.498162	2798.261321
981.795356	2875.247302
982.092513	2964.843729
982.389633	3069.183011
982.686717	3164.896878
982.983764	3235.296592
983.280775	3286.872637
983.577749	3294.247845
983.874686	3279.202521
984.171587	3248.113726
984.468451	3208.311295
984.765279	3164.538957
985.062070	3117.613376
985.358824	3073.160481
985.655543	3016.845752
985.952224	2963.008749
986.248869	2899.132289
986.545478	2840.589369
986.842050	2786.833025
987.138586	2740.449369
987.435086	2704.551312
987.731549	2671.637619
988.027975	2647.626603
988.324366	2628.707152
988.620719	2616.966305
988.917037	2603.191352
989.213318	2596.995774
989.509563	2586.913467
989.805772	2582.469689
990.101944	2580.082703
990.398080	2579.434915
990.694180	2576.601786
990.990244	2576.503484
991.286271	2575.235634
991.582262	2578.177147
991.878217	2582.015986
992.174136	2582.631006
992.470019	2585.262489
992.765865	2589.250041
993.061676	2595.027204
993.357450	2601.006012
993.653188	2608.421549
993.948890	2626.806638
994.244556	2647.009062
994.540186	2666.750220
994.835780	2698.968234
995.131337	2737.911148
995.426859	2777.154010
995.722345	2827.318532
996.017795	2878.450955
996.313208	2914.328847
996.608586	2944.608538
996.903928	2953.221349
997.199234	2958.234777
997.494504	2953.944755
997.789738	2937.238371
998.084936	2910.507653
998.380099	2882.660319
998.675225	2853.328365
998.970316	2821.516164
999.265371	2787.188427
999.560390	2750.035123
999.855373	2722.293653
1000.150320	2690.393232
1000.445232	2664.547236
1000.740108	2644.859009
1001.034948	2627.270424
1001.329752	2610.992538
1001.624521	2600.443923
1001.919254	2586.845411
1002.213951	2582.263002
1002.508613	2570.990982
1002.803239	2565.670044
1003.097829	2558.105793
1003.392384	2553.903991
1003.686903	2549.409802
1003.981386	2547.758825
1004.275834	2543.123484
1004.570246	2539.428318
1004.864623	2539.287166
1005.158964	2537.646270
1005.453270	2532.947915
1005.747540	2530.460105
1006.041775	2529.192255
1006.335974	2527.137985
1006.630138	2529.867770
1006.924266	2532.050589
1007.218359	2525.086235
1007.512416	2521.990967
1007.806438	2520.740761
1008.100425	2524.501461
1008.394376	2520.324865
1008.688292	2522.351409
1008.982172	2523.508354
1009.276017	2525.363499
1009.569827	2519.901408
1009.863602	2521.249917
1010.157341	2520.513909
1010.451045	2519.767818
1010.744714	2516.889319
1011.038347	2517.184227
1011.331945	2513.965450
1011.625508	2516.183558
1011.919036	2513.143742
1012.212528	2512.964781
1012.505986	2513.332785
1012.799408	2512.634585
1013.092795	2509.771210
1013.386147	2512.697600
1013.679464	2512.228772
1013.972745	2510.900428
1014.265992	2508.762979
1014.559204	2512.606859
1014.852380	2511.853206
1015.145521	2508.762979
1015.438628	2512.022085
1015.731699	2511.515449
1016.024736	2511.517970
1016.317737	2516.417971
1016.610703	2515.198012
1016.903635	2516.778414
1017.196531	2517.053157
1017.489393	2518.144566
1017.782219	2521.232273
1018.075011	2520.002232
1018.367768	2518.930986
1018.660490	2523.311749
1018.953177	2523.311749
1019.245829	2523.311749
