Dividing Wavelength (nm)	Counts (n)	Blue Motor Position (mm): 4.600000	Red Motor Position (mm): 0.000000	
326.493990	2064.838971
326.888308	2064.838971
327.282561	2064.838971
327.676750	2041.180836
328.070874	2041.821063
328.464933	2047.973791
328.858929	2056.417724
329.252859	2065.582542
329.646726	2081.207598
330.040528	2097.203179
330.434265	2114.305293
330.827938	2134.212810
331.221547	2155.080666
331.615091	2174.547082
332.008571	2196.375278
332.401986	2215.584595
332.795338	2236.023953
333.188625	2257.766450
333.581847	2276.025509
333.975006	2293.490586
334.368100	2307.313430
334.761129	2328.687923
335.154095	2342.190653
335.546996	2358.266893
335.939833	2373.135776
336.332606	2385.731099
336.725315	2395.977244
337.117960	2408.267577
337.510540	2414.599266
337.903056	2425.866245
338.295508	2434.138779
338.687896	2436.109870
339.080220	2445.085644
339.472480	2446.424071
339.864676	2450.025975
340.256807	2454.507561
340.648875	2455.641820
341.040879	2458.797583
341.432818	2461.227419
341.824694	2459.221040
342.216506	2458.911009
342.608253	2459.904116
342.999937	2458.689198
343.391557	2456.405555
343.783113	2459.747840
344.174605	2455.372119
344.566033	2455.087293
344.957397	2451.039247
345.348697	2449.242076
345.739934	2445.640171
346.131106	2446.892898
346.522215	2444.309307
346.913260	2441.753442
347.304241	2442.403750
347.695159	2440.334357
348.086012	2440.568770
348.476802	2435.782195
348.867528	2432.195414
349.258191	2431.401432
349.648789	2432.583583
350.039324	2424.623601
350.429796	2431.615681
350.820203	2431.577872
351.210548	2429.838674
351.600828	2428.437234
351.991045	2428.722059
352.381198	2428.853129
352.771288	2428.525454
353.161314	2429.652152
353.551276	2427.509661
353.941175	2428.933787
354.331010	2426.796338
354.720782	2424.333734
355.110490	2430.115938
355.500135	2428.787594
355.889717	2430.589806
356.279235	2428.790114
356.668689	2428.444795
357.058080	2428.780032
357.447408	2433.579211
357.836672	2433.710281
358.225873	2430.670465
358.615010	2432.921340
359.004084	2437.229006
359.393095	2431.754313
359.782043	2433.377564
360.170927	2434.179108
360.559748	2434.773964
360.948505	2436.427463
361.337199	2438.423759
361.725830	2433.029725
362.114398	2435.187339
362.502903	2437.382761
362.891344	2436.069541
363.279722	2436.782864
363.668037	2436.029211
364.056289	2437.060127
364.444478	2438.300251
364.832603	2438.068358
365.220665	2437.533996
365.608665	2437.609613
365.996601	2440.609100
366.384474	2437.944850
366.772284	2439.953750
367.160031	2438.847216
367.547715	2441.456013
367.935336	2439.505087
368.322893	2438.862340
368.710388	2439.545416
369.097820	2440.336877
369.485189	2436.540888
369.872495	2442.050870
370.259738	2444.445418
370.646918	2441.355190
371.034035	2442.270160
371.421090	2444.909204
371.808081	2444.916766
372.195010	2442.552464
372.581875	2442.118925
372.968678	2444.773093
373.355418	2444.871395
373.742096	2444.112702
374.128710	2446.930707
374.515262	2446.280398
374.901751	2446.610593
375.288177	2447.833073
375.674540	2445.269646
376.060841	2445.819132
376.447079	2444.793257
376.833254	2450.242745
377.219367	2445.156220
377.605417	2448.685028
377.991404	2448.057404
378.377329	2445.821653
378.763191	2446.340892
379.148991	2448.165789
379.534727	2448.304421
379.920402	2448.558999
380.306013	2446.640840
380.691563	2446.698813
381.077049	2449.358022
381.462474	2446.923145
381.847835	2448.604370
382.233134	2447.412137
382.618371	2448.866510
383.003545	2450.275512
383.388657	2450.698969
383.773706	2450.020934
384.158693	2449.358022
384.543618	2452.607046
384.928480	2448.054884
385.313280	2452.226439
385.698017	2450.557817
386.082692	2451.775255
386.467305	2452.201233
386.851856	2453.867334
387.236344	2452.627210
387.620770	2450.951027
388.005133	2447.200408
388.389435	2450.388938
388.773674	2446.701334
389.157851	2450.598146
389.541965	2454.898250
389.926018	2455.228446
390.310008	2453.761470
390.693936	2455.707355
391.077802	2456.057716
391.461606	2455.422530
391.845348	2453.363219
392.229027	2456.740792
392.612645	2454.305915
392.996200	2454.646192
393.379694	2455.737602
393.763125	2454.048816
394.146494	2455.755246
394.529801	2456.206430
394.913047	2457.224743
395.296230	2458.769856
395.679351	2455.172993
396.062410	2458.409414
396.445408	2458.316153
396.828343	2456.408076
397.211217	2456.645010
397.594028	2456.090483
397.976778	2458.744651
398.359466	2455.483024
398.742092	2457.484362
399.124656	2458.694239
399.507158	2458.210288
399.889598	2459.314301
400.271977	2456.186265
400.654294	2456.496296
401.036549	2457.892696
401.418742	2459.561317
401.800874	2460.536781
402.182944	2459.831019
402.564952	2460.682974
402.946898	2459.553756
403.328783	2459.226081
403.710606	2461.393777
404.092367	2458.520319
404.474067	2461.897892
404.855705	2462.301185
405.237282	2461.781946
405.618797	2458.721965
406.000250	2462.288582
406.381642	2459.707511
406.762972	2460.156174
407.144240	2455.780452
407.525447	2461.751699
407.906593	2456.831533
408.287677	2463.879066
408.668700	2463.090125
409.049661	2462.482666
409.430560	2464.383181
409.811399	2462.873356
410.192176	2463.034673
410.572891	2460.907306
410.953545	2463.211113
411.334138	2464.302523
411.714669	2462.931329
412.095139	2460.088118
412.475547	2464.136165
412.855894	2464.186576
413.236180	2464.998202
413.616405	2465.275465
413.996568	2463.243880
414.376670	2463.170784
414.756711	2464.335290
415.136691	2465.807307
415.516609	2463.485856
415.896466	2464.168932
416.276262	2465.575414
416.655997	2465.172122
417.035670	2466.467698
417.415283	2467.584314
417.794834	2465.517441
418.174324	2463.833695
418.553753	2466.049283
418.933121	2466.427369
419.312428	2467.105404
419.691674	2466.346711
420.070859	2465.953501
420.449983	2467.168419
420.829045	2467.014663
421.208047	2468.027935
421.586988	2466.913840
421.965867	2470.387195
422.344686	2467.760754
422.723444	2465.378809
423.102141	2467.919551
423.480777	2468.821917
423.859352	2468.796711
424.237866	2470.210755
424.616319	2466.923923
424.994712	2469.719242
425.373044	2470.094808
425.751314	2469.633543
426.129524	2465.272945
426.507673	2467.405353
426.885762	2463.558953
427.263789	2468.191773
427.641756	2468.350569
428.019662	2470.049438
428.397508	2468.108594
428.775292	2470.293934
429.153016	2469.250415
429.530679	2469.341156
429.908282	2468.348049
430.285824	2469.313430
430.663305	2469.590693
431.040726	2469.830148
431.418086	2469.512555
431.795385	2472.471713
432.172624	2469.338635
432.549802	2468.756382
432.926920	2470.243523
433.303977	2472.454068
433.680974	2469.026084
434.057910	2472.174284
434.434786	2469.867957
434.811601	2471.463482
435.188355	2470.724953
435.565050	2470.503142
435.941683	2471.171095
436.318257	2471.473564
436.694770	2468.141361
437.071222	2469.189921
437.447614	2471.851651
437.823946	2473.585808
438.200218	2470.593883
438.576429	2470.520786
438.952580	2471.644963
439.328670	2471.133286
439.704700	2474.125211
440.080670	2472.169243
440.456580	2471.690334
440.832429	2474.752835
441.208218	2472.509521
441.583947	2473.048925
441.959616	2472.053297
442.335224	2470.634212
442.710773	2472.897690
443.086261	2473.752166
443.461689	2472.441466
443.837057	2473.306023
444.212365	2475.020016
444.587612	2470.329222
444.962800	2466.286217
445.337927	2471.173615
445.712995	2468.169088
446.088002	2473.079172
446.462949	2474.004223
446.837837	2474.324337
447.212664	2474.621765
447.587431	2473.754686
447.962139	2474.576394
448.336786	2474.561271
448.711374	2474.503298
449.085901	2477.124697
449.460369	2475.425829
449.834776	2473.353914
450.209124	2472.688482
450.583412	2473.164871
450.957640	2477.767445
451.331808	2473.457258
451.705917	2474.639409
452.079965	2474.258802
452.453954	2474.871302
452.827883	2475.408185
453.201752	2474.704944
453.575562	2478.644605
453.949311	2477.371714
454.323001	2476.524800
454.696632	2475.914821
455.070202	2475.362814
455.443713	2475.115798
455.817164	2473.222844
456.190556	2476.255098
456.563888	2477.313741
456.937160	2476.146714
457.310373	2476.418936
457.683526	2477.603607
458.056619	2477.076807
458.429653	2474.893987
458.802628	2476.182002
459.175542	2477.069245
459.548398	2477.679224
459.921194	2478.379945
460.293930	2477.717033
460.666607	2476.923051
461.039224	2478.132928
461.411782	2477.144862
461.784280	2478.339616
462.156719	2476.570171
462.529099	2475.725777
462.901419	2477.144862
463.273680	2477.699389
463.645882	2470.989613
464.018024	2475.766107
464.390106	2474.344501
464.762130	2481.628968
465.134094	2476.698720
465.505999	2476.726446
465.877845	2481.011427
466.249631	2476.771817
466.621358	2481.550831
466.993026	2477.621251
467.364634	2483.794144
467.736184	2477.845583
468.107674	2480.212404
468.479105	2478.601756
468.850477	2479.698207
469.221790	2481.114771
469.593043	2479.488999
469.964238	2479.788947
470.335373	2476.623103
470.706449	2479.635192
471.077467	2480.338433
471.448425	2481.165182
471.819324	2479.020171
472.190164	2478.233751
472.560945	2477.296097
472.931667	2479.010089
473.302330	2480.706437
473.672934	2480.235089
474.043479	2480.361118
474.413965	2481.732312
474.784393	2478.700058
475.154761	2480.512353
475.525070	2477.338947
475.895321	2478.911787
476.265513	2479.093268
476.635645	2477.838021
477.005719	2477.336426
477.375734	2480.741725
477.745691	2480.217445
478.115588	2478.876498
478.485427	2478.190902
478.855207	2477.545634
479.224928	2480.020840
479.594591	2481.336582
479.964194	2481.639051
480.333739	2480.199801
480.703226	2481.812971
481.072653	2483.297590
481.442022	2479.388176
481.811333	2479.073103
482.180584	2477.893473
482.549777	2478.500933
482.918912	2476.413895
483.287988	2481.381952
483.657005	2481.424802
484.025964	2481.225676
484.394864	2481.122332
484.763706	2480.671149
485.132489	2482.175934
485.501213	2482.450677
485.869879	2483.917652
486.238487	2480.804740
486.607036	2481.956643
486.975527	2481.240800
487.343959	2477.414564
487.712333	2480.686273
488.080648	2481.422281
488.448905	2481.334061
488.817104	2480.840028
489.185244	2482.022178
489.553326	2480.106540
489.921350	2481.888588
490.289315	2481.139977
490.657222	2480.272898
491.025070	2479.857003
491.392861	2482.732981
491.760593	2481.190388
492.128267	2481.364308
492.495883	2481.767600
492.863440	2482.896819
493.230939	2484.661223
493.598380	2485.049391
493.965763	2482.395224
494.333088	2480.948413
494.700354	2480.943372
495.067563	2481.553351
495.434713	2479.806591
495.801805	2486.050060
496.168839	2482.596870
496.535815	2484.434371
496.902733	2479.967908
497.269593	2483.877323
497.636395	2484.656181
498.003139	2483.252220
498.369825	2482.581747
498.736453	2484.613332
499.103023	2481.911273
499.469535	2483.887405
499.835989	2482.859010
500.202385	2481.931438
500.568723	2476.701241
500.935003	2482.523773
501.301226	2473.361476
501.667390	2483.201808
502.033497	2483.148876
502.399546	2484.494864
502.765537	2482.251551
503.131470	2485.540904
503.497345	2482.826243
503.863163	2481.180306
504.228923	2481.523104
504.594625	2485.495533
504.960269	2482.115440
505.325856	2483.211891
505.691385	2484.154587
506.056856	2482.826242
506.422270	2479.552013
506.787625	2484.293218
507.152924	2483.589977
507.518164	2486.261789
507.883347	2484.305821
508.248472	2484.976295
508.613540	2483.496716
508.978550	2481.374390
509.343503	2485.258599
509.708398	2482.513691
510.073236	2484.371356
510.438016	2485.195585
510.802738	2482.715337
511.167403	2482.967395
511.532010	2482.128043
511.896561	2483.844556
512.261053	2483.438743
512.625488	2484.041161
512.989866	2483.970584
513.354186	2483.912611
513.718449	2482.163331
514.082655	2485.616521
514.446803	2483.952940
514.810894	2485.704741
515.174927	2482.110399
515.538904	2485.404793
515.902822	2484.509988
516.266684	2484.699031
516.630488	2484.202478
516.994235	2485.901346
517.357925	2482.128043
517.721558	2485.450163
518.085133	2484.015955
518.448651	2483.683239
518.812112	2483.126191
519.175516	2480.784575
519.538863	2478.516056
519.902152	2482.995121
520.265385	2484.908239
520.628560	2484.368836
520.991678	2485.898826
521.354739	2487.819505
521.717743	2482.342292
522.080690	2485.387149
522.443580	2483.993270
522.806413	2485.175420
523.169189	2485.709782
523.531908	2484.028558
523.894569	2486.856645
524.257174	2486.481079
524.619722	2483.552169
524.982213	2483.247179
525.344647	2484.452015
525.707025	2484.257930
526.069345	2486.458394
526.431608	2484.504947
526.793815	2485.399752
527.155964	2485.273723
527.518057	2483.826912
527.880093	2483.700883
528.242072	2486.145842
528.603995	2482.380100
528.965860	2483.020327
529.327669	2483.365646
529.689421	2484.497385
530.051117	2482.619555
530.412755	2484.971253
530.774337	2482.233907
531.135862	2484.300780
531.497331	2483.474031
531.858743	2484.625934
532.220098	2484.154587
532.581396	2484.399082
532.942638	2483.312714
533.303824	2484.192395
533.664953	2486.498723
534.026025	2485.359422
534.387040	2482.508650
534.747999	2484.394041
535.108902	2484.376397
535.469748	2484.207519
535.830537	2486.453353
536.191270	2482.803557
536.551947	2483.716006
536.912567	2482.869092
537.273131	2483.007724
537.633638	2479.541931
537.994089	2485.679536
538.354483	2485.119968
538.714821	2487.779176
539.075103	2485.074597
539.435328	2486.191213
539.795497	2489.929228
540.155609	2482.395224
540.515665	2486.143322
540.875665	2486.546614
541.235609	2486.355050
541.595496	2486.959989
541.955328	2484.608290
542.315102	2484.320945
542.674821	2484.333548
543.034483	2482.793475
543.394090	2488.777325
543.753640	2484.807416
544.113134	2484.688949
544.472571	2483.673156
544.831953	2484.220122
545.191278	2488.190030
545.550548	2484.946048
545.909761	2485.881182
546.268918	2486.544093
546.628019	2484.522591
546.987064	2485.309011
547.346053	2486.602067
547.704986	2483.214411
548.063863	2487.338075
548.422684	2485.382107
548.781449	2487.643065
549.140158	2484.378918
549.498811	2486.221460
549.857408	2486.087869
550.215949	2488.346306
550.574434	2485.863538
550.932864	2484.794813
551.291237	2484.734319
551.649555	2486.357571
552.007817	2485.137612
552.366022	2487.348157
552.724173	2484.298259
553.082267	2485.724906
553.440305	2487.585092
553.798288	2484.293218
554.156215	2483.804226
554.514086	2484.643578
554.871902	2481.515542
555.229661	2483.693321
555.587365	2480.199801
555.945014	2486.652478
556.302606	2484.895636
556.660143	2486.773466
557.017625	2487.885040
557.375050	2487.575009
557.732421	2484.318424
558.089735	2487.557365
558.446994	2485.787920
558.804197	2485.009062
559.161345	2488.290853
559.518437	2485.530822
559.875474	2486.957468
560.232455	2486.627273
560.589381	2487.625421
560.946251	2488.729434
561.303065	2483.660553
561.659825	2486.518888
562.016528	2484.588126
562.373177	2485.699700
562.729770	2486.609628
563.086307	2487.743888
563.442789	2485.815647
563.799216	2487.547283
564.155587	2483.935296
564.511904	2487.038127
564.868164	2484.479741
565.224370	2485.109885
565.580520	2483.579895
565.936615	2486.685246
566.292654	2485.881182
566.648638	2488.439567
567.004567	2485.412354
567.360441	2484.693990
567.716260	2485.951758
568.072023	2485.616521
568.427732	2487.408651
568.783385	2486.223980
569.138982	2484.227683
569.494525	2486.995277
569.850013	2487.766573
570.205445	2485.825729
570.560823	2487.446460
570.916145	2484.532673
571.271412	2486.493682
571.626625	2485.167858
571.981782	2485.941676
572.336884	2484.893116
572.691931	2481.520584
573.046923	2483.942858
573.401860	2481.180306
573.756743	2487.272540
574.111570	2485.853455
574.466342	2485.394710
574.821059	2488.437047
575.175722	2485.190544
575.530330	2487.121306
575.884882	2484.898157
576.239380	2486.183651
576.593823	2487.890082
576.948211	2485.714824
577.302544	2486.271871
577.656823	2486.191213
578.011047	2488.263127
578.365216	2487.045688
578.719330	2488.033754
579.073389	2486.082828
579.427394	2485.278764
579.781344	2486.470997
580.135239	2487.282623
580.489080	2486.929742
580.842866	2486.914618
581.196597	2488.069043
581.550273	2484.189875
581.903895	2487.890082
582.257463	2483.065697
582.610975	2485.918990
582.964434	2484.585605
583.317837	2487.549804
583.671186	2485.495533
584.024481	2485.440081
584.377721	2486.622231
584.730906	2485.823208
585.084037	2485.699700
585.437113	2484.850266
585.790135	2487.408651
586.143103	2485.840852
586.496016	2488.532829
586.848874	2486.773466
587.201679	2486.546614
587.554428	2485.046871
587.907124	2486.261789
588.259765	2485.316573
588.612352	2487.496872
588.964884	2486.730616
589.317362	2489.183137
589.669786	2485.034268
590.022155	2486.002169
590.374470	2479.809112
590.726731	2486.163486
591.078937	2482.155769
591.431090	2485.803044
591.783188	2487.660709
592.135232	2487.582571
592.487222	2488.711790
592.839157	2484.520070
593.191038	2485.835811
593.542866	2485.629124
593.894639	2488.772283
594.246358	2484.827581
594.598022	2487.809423
594.949633	2486.534011
595.301190	2486.092910
595.652692	2486.985194
596.004141	2486.523929
596.355535	2485.666933
596.706876	2487.436378
597.058162	2486.181130
597.409395	2486.959989
597.760573	2484.968733
598.111698	2487.464104
598.462768	2489.498210
598.813785	2488.631131
599.164748	2483.811788
599.515657	2487.108703
599.866511	2485.976964
600.217312	2486.392859
600.568060	2486.181130
600.918753	2487.721203
601.269392	2489.168014
601.619978	2488.689104
601.970510	2485.848414
602.320988	2486.793631
602.671412	2486.730616
603.021783	2489.094917
603.372100	2485.099803
603.722363	2488.928559
604.072572	2487.227170
604.422728	2486.279433
604.772830	2488.283292
605.122878	2487.867396
605.472872	2489.465442
605.822813	2485.689618
606.172701	2486.420585
606.522534	2486.400421
606.872314	2485.987046
607.222041	2487.023003
607.571714	2485.578713
607.921333	2480.948413
608.270899	2484.482262
608.620411	2479.758700
608.969870	2486.208857
609.319276	2487.333034
609.668627	2486.017293
610.017926	2486.120637
610.367171	2487.176758
610.716362	2487.537201
611.065500	2485.485451
611.414585	2484.673825
611.763616	2485.881182
612.112594	2485.112406
612.461518	2486.549135
612.810389	2486.866727
613.159207	2488.464773
613.507971	2485.064515
613.856682	2487.058291
614.205340	2488.242962
614.553945	2486.322283
614.902496	2486.919659
615.250994	2486.695328
615.599439	2484.535194
615.947830	2489.140288
616.296169	2485.654330
616.644454	2486.944865
616.992686	2487.327993
617.340864	2485.397231
617.688990	2486.904536
618.037063	2485.843373
618.385082	2487.776656
618.733048	2486.337406
619.080961	2489.450319
619.428821	2485.049391
619.776628	2487.285143
620.124382	2485.268682
620.472083	2484.207519
620.819731	2486.327324
621.167326	2488.492499
621.514868	2486.987715
621.862357	2487.128867
622.209793	2486.627272
622.557176	2486.057622
622.904506	2486.952427
623.251783	2485.760194
623.599007	2487.660709
623.946179	2486.279433
624.293297	2487.920328
624.640363	2483.799185
624.987376	2483.877323
625.334336	2483.156438
625.681243	2485.614001
626.028097	2480.625779
626.374899	2485.513177
626.721647	2484.000831
627.068343	2487.612818
627.414987	2485.097282
627.761577	2486.677684
628.108115	2487.471666
628.454600	2486.876810
628.801032	2486.133239
629.147412	2487.978302
629.493739	2486.483600
629.840014	2485.631645
630.186236	2482.967395
630.532405	2489.357057
630.878521	2486.050060
631.224585	2484.215080
631.570597	2485.830770
631.916556	2485.195585
632.262462	2485.480410
632.608316	2486.188692
632.954117	2485.329175
633.299866	2487.879999
633.645562	2487.799341
633.991206	2486.390338
634.336797	2488.207674
634.682336	2485.182982
635.027823	2486.072746
635.373257	2486.120637
635.718639	2483.015286
636.063968	2485.808085
636.409245	2485.782879
636.754470	2486.818836
637.099642	2485.717344
637.444762	2486.108034
637.789829	2483.181644
638.134845	2488.479897
638.479808	2484.840183
638.824719	2487.983343
639.169577	2483.602580
639.514383	2486.289515
639.859137	2485.404793
640.203839	2485.586274
640.548489	2486.319762
640.893086	2485.298928
641.237632	2484.893116
641.582125	2489.611636
641.926566	2484.910760
642.270955	2482.879175
642.615292	2481.704586
642.959576	2486.019813
643.303809	2482.979998
643.647990	2485.916470
643.992118	2485.455204
644.336195	2483.678198
644.680219	2487.577530
645.024192	2486.884371
645.368112	2485.296408
645.711981	2487.370843
646.055797	2483.345481
646.399562	2485.982005
646.743274	2483.799185
647.086935	2485.044350
647.430544	2489.833446
647.774101	2486.324803
648.117606	2484.376397
648.461059	2487.527118
648.804460	2489.263796
649.147810	2486.216418
649.491108	2488.696666
649.834354	2486.158445
650.177548	2487.590133
650.520690	2484.164669
650.863781	2485.661892
651.206820	2485.099803
651.549807	2486.261789
651.892742	2486.118116
652.235626	2484.469659
652.578458	2483.471510
652.921238	2487.179279
653.263967	2486.609628
653.606644	2484.991418
653.949269	2485.556027
654.291843	2484.111737
654.634365	2487.436378
654.976836	2485.913949
655.319255	2485.359422
655.661622	2486.576861
656.003938	2485.372025
656.346203	2484.749443
656.688416	2485.813126
657.030577	2486.080307
657.372687	2486.438229
657.714746	2485.014103
658.056753	2487.103662
658.398708	2485.800523
658.740612	2486.750781
659.082465	2485.646768
659.424266	2485.714824
659.766016	2478.790799
660.107715	2482.417909
660.449362	2480.421612
660.790958	2486.057622
661.132503	2484.787251
661.473996	2487.829588
661.815438	2484.741881
662.156829	2486.523929
662.498168	2486.372694
662.839456	2484.646099
663.180693	2485.770276
663.521879	2485.054432
663.863013	2483.539566
664.204097	2486.128198
664.545129	2484.711634
664.886110	2484.114257
665.227040	2486.274392
665.567918	2484.472179
665.908746	2485.709783
666.249522	2486.198774
666.590248	2489.064670
666.930922	2488.253045
667.271545	2486.715493
667.612118	2486.662561
667.952639	2485.273723
668.293109	2484.197436
668.633528	2485.727427
668.973896	2484.751963
669.314213	2484.194916
669.654480	2486.617190
669.994695	2484.325986
670.334859	2484.880513
670.674973	2485.578712
671.015035	2485.180461
671.355047	2485.109885
671.695008	2485.006542
672.034918	2484.078969
672.374777	2484.527632
672.714585	2486.740698
673.054342	2484.656181
673.394049	2486.022334
673.733705	2484.245327
674.073310	2489.210864
674.412864	2484.167189
674.752368	2484.207519
675.091820	2484.802375
675.431223	2487.219608
675.770574	2488.250524
676.109875	2487.494351
676.449125	2484.212560
676.788324	2482.175934
677.127473	2484.288177
677.466571	2483.053094
677.805619	2484.421768
678.144616	2484.895636
678.483562	2484.772128
678.822458	2484.600729
679.161303	2485.054433
679.500098	2486.581902
679.838842	2488.956286
680.177535	2486.498723
680.516179	2486.173569
680.854771	2482.488485
681.193314	2487.572489
681.531805	2482.952271
681.870247	2486.654999
682.208638	2486.143322
682.546978	2486.002169
682.885268	2484.605770
683.223508	2484.068887
683.561697	2484.129381
683.899836	2485.840853
684.237925	2487.632983
684.575963	2487.683394
684.913951	2485.137612
685.251889	2486.334886
685.589776	2485.125009
685.927614	2486.927221
686.265401	2486.662561
686.603137	2486.929742
686.940824	2484.522591
687.278460	2485.470328
687.616046	2485.064515
687.953582	2486.166007
688.291068	2484.961171
688.628504	2487.522077
688.965889	2487.587612
689.303224	2482.609473
689.640510	2483.295070
689.977745	2486.428147
690.314930	2484.973774
690.652065	2488.401759
690.989150	2485.775318
691.326185	2483.942858
691.663170	2486.886892
692.000105	2487.169197
692.336990	2482.080152
692.673825	2485.155256
693.010610	2483.718527
693.347345	2483.398413
693.684030	2480.449338
694.020665	2482.586788
694.357251	2479.748618
694.693786	2487.201964
695.030272	2485.818167
695.366707	2487.975781
695.703093	2481.785244
696.039429	2487.575009
696.375716	2486.171048
696.711952	2483.184164
697.048139	2484.993939
697.384276	2485.853455
697.720363	2484.784731
698.056400	2483.781541
698.392388	2485.104844
698.728326	2485.745071
699.064214	2485.372025
699.400053	2484.968733
699.735842	2486.753301
700.071581	2484.394041
700.407270	2485.951758
700.742910	2484.666264
701.078501	2482.896819
701.414042	2483.027889
701.749533	2484.416727
702.084974	2486.400421
702.420366	2484.179792
702.755709	2485.238435
703.091002	2486.198774
703.426246	2483.668115
703.761440	2483.902529
704.096584	2486.773466
704.431679	2486.261789
704.766725	2486.115595
705.101721	2484.933445
705.436668	2484.923363
705.771565	2484.767087
706.106413	2485.225832
706.441212	2484.157107
706.775961	2485.339258
707.110661	2484.890595
707.445311	2484.159628
707.779913	2487.023003
708.114465	2485.737509
708.448967	2484.719196
708.783421	2484.507467
709.117825	2483.390852
709.452180	2484.184833
709.786485	2483.960502
710.120742	2482.460759
710.454949	2480.761890
710.789107	2482.468321
711.123216	2482.531335
711.457275	2483.529483
711.791286	2484.867910
712.125247	2484.179792
712.459159	2482.289360
712.793023	2486.470997
713.126837	2485.941676
713.460602	2482.400265
713.794318	2483.932776
714.127985	2482.780872
714.461602	2484.832622
714.795171	2482.397744
715.128691	2486.150883
715.462162	2483.458907
715.795584	2485.157776
716.128957	2484.290698
716.462281	2485.039309
716.795556	2482.188537
717.128782	2484.630976
717.461960	2486.380256
717.795088	2482.949751
718.128167	2484.134422
718.461198	2481.664257
718.794180	2487.108703
719.127113	2484.043681
719.459997	2483.615183
719.792833	2483.801706
720.125619	2485.036788
720.458357	2486.304639
720.791046	2485.107365
721.123686	2484.792292
721.456278	2486.312200
721.788821	2484.278095
722.121315	2485.240955
722.453761	2484.615852
722.786158	2486.097951
723.118506	2483.441263
723.450805	2483.136273
723.783056	2484.888074
724.115259	2483.721047
724.447412	2485.079638
724.779518	2482.541417
725.111574	2484.804895
725.443582	2482.327168
725.775542	2483.884885
726.107453	2485.561068
726.439315	2484.522591
726.771129	2486.372694
727.102895	2481.654174
727.434612	2479.874647
727.766281	2476.857516
728.097901	2485.162817
728.429473	2482.402786
728.760996	2483.854638
729.092471	2484.343630
729.423897	2483.257261
729.755276	2483.179123
730.086606	2483.272385
730.417887	2481.835656
730.749120	2484.429329
731.080305	2482.364977
731.411442	2483.733650
731.742530	2483.345481
732.073570	2483.441263
732.404562	2486.085348
732.735506	2482.470841
733.066401	2483.118629
733.397249	2485.535863
733.728048	2484.152066
734.058798	2482.513691
734.389501	2484.573002
734.720156	2486.528970
735.050762	2482.725419
735.381320	2485.485451
735.711831	2482.604432
736.042293	2483.640389
736.372707	2486.410503
736.703073	2482.528814
737.033391	2485.263640
737.363661	2483.184164
737.693883	2484.341109
738.024056	2484.210039
738.354182	2483.065697
738.684260	2482.911942
739.014290	2483.811788
739.344272	2486.975112
739.674207	2484.247848
740.004093	2484.202478
740.333931	2482.793475
740.663722	2482.566623
740.993464	2481.928917
741.323159	2486.065184
741.652806	2483.368167
741.982405	2483.436222
742.311956	2482.445635
742.641460	2482.959833
742.970915	2482.548979
743.300323	2482.745584
743.629683	2479.100830
743.958996	2481.003865
744.288260	2478.125367
744.617477	2482.949751
744.946647	2483.320276
745.275768	2484.310862
745.604842	2482.453197
745.933869	2483.582416
746.262847	2483.418578
746.591778	2482.594349
746.920662	2482.924545
747.249498	2479.423464
747.578286	2481.848259
747.907027	2483.143835
748.235720	2484.915801
748.564365	2483.141315
748.892963	2479.284832
749.221514	2482.894298
749.550017	2482.828763
749.878473	2484.860348
750.206881	2484.386480
750.535242	2482.085193
750.863555	2482.811119
751.191821	2484.182313
751.520039	2484.439412
751.848210	2482.967395
752.176334	2483.673156
752.504411	2483.710965
752.832440	2482.463279
753.160421	2483.852117
753.488356	2483.574854
753.816243	2484.094093
754.144082	2481.394555
754.471875	2485.361943
754.799620	2483.957982
755.127318	2479.791468
755.454969	2484.767087
755.782572	2483.395893
756.110129	2483.587457
756.437638	2482.128043
756.765100	2483.902529
757.092515	2479.854482
757.419882	2482.294401
757.747203	2484.429329
758.074477	2481.712147
758.401703	2483.335399
758.728882	2481.124853
759.056014	2485.293887
759.383099	2482.859010
759.710138	2483.360605
760.037129	2481.351705
760.364073	2483.068218
760.690970	2477.646457
761.017820	2482.059987
761.344623	2481.752477
761.671379	2482.448156
761.998088	2482.707775
762.324751	2484.356233
762.651366	2482.884216
762.977935	2481.697024
763.304456	2483.277426
763.630931	2485.346819
763.957359	2484.716675
764.283740	2484.464618
764.610074	2481.190388
764.936362	2483.733650
765.262602	2480.809781
765.588796	2485.069556
765.914943	2481.041674
766.241044	2483.219453
766.567097	2483.239617
766.893104	2481.560913
767.219064	2483.242138
767.544978	2482.690131
767.870845	2483.073259
768.196665	2484.565441
768.522438	2484.658702
768.848165	2480.976139
769.173846	2484.147025
769.499479	2482.095275
769.825066	2484.318424
770.150607	2483.789103
770.476101	2482.491006
770.801548	2481.334061
771.126949	2481.754997
771.452303	2483.496716
771.777611	2484.121819
772.102872	2481.462610
772.428087	2483.085862
772.753256	2485.296408
773.078378	2482.007055
773.403453	2483.297590
773.728482	2482.722899
774.053465	2483.458907
774.378401	2482.004534
774.703291	2482.758187
775.028135	2483.766418
775.352932	2483.400934
775.677683	2482.402786
776.002388	2479.113433
776.327046	2477.832980
776.651658	2478.611838
776.976224	2481.790285
777.300743	2482.995121
777.625216	2481.853300
777.949643	2483.216932
778.274024	2482.508650
778.598359	2481.248361
778.922647	2481.301293
779.246889	2482.133084
779.571086	2480.663587
779.895236	2483.509319
780.219339	2486.261789
780.543397	2484.663743
780.867409	2481.928917
781.191374	2481.714668
781.515294	2481.097127
781.839167	2481.462610
782.162995	2482.944710
782.486776	2484.562920
782.810511	2480.507312
783.134201	2481.447487
783.457844	2481.424802
783.781441	2482.274236
784.104993	2482.541417
784.428498	2482.753146
784.751958	2480.015799
785.075372	2480.116622
785.398739	2482.871613
785.722061	2482.153248
786.045337	2483.161479
786.368568	2481.848259
786.691752	2481.770121
787.014891	2482.158290
787.337983	2483.403455
787.661030	2479.736015
787.984031	2481.127374
788.306987	2483.146356
788.629897	2479.857003
788.952760	2481.560913
789.275579	2481.971767
789.598351	2482.352374
789.921078	2482.231386
790.243759	2482.344812
790.566395	2484.489823
790.888984	2483.199288
791.211529	2481.780203
791.534027	2484.177272
791.856480	2481.835656
792.178888	2479.451190
792.501249	2479.569657
792.823566	2480.590491
793.145836	2475.574543
793.468062	2483.095944
793.790241	2483.584936
794.112375	2483.378249
794.434464	2484.026037
794.756507	2479.589822
795.078505	2481.379431
795.400457	2482.475882
795.722364	2480.091417
796.044226	2482.617035
796.366042	2480.852631
796.687812	2481.830615
797.009538	2482.198619
797.331218	2483.569813
797.652852	2483.211891
797.974442	2484.144504
798.295986	2482.546458
798.617484	2484.255410
798.938938	2482.851448
799.260346	2480.590491
799.581709	2482.359936
799.903026	2484.517550
800.224299	2482.410347
800.545526	2482.175934
800.866708	2480.398927
801.187845	2479.889770
801.508936	2482.806078
801.829983	2482.569144
802.150984	2480.240131
802.471940	2483.421099
802.792851	2481.954123
803.113717	2483.365646
803.434538	2482.566623
803.755314	2482.107878
804.076045	2482.092755
804.396731	2483.625265
804.717372	2481.049236
805.037967	2482.390183
805.358518	2480.323310
805.679024	2483.549648
805.999485	2482.150728
806.319901	2482.586788
806.640272	2480.172075
806.960598	2481.082003
807.280879	2480.232569
807.601115	2485.417396
807.921306	2480.958495
808.241453	2477.238123
808.561554	2478.044708
808.881611	2479.398258
809.201623	2476.640747
809.521590	2483.176603
809.841513	2479.481437
810.161390	2482.435553
810.481223	2480.371201
810.801011	2484.081490
811.120755	2478.269039
811.440453	2483.045533
811.760107	2479.431025
812.079716	2483.363125
812.399281	2480.656026
812.718801	2482.465800
813.038276	2481.732312
813.357707	2482.052425
813.677093	2483.887405
813.996434	2482.037302
814.315731	2481.931438
814.634983	2481.697024
814.954191	2478.899184
815.273354	2481.618886
815.592473	2481.797847
815.911547	2481.439925
816.230577	2483.839514
816.549562	2483.126191
816.868502	2479.559575
817.187399	2480.290542
817.506250	2480.154431
817.825058	2480.436736
818.143821	2480.673670
818.462539	2480.507312
818.781213	2481.434884
819.099843	2483.375728
819.418429	2480.645943
819.736970	2480.499750
820.055466	2481.434884
820.373919	2480.837507
820.692327	2482.274236
821.010691	2480.325830
821.329011	2484.310862
821.647286	2483.446304
821.965517	2482.392703
822.283704	2485.364463
822.601847	2484.305821
822.919945	2483.443784
823.237999	2484.217601
823.556010	2482.100316
823.873976	2480.434215
824.191897	2479.793988
824.509775	2479.025213
824.827609	2479.158803
825.145398	2479.315079
825.463144	2481.664257
825.780845	2483.842035
826.098502	2487.693477
826.416116	2481.076962
826.733685	2483.390852
827.051210	2483.968064
827.368692	2484.285657
827.686129	2479.441108
828.003522	2480.928248
828.320872	2481.084524
828.638177	2480.663588
828.955439	2481.296252
829.272656	2483.680718
829.589830	2482.770790
829.906960	2483.466469
830.224046	2481.419761
830.541088	2480.522435
830.858086	2483.378249
831.175041	2483.859679
831.491952	2478.397589
831.808819	2484.295739
832.125642	2481.185347
832.442421	2481.787765
832.759157	2480.822384
833.075849	2480.953454
833.392497	2481.853300
833.709101	2481.843218
834.025662	2479.945223
834.342179	2481.621407
834.658653	2481.480254
834.975083	2480.721561
835.291469	2483.655512
835.607811	2480.961016
835.924110	2482.007055
836.240366	2480.777013
836.556578	2483.297590
836.872746	2480.638382
837.188871	2481.606283
837.504952	2477.485140
837.820990	2481.868423
838.136984	2478.563947
838.452935	2481.404637
838.768842	2480.459421
839.084706	2478.626961
839.400526	2479.811633
839.716303	2478.553865
840.032037	2475.629995
840.347727	2477.293576
840.663373	2479.655357
840.978977	2475.352732
841.294537	2479.733495
841.610054	2480.872795
841.925527	2480.832466
842.240957	2482.412868
842.556344	2479.511684
842.871687	2481.936479
843.186987	2480.852631
843.502244	2483.022848
843.817458	2482.533856
844.132629	2480.673670
844.447756	2478.947075
844.762840	2481.089565
845.077881	2481.444966
845.392879	2479.640233
845.707833	2480.426653
846.022745	2480.109061
846.337613	2482.768269
846.652438	2480.963536
846.967221	2479.675521
847.281960	2482.790954
847.596656	2479.307517
847.911309	2480.746767
848.225919	2479.294914
848.540485	2479.373052
848.855009	2479.471355
849.169490	2481.107209
849.483928	2480.595532
849.798323	2479.904894
850.112675	2479.705768
850.426984	2480.134266
850.741251	2478.269039
851.055474	2479.186529
851.369654	2479.488999
851.683792	2477.976653
851.997887	2479.652836
852.311938	2478.616879
852.625947	2480.966057
852.939914	2480.469503
853.253837	2481.142497
853.567718	2478.314410
853.881555	2477.490181
854.195350	2483.400934
854.509103	2480.361118
854.822812	2476.439101
855.136479	2479.453711
855.450103	2479.007568
855.763685	2478.589153
856.077224	2476.277784
856.390720	2479.297435
856.704173	2473.764768
857.017584	2480.363639
857.330953	2480.199801
857.644278	2480.028402
857.957561	2478.427836
858.270802	2480.923207
858.584000	2480.625779
858.897155	2481.530666
859.210268	2482.566623
859.523339	2483.111068
859.836367	2480.136787
860.149352	2480.857672
860.462295	2479.310038
860.775195	2480.570326
861.088054	2481.996973
861.400869	2480.469503
861.713642	2482.291880
862.026373	2480.998824
862.339062	2479.211735
862.651708	2480.744246
862.964312	2483.468990
863.276873	2478.047229
863.589392	2481.039153
863.901869	2479.166365
864.214303	2479.945223
864.526696	2479.413381
864.839045	2479.607466
865.151353	2479.574698
865.463619	2480.260295
865.775842	2480.391365
866.088023	2482.803557
866.400162	2478.276601
866.712258	2477.139821
867.024313	2480.015799
867.336325	2480.126705
867.648296	2479.612507
867.960224	2478.211066
868.272110	2479.889770
868.583954	2479.216776
868.895755	2480.610655
869.207515	2477.648978
869.519233	2478.190902
869.830909	2480.227528
870.142542	2480.207363
870.454134	2478.369862
870.765684	2481.631489
871.077191	2480.935810
871.388657	2478.984883
871.700081	2474.881384
872.011463	2477.401961
872.322803	2474.258802
872.634101	2478.289204
872.945357	2479.010089
873.256571	2479.604945
873.567744	2479.768783
873.878874	2479.395737
874.189963	2478.785758
874.501010	2479.110912
874.812015	2478.604276
875.122979	2478.962198
875.433900	2478.425315
875.744780	2481.276088
876.055618	2479.751139
876.366415	2479.428505
876.677169	2479.738536
876.987882	2478.354739
877.298554	2478.531179
877.609183	2481.243320
877.919771	2479.141159
878.230317	2481.129894
878.540822	2479.431025
878.851285	2481.291211
879.161707	2479.604945
879.472087	2479.854482
879.782425	2480.141828
880.092722	2479.791468
880.402977	2480.577888
880.713191	2481.137456
881.023363	2480.325830
881.333494	2479.972949
881.643583	2482.707775
881.953631	2482.485965
882.263637	2477.913638
882.573602	2480.192240
882.883526	2479.680563
883.193408	2481.820532
883.503248	2480.676190
883.813048	2482.995121
884.122806	2478.730305
884.432522	2480.703917
884.742197	2481.457569
885.051831	2479.786427
885.361424	2480.300624
885.670975	2479.070583
885.980485	2479.146200
886.289954	2478.629482
886.599382	2478.639564
886.908768	2479.249544
887.218113	2477.865747
887.527417	2478.309369
887.836680	2473.416929
888.145901	2477.646457
888.455082	2479.952785
888.764221	2479.478916
889.073319	2479.534369
889.382376	2479.990593
889.691392	2481.142497
890.000366	2477.868268
890.309300	2479.466313
890.618193	2479.050418
890.927044	2480.000676
891.235855	2477.709471
891.544625	2479.078145
891.853353	2479.438587
892.162041	2479.753659
892.470687	2479.877168
892.779293	2479.693165
893.087858	2480.255254
893.396381	2480.235089
893.704864	2480.250213
894.013306	2481.329020
894.321707	2479.998155
894.630068	2478.397589
894.938387	2479.851962
895.246665	2479.451190
895.554903	2481.202991
895.863100	2477.396920
896.171256	2479.972949
896.479371	2477.041518
896.787446	2478.415233
897.095480	2477.283494
897.403473	2476.184522
897.711425	2477.283494
898.019336	2477.689307
898.327207	2478.117805
898.635038	2477.190233
898.942827	2477.235603
899.250576	2477.573360
899.558284	2476.988586
899.865952	2478.647126
900.173579	2478.730305
900.481165	2480.109061
900.788711	2478.810963
901.096216	2479.793988
901.403681	2477.855665
901.711105	2481.341623
902.018489	2478.581591
902.325832	2475.793833
902.633135	2474.949440
902.940397	2477.593525
903.247619	2472.138996
903.554800	2480.998824
903.861941	2478.541262
904.169041	2478.886581
904.476101	2480.678711
904.783121	2479.378093
905.090100	2479.589822
905.397039	2480.033443
905.703938	2476.744090
906.010796	2481.079483
906.317614	2482.622076
906.624391	2481.281129
906.931129	2479.055459
907.237826	2479.491519
907.544483	2477.154944
907.851099	2477.223000
908.157675	2479.920017
908.464211	2481.543269
908.770707	2478.848772
909.077163	2479.360449
909.383578	2479.899853
909.689954	2476.345839
909.996289	2478.735346
910.302584	2478.226190
910.608839	2479.365490
910.915054	2479.020171
911.221229	2479.549492
911.527363	2476.905407
911.833458	2477.679224
912.139513	2478.407671
912.445527	2480.194760
912.751502	2479.362970
913.057436	2478.788278
913.363331	2478.579070
913.669186	2479.594863
913.975000	2483.015286
914.280775	2480.910604
914.586510	2481.238279
914.892205	2478.992445
915.197859	2477.558237
915.503475	2478.868937
915.809050	2478.921869
916.114585	2477.732157
916.420081	2478.904225
916.725536	2478.362301
917.030952	2478.200984
917.336328	2476.234934
917.641665	2476.045891
917.946961	2473.323667
918.252218	2475.519090
918.557435	2474.515900
918.862612	2477.361632
919.167750	2478.269039
919.472848	2479.531848
919.777906	2478.168216
920.082925	2476.665952
920.387904	2479.007568
920.692843	2480.587970
920.997743	2477.956488
921.302603	2477.429687
921.607423	2479.088227
921.912204	2480.464462
922.216946	2479.793988
922.521647	2478.059832
922.826310	2478.742908
923.130932	2478.216107
923.435516	2475.998000
923.740059	2477.001189
924.044564	2477.855665
924.349028	2480.209884
924.653454	2478.591673
924.957840	2479.420943
925.262186	2481.384473
925.566493	2477.974132
925.870761	2477.855665
926.174989	2477.152424
926.479178	2474.788123
926.783328	2478.866416
927.087438	2477.596045
927.391509	2478.926910
927.695541	2476.910448
927.999533	2478.392548
928.303486	2476.812146
928.607400	2477.875829
928.911275	2477.122177
929.215110	2477.696868
929.518906	2475.582104
929.822663	2478.024543
930.126381	2477.792650
930.430060	2480.582929
930.733699	2479.705768
931.037299	2477.936323
931.340861	2475.753504
931.644383	2475.919862
931.947866	2480.419092
932.251309	2480.693834
932.554714	2476.297948
932.858080	2476.464306
933.161407	2473.038842
933.464694	2475.153606
933.767943	2472.670838
934.071153	2477.938844
934.374323	2475.599748
934.677455	2476.340798
934.980548	2477.769965
935.283602	2476.766776
935.586617	2479.118474
935.889593	2477.054121
936.192530	2477.767445
936.495428	2475.534213
936.798287	2476.703761
937.101108	2478.281642
937.403890	2477.558237
937.706632	2477.311220
938.009336	2478.417753
938.312002	2477.248206
938.614628	2476.615541
938.917216	2479.436067
939.219765	2478.165696
939.522275	2476.938175
939.824747	2479.554534
940.127179	2477.928762
940.429573	2478.178299
940.731929	2476.613020
941.034246	2480.587970
941.336524	2478.301807
941.638763	2478.213587
941.940964	2475.294759
942.243126	2478.266519
942.545250	2479.496560
942.847335	2480.769452
943.149381	2477.212918
943.451389	2478.793319
943.753359	2476.935654
944.055290	2479.458752
944.357182	2476.726446
944.659036	2476.466827
944.960851	2476.262660
945.262628	2477.626292
945.564367	2478.664770
945.866067	2478.281642
946.167729	2477.661580
946.469352	2475.330047
946.770937	2476.355922
947.072484	2477.984214
947.373992	2477.729636
947.675462	2476.464306
947.976893	2474.841055
948.278286	2472.542289
948.579641	2475.297279
948.880958	2473.921044
949.182236	2476.111426
949.483476	2480.081334
949.784678	2476.744090
950.085841	2477.815336
950.386967	2478.203504
950.688054	2477.754842
950.989103	2477.495222
951.290114	2478.125367
951.591087	2478.064873
951.892021	2476.827269
952.192917	2477.248206
952.493776	2478.823566
952.794596	2476.693679
953.095378	2474.735191
953.396122	2477.888432
953.696828	2478.236272
953.997496	2477.096971
954.298126	2477.568319
954.598718	2476.499594
954.899272	2476.784420
955.199788	2477.855665
955.500266	2479.368011
955.800706	2477.908597
956.101108	2478.473206
956.401472	2477.827938
956.701798	2475.025057
957.002087	2479.095789
957.302337	2476.923051
957.602550	2477.583442
957.902724	2476.615541
958.202861	2476.645788
958.502960	2475.440952
958.803022	2479.456231
959.103045	2475.698051
959.403031	2477.669142
959.702979	2475.123359
960.002889	2478.384986
960.302762	2476.406333
960.602596	2480.653505
960.902393	2475.052783
961.202153	2476.897846
961.501875	2475.645119
961.801559	2477.066724
962.101205	2477.802733
962.400814	2478.730305
962.700385	2476.686117
962.999918	2475.395582
963.299414	2474.198308
963.598873	2472.275108
963.898293	2474.336939
964.197677	2475.163689
964.497022	2477.550675
964.796331	2479.647795
965.095601	2473.588328
965.394835	2479.025213
965.694030	2476.623103
965.993189	2478.110243
966.292309	2476.660911
966.591393	2478.221148
966.890439	2475.839203
967.189447	2476.360963
967.488419	2475.191415
967.787353	2479.514204
968.086249	2476.212249
968.385108	2475.274594
968.683930	2477.724595
968.982714	2478.921869
969.281462	2477.906076
969.580172	2476.963381
969.878844	2476.567650
970.177480	2477.313741
970.476078	2476.103864
970.774639	2476.756693
971.073162	2474.523462
971.371649	2476.212249
971.670098	2476.751652
971.968510	2476.081179
972.266885	2476.028247
972.565223	2477.747280
972.863524	2477.288535
973.161788	2476.108905
973.460014	2478.102681
973.758204	2474.624285
974.056356	2478.795840
974.354471	2477.359111
974.652550	2475.708133
974.950591	2476.045891
975.248595	2477.893473
975.546563	2477.643936
975.844493	2475.922382
976.142386	2476.497074
976.440243	2478.105202
976.738062	2476.665952
977.035845	2475.496405
977.333590	2478.127887
977.631299	2476.721405
977.928971	2476.983545
978.226606	2475.377938
978.524204	2474.803246
978.821765	2471.448358
979.119290	2475.209059
979.416777	2473.474902
979.714228	2479.264667
980.011642	2475.753504
980.309020	2476.494553
980.606360	2473.109418
980.903664	2476.237454
981.200931	2474.304172
981.498162	2476.348360
981.795356	2478.417753
982.092513	2476.895325
982.389633	2476.756693
982.686717	2478.392548
982.983764	2476.343319
983.280775	2473.464820
983.577749	2475.934985
983.874686	2477.810294
984.171587	2477.711992
984.468451	2475.297279
984.765279	2476.363483
985.062070	2476.630664
985.358824	2474.611682
985.655543	2475.471199
985.952224	2476.958339
986.248869	2475.703092
986.545478	2474.767958
986.842050	2477.228041
987.138586	2477.288535
987.435086	2477.832980
987.731549	2478.006899
988.027975	2474.659573
988.324366	2476.091261
988.620719	2475.740901
988.917037	2475.655201
989.213318	2477.686786
989.509563	2476.605459
989.805772	2479.400778
990.101944	2474.846096
990.398080	2475.791312
990.694180	2475.672845
990.990244	2474.770479
991.286271	2476.209728
991.582262	2476.494553
991.878217	2474.712505
992.174136	2476.567650
992.470019	2475.937506
992.765865	2474.135293
993.061676	2470.435086
993.357450	2474.160499
993.653188	2471.685292
993.948890	2476.381127
994.244556	2473.676548
994.540186	2476.882722
994.835780	2474.125211
995.131337	2473.898359
995.426859	2474.064717
995.722345	2476.444142
996.017795	2475.693010
996.313208	2476.749132
996.608586	2476.544965
996.903928	2479.690645
997.199234	2478.258957
997.494504	2478.775675
997.789738	2474.662094
998.084936	2475.060345
998.380099	2472.174284
998.675225	2477.031436
998.970316	2476.660911
999.265371	2476.262660
999.560390	2478.022023
999.855373	2474.442804
1000.150320	2479.098309
1000.445232	2475.083030
1000.740108	2475.992958
1001.034948	2477.979173
1001.329752	2477.699389
1001.624521	2477.374235
1001.919254	2474.379789
1002.213951	2479.073103
1002.508613	2475.110757
1002.803239	2475.370376
1003.097829	2477.243165
1003.392384	2474.042032
1003.686903	2475.738380
1003.981386	2476.146714
1004.275834	2474.815849
1004.570246	2474.972125
1004.864623	2472.602783
1005.158964	2475.453555
1005.453270	2476.353401
1005.747540	2476.749132
1006.041775	2474.029429
1006.335974	2475.519090
1006.630138	2475.955150
1006.924266	2475.801395
1007.218359	2476.383648
1007.512416	2472.282669
1007.806438	2472.751497
1008.100425	2474.122690
1008.394376	2472.131435
1008.688292	2474.830973
1008.982172	2473.300982
1009.276017	2476.323154
1009.569827	2474.243678
1009.863602	2473.230406
1010.157341	2476.028247
1010.451045	2473.883236
1010.744714	2475.088071
1011.038347	2475.125880
1011.331945	2475.715695
1011.625508	2476.368524
1011.919036	2475.836683
1012.212528	2475.738380
1012.505986	2479.136118
1012.799408	2474.972125
1013.092795	2473.842906
1013.386147	2476.756693
1013.679464	2475.672845
1013.972745	2475.173771
1014.265992	2474.767958
1014.559204	2476.676035
1014.852380	2474.218472
1015.145521	2475.687969
1015.438628	2476.557568
1015.731699	2476.242496
1016.024736	2474.876343
1016.317737	2475.927423
1016.610703	2476.222331
1016.903635	2473.454738
1017.196531	2476.429018
1017.489393	2476.184522
1017.782219	2476.691158
1018.075011	2475.004892
1018.367768	2475.231744
1018.660490	2475.289718
1018.953177	2475.289718
1019.245829	2475.289718
