Dividing Wavelength (nm)	Counts (n)	Blue Motor Position (mm): 42.800000	Red Motor Position (mm): 0.000000	
326.493990	2131.195679
326.888308	2131.195679
327.282561	2131.195679
327.676750	2096.613364
328.070874	2095.655545
328.464933	2098.639908
328.858929	2104.195259
329.252859	2115.389142
329.646726	2126.882972
330.040528	2139.737915
330.434265	2154.185862
330.827938	2172.797802
331.221547	2190.918229
331.615091	2209.797350
332.008571	2229.926678
332.401986	2248.168093
332.795338	2267.934457
333.188625	2287.070677
333.581847	2304.306382
333.975006	2323.591316
334.368100	2343.350118
334.761129	2361.871318
335.154095	2374.595190
335.546996	2398.883469
335.939833	2423.474218
336.332606	2439.948708
336.725315	2451.518157
337.117960	2460.377984
337.510540	2469.152113
337.903056	2480.950933
338.295508	2486.546614
338.687896	2497.808552
339.080220	2505.226610
339.472480	2509.481343
339.864676	2515.084586
340.256807	2522.767304
340.648875	2523.185720
341.040879	2523.987264
341.432818	2530.026566
341.824694	2530.374406
342.216506	2529.540095
342.608253	2531.075126
342.999937	2530.019004
343.391557	2530.628984
343.783113	2527.253931
344.174605	2525.481966
344.566033	2526.475073
344.957397	2522.124557
345.348697	2520.521470
345.739934	2521.607839
346.131106	2519.180523
346.522215	2517.201871
346.913260	2516.932169
347.304241	2513.501664
347.695159	2510.739111
348.086012	2509.372959
348.476802	2505.680313
348.867528	2508.309275
349.258191	2507.054028
349.648789	2504.394819
350.039324	2500.009015
350.429796	2502.711074
350.820203	2498.252173
351.210548	2501.102946
351.600828	2499.870384
351.991045	2499.641011
352.381198	2496.923829
352.771288	2497.291833
353.161314	2494.030207
353.551276	2499.517503
353.941175	2495.971051
354.331010	2495.711432
354.720782	2496.439878
355.110490	2496.669251
355.500135	2497.858963
355.889717	2496.351658
356.279235	2496.207985
356.668689	2497.112872
357.058080	2498.242091
357.447408	2493.183293
357.836672	2495.204796
358.225873	2495.950887
358.615010	2495.857625
359.004084	2500.208141
359.393095	2499.457009
359.782043	2501.420538
360.170927	2500.041783
360.559748	2502.829541
360.948505	2500.321567
361.337199	2503.308451
361.725830	2503.663852
362.114398	2505.390447
362.502903	2504.682165
362.891344	2505.380365
363.279722	2505.773575
363.668037	2506.428925
364.056289	2508.200890
364.444478	2507.608555
364.832603	2508.551251
365.220665	2510.232475
365.608665	2506.814573
365.996601	2509.773730
366.384474	2511.470079
366.772284	2508.198370
367.160031	2509.725839
367.547715	2509.020078
367.935336	2513.229441
368.322893	2511.707013
368.710388	2509.047804
369.097820	2515.404699
369.485189	2512.551406
369.872495	2515.964267
370.259738	2513.380676
370.646918	2513.400841
371.034035	2513.027795
371.421090	2517.731192
371.808081	2517.224556
372.195010	2516.304545
372.581875	2512.987466
372.968678	2519.901408
373.355418	2513.700789
373.742096	2519.830832
374.128710	2518.633558
374.515262	2518.971316
374.901751	2519.172962
375.288177	2521.451563
375.674540	2519.752694
376.060841	2520.289577
376.447079	2518.343692
376.833254	2520.314783
377.219367	2518.371418
377.605417	2519.903929
377.991404	2520.705473
378.377329	2521.600277
378.763191	2520.120699
379.148991	2527.435413
379.534727	2530.117307
379.920402	2532.816845
380.306013	2534.392205
380.691563	2539.496373
381.077049	2542.788247
381.462474	2550.909546
381.847835	2556.820299
382.233134	2565.097873
382.618371	2573.829152
383.003545	2587.450349
383.388657	2598.586258
383.773706	2612.698968
384.158693	2624.691873
384.543618	2643.205511
384.928480	2657.890392
385.313280	2680.489885
385.698017	2693.612008
386.082692	2719.987325
386.467305	2733.679099
386.851856	2762.388470
387.236344	2784.012500
387.620770	2812.812612
388.005133	2842.250429
388.389435	2870.667414
388.773674	2900.024573
389.157851	2933.772578
389.541965	2965.257104
389.926018	2975.473002
390.310008	3031.162629
390.693936	3064.469532
391.077802	3112.264712
391.461606	3134.402939
391.845348	3194.059953
392.229027	3219.555589
392.612645	3252.212184
392.996200	3324.651044
393.379694	3376.784136
393.763125	3446.604117
394.146494	3454.213739
394.529801	3528.016231
394.913047	3592.144749
395.296230	3596.238166
395.679351	3660.051612
396.062410	3712.963563
396.445408	3722.524111
396.828343	3774.571504
397.211217	3819.052125
397.594028	3781.465282
397.976778	3858.476469
398.359466	3903.599837
398.742092	3947.717495
399.124656	3903.609919
399.507158	3991.222652
399.889598	4030.783107
400.271977	4105.251032
400.654294	4092.680915
401.036549	4116.996920
401.418742	4101.563428
401.800874	4207.326835
402.182944	4240.805138
402.564952	4314.653001
402.946898	4309.952125
403.328783	4319.147189
403.710606	4245.629522
404.092367	4438.889717
404.474067	4409.020880
404.855705	4422.906738
405.237282	4358.324517
405.618797	4472.821723
406.000250	4506.776415
406.381642	4590.535186
406.762972	4559.131318
407.144240	4572.765119
407.525447	4571.872835
407.906593	4633.387514
408.287677	4677.190100
408.668700	4608.658134
409.049661	4661.897760
409.430560	4703.164645
409.811399	4629.223521
410.192176	4791.223521
410.572891	4732.940221
410.953545	4831.532587
411.334138	4714.635791
411.714669	4784.894352
412.095139	4680.958363
412.475547	4821.294003
412.855894	4802.651817
413.236180	4813.757478
413.616405	4767.845170
413.996568	4850.951112
414.376670	4794.913645
414.756711	4752.704064
415.136691	4782.840082
415.516609	4855.906566
415.896466	4896.074480
416.276262	4933.207619
416.655997	4909.965379
417.035670	5093.707875
417.415283	5184.128531
417.794834	5129.517711
418.174324	5084.263273
418.553753	4991.589222
418.933121	5176.188714
419.312428	5241.743878
419.691674	5181.915464
420.070859	5308.123272
420.449983	5224.566147
420.829045	5333.462631
421.208047	5242.888220
421.586988	5312.917409
421.965867	5325.492567
422.344686	5460.129183
422.723444	5315.831196
423.102141	5131.720696
423.480777	5431.918887
423.859352	5201.084452
424.237866	5459.826714
424.616319	5448.559735
424.994712	5558.388834
425.373044	5437.030617
425.751314	5579.980096
426.129524	5384.254777
426.507673	5574.424744
426.885762	5662.130739
427.263789	5588.149285
427.641756	5474.622501
428.019662	5591.705819
428.397508	5601.616728
428.775292	5548.488007
429.153016	5645.275641
429.530679	5575.009518
429.908282	5657.208052
430.285824	5527.141242
430.663305	5798.166275
431.040726	5542.698242
431.418086	5538.287233
431.795385	5644.287575
432.172624	5658.790974
432.549802	5647.460981
432.926920	5664.598383
433.303977	5669.984856
433.680974	5711.067740
434.057910	5729.722529
434.434786	5737.596812
434.811601	5702.822932
435.188355	5933.312048
435.565050	5807.777235
435.941683	5793.689731
436.318257	6005.057750
436.694770	5990.133414
437.071222	6023.979721
437.447614	5954.053876
437.823946	5869.788468
438.200218	6022.149782
438.576429	5889.721191
438.952580	5984.782229
439.328670	6032.572367
439.704700	5941.453512
440.080670	5922.536582
440.456580	6194.030443
440.832429	6081.297640
441.208218	5925.720070
441.583947	6080.344862
441.959616	6083.107414
442.335224	6011.200396
442.710773	6149.023021
443.086261	6174.296846
443.461689	5970.997194
443.837057	6119.267611
444.212365	6276.155880
444.587612	6163.032388
444.962800	6320.470143
445.337927	6299.748480
445.712995	5911.345220
446.088002	6487.261759
446.462949	6316.086860
446.837837	6249.299133
447.212664	6425.842861
447.587431	6564.144396
447.962139	7107.800071
448.336786	8030.132099
448.711374	7775.581557
449.085901	6841.564134
449.460369	6769.394975
449.834776	6704.843000
450.209124	7094.551919
450.583412	7245.743684
450.957640	7391.876652
451.331808	7148.552759
451.705917	6706.554472
452.079965	6633.041846
452.453954	6845.138312
452.827883	6724.745476
453.201752	6811.990205
453.575562	6611.634586
453.949311	6815.052706
454.323001	6701.412495
454.696632	6774.988135
455.070202	6917.743530
455.443713	7071.773465
455.817164	7176.085021
456.190556	7251.193172
456.563888	7331.196283
456.937160	7372.609362
457.310373	7025.788060
457.683526	7055.266207
458.056619	6947.312418
458.429653	6936.564678
458.802628	6865.915427
459.175542	6981.221739
459.548398	7331.420615
459.921194	7491.968762
460.293930	7497.244329
460.666607	8023.215636
461.039224	8338.998554
461.411782	8459.124209
461.784280	8474.071231
462.156719	8364.030404
462.529099	8243.259481
462.901419	7826.885379
463.273680	7725.001139
463.645882	7738.365238
464.018024	7604.915814
464.390106	7779.102803
464.762130	8162.172522
465.134094	8628.433882
465.505999	9649.645622
465.877845	10881.635567
466.249631	11517.468740
466.621358	11134.043619
466.993026	10502.452577
467.364634	10258.674980
467.736184	9889.133198
468.107674	9561.332169
468.479105	9582.245395
468.850477	9351.060601
469.221790	9118.388665
469.593043	8795.772463
469.964238	8659.573089
470.335373	8672.279318
470.706449	8726.925425
471.077467	8712.069145
471.448425	10020.122539
471.819324	11094.715057
472.190164	11112.046544
472.560945	9863.783755
472.931667	9070.454854
473.302330	8940.614896
473.672934	8590.239580
474.043479	8946.205535
474.413965	8888.023058
474.784393	8770.433103
475.154761	8924.357174
475.525070	9010.187860
475.895321	8842.393054
476.265513	9013.399075
476.635645	9189.607566
477.005719	9189.756280
477.375734	9299.066140
477.745691	9536.842243
478.115588	9674.702678
478.485427	9918.286190
478.855207	10456.250402
479.224928	11278.218099
479.594591	11894.693241
479.964194	11709.324973
480.333739	11641.435754
480.703226	11556.545244
481.072653	11650.010757
481.442022	11894.637788
481.811333	12077.679564
482.180584	11890.473795
482.549777	11589.998341
482.918912	11414.072154
483.287988	11438.710793
483.657005	11451.774943
484.025964	11137.700976
484.394864	11266.000862
484.763706	11232.043650
485.132489	10988.291259
485.501213	10955.501073
485.869879	11033.366736
486.238487	10872.531243
486.607036	10985.077523
486.975527	10765.694069
487.343959	10952.254570
487.712333	11002.729123
488.080648	10935.694380
488.448905	10977.104938
488.817104	10914.796277
489.185244	11185.927175
489.553326	11337.403765
489.921350	11882.080274
490.289315	12938.615379
490.657222	13274.575516
491.025070	13185.571424
491.392861	13057.788256
491.760593	12673.632168
492.128267	12327.788850
492.495883	12001.535455
492.863440	11659.591469
493.230939	11330.799854
493.598380	11262.708989
493.965763	11127.999276
494.333088	11031.758608
494.700354	10946.069075
495.067563	11009.958138
495.434713	10843.030411
495.801805	10968.348454
496.168839	10892.312731
496.535815	10824.453759
496.902733	10825.877885
497.269593	10759.944633
497.636395	10860.533297
498.003139	10854.635147
498.369825	10717.896369
498.736453	10875.450071
499.103023	10800.868720
499.469535	10833.237969
499.835989	10818.162399
500.202385	10784.328695
500.568723	10632.645417
500.935003	10859.111691
501.301226	10665.952320
501.667390	10920.182750
502.033497	11026.840962
502.399546	10873.199196
502.765537	10781.656883
503.131470	10860.361898
503.497345	11026.104954
503.863163	10641.913578
504.228923	10952.864550
504.594625	11018.681855
504.960269	10766.404872
505.325856	10991.729326
505.691385	10778.238981
506.056856	10930.665829
506.422270	10955.062493
506.787625	10844.131903
507.152924	10962.702362
507.518164	10947.626791
507.883347	10868.465552
508.248472	10784.918510
508.613540	11022.659325
508.978550	10900.925542
509.343503	10878.341173
509.708398	10995.608493
510.073236	11109.039496
510.438016	11120.417380
510.802738	11063.492671
511.167403	11119.182298
511.532010	11013.673468
511.896561	11246.484035
512.261053	11321.637557
512.625488	11189.589573
512.989866	11169.442602
513.354186	11161.666622
513.718449	11060.241127
514.082655	11249.591907
514.446803	11147.506021
514.810894	11269.665781
515.174927	11137.043106
515.538904	11158.886425
515.902822	11311.265383
516.266684	11198.698938
516.630488	11139.785493
516.994235	11192.904132
517.357925	11250.544685
517.721558	11343.569097
518.085133	11360.129287
518.448651	11369.309228
518.812112	11249.949828
519.175516	11261.171437
519.538863	11383.618543
519.902152	11309.190948
520.265385	11464.690379
520.628560	11377.022193
520.991678	11353.618637
521.354739	11418.465519
521.717743	11352.635612
522.080690	11330.799854
522.443580	11459.535800
522.806413	11425.860892
523.169189	11449.997937
523.531908	11503.623211
523.894569	11329.368166
524.257174	11335.132726
524.619722	11456.979935
524.982213	11397.842159
525.344647	11453.625047
525.707025	11406.684343
526.069345	11495.454021
526.431608	11409.628377
526.793815	11526.482323
527.155964	11312.757564
527.518057	11364.673887
527.880093	11311.640949
528.242072	11380.896320
528.603995	11286.994747
528.965860	11210.200330
529.327669	11267.152766
529.689421	11210.535567
530.051117	11176.154898
530.412755	11281.487287
530.774337	11170.644917
531.135862	11155.423153
531.497331	11176.679178
531.858743	11025.300890
532.220098	11194.262722
532.581396	11064.538711
532.942638	11049.528675
533.303824	11008.286995
533.664953	11022.639160
534.026025	10935.870820
534.387040	11036.489731
534.747999	11045.490711
535.108902	11099.073135
535.469748	10857.135559
535.830537	10961.895777
536.191270	10945.496904
536.551947	10964.852414
536.912567	10954.208017
537.273131	10889.179653
537.633638	10867.346416
537.994089	10856.298727
538.354483	10805.166304
538.714821	10955.697678
539.075103	10961.220263
539.435328	10921.143089
539.795497	10749.093550
540.155609	10904.935780
540.515665	10993.319810
540.875665	10731.512526
541.235609	10797.176075
541.595496	10794.312700
541.955328	10949.194590
542.315102	10833.300984
542.674821	10785.130238
543.034483	10784.096802
543.394090	10787.328181
543.753640	10713.946625
544.113134	10933.937538
544.472571	10793.163317
544.831953	10935.134812
545.191278	10735.840356
545.550548	10773.238156
545.909761	10909.389639
546.268918	10877.214475
546.628019	10962.785541
546.987064	10831.317290
547.346053	10741.443599
547.704986	10848.671462
548.063863	10832.612866
548.422684	10828.103554
548.781449	10740.357230
549.140158	10847.121307
549.498811	10720.177491
549.857408	10585.450134
550.215949	10811.460185
550.574434	10663.696404
550.932864	10761.996383
551.291237	10824.599952
551.649555	10765.361353
552.007817	10786.544282
552.366022	10741.859494
552.724173	10736.420089
553.082267	10725.755528
553.440305	10857.831238
553.798288	10657.195836
554.156215	10810.386419
554.514086	10790.932606
554.871902	10635.740685
555.229661	10672.382312
555.587365	10645.855760
555.945014	10546.013188
556.302606	10672.468011
556.660143	10568.244676
557.017625	10721.667152
557.375050	10619.437593
557.732421	10747.409804
558.089735	10658.330095
558.446994	10663.446867
558.804197	10701.305932
559.161345	10700.547238
559.518437	10550.121728
559.875474	10636.574996
560.232455	10667.101703
560.589381	10618.510021
560.946251	10616.798549
561.303065	10727.126722
561.659825	10656.104426
562.016528	10586.957439
562.373177	10467.701383
562.729770	10583.393343
563.086307	10500.857052
563.442789	10598.554614
563.799216	10464.301125
564.155587	10525.067193
564.511904	10475.298402
564.868164	10471.041148
565.224370	10478.323094
565.580520	10404.475232
565.936615	10414.040821
566.292654	10280.808166
566.648638	10406.158977
567.004567	10368.425941
567.360441	10352.347180
567.716260	10263.227142
568.072023	10357.476554
568.427732	10304.521754
568.783385	10213.549092
569.138982	10285.960225
569.494525	10304.594851
569.850013	10176.383185
570.205445	10261.130022
570.560823	10152.432663
570.916145	10077.858874
571.271412	10141.873966
571.626625	10084.102343
571.981782	10065.271113
572.336884	10036.755826
572.691931	10043.969717
573.046923	9995.526749
573.401860	9947.270304
573.756743	9882.143638
574.111570	9923.629813
574.466342	9909.386033
574.821059	9936.615826
575.175722	9833.572120
575.530330	9834.923150
575.884882	9829.236728
576.239380	9756.790306
576.593823	9737.162574
576.948211	9747.396116
577.302544	9630.290112
577.656823	9641.965424
578.011047	9645.776537
578.365216	9621.319379
578.719330	9543.665445
579.073389	9554.405623
579.427394	9507.069189
579.781344	9485.777875
580.135239	9433.657386
580.489080	9441.219117
580.842866	9343.123304
581.196597	9353.104788
581.550273	9389.703565
581.903895	9359.002938
582.257463	9424.638762
582.610975	9298.773753
582.964434	9327.795676
583.317837	9249.856917
583.671186	9227.900171
584.024481	9227.524605
584.377721	9150.180702
584.730906	9126.648596
585.084037	9158.382659
585.437113	9083.791227
585.790135	9109.294424
586.143103	9009.109053
586.496016	8983.772214
586.848874	9034.695429
587.201679	9026.233853
587.554428	8911.025843
587.907124	8961.389491
588.259765	8932.034852
588.612352	8932.249101
588.964884	8811.498343
589.317362	8826.233635
589.669786	8822.861103
590.022155	8871.336839
590.374470	8888.862410
590.726731	8831.589861
591.078937	8675.755193
591.431090	8791.187534
591.783188	8662.766660
592.135232	8656.550917
592.487222	8653.226277
592.839157	8705.233340
593.191038	8637.374368
593.542866	8585.495854
593.894639	8489.857604
594.246358	8536.884008
594.598022	8556.189106
594.949633	8457.080022
595.301190	8427.259076
595.652692	8456.961554
596.004141	8568.378616
596.355535	8341.456117
596.706876	8322.367788
597.058162	8257.321780
597.409395	8338.461672
597.760573	8399.368892
598.111698	8303.014798
598.462768	8294.545660
598.813785	8254.919670
599.164748	8223.788024
599.515657	8212.084986
599.866511	8126.917212
600.217312	8249.777693
600.568060	8113.535469
600.918753	8218.482210
601.269392	8184.174637
601.619978	8096.473684
601.970510	8158.028693
602.320988	8159.881317
602.671412	8208.500725
603.021783	8147.477558
603.372100	8121.820606
603.722363	8126.990309
604.072572	8100.284796
604.422728	8109.613452
604.772830	8044.393524
605.122878	8041.260447
605.472872	8041.026033
605.822813	8074.411074
606.172701	8015.427054
606.522534	8084.987415
606.872314	8090.865400
607.222041	8060.903302
607.571714	8117.424719
607.921333	8075.804953
608.270899	8076.452742
608.620411	8173.956219
608.969870	8072.356804
609.319276	8065.712563
609.668627	8085.254596
610.017926	8118.294318
610.367171	8163.687388
610.716362	8144.841035
611.065500	8130.277141
611.414585	8153.552148
611.763616	8144.899008
612.112594	8128.681616
612.461518	8150.177096
612.810389	8202.685754
613.159207	8151.785224
613.507971	8094.532840
613.856682	8211.487609
614.205340	8167.458171
614.553945	8252.162159
614.902496	8143.989080
615.250994	8202.968059
615.599439	8182.687497
615.947830	8199.998819
616.296169	8170.127462
616.644454	8186.521295
616.992686	8182.984925
617.340864	8238.951815
617.688990	8141.077813
618.037063	8231.241370
618.385082	8178.768000
618.733048	8261.488293
619.080961	8202.242133
619.428821	8223.878765
619.776628	8225.295329
620.124382	8176.471754
620.472083	8158.663878
620.819731	8190.135802
621.167326	8082.895336
621.514868	8094.394208
621.862357	7977.005900
622.209793	7997.551122
622.557176	7924.585461
622.904506	7901.449086
623.251783	7834.227820
623.599007	7786.104965
623.946179	7792.189638
624.293297	7748.457628
624.640363	7665.578538
624.987376	7649.499778
625.334336	7599.173939
625.681243	7544.416926
626.028097	7533.770009
626.374899	7509.315372
626.721647	7504.107860
627.068343	7437.514218
627.414987	7406.420381
627.761577	7360.745007
628.108115	7399.060296
628.454600	7294.360572
628.801032	7340.678694
629.147412	7304.556306
629.493739	7290.572145
629.840014	7229.521251
630.186236	7284.253059
630.532405	7168.193094
630.878521	7215.590023
631.224585	7174.701224
631.570597	7105.100533
631.916556	7135.450800
632.262462	7129.499718
632.608316	7090.488749
632.954117	7070.303969
633.299866	7058.605971
633.645562	7047.402007
633.991206	6966.501570
634.336797	6910.494351
634.682336	6870.336519
635.027823	6836.827970
635.373257	6830.161044
635.718639	6756.900475
636.063968	6772.361694
636.409245	6664.382699
636.754470	6666.626013
637.099642	6624.144209
637.444762	6571.360808
637.789829	6579.812302
638.134845	6516.351737
638.479808	6503.665674
638.824719	6509.311766
639.169577	6437.863492
639.514383	6456.583817
639.859137	6383.797117
640.203839	6392.165433
640.548489	6380.018773
640.893086	6354.046748
641.237632	6326.547254
641.582125	6348.531726
641.926566	6319.048537
642.270955	6327.016081
642.615292	6325.418035
642.959576	6342.938566
643.303809	6332.974725
643.647990	6338.555282
643.992118	6328.009188
644.336195	6276.843998
644.680219	6298.213449
645.024192	6289.214989
645.368112	6380.764863
645.711981	6404.657412
646.055797	6483.536346
646.399562	6441.737619
646.743274	6569.089768
647.086935	6624.189580
647.430544	6617.315967
647.774101	6636.487475
648.117606	6641.165665
648.461059	6636.031250
648.804460	6592.999961
649.147810	6500.633420
649.491108	6476.125850
649.834354	6451.497293
650.177548	6362.959508
650.520690	6284.937570
650.863781	6260.724908
651.206820	6278.076560
651.549807	6198.171751
651.892742	6142.446836
652.235626	6149.186859
652.578458	6136.644468
652.921238	6044.305653
653.263967	6086.558084
653.606644	6023.825965
653.949269	6028.363004
654.291843	5970.011648
654.634365	6013.794069
654.976836	5967.284384
655.319255	5968.330423
655.661622	5946.769408
656.003938	5943.119613
656.346203	5907.473614
656.688416	5937.743222
657.030577	5889.620368
657.372687	5856.517631
657.714746	5842.248645
658.056753	5889.653135
658.398708	5827.387323
658.740612	5820.924564
659.082465	5866.025247
659.424266	5858.387899
659.766016	5857.036870
660.107715	5836.461400
660.449362	5844.794428
660.790958	5844.081104
661.132503	5824.254246
661.473996	5867.724116
661.815438	5851.937743
662.156829	5845.837947
662.498168	5841.406772
662.839456	5816.309388
663.180693	5854.400346
663.521879	5854.168453
663.863013	5843.014900
664.204097	5859.577611
664.545129	5901.464559
664.886110	5898.023971
665.227040	5935.983860
665.567918	5899.468262
665.908746	5923.005409
666.249522	5932.334064
666.590248	5915.128606
666.930922	5945.428461
667.271545	5960.385565
667.612118	5962.578467
667.952639	5930.788951
668.293109	5954.817610
668.633528	5914.006949
668.973896	5916.567856
669.314213	5907.811371
669.654480	5890.913424
669.994695	5876.500765
670.334859	5872.578747
670.674973	5862.093147
671.015035	5865.611873
671.355047	5868.893664
671.695008	5851.418504
672.034918	5828.561912
672.374777	5840.832081
672.714585	5824.617209
673.054342	5829.156768
673.394049	5822.066386
673.733705	5852.940932
674.073310	5840.769066
674.412864	5800.149969
674.752368	5790.987672
675.091820	5794.652591
675.431223	5727.431325
675.770574	5727.776644
676.109875	5683.245612
676.449125	5686.043452
676.788324	5652.723946
677.127473	5597.430050
677.466571	5587.554429
677.805619	5578.692081
678.144616	5564.032405
678.483562	5545.173449
678.822458	5511.150702
679.161303	5505.214743
679.500098	5497.239638
679.838842	5480.750023
680.177535	5482.322863
680.516179	5503.236090
680.854771	5512.353017
681.193314	5593.475264
681.531805	5700.040216
681.870247	5852.434296
682.208638	5951.039266
682.546978	5963.896728
682.885268	5943.207833
683.223508	5855.834555
683.561697	5808.404859
683.899836	5778.236073
684.237925	5729.180605
684.575963	5693.317837
684.913951	5651.012474
685.251889	5714.039500
685.589776	5688.125448
685.927614	5656.230068
686.265401	5725.858485
686.603137	5710.944231
686.940824	5786.848885
687.278460	5811.621115
687.616046	5820.980017
687.953582	5886.169698
688.291068	5868.114805
688.628504	5935.555362
688.965889	5898.449949
689.303224	5835.130536
689.640510	5791.716119
689.977745	5719.856991
690.314930	5618.272700
690.652065	5556.009409
690.989150	5467.491789
691.326185	5392.597887
691.663170	5338.203837
692.000105	5264.413947
692.336990	5183.989899
692.673825	5160.495602
693.010610	5090.899952
693.347345	5021.644581
693.684030	5012.063868
694.020665	4967.006035
694.357251	4879.451275
694.693786	4888.606010
695.030272	4853.297769
695.366707	4816.711595
695.703093	4783.835710
696.039429	4807.319925
696.375716	4789.070948
696.711952	4767.041106
697.048139	4753.707254
697.384276	4731.400148
697.720363	4745.154936
698.056400	4755.433849
698.392388	4704.283782
698.728326	4683.914999
699.064214	4659.929189
699.400053	4657.779137
699.735842	4623.479127
700.071581	4598.124643
700.407270	4571.885438
700.742910	4552.534968
701.078501	4502.819109
701.414042	4496.782328
701.749533	4465.391062
702.084974	4403.074839
702.420366	4458.870330
702.755709	4401.262544
703.091002	4344.824307
703.426246	4391.371801
703.761440	4346.008978
704.096584	4310.249553
704.431679	4334.217719
704.766725	4318.877488
705.101721	4305.606650
705.436668	4336.100590
705.771565	4280.413484
706.106413	4310.831806
706.441212	4345.459492
706.775961	4352.305379
707.110661	4332.087831
707.445311	4361.676884
707.779913	4383.653794
708.114465	4394.328437
708.448967	4419.032612
708.783421	4480.602744
709.117825	4521.221841
709.452180	4526.361298
709.786485	4574.471549
710.120742	4658.222759
710.454949	4640.901354
710.789107	4707.931056
711.123216	4781.587355
711.457275	4772.593937
711.791286	4850.278117
712.125247	4866.034244
712.459159	4769.435654
712.793023	4844.405173
713.126837	4803.307167
713.460602	4796.171413
713.794318	4711.782498
714.127985	4721.726174
714.461602	4636.079491
714.795171	4607.705356
715.128691	4542.112383
715.462162	4484.471830
715.795584	4434.065333
716.128957	4417.595883
716.462281	4366.387842
716.795556	4335.717462
717.128782	4298.664981
717.461960	4233.684508
717.795088	4245.498452
718.128167	4203.732493
718.461198	4142.051455
718.794180	4141.012977
719.127113	4119.756952
719.459997	4094.830967
719.792833	4052.298752
720.125619	4045.873801
720.458357	4010.152185
720.791046	4012.594624
721.123686	3989.014627
721.456278	3946.976445
721.788821	3963.496306
722.121315	3936.992440
722.453761	3910.566711
722.786158	3923.187240
723.118506	3943.858491
723.450805	3900.043303
723.783056	3922.637754
724.115259	3937.413376
724.447412	3939.722225
724.779518	3933.929939
725.111574	3941.554684
725.443582	3968.217347
725.775542	3954.150007
726.107453	4005.199251
726.439315	4003.487780
726.771129	4021.893032
727.102895	4057.791089
727.434612	4107.219602
727.766281	4115.454327
728.097901	4116.621354
728.429473	4120.664360
728.760996	4126.280205
729.092471	4124.604021
729.423897	4109.072226
729.755276	4111.991054
730.086606	4111.489460
730.417887	4152.645440
730.749120	4218.818146
731.080305	4279.511117
731.411442	4308.601096
731.742530	4277.640849
732.073570	4279.743010
732.404562	4333.297708
732.735506	4324.349660
733.066401	4289.684166
733.397249	4226.296697
733.728048	4146.553205
734.058798	4063.240576
734.389501	3994.567458
734.720156	3928.712345
735.050762	3886.379255
735.381320	3876.803583
735.711831	3830.984536
736.042293	3798.280051
736.372707	3819.493226
736.703073	3791.650933
737.033391	3786.241775
737.363661	3805.262049
737.693883	3829.857838
738.024056	3834.513344
738.354182	3828.806758
738.684260	3896.068353
739.014290	3914.503852
739.344272	3911.184253
739.674207	3955.289308
740.004093	3958.210656
740.333931	3955.677477
740.663722	3952.272177
740.993464	3950.061631
741.323159	3926.776542
741.652806	3896.315369
741.982405	3871.638921
742.311956	3840.615661
742.641460	3828.098476
742.970915	3805.824137
743.300323	3767.617232
743.629683	3729.110379
743.958996	3718.831466
744.288260	3695.231304
744.617477	3657.518432
744.946647	3647.809170
745.275768	3620.327320
745.604842	3623.427629
745.933869	3571.617171
746.262847	3563.115265
746.591778	3600.603805
746.920662	3574.004157
747.249498	3537.644835
747.578286	3584.673759
747.907027	3605.561780
748.235720	3603.237808
748.564365	3626.878299
748.892963	3628.042806
749.221514	3611.066720
749.550017	3586.541507
749.878473	3586.387752
750.206881	3556.864234
750.535242	3551.560940
750.863555	3554.930952
751.191821	3548.717729
751.520039	3530.844318
751.848210	3509.326153
752.176334	3544.105074
752.504411	3551.122360
752.832440	3507.244157
753.160421	3492.239162
753.488356	3498.152436
753.816243	3510.798170
754.144082	3471.341059
754.471875	3454.186013
754.799620	3472.835761
755.127318	3463.902837
755.454969	3468.507931
755.782572	3473.370123
756.110129	3446.170578
756.437638	3434.225564
756.765100	3451.670477
757.092515	3459.567444
757.419882	3466.751088
757.747203	3440.774023
758.074477	3443.309723
758.401703	3457.505612
758.728882	3481.907317
759.056014	3485.163903
759.383099	3491.901405
759.710138	3488.904439
760.037129	3504.912623
760.364073	3536.407232
760.690970	3521.616486
761.017820	3494.396776
761.344623	3513.616175
761.671379	3561.194585
761.998088	3613.516721
762.324751	3739.827872
762.651366	3988.369359
762.977935	4462.631031
763.304456	4906.628135
763.630931	5002.425182
763.957359	4641.256756
764.283740	4295.484013
764.610074	4105.490487
764.936362	3907.789036
765.262602	3749.171650
765.588796	3636.143940
765.914943	3545.350239
766.241044	3459.655664
766.567097	3426.532763
766.893104	3381.716905
767.219064	3351.971577
767.544978	3324.910663
767.870845	3267.716252
768.196665	3250.964498
768.522438	3258.793410
768.848165	3250.551123
769.173846	3218.310424
769.499479	3199.484235
769.825066	3183.813808
770.150607	3164.092814
770.476101	3182.611493
770.801548	3178.979342
771.126949	3130.407824
771.452303	3112.554578
771.777611	3120.678397
772.102872	3125.248203
772.428087	3101.915223
772.753256	3092.324428
773.078378	3083.451997
773.403453	3048.988149
773.728482	3040.082950
774.053465	3056.761608
774.378401	3048.552089
774.703291	3015.020854
775.028135	3016.339116
775.352932	3012.223014
775.677683	2998.395129
776.002388	2996.103924
776.327046	2996.822289
776.651658	2988.769045
776.976224	2973.522076
777.300743	2973.161633
777.625216	2965.000005
777.949643	2959.858028
778.274024	2962.050930
778.598359	2951.928293
778.922647	2960.437761
779.246889	2956.679581
779.571086	2944.429577
779.895236	2935.526899
780.219339	2946.614917
780.543397	2956.167903
780.867409	2962.670992
781.191374	2957.647482
781.515294	2950.983077
781.839167	2953.770835
782.162995	2943.794391
782.486776	2953.160855
782.810511	2948.293621
783.134201	2936.094029
783.457844	2943.867488
783.781441	2934.236364
784.104993	2914.464958
784.428498	2915.876481
784.751958	2929.106990
785.075372	2921.900660
785.398739	2905.554719
785.722061	2920.174065
786.045337	2935.509255
786.368568	2922.359405
786.691752	2910.754669
787.014891	2959.754684
787.337983	2988.277533
787.661030	3016.961698
787.984031	3085.254209
788.306987	3130.982516
788.629897	3123.007411
788.952760	3108.161213
789.275579	3095.152515
789.598351	3032.692619
789.921078	2988.529591
790.243759	2981.361070
790.566395	2961.977833
790.888984	2936.409101
791.211529	2922.903850
791.534027	2913.970925
791.856480	2900.984913
792.178888	2885.228787
792.501249	2876.545399
792.823566	2875.630430
793.145836	2871.216899
793.468062	2867.879656
793.790241	2865.238091
794.112375	2870.425438
794.434464	2885.909342
794.756507	2891.252965
795.078505	2894.161711
795.400457	2908.629823
795.722364	2948.449897
796.044226	2969.103504
796.366042	2974.510142
796.687812	2960.253759
797.009538	2982.437356
797.331218	2971.324133
797.652852	2956.382153
797.974442	2937.213165
798.295986	2934.400201
798.617484	2928.113882
798.938938	2913.161820
799.260346	2894.582648
799.581709	2890.995867
799.903026	2885.508571
800.224299	2879.640668
800.545526	2870.952239
800.866708	2851.979856
801.187845	2844.289576
801.508936	2845.834690
801.829983	2851.707634
802.150984	2841.030470
802.471940	2825.783500
802.792851	2826.887513
803.113717	2828.697287
803.434538	2831.361537
803.755314	2826.582523
804.076045	2820.954075
804.396731	2817.274033
804.717372	2817.707572
805.037967	2816.875782
805.358518	2820.381904
805.679024	2832.379850
805.999485	2827.250476
806.319901	2833.151147
806.640272	2824.316525
806.960598	2831.623677
807.280879	2838.381344
807.601115	2849.108919
807.921306	2832.962103
808.241453	2830.630570
808.561554	2835.354131
808.881611	2839.238340
809.201623	2832.314315
809.521590	2829.990343
809.841513	2824.440033
810.161390	2831.089315
810.481223	2822.786534
810.801011	2816.490133
811.120755	2811.759010
811.440453	2812.472334
811.760107	2813.072231
812.079716	2811.431335
812.399281	2802.415232
812.718801	2797.560601
813.038276	2789.567851
813.357707	2796.070940
813.677093	2803.015129
813.996434	2798.609161
814.315731	2793.129426
814.634983	2788.428550
814.954191	2791.087759
815.273354	2805.671817
815.592473	2811.494350
815.911547	2815.721357
816.230577	2821.553972
816.549562	2832.896568
816.868502	2832.268945
817.187399	2842.056345
817.506250	2859.972606
817.825058	2850.994311
818.143821	2863.645086
818.462539	2878.856768
818.781213	2902.530027
819.099843	2944.865637
819.418429	3001.407218
819.736970	3065.606312
820.055466	3139.645739
820.373919	3243.133066
820.692327	3386.057339
821.010691	3556.178637
821.329011	4005.647914
821.647286	4911.457561
821.965517	6305.636548
822.283704	7059.848616
822.601847	7043.991666
822.919945	6403.845786
823.237999	5890.066510
823.556010	5295.916118
823.873976	4739.090428
824.191897	4321.216583
824.509775	4027.992828
824.827609	3753.338164
825.145398	3630.757467
825.463144	3619.039305
825.780845	3708.338304
826.098502	3815.440138
826.416116	4098.437912
826.733685	4424.877830
827.051210	4492.424250
827.368692	4372.084346
827.686129	4102.828757
828.003522	3771.113272
828.320872	3513.603572
828.638177	3314.873726
828.955439	3173.711336
829.272656	3089.750919
829.589830	3023.331196
829.906960	2972.463433
830.224046	2928.015580
830.541088	2893.733213
830.858086	2876.724360
831.175041	2860.252390
831.491952	2860.943028
831.808819	2873.583721
832.125642	2895.968965
832.442421	2943.822118
832.759157	3027.780014
833.075849	3207.116542
833.392497	3491.336796
833.709101	3694.994370
834.025662	3646.339674
834.342179	3485.113491
834.658653	3305.988692
834.975083	3154.065959
835.291469	3059.035168
835.607811	2971.787919
835.924110	2910.006058
836.240366	2863.261959
836.556578	2817.594146
836.872746	2793.918367
837.188871	2770.043462
837.504952	2754.950248
837.820990	2745.787951
838.136984	2731.206413
838.452935	2724.327759
838.768842	2719.989846
839.084706	2741.979359
839.400526	2820.296204
839.716303	2954.950465
840.032037	3037.282589
840.347727	3022.247348
840.663373	2960.697380
840.978977	2882.388096
841.294537	2813.223466
841.610054	2763.464757
841.925527	2742.009606
842.240957	2716.198898
842.556344	2696.021680
842.871687	2678.816222
843.186987	2672.371107
843.502244	2663.539005
843.817458	2660.499189
844.132629	2648.927221
844.447756	2637.897176
844.762840	2634.181846
845.077881	2635.742083
845.392879	2634.454068
845.707833	2631.021042
846.022745	2622.176338
846.337613	2626.058026
846.652438	2623.519805
846.967221	2624.270937
847.281960	2622.738426
847.596656	2622.574589
847.911309	2620.880761
848.225919	2617.152828
848.540485	2616.910852
848.855009	2616.391614
849.169490	2616.094186
849.483928	2616.114350
849.798323	2612.918259
850.112675	2611.660491
850.426984	2612.015892
850.741251	2612.252826
851.055474	2610.054883
851.369654	2616.583177
851.683792	2613.704679
851.997887	2611.783999
852.311938	2613.823146
852.625947	2613.490430
852.939914	2614.755759
853.253837	2615.811881
853.567718	2613.208125
853.881555	2611.380707
854.195350	2615.075872
854.509103	2611.844493
854.822812	2611.305089
855.136479	2609.855758
855.450103	2612.701489
855.763685	2616.245420
856.077224	2610.354832
856.390720	2609.926334
856.704173	2613.228290
857.017584	2616.477313
857.330953	2619.993518
857.644278	2616.923455
857.957561	2620.631224
858.270802	2615.743825
858.584000	2615.637961
858.897155	2616.404217
859.210268	2619.270112
859.523339	2614.702827
859.836367	2610.145624
860.149352	2610.690069
860.462295	2611.897425
860.775195	2607.841817
861.088054	2606.780654
861.400869	2609.354163
861.713642	2606.735283
862.026373	2605.729573
862.339062	2609.628906
862.651708	2614.044957
862.964312	2615.335492
863.276873	2614.733074
863.589392	2616.250461
863.901869	2622.874537
864.214303	2625.811010
864.526696	2628.603809
864.839045	2630.716052
865.151353	2636.195787
865.463619	2631.845271
865.775842	2636.742752
866.088023	2632.402318
866.400162	2633.622277
866.712258	2631.646145
867.024313	2633.297123
867.336325	2628.787811
867.648296	2629.455764
867.960224	2636.788122
868.272110	2635.795015
868.583954	2626.715897
868.895755	2629.014663
869.207515	2633.173615
869.519233	2642.189718
869.830909	2637.710653
870.142542	2632.926598
870.454134	2633.965076
870.765684	2639.711991
871.077191	2640.584111
871.388657	2645.292549
871.700081	2644.052425
872.011463	2644.750625
872.322803	2645.189205
872.634101	2648.710451
872.945357	2655.334527
873.256571	2659.891730
873.567744	2658.931390
873.878874	2654.860659
874.189963	2660.322749
874.501010	2663.123110
874.812015	2666.178049
875.122979	2668.403718
875.433900	2659.427944
875.744780	2659.022131
876.055618	2663.715445
876.366415	2669.772392
876.677169	2668.877587
876.987882	2663.402894
877.298554	2662.634118
877.609183	2671.609892
877.919771	2680.220183
878.230317	2685.251255
878.540822	2696.200641
878.851285	2711.452652
879.161707	2735.846795
879.472087	2777.090995
879.782425	2825.796103
880.092722	2942.191304
880.402977	3133.019142
880.713191	3401.634504
881.023363	3701.016028
881.333494	3900.343251
881.643583	4068.674940
881.953631	4069.264755
882.263637	3892.552148
882.573602	3667.446985
882.883526	3531.756767
883.193408	3414.907862
883.503248	3311.574291
883.813048	3190.495858
884.122806	3076.182653
884.432522	2988.209477
884.742197	2919.483427
885.051831	2883.834908
885.361424	2845.746470
885.670975	2811.191881
885.980485	2780.773558
886.289954	2758.484097
886.599382	2749.203332
886.908768	2734.548698
887.218113	2714.265616
887.527417	2701.163657
887.836680	2691.119158
888.145901	2687.323169
888.455082	2679.096006
888.764221	2666.813234
889.073319	2660.829385
889.382376	2658.137409
889.691392	2657.701349
890.000366	2663.236536
890.309300	2657.966009
890.618193	2659.697646
890.927044	2664.244767
891.235855	2665.439520
891.544625	2662.112358
891.853353	2662.583706
892.162041	2671.796415
892.470687	2689.493386
892.779293	2704.508462
893.087858	2712.735625
893.396381	2735.357803
893.704864	2778.787344
894.013306	2850.971626
894.321707	2944.883281
894.630068	2997.742299
894.938387	3018.837007
895.246665	3013.962212
895.554903	2968.793473
895.863100	2921.083993
896.171256	2863.256917
896.479371	2802.909265
896.787446	2759.797317
897.095480	2742.906931
897.403473	2733.474932
897.711425	2718.633775
898.019336	2699.822710
898.327207	2685.241172
898.635038	2682.491223
898.942827	2684.595905
899.250576	2669.661486
899.558284	2660.466422
899.865952	2653.607932
900.173579	2654.742192
900.481165	2650.923517
900.788711	2641.481436
901.096216	2636.331898
901.403681	2633.375261
901.711105	2632.450209
902.018489	2629.899385
902.325832	2633.652524
902.633135	2637.803915
902.940397	2653.759167
903.247619	2689.495906
903.554800	2761.770929
903.861941	2892.157853
904.169041	3025.400590
904.476101	3087.946186
904.783121	3083.313365
905.090100	3022.781710
905.397039	2947.217335
905.703938	2869.931405
906.010796	2804.638381
906.317614	2751.118971
906.624391	2714.938610
906.931129	2685.586491
907.237826	2662.510610
907.544483	2644.440594
907.851099	2626.683129
908.157675	2621.576440
908.464211	2614.717951
908.770707	2597.963676
909.077163	2598.649273
909.383578	2591.868921
909.689954	2591.979826
909.996289	2589.970926
910.302584	2589.933118
910.608839	2586.835329
910.915054	2587.238621
911.221229	2590.016297
911.527363	2589.171903
911.833458	2590.349013
912.139513	2591.747933
912.445527	2595.775815
912.751502	2599.922164
913.057436	2606.505911
913.363331	2612.756942
913.669186	2619.348250
913.975000	2636.483132
914.280775	2655.127840
914.586510	2673.457475
914.892205	2710.925851
915.197859	2779.404885
915.503475	2868.068699
915.809050	2938.271807
916.114585	2953.090279
916.420081	2967.722228
916.725536	2981.224959
917.030952	2948.349074
917.336328	2903.550860
917.641665	2849.441635
917.946961	2797.893317
918.252218	2763.915940
918.557435	2734.901579
918.862612	2712.652446
919.167750	2693.967410
919.472848	2675.819256
919.777906	2658.258396
920.082925	2646.714154
920.387904	2634.953142
920.692843	2631.454581
920.997743	2628.598768
921.302603	2620.560648
921.607423	2611.307610
921.912204	2607.383072
922.216946	2603.329984
922.521647	2601.563060
922.826310	2598.268666
923.130932	2593.824888
923.435516	2585.635534
923.740059	2586.527818
924.044564	2581.829463
924.349028	2581.073290
924.653454	2572.765468
924.957840	2569.834037
925.262186	2567.913358
925.566493	2570.554922
925.870761	2562.516803
926.174989	2565.554098
926.479178	2564.601320
926.783328	2564.508058
927.087438	2562.446226
927.391509	2561.264076
927.695541	2560.278530
927.999533	2558.980433
928.303486	2557.853735
928.607400	2555.353323
928.911275	2555.058415
929.215110	2555.134033
929.518906	2556.999260
929.822663	2556.275854
930.126381	2554.430792
930.430060	2555.290308
930.733699	2556.643858
931.037299	2556.797613
931.340861	2557.175700
931.644383	2558.141081
931.947866	2557.490772
932.251309	2556.875751
932.554714	2553.775442
932.858080	2557.422717
933.161407	2554.413148
933.464694	2555.471790
933.767943	2555.771739
934.071153	2553.414999
934.374323	2553.102448
934.677455	2553.351985
934.980548	2551.713610
935.283602	2551.827036
935.586617	2551.781665
935.889593	2552.368960
936.192530	2549.435008
936.495428	2554.234187
936.798287	2550.725544
937.101108	2556.979095
937.403890	2559.666030
937.706632	2563.151988
938.009336	2565.004612
938.312002	2571.674058
938.614628	2571.520303
938.917216	2575.926272
939.219765	2575.328895
939.522275	2578.381314
939.824747	2577.035326
940.127179	2571.207752
940.429573	2566.312791
940.731929	2568.740107
941.034246	2565.312122
941.336524	2567.968810
941.638763	2563.585527
941.940964	2566.244736
942.243126	2564.926474
942.545250	2562.882286
942.847335	2561.059909
943.149381	2560.026473
943.451389	2559.131668
943.753359	2559.976061
944.055290	2558.619991
944.357182	2559.171997
944.659036	2556.515309
944.960851	2556.601008
945.262628	2554.922304
945.564367	2557.309291
945.866067	2555.970864
946.167729	2556.822819
946.469352	2558.451112
946.770937	2559.310629
947.072484	2554.715617
947.373992	2556.689229
947.675462	2557.868859
947.976893	2553.674619
948.278286	2552.469783
948.579641	2557.160577
948.880958	2550.730585
949.182236	2554.123281
949.483476	2555.605381
949.784678	2553.213353
950.085841	2551.610266
950.386967	2554.357695
950.688054	2552.573127
950.989103	2556.575803
951.290114	2557.132850
951.591087	2557.642007
951.892021	2557.624363
952.192917	2560.444888
952.493776	2557.584033
952.794596	2560.260886
953.095378	2561.080074
953.396122	2562.264745
953.696828	2557.427758
953.997496	2560.041596
954.298126	2558.067984
954.598718	2556.956410
954.899272	2555.829712
955.199788	2555.625545
955.500266	2551.217056
955.800706	2550.869217
956.101108	2544.509801
956.401472	2545.462579
956.701798	2543.219266
957.002087	2542.649615
957.302337	2544.744215
957.602550	2543.544420
957.902724	2542.276570
958.202861	2543.284801
958.502960	2542.662218
958.803022	2542.067362
959.103045	2537.729449
959.403031	2540.998637
959.702979	2537.721887
960.002889	2541.182639
960.302762	2538.956970
960.602596	2537.948739
960.902393	2536.907741
961.202153	2538.294058
961.501875	2537.265663
961.801559	2538.208359
962.101205	2539.287166
962.400814	2536.743903
962.700385	2537.918492
962.999918	2536.665766
963.299414	2539.075437
963.598873	2538.503266
963.898293	2539.755993
964.197677	2537.311033
964.497022	2539.138452
964.796331	2535.839016
965.095601	2535.342463
965.394835	2539.282124
965.694030	2535.685261
965.993189	2537.263142
966.292309	2535.765920
966.591393	2535.685261
966.890439	2535.796167
967.189447	2537.515200
967.488419	2537.152237
967.787353	2534.261135
968.086249	2536.186856
968.385108	2535.589479
968.683930	2536.370858
968.982714	2534.649304
969.281462	2534.160312
969.580172	2535.292051
969.878844	2537.169881
970.177480	2534.727442
970.476078	2535.458409
970.774639	2538.271373
971.073162	2535.796167
971.371649	2533.694005
971.670098	2533.303316
971.968510	2535.758358
972.266885	2535.939839
972.565223	2536.869932
972.863524	2538.359593
973.161788	2537.081661
973.460014	2539.259439
973.758204	2538.024357
974.056356	2536.970755
974.354471	2537.810107
974.652550	2538.586445
974.950591	2539.088040
975.248595	2539.115766
975.546563	2538.251208
975.844493	2536.655683
976.142386	2536.224665
976.440243	2534.329191
976.738062	2538.863709
977.035845	2537.182484
977.333590	2537.472350
977.631299	2534.147709
977.928971	2535.402957
978.226606	2532.375744
978.524204	2538.031918
978.821765	2535.234078
979.119290	2535.602082
979.416777	2532.252235
979.714228	2535.929757
980.011642	2532.458923
980.309020	2536.489325
980.606360	2534.762730
980.903664	2535.576876
981.200931	2537.159799
981.498162	2538.024357
981.795356	2539.617361
982.092513	2545.129863
982.389633	2544.529966
982.686717	2549.646737
982.983764	2548.963660
983.280775	2552.920966
983.577749	2550.092879
983.874686	2552.938610
984.171587	2546.894267
984.468451	2543.620037
984.765279	2546.261602
985.062070	2542.407640
985.358824	2539.307330
985.655543	2539.330015
985.952224	2539.050231
986.248869	2534.561084
986.545478	2531.075126
986.842050	2534.649304
987.138586	2532.017822
987.435086	2530.550846
987.731549	2528.310053
988.027975	2531.833820
988.324366	2533.499921
988.620719	2534.359438
988.917037	2531.896834
989.213318	2533.242822
989.509563	2531.115455
989.805772	2529.940866
990.101944	2532.310209
990.398080	2534.467823
990.694180	2531.927081
990.990244	2531.259128
991.286271	2536.151568
991.582262	2532.811803
991.878217	2532.768954
992.174136	2532.963038
992.470019	2532.095960
992.765865	2532.189221
993.061676	2531.090249
993.357450	2534.374561
993.653188	2534.064530
993.948890	2534.777853
994.244556	2533.777184
994.540186	2534.800539
994.835780	2533.482277
995.131337	2533.608306
995.426859	2536.630478
995.722345	2532.549663
996.017795	2537.946219
996.313208	2538.175591
996.608586	2539.748431
996.903928	2538.699871
997.199234	2537.051414
997.494504	2537.553009
997.789738	2534.067051
998.084936	2536.822041
998.380099	2536.953111
998.675225	2535.344983
998.970316	2532.685775
999.265371	2531.415404
999.560390	2534.336753
999.855373	2533.179808
1000.150320	2531.440610
1000.445232	2533.383974
1000.740108	2531.559077
1001.034948	2532.811803
1001.329752	2533.391536
1001.624521	2532.189221
1001.919254	2529.267872
1002.213951	2528.375588
1002.508613	2529.189734
1002.803239	2529.300640
1003.097829	2525.920546
1003.392384	2533.046217
1003.686903	2532.247194
1003.981386	2533.071423
1004.275834	2530.286185
1004.570246	2532.894983
1004.864623	2530.644107
1005.158964	2530.404653
1005.453270	2528.720907
1005.747540	2532.910106
1006.041775	2530.235774
1006.335974	2528.289888
1006.630138	2530.054292
1006.924266	2530.684437
1007.218359	2532.552184
1007.512416	2531.788449
1007.806438	2527.974816
1008.100425	2529.817358
1008.394376	2527.921884
1008.688292	2530.215609
1008.982172	2533.240302
1009.276017	2533.439427
1009.569827	2530.795342
1009.863602	2529.913140
1010.157341	2528.231915
1010.451045	2529.915661
1010.744714	2529.708973
1011.038347	2530.429858
1011.331945	2530.565969
1011.625508	2531.221319
1011.919036	2530.316432
1012.212528	2530.419776
1012.505986	2529.920702
1012.799408	2533.575538
1013.092795	2530.071936
1013.386147	2532.045548
1013.679464	2529.804755
1013.972745	2531.228881
1014.265992	2533.368851
1014.559204	2530.767616
1014.852380	2528.577234
1015.145521	2530.651669
1015.438628	2531.697708
1015.731699	2532.985723
1016.024736	2530.381967
1016.317737	2530.634025
1016.610703	2530.205527
1016.903635	2526.729651
1017.196531	2528.241998
1017.489393	2528.345341
1017.782219	2526.621267
1018.075011	2530.276103
1018.367768	2528.766277
1018.660490	2532.489170
1018.953177	2532.489170
1019.245829	2532.489170
