Dividing Wavelength (nm)	Counts (n)	Blue Motor Position (mm): 3.400000	Red Motor Position (mm): 0.000000	
326.493990	2063.303940
326.888308	2063.303940
327.282561	2063.303940
327.676750	2040.820394
328.070874	2041.770651
328.464933	2047.678884
328.858929	2056.803372
329.252859	2066.673951
329.646726	2079.400344
330.040528	2095.879876
330.434265	2111.038626
330.827938	2134.217851
331.221547	2157.061840
331.615091	2174.564726
332.008571	2197.333097
332.401986	2216.532332
332.795338	2237.453120
333.188625	2257.068250
333.581847	2274.692124
333.975006	2292.106790
334.368100	2308.450210
334.761129	2327.863694
335.154095	2343.420695
335.546996	2356.842767
335.939833	2372.926568
336.332606	2385.600029
336.725315	2397.373644
337.117960	2409.570715
337.510540	2413.908628
337.903056	2425.954465
338.295508	2434.446289
338.687896	2437.738162
339.080220	2444.200922
339.472480	2448.906839
339.864676	2452.100410
340.256807	2454.116871
340.648875	2454.684001
341.040879	2458.288426
341.432818	2459.876390
341.824694	2461.350927
342.216506	2458.742130
342.608253	2460.201544
342.999937	2460.045268
343.391557	2456.385391
343.783113	2456.352623
344.174605	2457.212140
344.566033	2451.961778
344.957397	2450.368773
345.348697	2447.263423
345.739934	2448.690069
346.131106	2446.545058
346.522215	2444.417691
346.913260	2440.641867
347.304241	2440.926692
347.695159	2437.113059
348.086012	2437.823862
348.476802	2436.092226
348.867528	2433.380085
349.258191	2430.168870
349.648789	2430.463777
350.039324	2429.137954
350.429796	2429.551329
350.820203	2428.908582
351.210548	2429.032090
351.600828	2426.942532
351.991045	2429.873962
352.381198	2430.584765
352.771288	2431.313212
353.161314	2425.770463
353.551276	2427.456729
353.941175	2430.625094
354.331010	2427.386153
354.720782	2430.952769
355.110490	2428.694333
355.500135	2426.708118
355.889717	2428.401946
356.279235	2431.277924
356.668689	2432.155085
357.058080	2429.407656
357.447408	2428.427151
357.836672	2432.076947
358.225873	2431.865218
358.615010	2432.076947
359.004084	2434.768923
359.393095	2432.142482
359.782043	2434.630291
360.170927	2429.505958
360.559748	2434.416042
360.948505	2433.445620
361.337199	2436.586259
361.725830	2434.831937
362.114398	2438.534665
362.502903	2434.305137
362.891344	2437.435693
363.279722	2435.802359
363.668037	2437.039963
364.056289	2439.154727
364.444478	2439.888215
364.832603	2439.074068
365.220665	2438.201949
365.608665	2437.097936
365.996601	2441.362752
366.384474	2439.129521
366.772284	2439.709254
367.160031	2437.599531
367.547715	2442.146652
367.935336	2441.667742
368.322893	2436.477874
368.710388	2441.350149
369.097820	2438.975766
369.485189	2437.649942
369.872495	2441.992896
370.259738	2443.908535
370.646918	2443.500201
371.034035	2444.972218
371.421090	2442.255036
371.808081	2440.785540
372.195010	2443.227979
372.581875	2443.023812
372.968678	2445.783844
373.355418	2443.868206
373.742096	2443.336364
374.128710	2444.624379
374.515262	2445.831735
374.901751	2445.443566
375.288177	2445.367949
375.674540	2445.884667
376.060841	2446.534976
376.447079	2446.958433
376.833254	2448.576643
377.219367	2445.272167
377.605417	2446.497167
377.991404	2447.986828
378.377329	2448.374997
378.763191	2445.829214
379.148991	2450.527570
379.534727	2445.740994
379.920402	2449.083279
380.306013	2449.403393
380.691563	2448.800975
381.077049	2448.904318
381.462474	2450.053701
381.847835	2449.516818
382.233134	2450.439350
382.618371	2449.098403
383.003545	2448.077569
383.388657	2451.432457
383.773706	2452.886830
384.158693	2451.384566
384.543618	2452.372632
384.928480	2451.994546
385.313280	2449.657971
385.698017	2450.613269
386.082692	2450.930862
386.467305	2453.448918
386.851856	2451.813064
387.236344	2451.908846
387.620770	2449.804164
388.005133	2445.975408
388.389435	2448.793413
388.773674	2450.837601
389.157851	2452.642334
389.541965	2454.414299
389.926018	2457.265072
390.310008	2453.509412
390.693936	2453.481686
391.077802	2456.788683
391.461606	2453.990842
391.845348	2452.571758
392.229027	2453.728702
392.612645	2455.233487
392.996200	2454.384052
393.379694	2453.877417
393.763125	2455.246090
394.146494	2458.056533
394.529801	2456.392952
394.913047	2457.970833
395.296230	2454.870524
395.679351	2456.634928
396.062410	2457.814558
396.445408	2458.036368
396.828343	2459.049640
397.211217	2457.224743
397.594028	2460.720783
397.976778	2457.441512
398.359466	2455.979578
398.742092	2458.490072
399.124656	2456.977726
399.507158	2457.771708
399.889598	2460.766153
400.271977	2458.951338
400.654294	2460.062912
401.036549	2458.215329
401.418742	2458.190124
401.800874	2461.330763
402.182944	2459.566359
402.564952	2457.408745
402.946898	2460.103242
403.328783	2459.762964
403.710606	2460.723303
404.092367	2457.406224
404.474067	2461.056020
404.855705	2461.676082
405.237282	2460.884620
405.618797	2459.382357
406.000250	2463.569035
406.381642	2459.851184
406.762972	2461.398818
407.144240	2457.403704
407.525447	2464.030300
407.906593	2454.842797
408.287677	2462.298664
408.668700	2462.913685
409.049661	2462.328911
409.430560	2464.110959
409.811399	2462.790177
410.192176	2462.374281
410.572891	2464.252111
410.953545	2462.039045
411.334138	2465.671196
411.714669	2464.811679
412.095139	2464.955352
412.475547	2464.171453
412.855894	2466.266052
413.236180	2466.954170
413.616405	2464.907461
413.996568	2465.961062
414.376670	2462.833026
414.756711	2464.594910
415.136691	2466.369396
415.516609	2463.027111
415.896466	2465.456947
416.276262	2464.965434
416.655997	2466.757565
417.035670	2466.775209
417.415283	2465.260342
417.794834	2466.331587
418.174324	2464.940229
418.553753	2466.031638
418.933121	2465.532564
419.312428	2465.109107
419.691674	2466.984417
420.070859	2467.997688
420.449983	2465.338480
420.829045	2466.089612
421.208047	2470.364510
421.586988	2467.491052
421.965867	2467.826289
422.344686	2464.975517
422.723444	2467.919551
423.102141	2467.422997
423.480777	2468.481639
423.859352	2468.942905
424.237866	2468.814355
424.616319	2468.590024
424.994712	2469.550364
425.373044	2467.375106
425.751314	2467.370065
426.129524	2464.799076
426.507673	2466.692030
426.885762	2460.904785
427.263789	2467.657411
427.641756	2468.297637
428.019662	2470.432566
428.397508	2469.752010
428.775292	2469.149592
429.153016	2467.586834
429.530679	2468.358131
429.908282	2471.546661
430.285824	2468.700929
430.663305	2469.681434
431.040726	2471.133286
431.418086	2469.010960
431.795385	2471.413070
432.172624	2471.677731
432.549802	2472.539768
432.926920	2470.253605
433.303977	2470.314099
433.680974	2472.033132
434.057910	2469.923409
434.434786	2471.644963
434.811601	2470.732514
435.188355	2471.801239
435.565050	2471.082875
435.941683	2473.913483
436.318257	2470.009109
436.694770	2472.330560
437.071222	2473.663945
437.447614	2473.248050
437.823946	2473.106898
438.200218	2473.842906
438.576429	2472.096147
438.952580	2473.248050
439.328670	2472.534727
439.704700	2473.288379
440.080670	2473.918524
440.456580	2472.403657
440.832429	2473.744604
441.208218	2473.200159
441.583947	2470.702268
441.959616	2473.343832
442.335224	2473.605972
442.710773	2472.968266
443.086261	2470.694706
443.461689	2474.392392
443.837057	2475.607310
444.212365	2473.880715
444.587612	2473.994141
444.962800	2467.057513
445.337927	2472.612865
445.712995	2469.870477
446.088002	2473.411888
446.462949	2471.352576
446.837837	2475.637557
447.212664	2473.517752
447.587431	2473.091774
447.962139	2473.852989
448.336786	2477.459934
448.711374	2474.888946
449.085901	2475.783751
449.460369	2474.110087
449.834776	2475.798874
450.209124	2473.414408
450.583412	2475.471199
450.957640	2475.163689
451.331808	2475.340129
451.705917	2473.462299
452.079965	2476.045891
452.453954	2473.769810
452.827883	2476.582773
453.201752	2473.850468
453.575562	2475.652681
453.949311	2475.151086
454.323001	2477.245685
454.696632	2475.846765
455.070202	2473.916003
455.443713	2473.951291
455.817164	2476.234934
456.190556	2474.692341
456.563888	2477.061683
456.937160	2472.769141
457.310373	2477.903556
457.683526	2476.434059
458.056619	2477.916159
458.429653	2479.123515
458.802628	2478.654688
459.175542	2474.904069
459.548398	2475.035139
459.921194	2477.361632
460.293930	2475.251909
460.666607	2478.979842
461.039224	2475.342650
461.411782	2477.654019
461.784280	2476.444142
462.156719	2474.273925
462.529099	2476.393730
462.901419	2475.325006
463.273680	2477.096971
463.645882	2473.369038
464.018024	2475.927423
464.390106	2474.505818
464.762130	2477.086889
465.134094	2480.391365
465.505999	2477.071765
465.877845	2478.430356
466.249631	2479.955305
466.621358	2478.362301
466.993026	2476.111426
467.364634	2482.599391
467.736184	2480.504791
468.107674	2482.301962
468.479105	2477.656539
468.850477	2478.722743
469.221790	2476.202166
469.593043	2480.920686
469.964238	2478.891622
470.335373	2478.866416
470.706449	2477.001189
471.077467	2478.679893
471.448425	2479.330202
471.819324	2476.955819
472.190164	2479.156282
472.560945	2476.310551
472.931667	2479.947744
473.302330	2476.842393
473.672934	2482.571664
474.043479	2477.744759
474.413965	2481.414719
474.784393	2477.616210
475.154761	2480.172075
475.525070	2480.749287
475.895321	2478.745428
476.265513	2478.175778
476.635645	2478.964719
477.005719	2478.768114
477.375734	2483.569813
477.745691	2477.296097
478.115588	2481.364308
478.485427	2481.278608
478.855207	2480.950933
479.224928	2479.284832
479.594591	2478.135449
479.964194	2484.245327
480.333739	2479.488999
480.703226	2480.701396
481.072653	2481.686942
481.442022	2481.467652
481.811333	2479.163844
482.180584	2475.025057
482.549777	2479.829277
482.918912	2477.540593
483.287988	2482.806078
483.657005	2479.209215
484.025964	2482.440594
484.394864	2479.708289
484.763706	2480.464462
485.132489	2480.401448
485.501213	2483.519401
485.869879	2484.794813
486.238487	2481.875985
486.607036	2482.049905
486.975527	2482.924545
487.343959	2480.114102
487.712333	2480.310707
488.080648	2480.910604
488.448905	2484.061325
488.817104	2480.625779
489.185244	2482.241469
489.553326	2479.478916
489.921350	2482.979998
490.289315	2483.249699
490.657222	2482.420430
491.025070	2483.353043
491.392861	2481.223156
491.760593	2480.797178
492.128267	2483.116109
492.495883	2483.305152
492.863440	2481.316417
493.230939	2482.795996
493.598380	2484.814978
493.965763	2483.721047
494.333088	2480.209884
494.700354	2479.423464
495.067563	2481.402117
495.434713	2482.574185
495.801805	2482.995121
496.168839	2482.276757
496.535815	2482.843887
496.902733	2484.015955
497.269593	2484.028558
497.636395	2483.116109
498.003139	2482.264154
498.369825	2482.586788
498.736453	2481.475213
499.103023	2481.487816
499.469535	2482.748105
499.835989	2482.133084
500.202385	2480.177116
500.568723	2475.554378
500.935003	2481.094606
501.301226	2474.987248
501.667390	2485.054433
502.033497	2484.220122
502.399546	2483.156438
502.765537	2481.863382
503.131470	2485.571151
503.497345	2483.232055
503.863163	2484.424288
504.228923	2484.620893
504.594625	2485.528301
504.960269	2483.577374
505.325856	2484.293218
505.691385	2482.491006
506.056856	2483.642909
506.422270	2481.860862
506.787625	2481.157621
507.152924	2478.679893
507.518164	2484.411685
507.883347	2484.832622
508.248472	2482.622076
508.613540	2484.557879
508.978550	2483.504278
509.343503	2482.801037
509.708398	2484.459576
510.073236	2483.166520
510.438016	2482.932107
510.802738	2485.072077
511.167403	2483.978146
511.532010	2484.930924
511.896561	2482.385142
512.261053	2484.383959
512.625488	2483.547128
512.989866	2484.295739
513.354186	2483.963023
513.718449	2484.726757
514.082655	2485.127529
514.446803	2482.624596
514.810894	2482.654843
515.174927	2483.839514
515.538904	2484.895636
515.902822	2483.716006
516.266684	2482.541417
516.630488	2485.934114
516.994235	2482.932107
517.357925	2483.315234
517.721558	2483.315234
518.085133	2483.368167
518.448651	2481.916314
518.812112	2479.998155
519.175516	2480.202322
519.538863	2479.730974
519.902152	2480.993783
520.265385	2484.368836
520.628560	2485.694659
520.991678	2484.502426
521.354739	2484.136943
521.717743	2483.791623
522.080690	2482.556541
522.443580	2482.256592
522.806413	2485.112406
523.169189	2483.627786
523.531908	2484.066366
523.894569	2483.451346
524.257174	2488.981491
524.619722	2485.450163
524.982213	2484.499906
525.344647	2481.964205
525.707025	2484.152066
526.069345	2485.971923
526.431608	2484.721716
526.793815	2487.098620
527.155964	2485.581233
527.518057	2482.775831
527.880093	2484.625934
528.242072	2486.249186
528.603995	2487.007880
528.965860	2485.162817
529.327669	2485.510657
529.689421	2486.198774
530.051117	2485.989567
530.412755	2486.518888
530.774337	2484.361274
531.135862	2484.746922
531.497331	2483.332878
531.858743	2483.557210
532.220098	2482.143166
532.581396	2485.311531
532.942638	2486.589464
533.303824	2485.278764
533.664953	2486.844042
534.026025	2485.011583
534.387040	2483.852117
534.747999	2485.245996
535.108902	2486.092910
535.469748	2484.542755
535.830537	2488.769763
536.191270	2483.829432
536.551947	2485.301449
536.912567	2482.493526
537.273131	2482.569144
537.633638	2479.337764
537.994089	2485.984525
538.354483	2486.357571
538.714821	2484.963692
539.075103	2486.854124
539.435328	2483.181644
539.795497	2484.731799
540.155609	2483.012765
540.515665	2484.968733
540.875665	2487.655668
541.235609	2486.912098
541.595496	2484.885554
541.955328	2483.090903
542.315102	2486.271871
542.674821	2482.017137
543.034483	2486.425626
543.394090	2483.877323
543.753640	2488.021152
544.113134	2488.827736
544.472571	2486.410503
544.831953	2484.210039
545.191278	2484.699031
545.550548	2485.813126
545.909761	2485.689618
546.268918	2483.446304
546.628019	2486.564258
546.987064	2486.455873
547.346053	2484.925883
547.704986	2485.339258
548.063863	2487.814464
548.422684	2486.571820
548.781449	2482.969915
549.140158	2485.674494
549.498811	2487.872437
549.857408	2485.245996
550.215949	2487.935452
550.574434	2485.067035
550.932864	2487.015441
551.291237	2489.553662
551.649555	2486.559217
552.007817	2484.555358
552.366022	2487.398569
552.724173	2488.515185
553.082267	2485.460245
553.440305	2486.198774
553.798288	2484.802375
554.156215	2486.234063
554.514086	2484.562920
554.871902	2483.640389
555.229661	2483.839514
555.587365	2478.619400
555.945014	2485.009062
556.302606	2487.171717
556.660143	2486.932262
557.017625	2486.460914
557.375050	2486.433188
557.732421	2487.302787
558.089735	2483.395893
558.446994	2486.400421
558.804197	2487.138950
559.161345	2486.483600
559.518437	2486.292036
559.875474	2484.038640
560.232455	2486.496203
560.589381	2483.141315
560.946251	2486.203816
561.303065	2486.458394
561.659825	2486.133239
562.016528	2486.435709
562.373177	2486.375215
562.729770	2486.723054
563.086307	2485.127529
563.442789	2483.776500
563.799216	2486.541573
564.155587	2485.661892
564.511904	2486.367653
564.868164	2487.990905
565.224370	2486.591984
565.580520	2487.363281
565.936615	2488.852942
566.292654	2486.082828
566.648638	2486.274392
567.004567	2486.037458
567.360441	2487.126347
567.716260	2488.187510
568.072023	2488.048878
568.427732	2484.996459
568.783385	2484.550317
569.138982	2487.569968
569.494525	2485.684577
569.850013	2488.908395
570.205445	2483.859679
570.560823	2488.429485
570.916145	2485.402272
571.271412	2486.435709
571.626625	2485.319093
571.981782	2485.268682
572.336884	2483.695842
572.691931	2484.484782
573.046923	2482.821201
573.401860	2481.611324
573.756743	2488.505102
574.111570	2486.972592
574.466342	2486.599546
574.821059	2487.564927
575.175722	2487.179279
575.530330	2490.720689
575.884882	2487.023003
576.239380	2486.108034
576.593823	2488.280771
576.948211	2488.384115
577.302544	2487.590133
577.656823	2484.111737
578.011047	2486.811275
578.365216	2487.454022
578.719330	2485.644248
579.073389	2487.824547
579.427394	2485.132570
579.781344	2485.291367
580.135239	2486.833960
580.489080	2485.971922
580.842866	2487.297746
581.196597	2487.867396
581.550273	2485.321614
581.903895	2486.012252
582.257463	2485.654330
582.610975	2488.028713
582.964434	2487.280102
583.317837	2487.423775
583.671186	2488.406800
584.024481	2487.418734
584.377721	2487.638024
584.730906	2488.142139
585.084037	2488.933600
585.437113	2488.384115
585.790135	2486.498723
586.143103	2486.554176
586.496016	2485.364463
586.848874	2488.384115
587.201679	2489.798158
587.554428	2485.727427
587.907124	2489.838487
588.259765	2487.176758
588.612352	2485.898826
588.964884	2485.888743
589.317362	2488.671460
589.669786	2484.210039
590.022155	2485.132570
590.374470	2482.218783
590.726731	2483.819350
591.078937	2484.966212
591.431090	2487.083497
591.783188	2483.920173
592.135232	2485.195585
592.487222	2486.602067
592.839157	2486.687766
593.191038	2487.431337
593.542866	2487.879999
593.894639	2484.497385
594.246358	2489.387304
594.598022	2485.480410
594.949633	2487.716162
595.301190	2487.552324
595.652692	2487.247334
596.004141	2488.202633
596.355535	2487.990905
596.706876	2484.590646
597.058162	2486.591984
597.409395	2486.196254
597.760573	2486.559217
598.111698	2487.486789
598.462768	2483.844556
598.813785	2486.070225
599.164748	2484.946048
599.515657	2487.471666
599.866511	2487.070894
600.217312	2485.402272
600.568060	2488.469814
600.918753	2486.612149
601.269392	2488.527788
601.619978	2482.473362
601.970510	2484.018475
602.320988	2487.638024
602.671412	2484.933445
603.021783	2490.294712
603.372100	2486.481079
603.722363	2487.685915
604.072572	2484.638537
604.422728	2486.317242
604.772830	2488.558034
605.122878	2488.303456
605.472872	2487.509474
605.822813	2483.567292
606.172701	2485.785400
606.522534	2488.333703
606.872314	2486.176089
607.222041	2486.143322
607.571714	2486.491161
607.921333	2482.327168
608.270899	2484.673825
608.620411	2482.511170
608.969870	2485.687097
609.319276	2489.420072
609.668627	2485.629124
610.017926	2484.026037
610.367171	2488.142139
610.716362	2483.569813
611.065500	2487.932931
611.414585	2486.256748
611.763616	2489.750267
612.112594	2485.734988
612.461518	2486.982674
612.810389	2487.396048
613.159207	2487.171717
613.507971	2487.748929
613.856682	2486.607108
614.205340	2486.239104
614.553945	2487.433857
614.902496	2488.348827
615.250994	2486.778507
615.599439	2487.156594
615.947830	2488.694146
616.296169	2488.280771
616.644454	2487.413692
616.992686	2485.266161
617.340864	2485.447642
617.688990	2486.108034
618.037063	2488.043837
618.385082	2486.783548
618.733048	2487.033085
619.080961	2485.056953
619.428821	2486.534011
619.776628	2485.566110
620.124382	2488.202633
620.472083	2485.929073
620.819731	2486.246665
621.167326	2487.461583
621.514868	2485.094762
621.862357	2484.814978
622.209793	2485.966881
622.557176	2483.179123
622.904506	2485.787920
623.251783	2487.708600
623.599007	2488.104331
623.946179	2487.078456
624.293297	2486.483600
624.640363	2486.075266
624.987376	2483.756335
625.334336	2482.546458
625.681243	2483.131232
626.028097	2479.108392
626.374899	2484.883033
626.721647	2484.550317
627.068343	2486.042499
627.414987	2484.512508
627.761577	2485.172900
628.108115	2486.705410
628.454600	2487.517036
628.801032	2483.211891
629.147412	2485.417396
629.493739	2489.140288
629.840014	2486.360091
630.186236	2486.085348
630.532405	2484.452015
630.878521	2485.225832
631.224585	2487.552324
631.570597	2485.782879
631.916556	2486.513847
632.262462	2487.781697
632.608316	2484.230204
632.954117	2486.745740
633.299866	2485.450163
633.645562	2487.925370
633.991206	2486.082828
634.336797	2484.671305
634.682336	2486.980153
635.027823	2485.205667
635.373257	2485.664412
635.718639	2485.482931
636.063968	2486.090390
636.409245	2485.273723
636.754470	2487.529639
637.099642	2486.418065
637.444762	2488.724392
637.789829	2485.351861
638.134845	2483.015286
638.479808	2485.359422
638.824719	2485.394710
639.169577	2484.522591
639.514383	2486.435709
639.859137	2486.077787
640.203839	2483.615183
640.548489	2488.061481
640.893086	2485.382108
641.237632	2485.152735
641.582125	2487.801861
641.926566	2485.795482
642.270955	2484.328506
642.615292	2481.679380
642.959576	2481.291211
643.303809	2483.539566
643.647990	2487.312869
643.992118	2487.171717
644.336195	2486.644917
644.680219	2486.211377
645.024192	2484.661222
645.368112	2487.280102
645.711981	2484.648620
646.055797	2485.810606
646.399562	2485.508136
646.743274	2487.985863
647.086935	2484.898157
647.430544	2485.850935
647.774101	2483.852117
648.117606	2486.234062
648.461059	2484.386480
648.804460	2486.685246
649.147810	2488.280771
649.491108	2485.636686
649.834354	2485.049391
650.177548	2484.943527
650.520690	2485.835811
650.863781	2485.392190
651.206820	2487.816985
651.549807	2482.271716
651.892742	2486.166007
652.235626	2487.096100
652.578458	2487.219608
652.921238	2486.438229
653.263967	2486.654999
653.606644	2485.303970
653.949269	2488.789927
654.291843	2486.478558
654.634365	2489.760350
654.976836	2484.320945
655.319255	2486.806233
655.661622	2486.468476
656.003938	2486.637355
656.346203	2486.589464
656.688416	2488.152222
657.030577	2487.597695
657.372687	2486.546614
657.714746	2485.949237
658.056753	2485.437560
658.398708	2486.150883
658.740612	2487.365802
659.082465	2486.851604
659.424266	2483.164000
659.766016	2480.741725
660.107715	2482.790954
660.449362	2480.797178
660.790958	2486.153404
661.132503	2487.960658
661.473996	2486.032416
661.815438	2487.406131
662.156829	2486.186172
662.498168	2486.012252
662.839456	2486.599546
663.180693	2485.137612
663.521879	2484.923362
663.863013	2485.556027
664.204097	2488.127016
664.545129	2486.309680
664.886110	2486.072746
665.227040	2486.085348
665.567918	2481.838176
665.908746	2486.617190
666.249522	2486.876810
666.590248	2486.612149
666.930922	2488.376553
667.271545	2486.418065
667.612118	2485.145173
667.952639	2485.487972
668.293109	2485.089721
668.633528	2486.602067
668.973896	2484.167189
669.314213	2486.203816
669.654480	2487.839670
669.994695	2485.429998
670.334859	2485.364463
670.674973	2489.099958
671.015035	2488.610967
671.355047	2484.900677
671.695008	2485.460245
672.034918	2486.423106
672.374777	2487.615339
672.714585	2482.944710
673.054342	2484.784731
673.394049	2486.433188
673.733705	2486.171048
674.073310	2485.702221
674.412864	2485.984525
674.752368	2486.281953
675.091820	2483.630307
675.431223	2484.507467
675.770574	2487.665750
676.109875	2485.803044
676.449125	2484.688949
676.788324	2482.687611
677.127473	2481.268526
677.466571	2478.868937
677.805619	2486.970071
678.144616	2483.423619
678.483562	2486.765904
678.822458	2484.361274
679.161303	2484.462097
679.500098	2483.620224
679.838842	2484.968733
680.177535	2485.682056
680.516179	2486.261789
680.854771	2489.702376
681.193314	2483.605101
681.531805	2483.554689
681.870247	2485.969402
682.208638	2485.863538
682.546978	2486.786069
682.885268	2484.552838
683.223508	2485.855976
683.561697	2484.749443
683.899836	2483.973105
684.237925	2485.009062
684.575963	2484.051243
684.913951	2486.612149
685.251889	2484.681387
685.589776	2488.794969
685.927614	2483.577374
686.265401	2483.345481
686.603137	2486.922180
686.940824	2486.992756
687.278460	2485.835811
687.616046	2486.150883
687.953582	2485.717344
688.291068	2484.230204
688.628504	2485.263640
688.965889	2484.935965
689.303224	2483.637868
689.640510	2486.186172
689.977745	2486.775987
690.314930	2486.377735
690.652065	2487.035606
690.989150	2481.765080
691.326185	2483.907570
691.663170	2484.552838
692.000105	2485.886223
692.336990	2483.879844
692.673825	2485.092241
693.010610	2484.603249
693.347345	2485.263640
693.684030	2478.841210
694.020665	2480.209884
694.357251	2481.465131
694.693786	2486.090390
695.030272	2484.164669
695.366707	2486.559217
695.703093	2485.770276
696.039429	2484.905718
696.375716	2485.419916
696.711952	2484.232724
697.048139	2484.295739
697.384276	2485.188023
697.720363	2486.138281
698.056400	2484.615852
698.392388	2482.299442
698.728326	2485.460245
699.064214	2484.530152
699.400053	2486.375215
699.735842	2483.713486
700.071581	2484.215080
700.407270	2483.789103
700.742910	2485.432519
701.078501	2483.211891
701.414042	2485.568630
701.749533	2486.642396
702.084974	2484.305821
702.420366	2484.162148
702.755709	2484.010914
703.091002	2484.792293
703.426246	2482.359936
703.761440	2484.431850
704.096584	2486.327324
704.431679	2485.888743
704.766725	2485.293887
705.101721	2484.547797
705.436668	2482.760707
705.771565	2483.494195
706.106413	2484.948568
706.441212	2483.131232
706.775961	2485.397231
707.110661	2481.087044
707.445311	2485.503095
707.779913	2485.288846
708.114465	2484.749443
708.448967	2487.491830
708.783421	2485.324134
709.117825	2484.930924
709.452180	2485.349340
709.786485	2483.237097
710.120742	2484.351192
710.454949	2476.887763
710.789107	2484.862869
711.123216	2480.809781
711.457275	2484.414206
711.791286	2485.021665
712.125247	2485.460245
712.459159	2485.984525
712.793023	2486.057622
713.126837	2486.166007
713.460602	2484.651140
713.794318	2483.743733
714.127985	2483.647951
714.461602	2481.139977
714.795171	2487.227170
715.128691	2484.000831
715.462162	2484.192395
715.795584	2482.281798
716.128957	2484.557879
716.462281	2485.147694
716.795556	2484.124340
717.128782	2483.453866
717.461960	2482.294401
717.795088	2482.992601
718.128167	2485.881182
718.461198	2485.125009
718.794180	2485.757673
719.127113	2482.972436
719.459997	2483.910091
719.792833	2484.096613
720.125619	2482.710296
720.458357	2484.215080
720.791046	2482.947230
721.123686	2483.680718
721.456278	2484.268013
721.788821	2486.546614
722.121315	2484.794813
722.453761	2483.307673
722.786158	2486.561738
723.118506	2487.290184
723.450805	2484.550317
723.783056	2485.417396
724.115259	2482.145687
724.447412	2485.440081
724.779518	2483.761377
725.111574	2483.340440
725.443582	2482.826242
725.775542	2483.688280
726.107453	2482.669967
726.439315	2481.754997
726.771129	2487.345637
727.102895	2480.502271
727.434612	2483.998311
727.766281	2479.781386
728.097901	2482.269195
728.429473	2484.192395
728.760996	2484.656181
729.092471	2484.986377
729.423897	2483.902529
729.755276	2484.066366
730.086606	2485.193064
730.417887	2484.386480
730.749120	2484.177272
731.080305	2483.721047
731.411442	2484.988897
731.742530	2487.000318
732.073570	2482.624596
732.404562	2485.379587
732.735506	2485.084679
733.066401	2483.804226
733.397249	2484.633496
733.728048	2484.313383
734.058798	2485.266161
734.389501	2484.250368
734.720156	2484.951089
735.050762	2483.209370
735.381320	2484.585605
735.711831	2485.225832
736.042293	2484.653661
736.372707	2482.995121
736.703073	2483.869761
737.033391	2484.315903
737.363661	2483.922693
737.693883	2485.566110
738.024056	2483.348002
738.354182	2484.865389
738.684260	2485.931593
739.014290	2482.284318
739.344272	2485.235914
739.674207	2481.979329
740.004093	2482.773310
740.333931	2482.974957
740.663722	2483.509319
740.993464	2482.576705
741.323159	2482.526294
741.652806	2481.628968
741.982405	2483.103506
742.311956	2483.549648
742.641460	2483.965543
742.970915	2481.752477
743.300323	2482.397744
743.629683	2478.591673
743.958996	2482.410347
744.288260	2481.482775
744.617477	2482.717858
744.946647	2484.273054
745.275768	2482.763228
745.604842	2481.628968
745.933869	2485.432519
746.262847	2484.457056
746.591778	2480.713999
746.920662	2483.000162
747.249498	2481.850779
747.578286	2486.163486
747.907027	2482.201139
748.235720	2482.974957
748.564365	2483.479072
748.892963	2482.475882
749.221514	2482.191057
749.550017	2485.167858
749.878473	2482.014617
750.206881	2486.544093
750.535242	2483.511839
750.863555	2481.896150
751.191821	2484.605770
751.520039	2485.301449
751.848210	2484.066366
752.176334	2485.896305
752.504411	2481.684421
752.832440	2485.364463
753.160421	2483.312714
753.488356	2483.307673
753.816243	2483.809268
754.144082	2484.832622
754.471875	2482.702734
754.799620	2480.943372
755.127318	2482.624596
755.454969	2482.576705
755.782572	2483.244658
756.110129	2481.984370
756.437638	2486.032416
756.765100	2485.157776
757.092515	2483.300111
757.419882	2481.470172
757.747203	2483.380769
758.074477	2484.323465
758.401703	2481.686942
758.728882	2484.245327
759.056014	2482.019658
759.383099	2481.689462
759.710138	2482.559061
760.037129	2477.286014
760.364073	2481.873464
760.690970	2480.318268
761.017820	2484.116778
761.344623	2479.801550
761.671379	2483.610142
761.998088	2483.910091
762.324751	2482.344812
762.651366	2481.996973
762.977935	2481.414719
763.304456	2481.003865
763.630931	2485.079638
763.957359	2484.842704
764.283740	2483.796665
764.610074	2481.664257
764.936362	2481.908753
765.262602	2483.690800
765.588796	2482.722899
765.914943	2485.780359
766.241044	2482.979998
766.567097	2484.081490
766.893104	2481.545789
767.219064	2483.862200
767.544978	2483.925214
767.870845	2481.712147
768.196665	2483.600060
768.522438	2482.506129
768.848165	2482.208701
769.173846	2480.560244
769.499479	2482.992601
769.825066	2481.976808
770.150607	2484.235245
770.476101	2482.415388
770.801548	2484.182313
771.126949	2482.334730
771.452303	2481.644092
771.777611	2481.949082
772.102872	2484.457056
772.428087	2484.325986
772.753256	2479.758700
773.078378	2483.136273
773.403453	2481.316417
773.728482	2487.907726
774.053465	2481.704586
774.378401	2486.186172
774.703291	2482.309524
775.028135	2483.600060
775.352932	2482.188537
775.677683	2479.700727
776.002388	2482.241469
776.327046	2478.659729
776.651658	2481.102168
776.976224	2476.950778
777.300743	2484.961171
777.625216	2482.629637
777.949643	2483.053094
778.274024	2482.934627
778.598359	2484.225163
778.922647	2482.838845
779.246889	2483.957982
779.571086	2481.906232
779.895236	2483.728609
780.219339	2482.415388
780.543397	2483.232055
780.867409	2482.785913
781.191374	2481.583598
781.515294	2483.963023
781.839167	2483.325317
782.162995	2483.660553
782.486776	2481.865903
782.810511	2484.520070
783.134201	2484.293218
783.457844	2481.260964
783.781441	2481.230717
784.104993	2482.236427
784.428498	2482.813640
784.751958	2484.961171
785.075372	2481.691983
785.398739	2483.736171
785.722061	2481.737353
786.045337	2482.307004
786.368568	2484.608290
786.691752	2482.445635
787.014891	2484.666264
787.337983	2481.870944
787.661030	2481.996973
787.984031	2483.539566
788.306987	2484.467138
788.629897	2481.235758
788.952760	2482.193578
789.275579	2480.892960
789.598351	2482.480923
789.921078	2480.499750
790.243759	2480.295583
790.566395	2481.628968
790.888984	2481.152579
791.211529	2482.344812
791.534027	2481.911273
791.856480	2485.924032
792.178888	2480.051087
792.501249	2477.964050
792.823566	2481.979329
793.145836	2477.021354
793.468062	2485.107365
793.790241	2480.361118
794.112375	2482.168372
794.434464	2482.002014
794.756507	2481.407158
795.078505	2482.846407
795.400457	2482.349853
795.722364	2482.541417
796.044226	2484.663743
796.366042	2481.502940
796.687812	2480.524956
797.009538	2481.165182
797.331218	2482.080152
797.652852	2480.837507
797.974442	2483.214411
798.295986	2480.466982
798.617484	2481.845738
798.938938	2480.013279
799.260346	2483.065697
799.581709	2482.319607
799.903026	2484.600729
800.224299	2483.277426
800.545526	2481.442446
800.866708	2481.039153
801.187845	2481.306335
801.508936	2482.702734
801.829983	2480.396406
802.150984	2479.710809
802.471940	2484.487303
802.792851	2481.266005
803.113717	2477.023874
803.434538	2481.084524
803.755314	2482.480923
804.076045	2479.057980
804.396731	2481.923876
804.717372	2481.316417
805.037967	2482.750625
805.358518	2482.193578
805.679024	2483.635348
805.999485	2481.951602
806.319901	2480.260295
806.640272	2482.717858
806.960598	2482.107878
807.280879	2483.166520
807.601115	2482.062508
807.921306	2482.851448
808.241453	2478.866416
808.561554	2476.854996
808.881611	2481.268526
809.201623	2478.263998
809.521590	2483.443784
809.841513	2481.818012
810.161390	2484.507467
810.481223	2483.574854
810.801011	2484.492344
811.120755	2483.219453
811.440453	2480.875316
811.760107	2481.775162
812.079716	2483.022848
812.399281	2481.444966
812.718801	2482.304483
813.038276	2483.053094
813.357707	2483.920173
813.677093	2481.407158
813.996434	2483.247179
814.315731	2480.340954
814.634983	2481.029071
814.954191	2480.930769
815.273354	2483.030409
815.592473	2482.596870
815.911547	2481.326499
816.230577	2484.429329
816.549562	2480.661067
816.868502	2482.445635
817.187399	2482.125522
817.506250	2481.286170
817.825058	2483.632827
818.143821	2481.596201
818.462539	2481.550831
818.781213	2482.596870
819.099843	2481.694503
819.418429	2483.085862
819.736970	2482.072590
820.055466	2478.735346
820.373919	2482.223825
820.692327	2480.761890
821.010691	2486.355050
821.329011	2478.579070
821.647286	2483.106027
821.965517	2481.470172
822.283704	2481.555872
822.601847	2480.046046
822.919945	2483.012765
823.237999	2482.049905
823.556010	2483.766418
823.873976	2481.225676
824.191897	2481.109730
824.509775	2478.720223
824.827609	2479.040336
825.145398	2477.701910
825.463144	2480.502271
825.780845	2479.514204
826.098502	2482.579226
826.416116	2482.382621
826.733685	2481.059318
827.051210	2478.800881
827.368692	2483.801706
827.686129	2479.078145
828.003522	2481.384473
828.320872	2478.639564
828.638177	2480.161993
828.955439	2479.128556
829.272656	2481.026551
829.589830	2479.688124
829.906960	2483.035450
830.224046	2478.009420
830.541088	2481.462610
830.858086	2481.177785
831.175041	2479.816674
831.491952	2481.477734
831.808819	2479.771303
832.125642	2479.844400
832.442421	2478.637044
832.759157	2484.966212
833.075849	2481.071921
833.392497	2481.170223
833.709101	2480.119143
834.025662	2480.658546
834.342179	2483.854638
834.658653	2480.061170
834.975083	2480.598052
835.291469	2484.109216
835.607811	2479.935141
835.924110	2480.663588
836.240366	2482.155769
836.556578	2481.397075
836.872746	2481.124853
837.188871	2483.627786
837.504952	2481.477734
837.820990	2479.983032
838.136984	2480.255254
838.452935	2479.884729
838.768842	2480.782055
839.084706	2480.809781
839.400526	2479.776344
839.716303	2481.439925
840.032037	2475.551858
840.347727	2475.057824
840.663373	2478.727784
840.978977	2477.470017
841.294537	2482.927066
841.610054	2479.877168
841.925527	2480.474544
842.240957	2480.698876
842.556344	2481.018989
842.871687	2479.657877
843.186987	2483.516881
843.502244	2482.012096
843.817458	2477.331385
844.132629	2481.830615
844.447756	2484.043681
844.762840	2478.979842
845.077881	2480.192240
845.392879	2480.857672
845.707833	2483.411016
846.022745	2479.526807
846.337613	2483.058136
846.652438	2480.048567
846.967221	2481.018989
847.281960	2481.311376
847.596656	2479.425984
847.911309	2480.729123
848.225919	2480.807260
848.540485	2480.353557
848.855009	2480.590491
849.169490	2480.414050
849.483928	2479.922538
849.798323	2480.903042
850.112675	2480.595532
850.426984	2479.057980
850.741251	2479.977991
851.055474	2480.426653
851.369654	2479.083186
851.683792	2478.891622
851.997887	2481.679380
852.311938	2481.694503
852.625947	2482.848928
852.939914	2481.538228
853.253837	2480.860193
853.567718	2480.726602
853.881555	2480.771972
854.195350	2480.063690
854.509103	2479.806591
854.822812	2479.791468
855.136479	2481.780203
855.450103	2482.586788
855.763685	2476.630664
856.077224	2476.517238
856.390720	2478.763073
856.704173	2476.013123
857.017584	2478.891622
857.330953	2477.306179
857.644278	2479.317599
857.957561	2484.111737
858.270802	2481.291211
858.584000	2480.456900
858.897155	2478.904225
859.210268	2481.291211
859.523339	2479.425984
859.836367	2481.190388
860.149352	2478.964719
860.462295	2479.471355
860.775195	2480.414050
861.088054	2479.657877
861.400869	2477.648978
861.713642	2479.085706
862.026373	2479.957826
862.339062	2480.129225
862.651708	2478.876498
862.964312	2480.459421
863.276873	2479.065542
863.589392	2479.695686
863.901869	2480.963536
864.214303	2478.624441
864.526696	2481.379431
864.839045	2479.720892
865.151353	2479.796509
865.463619	2480.716520
865.775842	2481.886067
866.088023	2479.184009
866.400162	2481.092086
866.712258	2481.011427
867.024313	2481.903711
867.336325	2480.469503
867.648296	2480.353557
867.960224	2480.058649
868.272110	2479.463793
868.583954	2480.905563
868.895755	2481.248361
869.207515	2481.407158
869.519233	2480.779534
869.830909	2480.325830
870.142542	2480.540079
870.454134	2479.952785
870.765684	2479.506643
871.077191	2481.046715
871.388657	2478.044708
871.700081	2475.990438
872.011463	2477.144862
872.322803	2476.000520
872.634101	2479.161324
872.945357	2479.292394
873.256571	2480.986221
873.567744	2476.706282
873.878874	2478.843731
874.189963	2479.615027
874.501010	2480.845069
874.812015	2482.158290
875.122979	2482.438074
875.433900	2479.746098
875.744780	2477.555716
876.055618	2479.811633
876.366415	2477.449852
876.677169	2481.079483
876.987882	2478.644605
877.298554	2477.364152
877.609183	2481.480254
877.919771	2479.221818
878.230317	2481.334061
878.540822	2482.790954
878.851285	2480.005717
879.161707	2478.652167
879.472087	2479.975470
879.782425	2479.678042
880.092722	2481.563433
880.402977	2477.318782
880.713191	2478.780717
881.023363	2477.404482
881.333494	2480.293063
881.643583	2478.127887
881.953631	2478.200984
882.263637	2480.111581
882.573602	2477.207877
882.883526	2480.988742
883.193408	2480.648464
883.503248	2481.024030
883.813048	2477.159986
884.122806	2478.795840
884.432522	2481.641571
884.742197	2481.046715
885.051831	2477.714513
885.361424	2478.725264
885.670975	2480.366159
885.980485	2480.802219
886.289954	2478.440439
886.599382	2478.266519
886.908768	2476.928093
887.218113	2472.680920
887.527417	2477.858185
887.836680	2475.786271
888.145901	2480.595532
888.455082	2477.775006
888.764221	2482.057467
889.073319	2479.420943
889.382376	2480.638382
889.691392	2478.720223
890.000366	2477.951447
890.309300	2479.592342
890.618193	2481.238279
890.927044	2476.761734
891.235855	2480.184678
891.544625	2479.335243
891.853353	2479.236941
892.162041	2477.996817
892.470687	2481.255923
892.779293	2479.524287
893.087858	2480.446818
893.396381	2481.621407
893.704864	2480.366159
894.013306	2476.141672
894.321707	2480.540079
894.630068	2478.465644
894.938387	2481.386993
895.246665	2480.567806
895.554903	2477.303658
895.863100	2478.316930
896.171256	2477.782568
896.479371	2480.640902
896.787446	2480.532518
897.095480	2479.040336
897.403473	2478.949595
897.711425	2479.264667
898.019336	2476.519759
898.327207	2479.685604
898.635038	2477.273412
898.942827	2478.120325
899.250576	2479.330202
899.558284	2478.679893
899.865952	2481.800368
900.173579	2474.770479
900.481165	2480.726602
900.788711	2479.753659
901.096216	2478.904225
901.403681	2479.088227
901.711105	2477.991776
902.018489	2477.578401
902.325832	2476.585294
902.633135	2476.371045
902.940397	2475.370376
903.247619	2473.800057
903.554800	2477.447331
903.861941	2480.038484
904.169041	2477.633854
904.476101	2480.426653
904.783121	2477.974132
905.090100	2477.137300
905.397039	2481.412199
905.703938	2477.996817
906.010796	2480.739205
906.317614	2477.757362
906.624391	2480.454380
906.931129	2479.468834
907.237826	2481.089565
907.544483	2478.306848
907.851099	2480.550162
908.157675	2482.642240
908.464211	2479.620069
908.770707	2479.299955
909.077163	2478.626961
909.383578	2479.040336
909.689954	2478.553865
909.996289	2476.534883
910.302584	2478.823566
910.608839	2478.160655
910.915054	2476.373566
911.221229	2477.888432
911.527363	2478.914307
911.833458	2477.729636
912.139513	2479.821715
912.445527	2478.354739
912.751502	2480.008238
913.057436	2476.930613
913.363331	2478.218628
913.669186	2477.500263
913.975000	2477.137300
914.280775	2476.658391
914.586510	2481.384473
914.892205	2480.161993
915.197859	2478.284163
915.503475	2476.723926
915.809050	2476.494553
916.114585	2476.653350
916.420081	2478.397589
916.725536	2479.304997
917.030952	2477.349029
917.336328	2477.228041
917.641665	2476.602938
917.946961	2472.592700
918.252218	2480.230048
918.557435	2474.052114
918.862612	2479.181488
919.167750	2476.371045
919.472848	2478.316930
919.777906	2477.240644
920.082925	2477.313741
920.387904	2479.166365
920.692843	2477.737198
920.997743	2478.505974
921.302603	2478.188381
921.607423	2475.357773
921.912204	2478.637044
922.216946	2475.899697
922.521647	2481.349184
922.826310	2476.953298
923.130932	2477.258288
923.435516	2479.342805
923.740059	2479.708289
924.044564	2480.267857
924.349028	2476.355922
924.653454	2477.139821
924.957840	2479.690645
925.262186	2478.236272
925.566493	2477.838021
925.870761	2478.611838
926.174989	2478.115284
926.479178	2480.358598
926.783328	2478.589153
927.087438	2477.956488
927.391509	2478.117805
927.695541	2475.647639
927.999533	2477.364152
928.303486	2475.393061
928.607400	2477.303658
928.911275	2477.429687
929.215110	2475.914821
929.518906	2478.463124
929.822663	2476.771817
930.126381	2475.569502
930.430060	2478.516056
930.733699	2480.398927
931.037299	2477.044039
931.340861	2477.059163
931.644383	2479.191571
931.947866	2479.052939
932.251309	2478.450521
932.554714	2475.594707
932.858080	2477.737198
933.161407	2471.748307
933.464694	2476.862558
933.767943	2470.309058
934.071153	2478.989924
934.374323	2478.178299
934.677455	2479.226859
934.980548	2479.030254
935.283602	2477.759883
935.586617	2479.153762
935.889593	2481.167703
936.192530	2477.021354
936.495428	2477.870788
936.798287	2477.669142
937.101108	2480.330871
937.403890	2476.333236
937.706632	2478.324492
938.009336	2478.095120
938.312002	2477.926241
938.614628	2478.747949
938.917216	2477.984214
939.219765	2477.840541
939.522275	2479.773824
939.824747	2476.877681
940.127179	2480.880357
940.429573	2477.185191
940.731929	2479.494040
941.034246	2478.095120
941.336524	2477.540593
941.638763	2477.918679
941.940964	2477.525469
942.243126	2478.258957
942.545250	2480.318268
942.847335	2476.988586
943.149381	2475.723257
943.451389	2479.476396
943.753359	2475.798874
944.055290	2477.923720
944.357182	2480.691314
944.659036	2476.645788
944.960851	2479.899853
945.262628	2475.322485
945.564367	2477.848103
945.866067	2473.300982
946.167729	2475.874491
946.469352	2477.543113
946.770937	2476.335757
947.072484	2477.215438
947.373992	2479.199132
947.675462	2476.378607
947.976893	2476.262660
948.278286	2471.055148
948.579641	2475.509008
948.880958	2472.083544
949.182236	2477.717033
949.483476	2477.704430
949.784678	2476.618062
950.085841	2475.372897
950.386967	2478.649647
950.688054	2477.210397
950.989103	2478.286683
951.290114	2476.139152
951.591087	2478.488330
951.892021	2475.957670
952.192917	2477.311220
952.493776	2479.552013
952.794596	2480.225007
953.095378	2478.314410
953.396122	2479.531848
953.696828	2476.749132
953.997496	2478.727784
954.298126	2477.538072
954.598718	2476.597897
954.899272	2476.101343
955.199788	2478.263998
955.500266	2476.930613
955.800706	2479.448669
956.101108	2475.687969
956.401472	2478.198463
956.701798	2480.640902
957.002087	2477.447331
957.302337	2475.723257
957.602550	2477.525469
957.902724	2475.085551
958.202861	2476.751652
958.502960	2476.058493
958.803022	2479.287353
959.103045	2475.125880
959.403031	2476.242496
959.702979	2476.970942
960.002889	2478.745428
960.302762	2478.193422
960.602596	2476.844913
960.902393	2475.955150
961.202153	2476.078658
961.501875	2477.666622
961.801559	2476.275263
962.101205	2475.750983
962.400814	2475.831642
962.700385	2476.532362
962.999918	2476.625623
963.299414	2473.797536
963.598873	2474.924234
963.898293	2474.394913
964.197677	2477.691827
964.497022	2476.665953
964.796331	2477.878350
965.095601	2476.350880
965.394835	2474.795684
965.694030	2475.325006
965.993189	2477.795171
966.292309	2475.536734
966.591393	2477.933803
966.890439	2479.254585
967.189447	2474.994810
967.488419	2476.373566
967.787353	2476.645788
968.086249	2473.154789
968.385108	2476.227372
968.683930	2474.984728
968.982714	2477.374235
969.281462	2476.058493
969.580172	2476.474389
969.878844	2478.153093
970.177480	2474.299131
970.476078	2477.376755
970.774639	2475.642598
971.073162	2475.844244
971.371649	2476.360963
971.670098	2477.056642
971.968510	2475.836683
972.266885	2474.659573
972.565223	2480.340954
972.863524	2477.137300
973.161788	2476.509677
973.460014	2475.617393
973.758204	2477.966570
974.056356	2475.440952
974.354471	2475.501446
974.652550	2476.471868
974.950591	2477.026395
975.248595	2475.798874
975.546563	2476.940695
975.844493	2477.376755
976.142386	2478.400109
976.440243	2473.852989
976.738062	2478.740387
977.035845	2477.938844
977.333590	2478.508494
977.631299	2476.509677
977.928971	2477.916159
978.226606	2472.633029
978.524204	2474.382310
978.821765	2470.903914
979.119290	2474.382310
979.416777	2476.245016
979.714228	2476.991107
980.011642	2475.483802
980.309020	2474.548668
980.606360	2474.515900
980.903664	2475.559419
981.200931	2476.686117
981.498162	2476.197125
981.795356	2476.890284
982.092513	2476.325675
982.389633	2476.116467
982.686717	2476.164358
982.983764	2476.373566
983.280775	2478.344657
983.577749	2474.059676
983.874686	2475.284676
984.171587	2475.864409
984.468451	2476.439101
984.765279	2477.507825
985.062070	2475.735860
985.358824	2474.011785
985.655543	2478.851293
985.952224	2474.619244
986.248869	2476.842393
986.545478	2477.099492
986.842050	2475.088071
987.138586	2474.858699
987.435086	2477.026395
987.731549	2477.747280
988.027975	2475.889615
988.324366	2475.877012
988.620719	2477.477578
988.917037	2475.403143
989.213318	2477.081848
989.509563	2475.032619
989.805772	2477.444811
990.101944	2476.862557
990.398080	2474.520942
990.694180	2478.180819
990.990244	2477.142342
991.286271	2473.810139
991.582262	2475.304841
991.878217	2477.573360
992.174136	2478.379945
992.470019	2476.877681
992.765865	2474.588997
993.061676	2473.132104
993.357450	2472.438945
993.653188	2473.303503
993.948890	2477.775006
994.244556	2476.514718
994.540186	2476.368524
994.835780	2476.849955
995.131337	2475.083030
995.426859	2474.977166
995.722345	2475.251909
996.017795	2475.241827
996.313208	2475.100674
996.608586	2476.529841
996.903928	2476.781899
997.199234	2477.787609
997.494504	2476.812146
997.789738	2476.502115
998.084936	2476.877681
998.380099	2476.660911
998.675225	2473.958853
998.970316	2474.142855
999.265371	2475.594707
999.560390	2474.712505
999.855373	2476.096302
1000.150320	2475.382979
1000.445232	2476.250057
1000.740108	2474.644450
1001.034948	2477.162506
1001.329752	2475.733339
1001.624521	2474.420118
1001.919254	2475.337608
1002.213951	2477.792650
1002.508613	2474.946919
1002.803239	2478.682414
1003.097829	2472.718729
1003.392384	2475.007413
1003.686903	2475.998000
1003.981386	2475.130921
1004.275834	2474.130252
1004.570246	2478.072434
1004.864623	2474.404995
1005.158964	2476.544965
1005.453270	2477.744759
1005.747540	2477.759883
1006.041775	2474.861219
1006.335974	2474.709985
1006.630138	2477.107053
1006.924266	2475.398102
1007.218359	2477.596045
1007.512416	2475.090592
1007.806438	2469.467185
1008.100425	2476.192084
1008.394376	2470.876187
1008.688292	2475.713174
1008.982172	2474.946919
1009.276017	2476.469347
1009.569827	2475.335088
1009.863602	2474.606641
1010.157341	2476.534883
1010.451045	2477.417084
1010.744714	2475.942547
1011.038347	2476.434059
1011.331945	2475.488843
1011.625508	2476.335757
1011.919036	2475.629995
1012.212528	2474.336939
1012.505986	2477.903556
1012.799408	2475.161168
1013.092795	2475.350211
1013.386147	2475.773668
1013.679464	2476.595376
1013.972745	2475.998000
1014.265992	2476.287866
1014.559204	2475.445993
1014.852380	2475.700572
1015.145521	2477.676704
1015.438628	2476.935654
1015.731699	2476.918010
1016.024736	2474.662094
1016.317737	2477.074286
1016.610703	2475.887094
1016.903635	2478.125367
1017.196531	2474.284007
1017.489393	2475.206538
1017.782219	2476.282825
1018.075011	2476.794502
1018.367768	2472.890128
1018.660490	2475.168730
1018.953177	2475.168730
1019.245829	2475.168730
