Dividing Wavelength (nm)	Counts (n)	Blue Motor Position (mm): 7.200000	Red Motor Position (mm): 0.000000	
326.493990	2139.521145
326.888308	2139.521145
327.282561	2139.521145
327.676750	2109.556527
328.070874	2106.957812
328.464933	2110.705910
328.858929	2117.932404
329.252859	2128.080246
329.646726	2137.940743
330.040528	2151.534215
330.434265	2168.704385
330.827938	2184.092507
331.221547	2201.101360
331.615091	2222.226315
332.008571	2240.747514
332.401986	2262.099321
332.795338	2279.037598
333.188625	2300.843109
333.581847	2317.153763
333.975006	2336.799139
334.368100	2353.397138
334.761129	2375.353884
335.154095	2391.500699
335.546996	2409.338822
335.939833	2424.011101
336.332606	2435.003337
336.725315	2448.743001
337.117960	2457.234825
337.510540	2466.336628
337.903056	2476.234934
338.295508	2483.622745
338.687896	2493.568941
339.080220	2498.847029
339.472480	2507.873215
339.864676	2511.747342
340.256807	2517.083403
340.648875	2519.752694
341.040879	2520.944927
341.432818	2523.946934
341.824694	2526.817872
342.216506	2526.122192
342.608253	2527.659744
342.999937	2524.277130
343.391557	2527.069929
343.783113	2524.322500
344.174605	2522.270751
344.566033	2524.014990
344.957397	2520.458456
345.348697	2520.584485
345.739934	2518.043743
346.131106	2516.818743
346.522215	2514.308248
346.913260	2511.636437
347.304241	2511.003772
347.695159	2509.317506
348.086012	2508.616786
348.476802	2505.019922
348.867528	2503.817607
349.258191	2503.283245
349.648789	2501.639829
350.039324	2501.332318
350.429796	2502.481701
350.820203	2499.489777
351.210548	2496.296206
351.600828	2496.621360
351.991045	2494.851915
352.381198	2495.421565
352.771288	2492.215392
353.161314	2495.240084
353.551276	2492.827892
353.941175	2491.895278
354.331010	2493.306801
354.720782	2490.592140
355.110490	2491.524753
355.500135	2495.638335
355.889717	2491.885196
356.279235	2494.665392
356.668689	2494.514158
357.058080	2493.077429
357.447408	2491.040803
357.836672	2486.644917
358.225873	2493.342089
358.615010	2490.118272
359.004084	2495.769405
359.393095	2493.820999
359.782043	2497.301916
360.170927	2495.086329
360.559748	2497.241422
360.948505	2498.438696
361.337199	2497.432986
361.725830	2497.851402
362.114398	2500.712256
362.502903	2502.159067
362.891344	2500.445075
363.279722	2502.098574
363.668037	2500.918944
364.056289	2499.522544
364.444478	2502.643018
364.832603	2503.366424
365.220665	2501.536485
365.608665	2504.649398
365.996601	2503.189983
366.384474	2505.816425
366.772284	2503.671414
367.160031	2505.554285
367.547715	2504.843482
367.935336	2504.702330
368.322893	2506.769203
368.710388	2506.726353
369.097820	2506.872546
369.485189	2505.723163
369.872495	2506.207114
370.259738	2508.941940
370.646918	2505.932371
371.034035	2506.277690
371.421090	2511.475120
371.808081	2507.212824
372.195010	2508.609224
372.581875	2509.809018
372.968678	2509.244409
373.355418	2510.023268
373.742096	2510.098885
374.128710	2510.010665
374.515262	2508.674759
374.901751	2510.832373
375.288177	2509.778772
375.674540	2511.008813
376.060841	2510.918072
376.447079	2512.775737
376.833254	2511.064266
377.219367	2506.055879
377.605417	2509.957733
377.991404	2506.252484
378.377329	2510.877743
378.763191	2508.299193
379.148991	2512.508556
379.534727	2513.373114
379.920402	2517.070801
380.306013	2513.085768
380.691563	2515.497961
381.077049	2514.222549
381.462474	2512.984945
381.847835	2512.226252
382.233134	2514.772034
382.618371	2515.198012
383.003545	2512.937054
383.388657	2513.300017
383.773706	2513.655419
384.158693	2516.070132
384.543618	2514.779596
384.928480	2512.311951
385.313280	2516.226407
385.698017	2518.845287
386.082692	2515.490399
386.467305	2517.791686
386.851856	2519.021727
387.236344	2515.319000
387.620770	2518.167252
388.005133	2516.342354
388.389435	2516.992663
388.773674	2517.509381
389.157851	2518.956192
389.541965	2515.354288
389.926018	2519.109947
390.310008	2517.043074
390.693936	2519.528363
391.077802	2518.948630
391.461606	2519.876203
391.845348	2518.323527
392.229027	2521.156656
392.612645	2517.731192
392.996200	2519.117509
393.379694	2519.419978
393.763125	2522.416944
394.146494	2521.270082
394.529801	2522.948786
394.913047	2519.903929
395.296230	2522.008611
395.679351	2521.005421
396.062410	2519.203209
396.445408	2520.196316
396.828343	2520.536594
397.211217	2518.870492
397.594028	2521.375946
397.976778	2516.115502
398.359466	2523.866276
398.742092	2516.939731
399.124656	2524.151101
399.507158	2523.248735
399.889598	2522.366533
400.271977	2526.127233
400.654294	2522.583302
401.036549	2521.229752
401.418742	2522.943745
401.800874	2522.384177
402.182944	2524.395597
402.564952	2522.295957
402.946898	2524.624970
403.328783	2524.667819
403.710606	2525.756709
404.092367	2525.247552
404.474067	2524.030113
404.855705	2524.824095
405.237282	2525.103879
405.618797	2524.377953
406.000250	2525.406348
406.381642	2528.410876
406.762972	2525.068591
407.144240	2525.587830
407.525447	2527.846267
407.906593	2526.744775
408.287677	2525.403828
408.668700	2526.832995
409.049661	2529.429189
409.430560	2525.746626
409.811399	2527.591689
410.192176	2526.946421
410.572891	2529.156967
410.953545	2524.214116
411.334138	2526.165042
411.714669	2527.846267
412.095139	2530.087060
412.475547	2528.751154
412.855894	2527.289219
413.236180	2528.975485
413.616405	2531.962369
413.996568	2528.410876
414.376670	2530.676875
414.756711	2530.074457
415.136691	2532.564787
415.516609	2530.457585
415.896466	2529.822399
416.276262	2528.448685
416.655997	2527.843746
417.035670	2526.550690
417.415283	2528.337779
417.794834	2524.750998
418.174324	2530.606299
418.553753	2530.964221
418.933121	2532.930271
419.312428	2531.480939
419.691674	2531.087729
420.070859	2531.007070
420.449983	2527.211082
420.829045	2530.689478
421.208047	2530.984385
421.586988	2530.797863
421.965867	2531.244005
422.344686	2530.429858
422.723444	2532.138809
423.102141	2532.320291
423.480777	2532.060672
423.859352	2531.548994
424.237866	2533.078985
424.616319	2531.508665
424.994712	2534.876156
425.373044	2532.912627
425.751314	2532.922709
426.129524	2534.205683
426.507673	2535.743234
426.885762	2531.707791
427.263789	2534.916485
427.641756	2532.506814
428.019662	2533.595703
428.397508	2532.350538
428.775292	2535.297092
429.153016	2534.545960
429.530679	2534.946732
429.908282	2533.575538
430.285824	2534.878677
430.663305	2533.396577
431.040726	2533.174767
431.418086	2535.208872
431.795385	2535.556712
432.172624	2535.171063
432.549802	2535.753317
432.926920	2535.748276
433.303977	2537.066537
433.680974	2535.372710
434.057910	2535.990251
434.434786	2535.029911
434.811601	2536.600231
435.188355	2535.080323
435.565050	2537.217772
435.941683	2534.208203
436.318257	2532.970600
436.694770	2531.107893
437.071222	2533.021011
437.447614	2532.809283
437.823946	2535.745755
438.200218	2535.551671
438.576429	2534.954294
438.952580	2536.196938
439.328670	2537.391692
439.704700	2536.842206
440.080670	2537.154757
440.456580	2537.263142
440.832429	2536.602751
441.208218	2537.434542
441.583947	2537.948739
441.959616	2537.855478
442.335224	2536.547298
442.710773	2537.636188
443.086261	2538.808256
443.461689	2538.747762
443.837057	2534.949253
444.212365	2537.064017
444.587612	2537.129552
444.962800	2539.773637
445.337927	2539.715664
445.712995	2537.288348
446.088002	2537.963863
446.462949	2538.478060
446.837837	2538.001671
447.212664	2537.099305
447.587431	2538.841023
447.962139	2538.793132
448.336786	2539.410674
448.711374	2538.147865
449.085901	2539.156096
449.460369	2541.399409
449.834776	2539.960160
450.209124	2539.040149
450.583412	2540.161806
450.957640	2539.420756
451.331808	2540.207176
451.705917	2536.983358
452.079965	2540.857485
452.453954	2539.899666
452.827883	2540.202135
453.201752	2540.262629
453.575562	2540.887732
453.949311	2539.382948
454.323001	2538.972093
454.696632	2539.438400
455.070202	2543.410829
455.443713	2542.473175
455.817164	2536.769109
456.190556	2537.560570
456.563888	2537.114428
456.937160	2537.563091
457.310373	2540.081147
457.683526	2540.305479
458.056619	2542.160623
458.429653	2539.990407
458.802628	2541.711961
459.175542	2539.808925
459.548398	2542.543751
459.921194	2541.233051
460.293930	2543.075593
460.666607	2538.357073
461.039224	2543.178936
461.411782	2541.669111
461.784280	2542.228679
462.156719	2541.953936
462.529099	2541.830428
462.901419	2542.054759
463.273680	2542.712630
463.645882	2541.958977
464.018024	2544.086344
464.390106	2541.686755
464.762130	2541.285983
465.134094	2542.674821
465.505999	2543.408309
465.877845	2545.747404
466.249631	2542.682383
466.621358	2540.519728
466.993026	2543.988042
467.364634	2546.012065
467.736184	2544.282949
468.107674	2541.109543
468.479105	2541.946374
468.850477	2545.225645
469.221790	2542.465613
469.593043	2540.549975
469.964238	2542.717671
470.335373	2539.203987
470.706449	2541.396888
471.077467	2541.631302
471.448425	2544.061138
471.819324	2542.044677
472.190164	2544.103988
472.560945	2543.975439
472.931667	2543.269677
473.302330	2542.097609
473.672934	2543.995603
474.043479	2544.083823
474.413965	2543.340253
474.784393	2538.815818
475.154761	2542.208514
475.525070	2539.917310
475.895321	2543.214224
476.265513	2540.807073
476.635645	2544.615665
477.005719	2543.448638
477.375734	2546.927034
477.745691	2541.956457
478.115588	2545.845707
478.485427	2545.016437
478.855207	2545.439894
479.224928	2542.836138
479.594591	2547.136242
479.964194	2545.880995
480.333739	2540.411343
480.703226	2547.627755
481.072653	2545.586087
481.442022	2547.063145
481.811333	2544.381252
482.180584	2546.158258
482.549777	2545.462579
482.918912	2544.161961
483.287988	2544.038453
483.657005	2544.870243
484.025964	2545.487785
484.394864	2543.236910
484.763706	2547.531973
485.132489	2548.043650
485.501213	2546.317055
485.869879	2545.049204
486.238487	2542.508463
486.607036	2544.305634
486.975527	2545.288659
487.343959	2544.305634
487.712333	2544.257743
488.080648	2547.312682
488.448905	2548.293187
488.817104	2548.305790
489.185244	2546.314534
489.553326	2546.092723
489.921350	2544.834955
490.289315	2545.961653
490.657222	2545.220604
491.025070	2548.658671
491.392861	2547.272353
491.760593	2546.727909
492.128267	2548.031047
492.495883	2547.421067
492.863440	2545.631458
493.230939	2546.937117
493.598380	2546.004503
493.965763	2543.027702
494.333088	2547.607590
494.700354	2542.334543
495.067563	2545.936448
495.434713	2541.928730
495.801805	2546.299411
496.168839	2544.232538
496.535815	2549.417364
496.902733	2544.643392
497.269593	2548.182282
497.636395	2546.869061
498.003139	2546.727909
498.369825	2546.790923
498.736453	2548.348640
499.103023	2546.188505
499.469535	2546.064997
499.835989	2550.057591
500.202385	2546.924514
500.568723	2545.739842
500.935003	2548.114226
501.301226	2546.821170
501.667390	2547.905018
502.033497	2550.226469
502.399546	2547.184133
502.765537	2547.587425
503.131470	2546.730429
503.497345	2547.872251
503.863163	2551.431305
504.228923	2546.372507
504.594625	2547.010213
504.960269	2547.252189
505.325856	2547.635316
505.691385	2548.058773
506.056856	2547.771428
506.422270	2550.607077
506.787625	2545.185316
507.152924	2548.046170
507.518164	2548.076417
507.883347	2547.048022
508.248472	2547.466438
508.613540	2548.603218
508.978550	2547.988197
509.343503	2547.070707
509.708398	2548.255378
510.073236	2545.218083
510.438016	2548.071376
510.802738	2549.140101
511.167403	2545.502908
511.532010	2549.475337
511.896561	2550.775955
512.261053	2549.548434
512.625488	2544.325799
512.989866	2543.398227
513.354186	2547.211859
513.718449	2541.885880
514.082655	2547.678166
514.446803	2546.425439
514.810894	2546.755635
515.174927	2550.473486
515.538904	2549.407282
515.902822	2550.181099
516.266684	2548.610780
516.630488	2548.593136
516.994235	2549.838301
517.357925	2548.154555
517.721558	2547.698331
518.085133	2549.803012
518.448651	2549.621531
518.812112	2548.250337
519.175516	2549.455173
519.538863	2550.675132
519.902152	2551.718651
520.265385	2547.892415
520.628560	2548.562889
520.991678	2550.150852
521.354739	2547.277394
521.717743	2548.671273
522.080690	2551.227138
522.443580	2549.518187
522.806413	2549.684545
523.169189	2549.646737
523.531908	2549.818136
523.894569	2549.117416
524.257174	2548.487271
524.619722	2548.320913
524.982213	2549.195553
525.344647	2547.942827
525.707025	2551.935421
526.069345	2550.244113
526.431608	2549.109854
526.793815	2549.182951
527.155964	2548.918290
527.518057	2548.005841
527.880093	2551.685883
528.242072	2548.424257
528.603995	2551.519525
528.965860	2548.394010
529.327669	2548.590615
529.689421	2548.633465
530.051117	2550.357539
530.412755	2549.797971
530.774337	2553.198230
531.135862	2551.345606
531.497331	2550.115564
531.858743	2547.025337
532.220098	2547.975594
532.581396	2546.337219
532.942638	2545.472661
533.303824	2551.645554
533.664953	2552.563044
534.026025	2547.995759
534.387040	2550.322251
534.747999	2551.282591
535.108902	2551.015410
535.469748	2549.276212
535.830537	2547.665563
536.191270	2552.230328
536.551947	2550.959957
536.912567	2550.163455
537.273131	2551.181768
537.633638	2550.014741
537.994089	2549.908877
538.354483	2549.918959
538.714821	2549.379556
539.075103	2550.934752
539.435328	2553.041954
539.795497	2552.026161
540.155609	2551.900132
540.515665	2552.918446
540.875665	2551.645554
541.235609	2549.472817
541.595496	2548.948537
541.955328	2549.626572
542.315102	2550.544062
542.674821	2553.783003
543.034483	2551.499361
543.394090	2547.247147
543.753640	2552.429454
544.113134	2550.188661
544.472571	2550.067673
544.831953	2550.251675
545.191278	2552.462221
545.550548	2552.736964
545.909761	2551.985832
546.268918	2549.253527
546.628019	2552.069011
546.987064	2550.665050
547.346053	2548.835111
547.704986	2551.887530
548.063863	2552.147149
548.422684	2552.439536
548.781449	2553.931717
549.140158	2553.815771
549.498811	2553.326779
549.857408	2553.271326
550.215949	2551.396017
550.574434	2549.276212
550.932864	2551.244782
551.291237	2546.589277
551.649555	2553.856100
552.007817	2551.736295
552.366022	2553.629248
552.724173	2550.677653
553.082267	2553.722510
553.440305	2554.461039
553.798288	2551.176727
554.156215	2554.743343
554.514086	2553.266285
554.871902	2552.673950
555.229661	2553.954403
555.587365	2553.909032
555.945014	2554.771070
556.302606	2553.183106
556.660143	2553.967006
557.017625	2551.504402
557.375050	2553.838456
557.732421	2551.161603
558.089735	2555.401214
558.446994	2554.531615
558.804197	2551.640513
559.161345	2552.258054
559.518437	2554.521533
559.875474	2553.256203
560.232455	2552.293342
560.589381	2553.619166
560.946251	2554.629917
561.303065	2553.248641
561.659825	2554.241748
562.016528	2552.414330
562.373177	2549.866027
562.729770	2550.566747
563.086307	2551.562375
563.442789	2552.978939
563.799216	2555.421378
564.155587	2550.793599
564.511904	2556.185113
564.868164	2552.825184
565.224370	2554.181255
565.580520	2551.461552
565.936615	2553.314176
566.292654	2552.358877
566.648638	2551.499361
567.004567	2552.036244
567.360441	2555.421378
567.716260	2552.303425
568.072023	2553.798127
568.427732	2548.641027
568.783385	2550.715461
569.138982	2550.453321
569.494525	2550.065152
569.850013	2547.625234
570.205445	2553.742674
570.560823	2553.535987
570.916145	2554.529094
571.271412	2552.056408
571.626625	2554.342572
571.981782	2554.047664
572.336884	2553.087324
572.691931	2553.283929
573.046923	2550.556665
573.401860	2554.645041
573.756743	2552.260575
574.111570	2551.874927
574.466342	2552.142108
574.821059	2550.231511
575.175722	2550.952396
575.530330	2553.755277
575.884882	2552.449618
576.239380	2553.122612
576.593823	2550.879299
576.948211	2554.123281
577.302544	2552.953734
577.656823	2552.764690
578.011047	2552.177396
578.365216	2552.207643
578.719330	2555.433981
579.073389	2552.368960
579.427394	2551.433826
579.781344	2553.800647
580.135239	2552.681511
580.489080	2551.736295
580.842866	2555.958261
581.196597	2555.713765
581.550273	2551.716130
581.903895	2553.599001
582.257463	2551.164124
582.610975	2554.864331
582.964434	2554.156049
583.317837	2552.472303
583.671186	2550.768393
584.024481	2552.217725
584.377721	2552.636141
584.730906	2550.208825
585.084037	2552.908363
585.437113	2550.964998
585.790135	2554.917263
586.143103	2552.442057
586.496016	2554.239228
586.848874	2548.499874
587.201679	2549.782848
587.554428	2549.382076
587.907124	2549.145142
588.259765	2548.545245
588.612352	2551.746377
588.964884	2553.644372
589.317362	2553.062118
589.669786	2551.711089
590.022155	2552.696635
590.374470	2552.086655
590.726731	2551.834598
591.078937	2552.615976
591.431090	2551.874927
591.783188	2553.059598
592.135232	2554.697973
592.487222	2549.286294
592.839157	2554.181255
593.191038	2550.967519
593.542866	2551.247303
593.894639	2552.232849
594.246358	2552.399207
594.598022	2550.218908
594.949633	2553.558672
595.301190	2551.043136
595.652692	2550.591953
596.004141	2551.612787
596.355535	2552.144628
596.706876	2555.585216
597.058162	2549.145142
597.409395	2550.465924
597.760573	2553.369629
598.111698	2552.247972
598.462768	2550.806202
598.813785	2551.811912
599.164748	2550.360060
599.515657	2549.175389
599.866511	2552.981460
600.217312	2552.374001
600.568060	2549.762683
600.918753	2554.942469
601.269392	2552.472303
601.619978	2552.298384
601.970510	2552.739485
602.320988	2550.652447
602.671412	2551.141439
603.021783	2551.469114
603.372100	2552.936090
603.722363	2553.072201
604.072572	2550.216387
604.422728	2552.736964
604.772830	2550.619679
605.122878	2547.300080
605.472872	2550.297046
605.822813	2549.379556
606.172701	2550.765873
606.522534	2552.845349
606.872314	2555.494475
607.222041	2553.084804
607.571714	2552.734443
607.921333	2552.409289
608.270899	2549.712272
608.620411	2550.813764
608.969870	2554.365257
609.319276	2555.149156
609.668627	2555.330638
610.017926	2559.207285
610.367171	2559.093859
610.716362	2559.081256
611.065500	2556.172510
611.414585	2556.011193
611.763616	2555.398693
612.112594	2557.107644
612.461518	2552.232849
612.810389	2552.762170
613.159207	2554.755946
613.507971	2552.684032
613.856682	2554.042623
614.205340	2554.521533
614.553945	2554.705535
614.902496	2553.203271
615.250994	2553.949362
615.599439	2552.174875
615.947830	2552.063970
616.296169	2551.292673
616.644454	2551.201933
616.992686	2550.423074
617.340864	2550.304607
617.688990	2552.852911
618.037063	2551.905174
618.385082	2552.033723
618.733048	2551.464073
619.080961	2553.261244
619.428821	2550.846531
619.776628	2553.488096
620.124382	2553.180586
620.472083	2553.525905
620.819731	2550.962478
621.167326	2552.500030
621.514868	2554.211502
621.862357	2551.053219
622.209793	2550.506253
622.557176	2551.128836
622.904506	2551.204453
623.251783	2551.212015
623.599007	2548.096582
623.946179	2546.433001
624.293297	2549.528270
624.640363	2550.917108
624.987376	2553.082283
625.334336	2550.791079
625.681243	2554.145967
626.028097	2550.516336
626.374899	2554.844166
626.721647	2552.341233
627.068343	2552.207643
627.414987	2550.891902
627.761577	2552.976419
628.108115	2554.077911
628.454600	2554.282078
628.801032	2551.252344
629.147412	2551.136398
629.493739	2553.893909
629.840014	2553.926676
630.186236	2552.212684
630.532405	2554.579506
630.878521	2552.547921
631.224585	2553.039433
631.570597	2552.232849
631.916556	2553.198230
632.262462	2551.305276
632.608316	2551.680842
632.954117	2551.128836
633.299866	2555.791903
633.645562	2551.408620
633.991206	2554.342572
634.336797	2551.660678
634.682336	2554.455997
635.027823	2553.203271
635.373257	2551.116233
635.718639	2552.835267
636.063968	2552.313507
636.409245	2553.021789
636.754470	2553.820812
637.099642	2552.447098
637.444762	2555.413817
637.789829	2550.912066
638.134845	2552.452139
638.479808	2549.334185
638.824719	2550.662529
639.169577	2552.656306
639.514383	2552.376522
639.859137	2551.978270
640.203839	2552.167314
640.548489	2552.283260
640.893086	2550.884340
641.237632	2548.681356
641.582125	2549.490461
641.926566	2545.830583
642.270955	2553.115051
642.615292	2554.024979
642.959576	2554.337530
643.303809	2555.146636
643.647990	2551.658157
643.992118	2549.926521
644.336195	2552.983981
644.680219	2548.860317
645.024192	2551.920297
645.368112	2552.169834
645.711981	2552.043805
646.055797	2552.396686
646.399562	2553.099927
646.743274	2550.634803
647.086935	2554.032541
647.430544	2553.304094
647.774101	2553.162942
648.117606	2550.014741
648.461059	2552.280740
648.804460	2552.973898
649.147810	2553.808209
649.491108	2550.468445
649.834354	2551.587581
650.177548	2553.694783
650.520690	2552.348795
650.863781	2552.376522
651.206820	2553.709907
651.549807	2552.210163
651.892742	2552.361398
652.235626	2552.452139
652.578458	2552.948693
652.921238	2552.505071
653.263967	2554.708055
653.606644	2553.417520
653.949269	2552.948693
654.291843	2554.365257
654.634365	2555.055895
654.976836	2550.942313
655.319255	2551.517005
655.661622	2553.117571
656.003938	2552.457180
656.346203	2551.159083
656.688416	2552.842828
657.030577	2552.404248
657.372687	2555.275185
657.714746	2552.338713
658.056753	2554.831563
658.398708	2546.914431
658.740612	2553.243600
659.082465	2547.383259
659.424266	2551.852242
659.766016	2547.816798
660.107715	2553.740154
660.449362	2553.397355
660.790958	2554.859290
661.132503	2552.588250
661.473996	2553.243600
661.815438	2554.589588
662.156829	2554.740823
662.498168	2554.181255
662.839456	2553.853580
663.180693	2554.082952
663.521879	2552.157231
663.863013	2552.008517
664.204097	2555.252500
664.545129	2554.476162
664.886110	2554.264434
665.227040	2554.680329
665.567918	2551.517005
665.908746	2556.422047
666.249522	2556.638817
666.590248	2556.386759
666.930922	2553.362067
667.271545	2554.395504
667.612118	2558.803993
667.952639	2552.716799
668.293109	2557.190823
668.633528	2555.872562
668.973896	2557.001780
669.314213	2553.236038
669.654480	2555.255020
669.994695	2552.391645
670.334859	2556.278375
670.674973	2556.215360
671.015035	2554.526574
671.355047	2557.805844
671.695008	2554.806358
672.034918	2555.668395
672.374777	2556.699311
672.714585	2554.143446
673.054342	2557.170659
673.394049	2558.435988
673.733705	2555.842315
674.073310	2555.718807
674.412864	2555.764177
674.752368	2556.288457
675.091820	2556.462377
675.431223	2556.273333
675.770574	2557.657130
676.109875	2554.965154
676.449125	2553.445246
676.788324	2552.283260
677.127473	2557.062274
677.466571	2552.651264
677.805619	2555.988508
678.144616	2559.139229
678.483562	2559.194682
678.822458	2557.745350
679.161303	2559.300546
679.500098	2558.282233
679.838842	2557.631924
680.177535	2555.791903
680.516179	2561.052347
680.854771	2560.414641
681.193314	2559.862635
681.531805	2559.091338
681.870247	2561.490928
682.208638	2559.930691
682.546978	2559.945814
682.885268	2564.702143
683.223508	2564.351782
683.561697	2563.628377
683.899836	2565.080229
684.237925	2563.124262
684.575963	2563.199879
684.913951	2563.454457
685.251889	2568.351938
685.589776	2566.259859
685.927614	2566.143913
686.265401	2568.530899
686.603137	2570.413770
686.940824	2569.360169
687.278460	2569.745817
687.616046	2574.290417
687.953582	2575.734708
688.291068	2570.010478
688.628504	2574.161868
688.965889	2570.771692
689.303224	2573.561971
689.640510	2574.071127
689.977745	2573.350242
690.314930	2573.534244
690.652065	2572.647001
690.989150	2570.214644
691.326185	2572.389902
691.663170	2570.421332
692.000105	2570.353276
692.336990	2570.068451
692.673825	2572.389902
693.010610	2569.400498
693.347345	2566.010322
693.684030	2569.226578
694.020665	2568.745148
694.357251	2564.329097
694.693786	2568.800601
695.030272	2570.277659
695.366707	2569.130796
695.703093	2572.014336
696.039429	2569.483677
696.375716	2569.110632
696.711952	2569.811352
697.048139	2569.244222
697.384276	2572.221024
697.720363	2570.738924
698.056400	2573.561971
698.392388	2572.647001
698.728326	2575.288566
699.064214	2571.323698
699.400053	2574.595407
699.735842	2572.568863
700.071581	2575.028946
700.407270	2575.036508
700.742910	2575.989286
701.078501	2571.711867
701.414042	2573.539285
701.749533	2573.854357
702.084974	2572.674728
702.420366	2574.048442
702.755709	2573.309913
703.091002	2571.485015
703.426246	2575.578432
703.761440	2572.848647
704.096584	2572.107598
704.431679	2573.919893
704.766725	2573.952660
705.101721	2573.130952
705.436668	2575.941395
705.771565	2571.348904
706.106413	2575.054152
706.441212	2577.718402
706.775961	2580.286870
707.110661	2576.359811
707.445311	2582.184864
707.779913	2578.366190
708.114465	2582.096644
708.448967	2581.786613
708.783421	2583.858527
709.117825	2585.650657
709.452180	2587.780545
709.786485	2585.471697
710.120742	2589.030751
710.454949	2592.826740
710.789107	2592.042841
711.123216	2592.597367
711.457275	2594.245825
711.791286	2597.141968
712.125247	2601.502566
712.459159	2599.657503
712.793023	2598.160281
713.126837	2603.335025
713.460602	2602.321753
713.794318	2598.520723
714.127985	2600.554829
714.461602	2599.677668
714.795171	2596.894951
715.128691	2597.862853
715.462162	2592.604929
715.795584	2590.986719
716.128957	2596.635332
716.462281	2591.102665
716.795556	2593.754312
717.128782	2592.892275
717.461960	2592.551997
717.795088	2592.438571
718.128167	2592.108376
718.461198	2589.310535
718.794180	2592.869590
719.127113	2589.824733
719.459997	2591.387491
719.792833	2588.110741
720.125619	2587.634352
720.458357	2586.462283
720.791046	2589.335741
721.123686	2588.206522
721.456278	2587.576378
721.788821	2590.585947
722.121315	2589.713827
722.453761	2591.289188
722.786158	2593.139292
723.118506	2591.505958
723.450805	2588.206523
723.783056	2589.297932
724.115259	2595.448140
724.447412	2593.071236
724.779518	2593.267841
725.111574	2593.592995
725.443582	2596.902513
725.775542	2594.928901
726.107453	2596.710949
726.439315	2600.015425
726.771129	2605.132197
727.102895	2602.480550
727.434612	2605.810232
727.766281	2605.021291
728.097901	2602.173039
728.429473	2600.138934
728.760996	2602.162957
729.092471	2602.445262
729.423897	2605.384254
729.755276	2608.038422
730.086606	2612.157044
730.417887	2609.631426
730.749120	2610.538834
731.080305	2618.042592
731.411442	2623.325721
731.742530	2617.044443
732.073570	2616.936058
732.404562	2624.449898
732.735506	2626.335290
733.066401	2621.226080
733.397249	2619.749022
733.728048	2617.858589
734.058798	2616.973867
734.389501	2609.525562
734.720156	2606.727722
735.050762	2608.802157
735.381320	2610.848865
735.711831	2601.406784
736.042293	2606.185798
736.372707	2607.718308
736.703073	2606.374841
737.033391	2602.936774
737.363661	2605.916096
737.693883	2609.550768
738.024056	2611.594956
738.354182	2609.470109
738.684260	2614.647374
739.014290	2612.439349
739.344272	2613.492950
739.674207	2618.314814
740.004093	2619.575102
740.333931	2616.696603
740.663722	2621.871348
740.993464	2622.693056
741.323159	2621.296656
741.652806	2623.366050
741.982405	2621.243724
742.311956	2617.533435
742.641460	2619.305401
742.970915	2616.885647
743.300323	2615.264916
743.629683	2613.122425
743.958996	2612.152003
744.288260	2615.111161
744.617477	2612.227621
744.946647	2606.039604
745.275768	2609.036570
745.604842	2608.267794
745.933869	2603.922320
746.262847	2600.390991
746.591778	2615.804319
746.920662	2609.570932
747.249498	2604.096239
747.578286	2615.469082
747.907027	2614.854062
748.235720	2610.382558
748.564365	2617.878754
748.892963	2617.314145
749.221514	2615.585029
749.550017	2616.623507
749.878473	2615.055708
750.206881	2615.937910
750.535242	2615.249792
750.863555	2614.450769
751.191821	2613.757611
751.520039	2613.734926
751.848210	2609.313834
752.176334	2614.203753
752.504411	2617.256172
752.832440	2611.521859
753.160421	2607.985490
753.488356	2615.048146
753.816243	2617.225925
754.144082	2613.170316
754.471875	2611.075717
754.799620	2613.881119
755.127318	2610.662342
755.454969	2613.399689
755.782572	2613.011520
756.110129	2610.984976
756.437638	2613.193002
756.765100	2615.890019
757.092515	2617.457818
757.419882	2618.208950
757.747203	2615.459000
758.074477	2614.145780
758.401703	2617.707355
758.728882	2616.815071
759.056014	2615.501850
759.383099	2618.312293
759.710138	2615.877416
760.037129	2618.476131
760.364073	2625.334621
760.690970	2622.529218
761.017820	2618.725668
761.344623	2620.903446
761.671379	2625.322018
761.998088	2628.142543
762.324751	2638.749131
762.651366	2649.872437
762.977935	2687.108920
763.304456	2722.606205
763.630931	2740.850140
763.957359	2713.033053
764.283740	2685.483148
764.610074	2678.047446
764.936362	2666.374654
765.262602	2651.026861
765.588796	2642.958494
765.914943	2636.972124
766.241044	2624.031482
766.567097	2625.049795
766.893104	2618.082921
767.219064	2614.791047
767.544978	2615.058228
767.870845	2608.789554
768.196665	2607.529265
768.522438	2611.468927
768.848165	2608.600510
769.173846	2608.313165
769.499479	2608.035901
769.825066	2605.238061
770.150607	2602.485591
770.476101	2604.383585
770.801548	2609.165120
771.126949	2599.468460
771.452303	2600.872422
771.777611	2602.586414
772.102872	2603.571959
772.428087	2599.753285
772.753256	2602.609099
773.078378	2601.721856
773.403453	2594.807913
773.728482	2596.347986
774.053465	2599.728080
774.378401	2596.315218
774.703291	2594.137440
775.028135	2595.722883
775.352932	2593.015783
775.677683	2593.335897
776.002388	2593.741709
776.327046	2596.070722
776.651658	2593.386308
776.976224	2589.902871
777.300743	2587.639393
777.625216	2590.369177
777.949643	2591.032089
778.274024	2589.421441
778.598359	2585.569999
778.922647	2586.681573
779.246889	2591.359764
779.571086	2586.671491
779.895236	2586.472366
780.219339	2590.966554
780.543397	2592.393201
780.867409	2592.665423
781.191374	2594.578541
781.515294	2590.901019
781.839167	2592.340269
782.162995	2589.607963
782.486776	2594.099631
782.810511	2591.057295
783.134201	2592.216760
783.457844	2594.812955
783.781441	2592.100814
784.104993	2590.349013
784.428498	2589.759198
784.751958	2593.676174
785.075372	2589.852459
785.398739	2587.949424
785.722061	2591.868921
786.045337	2594.167687
786.368568	2588.720720
786.691752	2590.354054
787.014891	2595.133068
787.337983	2598.387133
787.661030	2598.119952
787.984031	2605.875767
788.306987	2616.250461
788.629897	2610.828700
788.952760	2615.937910
789.275579	2613.510594
789.598351	2605.724532
789.921078	2600.406115
790.243759	2602.120107
790.566395	2597.436875
790.888984	2595.463263
791.211529	2594.981833
791.534027	2594.603747
791.856480	2593.701380
792.178888	2591.498396
792.501249	2584.377766
792.823566	2591.579054
793.145836	2589.121492
793.468062	2589.313056
793.790241	2587.258786
794.112375	2591.432861
794.434464	2592.945207
794.756507	2592.501586
795.078505	2592.473859
795.400457	2590.646441
795.722364	2592.327666
796.044226	2599.365117
796.366042	2597.396546
796.687812	2597.144488
797.009538	2601.971393
797.331218	2602.921651
797.652852	2600.116248
797.974442	2599.322267
798.295986	2598.679520
798.617484	2597.666248
798.938938	2595.949735
799.260346	2595.125506
799.581709	2596.761361
799.903026	2594.686926
800.224299	2592.804055
800.545526	2592.141143
800.866708	2586.046388
801.187845	2588.448498
801.508936	2591.105186
801.829983	2591.037130
802.150984	2589.124012
802.471940	2584.599577
802.792851	2589.144177
803.113717	2585.769125
803.434538	2587.946903
803.755314	2583.538414
804.076045	2583.193095
804.396731	2583.041860
804.717372	2585.106213
805.037967	2584.748291
805.358518	2583.699731
805.679024	2589.781883
805.999485	2584.130750
806.319901	2588.829105
806.640272	2585.892633
806.960598	2586.603436
807.280879	2588.140987
807.601115	2590.157449
807.921306	2587.397417
808.241453	2588.561924
808.561554	2590.021338
808.881611	2588.496389
809.201623	2585.728795
809.521590	2587.717531
809.841513	2586.326172
810.161390	2590.328848
810.481223	2588.698035
810.801011	2583.893815
811.120755	2584.160997
811.440453	2586.782397
811.760107	2587.341965
812.079716	2586.250555
812.399281	2584.173599
812.718801	2582.696541
813.038276	2578.683783
813.357707	2586.628641
813.677093	2588.685432
813.996434	2585.136460
814.315731	2587.198292
814.634983	2586.913467
814.954191	2588.796338
815.273354	2588.367839
815.592473	2590.996801
815.911547	2590.664085
816.230577	2590.356575
816.549562	2596.471494
816.868502	2590.858169
817.187399	2595.974941
817.506250	2599.045003
817.825058	2596.000146
818.143821	2600.890066
818.462539	2603.579521
818.781213	2606.064810
819.099843	2612.620831
819.418429	2621.331944
819.736970	2629.085239
820.055466	2639.790129
820.373919	2660.171514
820.692327	2685.755370
821.010691	2707.417208
821.329011	2754.461256
821.647286	2842.820080
821.965517	2981.182109
822.283704	3042.946326
822.601847	3063.141188
822.919945	3043.805843
823.237999	3030.421579
823.556010	2955.406689
823.873976	2888.538304
824.191897	2837.516786
824.509775	2796.552370
824.827609	2749.334402
825.145398	2733.212792
825.463144	2733.159860
825.780845	2743.690831
826.098502	2752.827922
826.416116	2789.348561
826.733685	2825.801144
827.051210	2841.514421
827.368692	2828.508244
827.686129	2804.729121
828.003522	2755.908067
828.320872	2717.312993
828.638177	2687.557582
828.955439	2657.605567
829.272656	2645.405975
829.589830	2631.419293
829.906960	2625.778242
830.224046	2616.835235
830.541088	2611.957919
830.858086	2611.902466
831.175041	2608.277877
831.491952	2607.312496
831.808819	2609.938937
832.125642	2615.670729
832.442421	2623.386215
832.759157	2636.793163
833.075849	2662.883655
833.392497	2703.051569
833.709101	2736.313102
834.025662	2737.671693
834.342179	2717.146635
834.658653	2687.933148
834.975083	2665.361382
835.291469	2653.050884
835.607811	2632.838378
835.924110	2619.514608
836.240366	2612.386417
836.556578	2601.386619
836.872746	2598.878645
837.188871	2593.620722
837.504952	2588.791296
837.820990	2589.214753
838.136984	2582.550348
838.452935	2582.610842
838.768842	2583.528332
839.084706	2584.491192
839.400526	2598.924016
839.716303	2619.252468
840.032037	2628.767646
840.347727	2633.584469
840.663373	2631.368882
840.978977	2616.996552
841.294537	2601.255549
841.610054	2593.764395
841.925527	2589.615525
842.240957	2585.776686
842.556344	2582.124370
842.871687	2575.996848
843.186987	2572.468040
843.502244	2576.437949
843.817458	2572.886456
844.132629	2568.344376
844.447756	2570.421332
844.762840	2562.292471
845.077881	2563.653583
845.392879	2563.774570
845.707833	2564.515620
846.022745	2560.669220
846.337613	2563.663665
846.652438	2563.545198
846.967221	2564.606361
847.281960	2564.281206
847.596656	2563.968655
847.911309	2560.664178
848.225919	2561.682492
848.540485	2561.483366
848.855009	2562.506720
849.169490	2561.947152
849.483928	2560.265927
849.798323	2560.858263
850.112675	2560.487738
850.426984	2561.037224
850.741251	2562.060578
851.055474	2558.995557
851.369654	2561.690053
851.683792	2560.253324
851.997887	2564.739951
852.311938	2559.028324
852.625947	2559.993705
852.939914	2562.146278
853.253837	2565.523851
853.567718	2562.476473
853.881555	2561.763150
854.195350	2562.234498
854.509103	2563.129303
854.822812	2561.823644
855.136479	2561.044786
855.450103	2561.168294
855.763685	2562.587379
856.077224	2564.457647
856.390720	2561.851370
856.704173	2563.114179
857.017584	2561.664847
857.330953	2561.778273
857.644278	2563.217523
857.957561	2566.970662
858.270802	2563.620815
858.584000	2562.093346
858.897155	2563.363716
859.210268	2563.446895
859.523339	2564.694581
859.836367	2562.607543
860.149352	2562.627708
860.462295	2562.400856
860.775195	2558.854404
861.088054	2560.212995
861.400869	2561.846329
861.713642	2556.792572
862.026373	2562.846998
862.339062	2561.884138
862.651708	2563.590568
862.964312	2562.947821
863.276873	2563.847667
863.589392	2563.489745
863.901869	2563.996381
864.214303	2567.527709
864.526696	2565.213820
864.839045	2566.922771
865.151353	2569.090467
865.463619	2568.261197
865.775842	2568.722463
866.088023	2568.646846
866.400162	2570.685992
866.712258	2569.597103
867.024313	2567.885631
867.336325	2567.026115
867.648296	2570.320509
867.960224	2571.144737
868.272110	2572.858730
868.583954	2566.254818
868.895755	2568.525858
869.207515	2567.709191
869.519233	2572.619275
869.830909	2568.724983
870.142542	2570.930488
870.454134	2569.561815
870.765684	2569.743297
871.077191	2571.926116
871.388657	2574.860068
871.700081	2572.054666
872.011463	2572.984758
872.322803	2569.866805
872.634101	2573.443503
872.945357	2575.338977
873.256571	2577.315110
873.567744	2573.440983
873.878874	2573.372927
874.189963	2574.950808
874.501010	2576.203535
874.812015	2577.625141
875.122979	2581.141345
875.433900	2576.964749
875.744780	2575.502815
876.055618	2577.947774
876.366415	2581.774010
876.677169	2580.715368
876.987882	2576.246385
877.298554	2576.969791
877.609183	2581.932807
877.919771	2582.983887
878.230317	2586.122005
878.540822	2590.641400
878.851285	2595.836309
879.161707	2604.439038
879.472087	2619.108796
879.782425	2628.392080
880.092722	2652.763539
880.402977	2693.637214
880.713191	2729.205075
881.023363	2766.625560
881.333494	2782.409413
881.643583	2812.351346
881.953631	2829.619818
882.263637	2817.793272
882.573602	2786.961575
882.883526	2771.775099
883.193408	2753.972264
883.503248	2736.287896
883.813048	2717.033209
884.122806	2686.284691
884.432522	2668.280210
884.742197	2649.728764
885.051831	2644.279277
885.361424	2634.983389
885.670975	2623.479476
885.980485	2614.849021
886.289954	2610.374997
886.599382	2606.503390
886.908768	2600.448965
887.218113	2596.501741
887.527417	2588.592171
887.836680	2592.133581
888.145901	2589.164342
888.455082	2587.036975
888.764221	2583.601428
889.073319	2579.926427
889.382376	2579.318968
889.691392	2581.995821
890.000366	2581.146387
890.309300	2580.647312
890.618193	2581.080852
890.927044	2582.729309
891.235855	2582.142014
891.544625	2579.704617
891.853353	2578.366190
892.162041	2582.946078
892.470687	2588.874475
892.779293	2592.882193
893.087858	2595.944694
893.396381	2597.734303
893.704864	2609.908690
894.013306	2623.335803
894.321707	2651.253713
894.630068	2660.385763
894.938387	2668.123934
895.246665	2677.999555
895.554903	2666.561177
895.863100	2656.811585
896.171256	2641.705768
896.479371	2625.627007
896.787446	2612.910697
897.095480	2605.306116
897.403473	2604.262597
897.711425	2600.610282
898.019336	2595.435537
898.327207	2590.522933
898.635038	2588.972778
898.942827	2588.272057
899.250576	2585.859865
899.558284	2580.715368
899.865952	2579.994483
900.173579	2579.424832
900.481165	2578.774524
900.788711	2574.630695
901.096216	2571.747155
901.403681	2571.830334
901.711105	2576.253947
902.018489	2575.976683
902.325832	2576.180850
902.633135	2574.023236
902.940397	2579.545820
903.247619	2592.524271
903.554800	2609.641509
903.861941	2635.769809
904.169041	2663.488593
904.476101	2677.276149
904.783121	2681.354443
905.090100	2672.479491
905.397039	2664.055723
905.703938	2644.443114
906.010796	2625.412758
906.317614	2609.734770
906.624391	2596.264807
906.931129	2590.086873
907.237826	2580.990111
907.544483	2576.498443
907.851099	2572.833524
908.157675	2565.667524
908.464211	2566.799263
908.770707	2560.114693
909.077163	2561.087635
909.383578	2558.292316
909.689954	2558.320042
909.996289	2555.295350
910.302584	2561.347255
910.608839	2558.587223
910.915054	2558.587223
911.221229	2558.272151
911.527363	2562.063099
911.833458	2559.330793
912.139513	2557.112686
912.445527	2562.564693
912.751502	2564.704663
913.057436	2565.793552
913.363331	2568.866136
913.669186	2572.866291
913.975000	2576.049780
914.280775	2582.048753
914.586510	2586.689135
914.892205	2595.455702
915.197859	2613.460183
915.503475	2636.004223
915.809050	2652.889567
916.114585	2650.046357
916.420081	2655.468118
916.725536	2666.503203
917.030952	2662.959272
917.336328	2649.726243
917.641665	2635.197638
917.946961	2620.623662
918.252218	2611.002620
918.557435	2601.822679
918.862612	2596.511823
919.167750	2593.414034
919.472848	2586.323652
919.777906	2581.015317
920.082925	2577.209245
920.387904	2575.217990
920.692843	2571.873184
920.997743	2571.840417
921.302603	2567.469736
921.607423	2568.591393
921.912204	2564.198027
922.216946	2565.304561
922.521647	2565.760785
922.826310	2563.610733
923.130932	2562.645352
923.435516	2557.929353
923.740059	2559.169476
924.044564	2554.982798
924.349028	2560.316339
924.653454	2553.147818
924.957840	2554.093034
925.262186	2548.744370
925.566493	2553.304094
925.870761	2549.467776
926.174989	2551.809392
926.479178	2553.026830
926.783328	2551.839639
927.087438	2551.126315
927.391509	2549.132539
927.695541	2551.877447
927.999533	2551.882488
928.303486	2549.256047
928.607400	2548.520039
928.911275	2548.940975
929.215110	2547.857127
929.518906	2550.513815
929.822663	2548.814946
930.126381	2546.717826
930.430060	2548.741850
930.733699	2546.997610
931.037299	2548.421736
931.340861	2547.085831
931.644383	2550.130688
931.947866	2549.868548
932.251309	2551.020451
932.554714	2547.216901
932.858080	2547.410985
933.161407	2549.407282
933.464694	2547.443753
933.767943	2546.823691
934.071153	2547.378217
934.374323	2546.400234
934.677455	2548.656150
934.980548	2546.712785
935.283602	2546.715306
935.586617	2548.618341
935.889593	2548.547765
936.192530	2546.848896
936.495428	2548.883002
936.798287	2547.022816
937.101108	2547.998279
937.403890	2549.843342
937.706632	2550.990204
938.009336	2552.857952
938.312002	2552.515153
938.614628	2553.742674
938.917216	2553.573796
939.219765	2553.535987
939.522275	2555.060936
939.824747	2556.802655
940.127179	2550.778476
940.429573	2550.886861
940.731929	2550.402910
941.034246	2549.230842
941.336524	2550.171017
941.638763	2551.998435
941.940964	2550.307128
942.243126	2551.421223
942.545250	2551.403579
942.847335	2552.928528
943.149381	2548.552806
943.451389	2550.176058
943.753359	2549.422405
944.055290	2549.182951
944.357182	2550.365101
944.659036	2550.052550
944.960851	2550.844011
945.262628	2547.461397
945.564367	2551.605225
945.866067	2547.786551
946.167729	2548.704041
946.469352	2547.045501
946.770937	2548.787220
947.072484	2549.800492
947.373992	2547.937786
947.675462	2546.775800
947.976893	2548.217570
948.278286	2547.473999
948.579641	2548.673794
948.880958	2545.097095
949.182236	2549.608928
949.483476	2544.683721
949.784678	2547.547096
950.085841	2547.781510
950.386967	2547.489123
950.688054	2548.535162
950.989103	2548.875440
951.290114	2549.770245
951.591087	2548.794782
951.892021	2551.403579
952.192917	2550.133208
952.493776	2550.307128
952.794596	2551.431305
953.095378	2547.847045
953.396122	2552.036244
953.696828	2551.118754
953.997496	2549.709751
954.298126	2548.530121
954.598718	2549.190512
954.899272	2548.978784
955.199788	2545.613814
955.500266	2549.155224
955.800706	2545.724719
956.101108	2540.890253
956.401472	2545.979297
956.701798	2539.725746
957.002087	2542.316899
957.302337	2545.545758
957.602550	2545.737322
957.902724	2544.136756
958.202861	2546.107847
958.502960	2541.001158
958.803022	2544.532486
959.103045	2543.771272
959.403031	2546.445604
959.702979	2543.007537
960.002889	2544.295552
960.302762	2543.257074
960.602596	2544.746735
960.902393	2542.120294
961.202153	2542.755479
961.501875	2543.473844
961.801559	2542.851261
962.101205	2542.989893
962.400814	2543.899821
962.700385	2545.162630
962.999918	2541.613658
963.299414	2541.492670
963.598873	2540.892773
963.898293	2542.465613
964.197677	2543.541899
964.497022	2540.010571
964.796331	2542.286652
965.095601	2542.447969
965.394835	2543.950233
965.694030	2542.054759
965.993189	2541.805222
966.292309	2542.165664
966.591393	2541.391847
966.890439	2543.299924
967.189447	2540.050900
967.488419	2541.122146
967.787353	2542.004348
968.086249	2542.236241
968.385108	2541.260777
968.683930	2543.178936
968.982714	2543.652805
969.281462	2541.449821
969.580172	2539.854295
969.878844	2542.710109
970.177480	2543.746066
970.476078	2541.921168
970.774639	2544.812270
971.073162	2541.598535
971.371649	2541.928730
971.670098	2539.849254
971.968510	2538.621733
972.266885	2536.663245
972.565223	2544.313196
972.863524	2542.989893
973.161788	2544.368649
973.460014	2538.596527
973.758204	2542.846220
974.056356	2542.962167
974.354471	2542.873947
974.652550	2539.549306
974.950591	2544.257743
975.248595	2541.507794
975.546563	2541.926210
975.844493	2542.185829
976.142386	2542.185829
976.440243	2542.974770
976.738062	2544.464431
977.035845	2542.369831
977.333590	2543.110881
977.631299	2542.218597
977.928971	2544.388813
978.226606	2541.767413
978.524204	2540.532331
978.821765	2541.419574
979.119290	2541.797660
979.416777	2541.525438
979.714228	2543.824204
980.011642	2542.052238
980.309020	2545.210521
980.606360	2543.146169
980.903664	2541.651467
981.200931	2540.665921
981.498162	2543.867054
981.795356	2542.561395
982.092513	2544.837476
982.389633	2544.129194
982.686717	2547.978115
982.983764	2544.895449
983.280775	2546.795964
983.577749	2548.028526
983.874686	2550.561706
984.171587	2546.979966
984.468451	2545.472661
984.765279	2544.272867
985.062070	2544.242620
985.358824	2543.045346
985.655543	2541.502753
985.952224	2541.275901
986.248869	2542.793288
986.545478	2537.356404
986.842050	2540.454193
987.138586	2537.013605
987.435086	2540.824718
987.731549	2536.317926
988.027975	2541.689275
988.324366	2539.957639
988.620719	2541.490150
988.917037	2539.017464
989.213318	2539.740869
989.509563	2542.266488
989.805772	2539.254398
990.101944	2539.466127
990.398080	2542.763041
990.694180	2542.110212
990.990244	2542.132897
991.286271	2539.972762
991.582262	2539.874460
991.878217	2537.109387
992.174136	2541.177598
992.470019	2538.919161
992.765865	2540.902855
993.061676	2541.782537
993.357450	2542.248843
993.653188	2541.071734
993.948890	2544.663556
994.244556	2540.244985
994.540186	2542.725233
994.835780	2539.244316
995.131337	2543.211704
995.426859	2539.234233
995.722345	2539.037628
996.017795	2541.835469
996.313208	2542.178267
996.608586	2540.940664
996.903928	2542.982331
997.199234	2540.033256
997.494504	2543.105840
997.789738	2539.312371
998.084936	2543.506611
998.380099	2542.936961
998.675225	2537.061496
998.970316	2539.498894
999.265371	2542.821014
999.560390	2540.459234
999.855373	2540.980993
1000.150320	2541.469985
1000.445232	2543.496529
1000.740108	2540.330684
1001.034948	2540.131559
1001.329752	2541.074255
1001.624521	2539.317413
1001.919254	2537.668955
1002.213951	2537.691640
1002.508613	2537.641229
1002.803239	2535.539068
1003.097829	2534.971938
1003.392384	2541.348998
1003.686903	2539.342618
1003.981386	2539.115766
1004.275834	2542.097609
1004.570246	2539.773637
1004.864623	2540.794471
1005.158964	2540.925541
1005.453270	2541.361600
1005.747540	2541.296065
1006.041775	2540.066024
1006.335974	2537.837834
1006.630138	2539.763555
1006.924266	2537.658873
1007.218359	2538.498225
1007.512416	2538.883873
1007.806438	2541.238092
1008.100425	2540.111394
1008.394376	2537.679037
1008.688292	2541.159954
1008.982172	2539.105684
1009.276017	2539.579553
1009.569827	2538.561239
1009.863602	2542.498381
1010.157341	2539.317413
1010.451045	2538.427649
1010.744714	2539.100643
1011.038347	2538.813297
1011.331945	2541.427135
1011.625508	2541.036446
1011.919036	2539.239275
1012.212528	2539.176260
1012.505986	2539.428318
1012.799408	2539.703061
1013.092795	2537.782381
1013.386147	2539.761034
1013.679464	2541.028884
1013.972745	2538.243647
1014.265992	2538.916641
1014.559204	2541.694317
1014.852380	2539.713143
1015.145521	2539.251877
1015.438628	2538.677186
1015.731699	2540.353370
1016.024736	2537.769778
1016.317737	2539.607279
1016.610703	2542.309337
1016.903635	2536.963194
1017.196531	2537.227854
1017.489393	2536.612833
1017.782219	2535.438245
1018.075011	2537.444624
1018.367768	2535.687782
1018.660490	2540.285314
1018.953177	2540.285314
1019.245829	2540.285314
