Dividing Wavelength (nm)	Counts (n)	Blue Motor Position (mm): 37.400000	Red Motor Position (mm): 0.000000	
326.493990	2133.796915
326.888308	2133.796915
327.282561	2133.796915
327.676750	2097.104877
328.070874	2097.729980
328.464933	2097.677048
328.858929	2107.676176
329.252859	2115.139604
329.646726	2128.213837
330.040528	2140.516773
330.434265	2157.407159
330.827938	2173.725374
331.221547	2193.673220
331.615091	2213.127032
332.008571	2230.219064
332.401986	2250.550038
332.795338	2270.437390
333.188625	2289.409772
333.581847	2309.380303
333.975006	2325.310349
334.368100	2343.518997
334.761129	2363.434075
335.154095	2379.354039
335.546996	2399.937070
335.939833	2423.932963
336.332606	2440.430139
336.725315	2452.899433
337.117960	2462.396967
337.510540	2467.836372
337.903056	2481.389514
338.295508	2485.538383
338.687896	2497.823675
339.080220	2506.378513
339.472480	2509.834224
339.864676	2516.420492
340.256807	2523.087418
340.648875	2521.622962
341.040879	2526.820392
341.432818	2528.957841
341.824694	2528.297450
342.216506	2529.429189
342.608253	2531.591844
342.999937	2531.483459
343.391557	2531.881711
343.783113	2528.922553
344.174605	2527.430372
344.566033	2526.550690
344.957397	2524.839219
345.348697	2523.536080
345.739934	2523.883920
346.131106	2517.705986
346.522215	2519.697242
346.913260	2515.850841
347.304241	2513.839421
347.695159	2513.665501
348.086012	2512.458145
348.476802	2508.639471
348.867528	2506.418843
349.258191	2504.881291
349.648789	2505.579490
350.039324	2502.673265
350.429796	2504.546054
350.820203	2502.264932
351.210548	2496.901144
351.600828	2497.916937
351.991045	2498.146309
352.381198	2497.369971
352.771288	2497.175887
353.161314	2497.188490
353.551276	2498.476505
353.941175	2496.785198
354.331010	2500.860970
354.720782	2495.623212
355.110490	2495.096411
355.500135	2496.845691
355.889717	2497.392657
356.279235	2495.212357
356.668689	2497.594303
357.058080	2500.394664
357.447408	2495.333345
357.836672	2493.233705
358.225873	2496.046668
358.615010	2491.796976
359.004084	2501.549088
359.393095	2500.626557
359.782043	2498.703357
360.170927	2500.971876
360.559748	2500.261073
360.948505	2501.763337
361.337199	2503.653770
361.725830	2505.030005
362.114398	2505.531599
362.502903	2504.498163
362.891344	2507.381703
363.279722	2503.729387
363.668037	2506.315499
364.056289	2505.889521
364.444478	2505.781137
364.832603	2507.147289
365.220665	2507.482526
365.608665	2504.417504
365.996601	2509.667866
366.384474	2508.029491
366.772284	2508.621827
367.160031	2508.021929
367.547715	2510.008144
367.935336	2509.846827
368.322893	2510.217352
368.710388	2508.974707
369.097820	2514.998886
369.485189	2508.342043
369.872495	2512.823628
370.259738	2510.938237
370.646918	2512.780779
371.034035	2510.850017
371.421090	2511.666684
371.808081	2515.452590
372.195010	2512.836231
372.581875	2514.260357
372.968678	2512.490912
373.355418	2513.897394
373.742096	2515.162724
374.128710	2514.151972
374.515262	2518.096675
374.901751	2515.548372
375.288177	2516.791017
375.674540	2515.790348
376.060841	2515.654236
376.447079	2515.122395
376.833254	2519.974505
377.219367	2510.756755
377.605417	2517.108609
377.991404	2514.613238
378.377329	2514.913187
378.763191	2514.862775
379.148991	2520.841584
379.534727	2518.215143
379.920402	2520.720596
380.306013	2519.528363
380.691563	2522.376615
381.077049	2519.394773
381.462474	2521.552386
381.847835	2520.831501
382.233134	2520.178672
382.618371	2519.263703
383.003545	2523.374763
383.388657	2523.760412
383.773706	2521.945596
384.158693	2525.398787
384.543618	2525.572707
384.928480	2521.065915
385.313280	2524.403159
385.698017	2525.207223
386.082692	2526.031452
386.467305	2525.106400
386.851856	2524.904754
387.236344	2523.765453
387.620770	2530.525640
388.005133	2526.898530
388.389435	2527.427851
388.773674	2528.937677
389.157851	2525.776873
389.541965	2529.076308
389.926018	2532.118645
390.310008	2531.029756
390.693936	2531.523789
391.077802	2527.886596
391.461606	2530.565969
391.845348	2529.860208
392.229027	2534.067051
392.612645	2533.731814
392.996200	2534.019160
393.379694	2534.745086
393.763125	2535.178625
394.146494	2535.375230
394.529801	2538.417567
394.913047	2540.708771
395.296230	2544.083823
395.679351	2547.393341
396.062410	2551.847200
396.445408	2552.933569
396.828343	2562.496638
397.211217	2562.564693
397.594028	2571.172464
397.976778	2578.691345
398.359466	2590.538056
398.742092	2599.304623
399.124656	2612.504884
399.507158	2632.951804
399.889598	2646.207518
400.271977	2664.154026
400.654294	2679.227076
401.036549	2696.775332
401.418742	2709.398382
401.800874	2739.224368
402.182944	2764.624222
402.564952	2795.027421
402.946898	2815.587767
403.328783	2839.671879
403.710606	2854.883561
404.092367	2913.189546
404.474067	2932.789553
404.855705	2965.945221
405.237282	2978.348980
405.618797	3036.685213
406.000250	3078.007551
406.381642	3132.182311
406.762972	3159.008811
407.144240	3198.670089
407.525447	3233.030593
407.906593	3291.704583
408.287677	3344.094774
408.668700	3358.394007
409.049661	3420.692586
409.430560	3478.587718
409.811399	3486.593070
410.192176	3601.972479
410.572891	3610.686113
410.953545	3707.854353
411.334138	3691.168134
411.714669	3765.015997
412.095139	3747.712236
412.475547	3870.784446
412.855894	3907.688212
413.236180	3948.090540
413.616405	3960.484217
413.996568	4057.990214
414.376670	4055.469637
414.756711	4065.118406
415.136691	4121.763331
415.516609	4219.226479
415.896466	4279.662352
416.276262	4337.234849
416.655997	4362.158314
417.035670	4537.048544
417.415283	4640.820696
417.794834	4633.813492
418.174324	4628.739571
418.553753	4581.592179
418.933121	4770.474132
419.312428	4855.644426
419.691674	4831.157021
420.070859	4969.604750
420.449983	4917.088529
420.829045	5049.058375
421.208047	4981.655628
421.586988	5079.060803
421.965867	5107.230770
422.344686	5247.770578
422.723444	5128.156600
423.102141	4976.233867
423.480777	5272.071460
423.859352	5069.061674
424.237866	5332.519936
424.616319	5336.114278
424.994712	5452.980827
425.373044	5343.819682
425.751314	5494.396427
426.129524	5313.504703
426.507673	5509.141802
426.885762	5596.512560
427.263789	5540.742275
427.641756	5430.051139
428.019662	5552.052103
428.397508	5565.045677
428.775292	5522.153020
429.153016	5619.684223
429.530679	5545.090270
429.908282	5636.297346
430.285824	5512.312687
430.663305	5782.377381
431.040726	5520.562536
431.418086	5526.558988
431.795385	5633.310462
432.172624	5645.590713
432.549802	5640.226925
432.926920	5656.053628
433.303977	5663.902704
433.680974	5706.780238
434.057910	5724.719184
434.434786	5732.671604
434.811601	5702.812850
435.188355	5930.864568
435.565050	5802.925124
435.941683	5788.121776
436.318257	6005.418192
436.694770	5991.799515
437.071222	6017.630387
437.447614	5950.315860
437.823946	5867.769486
438.200218	6021.565008
438.576429	5886.031066
438.952580	5983.955480
439.328670	6031.054980
439.704700	5939.432009
440.080670	5926.808960
440.456580	6200.969591
440.832429	6076.420323
441.208218	5924.795019
441.583947	6083.319143
441.959616	6086.643783
442.335224	6013.037896
442.710773	6145.219471
443.086261	6172.978584
443.461689	5970.810671
443.837057	6119.985975
444.212365	6273.652947
444.587612	6165.754611
444.962800	6320.545760
445.337927	6300.318130
445.712995	5911.708183
446.088002	6487.760833
446.462949	6321.846378
446.837837	6248.948773
447.212664	6421.227685
447.587431	6570.718061
447.962139	7109.272088
448.336786	8033.940691
448.711374	7770.840351
449.085901	6848.412541
449.460369	6770.655264
449.834776	6703.922990
450.209124	7099.527538
450.583412	7245.234528
450.957640	7392.111066
451.331808	7157.410066
451.705917	6709.551438
452.079965	6630.702751
452.453954	6846.655699
452.827883	6722.315639
453.201752	6818.581513
453.575562	6612.433609
453.949311	6818.576472
454.323001	6707.421550
454.696632	6775.378825
455.070202	6919.419714
455.443713	7074.498209
455.817164	7176.611821
456.190556	7252.340034
456.563888	7331.181160
456.937160	7371.875874
457.310373	7026.834099
457.683526	7054.532719
458.056619	6946.823426
458.429653	6938.513084
458.802628	6870.724688
459.175542	6978.151677
459.548398	7331.894483
459.921194	7488.770150
460.293930	7495.553022
460.666607	8025.267386
461.039224	8334.867329
461.411782	8453.102551
461.784280	8470.721384
462.156719	8363.717852
462.529099	8241.124553
462.901419	7836.191349
463.273680	7727.398208
463.645882	7741.296669
464.018024	7602.788447
464.390106	7771.515866
464.762130	8156.261769
465.134094	8631.529150
465.505999	9647.361980
465.877845	10869.604853
466.249631	11511.421876
466.621358	11125.892073
466.993026	10504.123720
467.364634	10248.083516
467.736184	9885.642198
468.107674	9551.625427
468.479105	9585.151621
468.850477	9347.955250
469.221790	9119.875806
469.593043	8793.211557
469.964238	8653.117892
470.335373	8667.517948
470.706449	8727.429541
471.077467	8708.966315
471.448425	10015.759420
471.819324	11089.552916
472.190164	11105.583785
472.560945	9854.853351
472.931667	9072.128517
473.302330	8943.543806
473.672934	8590.158921
474.043479	8945.025905
474.413965	8881.280515
474.784393	8767.932691
475.154761	8926.832381
475.525070	9009.701388
475.895321	8838.402981
476.265513	9017.280763
476.635645	9182.280249
477.005719	9186.542545
477.375734	9295.454153
477.745691	9531.879227
478.115588	9666.503241
478.485427	9909.416280
478.855207	10442.987127
479.224928	11257.846796
479.594591	11881.228319
479.964194	11692.749659
480.333739	11635.988787
480.703226	11549.482587
481.072653	11642.887606
481.442022	11871.498892
481.811333	12072.242679
482.180584	11871.312369
482.549777	11577.735734
482.918912	11409.867831
483.287988	11426.037332
483.657005	11440.145001
484.025964	11128.029523
484.394864	11258.590366
484.763706	11227.456200
485.132489	10985.236319
485.501213	10951.067379
485.869879	11024.196877
486.238487	10866.058401
486.607036	10971.673095
486.975527	10757.706361
487.343959	10943.888776
487.712333	10993.284522
488.080648	10921.463203
488.448905	10971.073198
488.817104	10904.048537
489.185244	11172.210195
489.553326	11329.133752
489.921350	11870.392359
490.289315	12929.289245
490.657222	13266.305503
491.025070	13181.535980
491.392861	13055.807083
491.760593	12665.044563
492.128267	12320.809372
492.495883	11988.690595
492.863440	11654.883032
493.230939	11320.019346
493.598380	11248.066957
493.965763	11124.944337
494.333088	11026.016733
494.700354	10947.261308
495.067563	11011.699857
495.434713	10832.239821
495.801805	10964.514657
496.168839	10889.577905
496.535815	10825.003244
496.902733	10822.573408
497.269593	10753.305434
497.636395	10857.165806
498.003139	10843.814310
498.369825	10710.571573
498.736453	10865.009841
499.103023	10800.576333
499.469535	10823.846300
499.835989	10815.490587
500.202385	10780.472212
500.568723	10624.675352
500.935003	10848.946205
501.301226	10656.404375
501.667390	10917.876422
502.033497	11014.162460
502.399546	10868.689884
502.765537	10773.465008
503.131470	10853.533655
503.497345	11025.396672
503.863163	10638.853598
504.228923	10953.746752
504.594625	11013.713797
504.960269	10757.779458
505.325856	10982.763633
505.691385	10776.711511
506.056856	10926.310272
506.422270	10953.222472
506.787625	10841.666778
507.152924	10958.520725
507.518164	10938.588002
507.883347	10859.935920
508.248472	10781.062027
508.613540	11012.037614
508.978550	10898.679708
509.343503	10873.017714
509.708398	10989.052473
510.073236	11100.749319
510.438016	11110.604774
510.802738	11059.089223
511.167403	11110.816503
511.532010	11009.267500
511.896561	11238.544218
512.261053	11313.543984
512.625488	11179.280413
512.989866	11166.559062
513.354186	11145.214816
513.718449	11048.921216
514.082655	11246.138716
514.446803	11140.924794
514.810894	11262.245203
515.174927	11134.661161
515.538904	11164.406489
515.902822	11302.503857
516.266684	11186.189315
516.630488	11128.473144
516.994235	11191.742146
517.357925	11246.990671
517.721558	11335.616676
518.085133	11351.090498
518.448651	11363.090965
518.812112	11249.370096
519.175516	11253.216496
519.538863	11387.235571
519.902152	11299.564865
520.265385	11460.138217
520.628560	11372.167562
520.991678	11346.661844
521.354739	11412.224571
521.717743	11351.907165
522.080690	11329.232055
522.443580	11469.602984
522.806413	11417.404356
523.169189	11443.840167
523.531908	11507.925835
523.894569	11329.539565
524.257174	11333.489309
524.619722	11447.205137
524.982213	11398.807540
525.344647	11445.445775
525.707025	11398.595811
526.069345	11498.395534
526.431608	11411.007132
526.793815	11521.272290
527.155964	11308.129785
527.518057	11365.939217
527.880093	11307.454270
528.242072	11379.757019
528.603995	11279.309508
528.965860	11201.940400
529.327669	11260.513566
529.689421	11201.615245
530.051117	11174.708087
530.412755	11278.129878
530.774337	11164.807261
531.135862	11148.549539
531.497331	11171.448981
531.858743	11018.880980
532.220098	11191.784995
532.581396	11061.314893
532.942638	11049.067409
533.303824	11007.336738
533.664953	11024.234686
534.026025	10935.810327
534.387040	11038.163394
534.747999	11045.621781
535.108902	11092.219686
535.469748	10855.277894
535.830537	10960.212032
536.191270	10939.714700
536.551947	10962.384769
536.912567	10961.179933
537.273131	10884.698068
537.633638	10863.313493
537.994089	10854.002482
538.354483	10804.178238
538.714821	10948.738366
539.075103	10951.155599
539.435328	10915.131513
539.795497	10751.510783
540.155609	10905.112220
540.515665	10997.700572
540.875665	10726.204191
541.235609	10794.852103
541.595496	10796.258585
541.955328	10949.892790
542.315102	10827.274284
542.674821	10779.990782
543.034483	10787.875146
543.394090	10787.744076
543.753640	10713.457633
544.113134	10933.199009
544.472571	10789.442945
544.831953	10932.518453
545.191278	10742.267827
545.550548	10761.605694
545.909761	10904.759339
546.268918	10880.219003
546.628019	10967.582199
546.987064	10826.966774
547.346053	10749.365772
547.704986	10844.452016
548.063863	10834.198309
548.422684	10827.455766
548.781449	10745.093394
549.140158	10847.932933
549.498811	10721.483150
549.857408	10581.681872
550.215949	10807.248301
550.574434	10666.128760
550.932864	10759.647205
551.291237	10821.217338
551.649555	10760.897412
552.007817	10779.597572
552.366022	10738.106355
552.724173	10735.074101
553.082267	10724.457431
553.440305	10855.650939
553.798288	10652.888170
554.156215	10816.728190
554.514086	10788.316247
554.871902	10642.110183
555.229661	10677.047900
555.587365	10646.770730
555.945014	10546.040914
556.302606	10675.447333
556.660143	10569.915819
557.017625	10717.858561
557.375050	10616.566656
557.732421	10745.973076
558.089735	10667.124388
558.446994	10665.294449
558.804197	10696.761332
559.161345	10702.631755
559.518437	10546.905472
559.875474	10641.873249
560.232455	10671.999184
560.589381	10619.102357
560.946251	10615.394588
561.303065	10723.955836
561.659825	10654.403037
562.016528	10584.222613
562.373177	10466.776332
562.729770	10577.661552
563.086307	10499.569037
563.442789	10594.035219
563.799216	10466.736002
564.155587	10519.247181
564.511904	10470.690787
564.868164	10465.657195
565.224370	10479.711932
565.580520	10402.667978
565.936615	10409.402960
566.292654	10281.876891
566.648638	10412.906562
567.004567	10363.974602
567.360441	10347.419452
567.716260	10261.581205
568.072023	10361.731288
568.427732	10304.488986
568.783385	10211.177229
569.138982	10289.335278
569.494525	10300.793821
569.850013	10183.234113
570.205445	10258.964847
570.560823	10160.803499
570.916145	10064.288088
571.271412	10144.303802
571.626625	10089.662736
571.981782	10068.502493
572.336884	10037.312874
572.691931	10044.725890
573.046923	9987.168516
573.401860	9944.056569
573.756743	9884.901149
574.111570	9928.124002
574.466342	9907.152802
574.821059	9938.556670
575.175722	9832.263941
575.530330	9843.835910
575.884882	9828.193209
576.239380	9752.298638
576.593823	9732.615453
576.948211	9754.325182
577.302544	9632.616605
577.656823	9644.085230
578.011047	9650.469851
578.365216	9621.090006
578.719330	9550.556702
579.073389	9560.381911
579.427394	9505.362758
579.781344	9482.672525
580.135239	9431.351058
580.489080	9439.414383
580.842866	9336.771450
581.196597	9348.391310
581.550273	9389.562413
581.903895	9357.548566
582.257463	9421.057022
582.610975	9298.924987
582.964434	9328.496396
583.317837	9250.829859
583.671186	9230.093073
584.024481	9227.779183
584.377721	9137.300554
584.730906	9119.462431
585.084037	9152.219849
585.437113	9093.301363
585.790135	9112.109908
586.143103	9007.269032
586.496016	8981.541503
586.848874	9040.465030
587.201679	9020.648254
587.554428	8911.419053
587.907124	8958.894119
588.259765	8930.933360
588.612352	8934.875542
588.964884	8809.786871
589.317362	8822.845980
589.669786	8826.760436
590.022155	8871.268783
590.374470	8885.595742
590.726731	8825.905960
591.078937	8680.239299
591.431090	8790.759036
591.783188	8662.577617
592.135232	8656.404724
592.487222	8659.595774
592.839157	8704.522537
593.191038	8643.708578
593.542866	8587.411493
593.894639	8488.216708
594.246358	8543.649236
594.598022	8556.259682
594.949633	8453.873848
595.301190	8434.631763
595.652692	8456.918705
596.004141	8569.177639
596.355535	8343.764965
596.706876	8325.163108
597.058162	8265.440558
597.409395	8334.532092
597.760573	8398.895024
598.111698	8308.066034
598.462768	8293.608005
598.813785	8256.996625
599.164748	8231.274138
599.515657	8218.235193
599.866511	8127.701112
600.217312	8256.742047
600.568060	8112.565047
600.918753	8214.749236
601.269392	8185.074483
601.619978	8097.776822
601.970510	8159.825864
602.320988	8157.517016
602.671412	8212.556334
603.021783	8148.533680
603.372100	8121.767673
603.722363	8124.678940
604.072572	8100.902338
604.422728	8107.990200
604.772830	8041.857823
605.122878	8049.490130
605.472872	8042.424953
605.822813	8073.193636
606.172701	8015.767332
606.522534	8095.321780
606.872314	8087.855832
607.222041	8064.059065
607.571714	8114.831046
607.921333	8080.278977
608.270899	8084.006911
608.620411	8169.025970
608.969870	8082.303001
609.319276	8071.822442
609.668627	8088.380112
610.017926	8114.828525
610.367171	8167.715270
610.716362	8142.844738
611.065500	8133.828634
611.414585	8159.460381
611.763616	8150.035944
612.112594	8130.146071
612.461518	8146.267681
612.810389	8210.761683
613.159207	8154.474680
613.507971	8095.261287
613.856682	8215.898619
614.205340	8167.405239
614.553945	8249.996983
614.902496	8148.619379
615.250994	8198.846916
615.599439	8182.931993
615.947830	8201.110394
616.296169	8167.044797
616.644454	8179.461159
616.992686	8183.179010
617.340864	8244.008093
617.688990	8140.424984
618.037063	8233.882935
618.385082	8179.740943
618.733048	8263.766895
619.080961	8204.364459
619.428821	8225.658292
619.776628	8224.932366
620.124382	8175.234151
620.472083	8158.724372
620.819731	8187.922735
621.167326	8086.212415
621.514868	8092.554187
621.862357	7981.210222
622.209793	7995.726224
622.557176	7928.706605
622.904506	7900.955053
623.251783	7836.385434
623.599007	7784.345603
623.946179	7794.140564
624.293297	7751.416786
624.640363	7666.435535
624.987376	7652.597567
625.334336	7598.619413
625.681243	7547.751650
626.028097	7533.074330
626.374899	7513.209663
626.721647	7507.051894
627.068343	7437.378107
627.414987	7408.709065
627.761577	7361.281889
628.108115	7402.710092
628.454600	7298.862322
628.801032	7344.119281
629.147412	7302.766696
629.493739	7294.882332
629.840014	7234.083496
630.186236	7292.366796
630.532405	7170.990935
630.878521	7225.758030
631.224585	7175.666605
631.570597	7101.460820
631.916556	7136.408619
632.262462	7128.763709
632.608316	7089.946825
632.954117	7064.713329
633.299866	7057.948101
633.645562	7043.790020
633.991206	6966.277239
634.336797	6915.341420
634.682336	6871.571602
635.027823	6833.110119
635.373257	6831.086095
635.718639	6764.905828
636.063968	6775.018382
636.409245	6674.631365
636.754470	6671.067269
637.099642	6630.193594
637.444762	6567.632875
637.789829	6579.729123
638.134845	6518.766450
638.479808	6503.287587
638.824719	6508.409399
639.169577	6435.983142
639.514383	6461.675383
639.859137	6388.341718
640.203839	6393.972687
640.548489	6380.759822
640.893086	6359.453386
641.237632	6331.860630
641.582125	6353.524989
641.926566	6321.589279
642.270955	6332.831052
642.615292	6331.013716
642.959576	6347.042065
643.303809	6335.298697
643.647990	6339.828174
643.992118	6329.972718
644.336195	6280.332476
644.680219	6302.740405
645.024192	6289.797242
645.368112	6384.633949
645.711981	6411.281488
646.055797	6484.501727
646.399562	6440.868020
646.743274	6563.620116
647.086935	6622.334435
647.430544	6619.839064
647.774101	6638.350181
648.117606	6643.313197
648.461059	6637.185674
648.804460	6601.794254
649.147810	6506.725654
649.491108	6478.139791
649.834354	6454.458971
650.177548	6369.092072
650.520690	6287.271624
650.863781	6260.188025
651.206820	6283.815913
651.549807	6205.166352
651.892742	6140.873996
652.235626	6149.335573
652.578458	6140.405169
652.921238	6047.378236
653.263967	6090.898517
653.606644	6024.067941
653.949269	6026.875863
654.291843	5961.124094
654.634365	6021.781777
654.976836	5972.975847
655.319255	5970.203212
655.661622	5949.032886
656.003938	5946.267813
656.346203	5907.619808
656.688416	5940.518378
657.030577	5888.675151
657.372687	5861.291604
657.714746	5849.870870
658.056753	5891.752776
658.398708	5832.040308
658.740612	5822.966232
659.082465	5872.687132
659.424266	5861.097519
659.766016	5861.432756
660.107715	5835.647254
660.449362	5849.349110
660.790958	5844.169325
661.132503	5830.238096
661.473996	5868.805443
661.815438	5854.528896
662.156829	5856.865471
662.498168	5846.810889
662.839456	5825.365821
663.180693	5856.394123
663.521879	5855.224575
663.863013	5849.873390
664.204097	5865.357294
664.545129	5903.118057
664.886110	5905.908336
665.227040	5939.706752
665.567918	5904.242234
665.908746	5929.271563
666.249522	5934.189209
666.590248	5920.250418
666.930922	5948.904337
667.271545	5959.654598
667.612118	5963.934537
667.952639	5935.225166
668.293109	5952.279389
668.633528	5915.123565
668.973896	5916.638432
669.314213	5910.909160
669.654480	5891.142796
669.994695	5884.876642
670.334859	5875.232915
670.674973	5864.885946
671.015035	5870.222008
671.355047	5870.864755
671.695008	5856.620975
672.034918	5826.452189
672.374777	5842.462894
672.714585	5827.183157
673.054342	5830.275905
673.394049	5823.855995
673.733705	5853.155181
674.073310	5840.557338
674.412864	5800.757428
674.752368	5790.710409
675.091820	5795.393641
675.431223	5733.054732
675.770574	5732.185133
676.109875	5685.410787
676.449125	5690.424215
676.788324	5657.054297
677.127473	5597.838383
677.466571	5593.389565
677.805619	5583.652576
678.144616	5567.346964
678.483562	5546.998347
678.822458	5511.793449
679.161303	5506.681719
679.500098	5501.575030
679.838842	5485.597093
680.177535	5487.570704
680.516179	5507.372357
680.854771	5514.503069
681.193314	5592.020892
681.531805	5697.716244
681.870247	5855.799267
682.208638	5957.726356
682.546978	5964.637778
682.885268	5944.896620
683.223508	5860.243044
683.561697	5807.429395
683.899836	5780.224809
684.237925	5732.510288
684.575963	5700.080545
684.913951	5654.453061
685.251889	5716.156784
685.589776	5688.410274
685.927614	5655.839379
686.265401	5728.573146
686.603137	5711.657555
686.940824	5791.804339
687.278460	5811.797555
687.616046	5819.598741
687.953582	5891.898969
688.291068	5871.930959
688.628504	5932.422284
688.965889	5895.846193
689.303224	5841.532801
689.640510	5790.445748
689.977745	5716.514706
690.314930	5621.476353
690.652065	5565.804371
690.989150	5471.486903
691.326185	5398.448146
691.663170	5341.651986
692.000105	5265.134832
692.336990	5188.325292
692.673825	5162.927958
693.010610	5091.842648
693.347345	5023.585425
693.684030	5009.818034
694.020665	4971.084328
694.357251	4881.485380
694.693786	4890.146083
695.030272	4856.592163
695.366707	4820.247964
695.703093	4790.101864
696.039429	4807.261952
696.375716	4794.238131
696.711952	4766.920118
697.048139	4754.138272
697.384276	4734.114809
697.720363	4746.826079
698.056400	4753.054424
698.392388	4711.792580
698.728326	4681.752344
699.064214	4661.365918
699.400053	4654.419208
699.735842	4628.053974
700.071581	4597.567596
700.407270	4570.342844
700.742910	4557.359353
701.078501	4497.813243
701.414042	4495.930372
701.749533	4468.085559
702.084974	4401.315477
702.420366	4463.011638
702.755709	4400.849170
703.091002	4347.861602
703.426246	4395.802975
703.761440	4353.472406
704.096584	4314.796674
704.431679	4335.135209
704.766725	4318.869926
705.101721	4305.720076
705.436668	4336.395497
705.771565	4284.385913
706.106413	4311.681241
706.441212	4343.619471
706.775961	4353.353939
707.110661	4335.190662
707.445311	4361.316441
707.779913	4383.111870
708.114465	4397.038057
708.448967	4422.059825
708.783421	4481.994103
709.117825	4520.201008
709.452180	4527.379611
709.786485	4569.574068
710.120742	4658.331144
710.454949	4642.668279
710.789107	4708.019277
711.123216	4781.473929
711.457275	4775.142240
711.791286	4845.715873
712.125247	4861.149366
712.459159	4763.484572
712.793023	4838.973330
713.126837	4798.964212
713.460602	4796.529335
713.794318	4714.028332
714.127985	4722.905804
714.461602	4638.216940
714.795171	4606.145119
715.128691	4541.968710
715.462162	4484.305472
715.795584	4436.273358
716.128957	4417.341305
716.462281	4362.249055
716.795556	4340.297350
717.128782	4299.453922
717.461960	4233.245928
717.795088	4243.812186
718.128167	4203.445147
718.461198	4139.989623
718.794180	4138.769664
719.127113	4122.511943
719.459997	4096.139146
719.792833	4054.506777
720.125619	4047.479409
720.458357	4011.878780
720.791046	4014.583359
721.123686	3988.676870
721.456278	3945.391002
721.788821	3962.104948
722.121315	3936.447995
722.453761	3912.323553
722.786158	3925.259154
723.118506	3945.902679
723.450805	3900.678488
723.783056	3920.712033
724.115259	3936.190896
724.447412	3945.746403
724.779518	3933.572017
725.111574	3940.990075
725.443582	3967.937563
725.775542	3953.963484
726.107453	4005.242101
726.439315	4003.812934
726.771129	4020.715923
727.102895	4058.753949
727.434612	4103.852112
727.766281	4114.062969
728.097901	4115.978607
728.429473	4120.475316
728.760996	4126.285246
729.092471	4125.120740
729.423897	4108.356383
729.755276	4116.270994
730.086606	4112.159933
730.417887	4150.283659
730.749120	4214.873443
731.080305	4281.467085
731.411442	4302.324859
731.742530	4276.047845
732.073570	4278.815438
732.404562	4335.856094
732.735506	4325.446111
733.066401	4290.425215
733.397249	4223.662694
733.728048	4146.250736
734.058798	4060.692273
734.389501	3992.931603
734.720156	3931.064043
735.050762	3889.058628
735.381320	3880.496229
735.711831	3829.888085
736.042293	3802.887665
736.372707	3823.349709
736.703073	3794.168990
737.033391	3783.625416
737.363661	3799.038744
737.693883	3826.281140
738.024056	3836.290351
738.354182	3830.329186
738.684260	3893.625914
739.014290	3917.248761
739.344272	3907.695774
739.674207	3950.316209
740.004093	3958.127477
740.333931	3952.854430
740.663722	3954.318886
740.993464	3950.633802
741.323159	3930.907767
741.652806	3900.065988
741.982405	3869.236812
742.311956	3837.424610
742.641460	3830.145184
742.970915	3805.410763
743.300323	3765.527674
743.629683	3728.825553
743.958996	3718.206363
744.288260	3692.458670
744.617477	3661.392559
744.946647	3647.783964
745.275768	3623.314203
745.604842	3621.978298
745.933869	3574.893921
746.262847	3562.313721
746.591778	3602.554732
746.920662	3570.964341
747.249498	3540.462840
747.578286	3587.753904
747.907027	3602.559773
748.235720	3605.692850
748.564365	3627.697487
748.892963	3627.750419
749.221514	3610.905403
749.550017	3586.312134
749.878473	3583.171495
750.206881	3555.838359
750.535242	3548.906773
750.863555	3556.017320
751.191821	3549.463820
751.520039	3532.102086
751.848210	3507.839013
752.176334	3541.246739
752.504411	3546.053480
752.832440	3507.486132
753.160421	3489.940396
753.488356	3500.221829
753.816243	3513.522914
754.144082	3470.131182
754.471875	3455.395889
754.799620	3472.059423
755.127318	3466.683033
755.454969	3466.415852
755.782572	3471.300730
756.110129	3447.277111
756.437638	3438.964248
756.765100	3451.977987
757.092515	3460.384111
757.419882	3469.521203
757.747203	3442.457768
758.074477	3439.526337
758.401703	3457.946713
758.728882	3478.716267
759.056014	3486.961074
759.383099	3490.192454
759.710138	3486.852689
760.037129	3503.445647
760.364073	3534.526881
760.690970	3520.477186
761.017820	3499.465656
761.344623	3514.619365
761.671379	3560.012435
761.998088	3613.917493
762.324751	3738.771750
762.651366	3982.814008
762.977935	4459.830670
763.304456	4901.929780
763.630931	4996.446373
763.957359	4637.584275
764.283740	4292.295483
764.610074	4102.231381
764.936362	3904.255187
765.262602	3745.116042
765.588796	3631.995070
765.914943	3547.709499
766.241044	3459.368319
766.567097	3429.771704
766.893104	3383.088099
767.219064	3348.500743
767.544978	3324.840087
767.870845	3268.558125
768.196665	3250.750249
768.522438	3257.044130
768.848165	3252.645723
769.173846	3218.743963
769.499479	3199.022969
769.825066	3184.920342
770.150607	3168.372754
770.476101	3182.150227
770.801548	3178.157634
771.126949	3132.832619
771.452303	3113.898046
771.777611	3121.679067
772.102872	3124.721403
772.428087	3104.380347
772.753256	3090.688573
773.078378	3085.554158
773.403453	3052.242213
773.728482	3038.003474
774.053465	3059.987946
774.378401	3046.835576
774.703291	3014.816687
775.028135	3016.142511
775.352932	3009.349556
775.677683	2998.546363
776.002388	2995.748523
776.327046	3001.563494
776.651658	2988.821978
776.976224	2974.081644
777.300743	2974.341263
777.625216	2968.059985
777.949643	2963.167546
778.274024	2963.432206
778.598359	2951.494754
778.922647	2957.466001
779.246889	2954.872327
779.571086	2943.600307
779.895236	2935.229471
780.219339	2947.257664
780.543397	2960.016824
780.867409	2962.539922
781.191374	2953.579271
781.515294	2951.986266
781.839167	2953.569189
782.162995	2942.680296
782.486776	2953.813685
782.810511	2950.962912
783.134201	2934.780808
783.457844	2945.639454
783.781441	2934.052362
784.104993	2915.455545
784.428498	2915.213570
784.751958	2926.336876
785.075372	2924.126330
785.398739	2906.265522
785.722061	2921.767070
786.045337	2934.879111
786.368568	2920.012748
786.691752	2911.301634
787.014891	2960.886423
787.337983	2988.766525
787.661030	3016.659229
787.984031	3083.928386
788.306987	3130.259110
788.629897	3124.360960
788.952760	3108.856892
789.275579	3094.134202
789.598351	3034.126827
789.921078	2985.255361
790.243759	2978.354022
790.566395	2962.149233
790.888984	2937.165274
791.211529	2919.798499
791.534027	2912.408168
791.856480	2900.243863
792.178888	2887.411606
792.501249	2876.915924
792.823566	2874.317209
793.145836	2872.081457
793.468062	2868.633308
793.790241	2865.880838
794.112375	2870.806045
794.434464	2885.503529
794.756507	2885.770711
795.078505	2895.671537
795.400457	2906.893145
795.722364	2946.743466
796.044226	2972.274390
796.366042	2970.404122
796.687812	2961.509006
797.009538	2980.851913
797.331218	2970.877990
797.652852	2955.401648
797.974442	2934.236364
798.295986	2930.742844
798.617484	2928.028183
798.938938	2910.782395
799.260346	2896.533574
799.581709	2894.189438
799.903026	2886.075700
800.224299	2880.842983
800.545526	2871.405943
800.866708	2854.258458
801.187845	2842.958712
801.508936	2842.739421
801.829983	2854.203005
802.150984	2841.771520
802.471940	2824.301401
802.792851	2827.058912
803.113717	2824.263592
803.434538	2831.608554
803.755314	2821.261585
804.076045	2820.054229
804.396731	2819.230000
804.717372	2818.068014
805.037967	2815.227324
805.358518	2819.247644
805.679024	2830.219716
805.999485	2829.450940
806.319901	2831.424552
806.640272	2825.670074
806.960598	2828.374653
807.280879	2840.783454
807.601115	2845.688496
807.921306	2834.552587
808.241453	2829.125785
808.561554	2835.807835
808.881611	2838.109122
809.201623	2832.430262
809.521590	2828.730055
809.841513	2826.320383
810.161390	2829.745847
810.481223	2825.377687
810.801011	2817.304280
811.120755	2809.283804
811.440453	2814.816470
811.760107	2812.149700
812.079716	2810.707930
812.399281	2802.102680
812.718801	2795.549180
813.038276	2791.944755
813.357707	2796.537246
813.677093	2804.270376
813.996434	2798.352062
814.315731	2791.450722
814.634983	2788.257151
814.954191	2790.412244
815.273354	2804.214924
815.592473	2815.358394
815.911547	2814.352684
816.230577	2822.040444
816.549562	2830.980930
816.868502	2827.162256
817.187399	2838.797239
817.506250	2857.053778
817.825058	2849.303004
818.143821	2861.474870
818.462539	2879.159237
818.781213	2906.988927
819.099843	2942.892025
819.418429	2999.047958
819.736970	3061.094480
820.055466	3132.744399
820.373919	3239.001840
820.692327	3381.490053
821.010691	3551.220662
821.329011	3992.215760
821.647286	4892.512904
821.965517	6275.485407
822.283704	7019.504262
822.601847	7002.560943
822.919945	6368.867740
823.237999	5858.980235
823.556010	5275.693529
823.873976	4720.566708
824.191897	4316.286335
824.509775	4017.744163
824.827609	3747.976897
825.145398	3623.478041
825.463144	3608.644446
825.780845	3700.211964
826.098502	3806.991164
826.416116	4091.128239
826.733685	4406.399480
827.051210	4473.280468
827.368692	4356.040874
827.686129	4089.983897
828.003522	3761.441819
828.320872	3505.144516
828.638177	3306.394505
828.955439	3169.292765
829.272656	3085.831422
829.589830	3018.458921
829.906960	2970.394040
830.224046	2924.620363
830.541088	2891.636093
830.858086	2874.410470
831.175041	2860.184334
831.491952	2859.776001
831.808819	2871.683206
832.125642	2895.111969
832.442421	2938.266766
832.759157	3026.290353
833.075849	3198.899461
833.392497	3480.997389
833.709101	3685.852237
834.025662	3637.424393
834.342179	3475.532778
834.658653	3300.375368
834.975083	3150.804333
835.291469	3050.618962
835.607811	2968.007053
835.924110	2910.742066
836.240366	2858.551000
836.556578	2816.049032
836.872746	2791.523819
837.188871	2773.501694
837.504952	2753.939496
837.820990	2747.101171
838.136984	2731.594582
838.452935	2724.128633
838.768842	2721.608056
839.084706	2742.496077
839.400526	2818.483910
839.716303	2951.560289
840.032037	3033.879811
840.347727	3018.093437
840.663373	2957.576906
840.978977	2881.014382
841.294537	2807.917651
841.610054	2761.730600
841.925527	2740.504821
842.240957	2719.601677
842.556344	2695.847760
842.871687	2681.755214
843.186987	2671.045283
843.502244	2666.596465
843.817458	2658.437357
844.132629	2648.823877
844.447756	2638.829789
844.762840	2637.395581
845.077881	2635.681589
845.392879	2636.878863
845.707833	2629.294447
846.022745	2624.422172
846.337613	2626.642800
846.652438	2627.187245
846.967221	2626.042903
847.281960	2620.568210
847.596656	2621.210957
847.911309	2620.681636
848.225919	2618.581995
848.540485	2617.561161
848.855009	2616.971346
849.169490	2615.209463
849.483928	2616.807509
849.798323	2615.733743
850.112675	2609.770058
850.426984	2612.454472
850.741251	2611.728546
851.055474	2610.178392
851.369654	2616.535287
851.683792	2615.683332
851.997887	2614.009668
852.311938	2611.297528
852.625947	2613.974380
852.939914	2613.871037
853.253837	2617.777931
853.567718	2611.756273
853.881555	2610.921962
854.195350	2613.354318
854.509103	2614.097889
854.822812	2610.871550
855.136479	2610.793412
855.450103	2613.364401
855.763685	2615.940430
856.077224	2614.523866
856.390720	2611.063114
856.704173	2612.434308
857.017584	2617.493106
857.330953	2617.581326
857.644278	2618.977726
857.957561	2620.089300
858.270802	2618.317334
858.584000	2619.446553
858.897155	2620.381687
859.210268	2620.462345
859.523339	2613.868516
859.836367	2612.328444
860.149352	2612.131839
860.462295	2615.108640
860.775195	2610.506067
861.088054	2608.214862
861.400869	2609.223093
861.713642	2604.416353
862.026373	2604.668410
862.339062	2609.893566
862.651708	2616.845317
862.964312	2614.428084
863.276873	2615.398506
863.589392	2616.820112
863.901869	2623.078704
864.214303	2625.493417
864.526696	2627.318315
864.839045	2631.951135
865.151353	2633.791156
865.463619	2635.404325
865.775842	2628.805455
866.088023	2630.864766
866.400162	2633.450878
866.712258	2635.512710
867.024313	2631.545322
867.336325	2628.452574
867.648296	2630.753861
867.960224	2634.421300
868.272110	2634.464150
868.583954	2626.693212
868.895755	2628.848305
869.207515	2636.392392
869.519233	2642.761889
869.830909	2637.894655
870.142542	2631.794859
870.454134	2635.379120
870.765684	2639.638895
871.077191	2641.995634
871.388657	2643.366828
871.700081	2642.194760
872.011463	2644.266674
872.322803	2643.303813
872.634101	2648.879330
872.945357	2654.694301
873.256571	2660.108500
873.567744	2657.678664
873.878874	2655.342089
874.189963	2655.687408
874.501010	2661.179745
874.812015	2667.503872
875.122979	2666.500683
875.433900	2658.449960
875.744780	2658.384425
876.055618	2662.205620
876.366415	2667.171156
876.677169	2668.587721
876.987882	2660.852070
877.298554	2660.698315
877.609183	2672.688699
877.919771	2678.181036
878.230317	2685.364681
878.540822	2697.239118
878.851285	2710.363762
879.161707	2733.341342
879.472087	2773.360542
879.782425	2821.642192
880.092722	2933.727207
880.402977	3126.037144
880.713191	3384.144221
881.023363	3678.837472
881.333494	3869.728324
881.643583	4045.170560
881.953631	4044.739542
882.263637	3866.058364
882.573602	3644.371103
882.883526	3516.144314
883.193408	3400.701891
883.503248	3295.523257
883.813048	3179.886749
884.122806	3066.291909
884.432522	2980.393168
884.742197	2913.633168
885.051831	2877.072200
885.361424	2844.234123
885.670975	2806.107877
885.980485	2774.555295
886.289954	2755.489651
886.599382	2741.248392
886.908768	2733.323698
887.218113	2712.632282
887.527417	2699.487473
887.836680	2689.558921
888.145901	2687.686132
888.455082	2678.118022
888.764221	2665.036228
889.073319	2656.713283
889.382376	2658.041627
889.691392	2660.655465
890.000366	2660.390804
890.309300	2657.756802
890.618193	2660.113541
890.927044	2663.024807
891.235855	2660.521874
891.544625	2658.951555
891.853353	2662.707215
892.162041	2665.643687
892.470687	2689.715196
892.779293	2699.361444
893.087858	2707.704554
893.396381	2731.886969
893.704864	2774.081427
894.013306	2846.192612
894.321707	2939.335491
894.630068	2992.703666
894.938387	3010.599762
895.246665	3004.013495
895.554903	2959.996660
895.863100	2914.805236
896.171256	2857.363809
896.479371	2795.531536
896.787446	2755.305649
897.095480	2736.668503
897.403473	2729.686505
897.711425	2715.576316
898.019336	2698.058306
898.327207	2684.230421
898.635038	2683.960719
898.942827	2678.375121
899.250576	2669.147289
899.558284	2657.479538
899.865952	2653.358395
900.173579	2652.123312
900.481165	2649.101140
900.788711	2639.626292
901.096216	2636.296610
901.403681	2631.570528
901.711105	2631.729324
902.018489	2629.818727
902.325832	2632.561115
902.633135	2633.244191
902.940397	2652.869403
903.247619	2688.777542
903.554800	2755.739188
903.861941	2886.509240
904.169041	3014.773838
904.476101	3075.708785
904.783121	3070.909606
905.090100	3013.667304
905.397039	2935.168977
905.703938	2863.514016
906.010796	2796.953142
906.317614	2745.704772
906.624391	2710.383927
906.931129	2681.919052
907.237826	2660.408448
907.544483	2640.914307
907.851099	2628.273613
908.157675	2615.106119
908.464211	2610.967332
908.770707	2601.129520
909.077163	2597.230188
909.383578	2592.839343
909.689954	2592.678026
909.996289	2590.737182
910.302584	2588.466142
910.608839	2588.322469
910.915054	2586.379104
911.221229	2591.246338
911.527363	2592.917481
911.833458	2590.898499
912.139513	2590.318766
912.445527	2592.597367
912.751502	2597.504931
913.057436	2605.422063
913.363331	2610.082610
913.669186	2621.001749
913.975000	2633.665127
914.280775	2651.644402
914.586510	2672.020746
914.892205	2706.446786
915.197859	2773.473967
915.503475	2856.400948
915.809050	2925.714293
916.114585	2939.007816
916.420081	2955.338634
916.725536	2964.697536
917.030952	2941.858588
917.336328	2889.967471
917.641665	2840.087774
917.946961	2791.173459
918.252218	2759.192379
918.557435	2729.419324
918.862612	2707.326467
919.167750	2688.364167
919.472848	2674.203566
919.777906	2657.252686
920.082925	2644.753145
920.387904	2634.567494
920.692843	2630.955507
920.997743	2623.237501
921.302603	2619.043261
921.607423	2611.471447
921.912204	2607.990531
922.216946	2604.562546
922.521647	2600.330497
922.826310	2594.865887
923.130932	2591.853797
923.435516	2587.674681
923.740059	2584.758373
924.044564	2584.627303
924.349028	2582.530183
924.653454	2571.835375
924.957840	2571.268246
925.262186	2568.926630
925.566493	2571.757237
925.870761	2565.468398
926.174989	2567.898234
926.479178	2565.599468
926.783328	2562.993192
927.087438	2562.990671
927.391509	2563.177194
927.695541	2559.797100
927.999533	2559.406411
928.303486	2558.239383
928.607400	2554.657644
928.911275	2557.878941
929.215110	2557.452963
929.518906	2557.954558
929.822663	2553.772921
930.126381	2552.656306
930.430060	2556.984136
930.733699	2556.931204
931.037299	2553.765359
931.340861	2557.596636
931.644383	2557.276523
931.947866	2557.712583
932.251309	2558.110834
932.554714	2557.672254
932.858080	2558.889692
933.161407	2557.999929
933.464694	2556.112017
933.767943	2554.234187
934.071153	2555.323076
934.374323	2552.941131
934.677455	2553.828374
934.980548	2553.906512
935.283602	2550.947354
935.586617	2551.060780
935.889593	2555.406255
936.192530	2554.271995
936.495428	2553.881306
936.798287	2555.474311
937.101108	2552.247972
937.403890	2558.357851
937.706632	2561.737944
938.009336	2564.286247
938.312002	2569.307237
938.614628	2571.139696
938.917216	2575.167578
939.219765	2576.531210
939.522275	2579.636561
939.824747	2576.049780
940.127179	2570.159192
940.429573	2570.088616
940.731929	2567.142061
941.034246	2565.720456
941.336524	2566.181721
941.638763	2568.422514
941.940964	2566.166598
942.243126	2566.290106
942.545250	2564.316494
942.847335	2564.180383
943.149381	2561.730383
943.451389	2562.158881
943.753359	2560.364230
944.055290	2557.962120
944.357182	2558.332645
944.659036	2554.392983
944.960851	2557.437840
945.262628	2557.543704
945.564367	2557.984805
945.866067	2556.298539
946.167729	2558.388098
946.469352	2555.794424
946.770937	2559.202244
947.072484	2556.943807
947.373992	2556.696790
947.675462	2556.089331
947.976893	2557.306770
948.278286	2555.633107
948.579641	2555.791903
948.880958	2553.629248
949.182236	2555.953220
949.483476	2550.934752
949.784678	2552.358877
950.085841	2552.336192
950.386967	2551.554813
950.688054	2552.293342
950.989103	2555.305432
951.290114	2556.744681
951.591087	2557.180741
951.892021	2558.514126
952.192917	2557.364743
952.493776	2557.599157
952.794596	2560.283571
953.095378	2559.708880
953.396122	2559.388767
953.696828	2561.221226
953.997496	2556.727037
954.298126	2556.588406
954.598718	2559.514795
954.899272	2553.777962
955.199788	2552.547921
955.500266	2551.501881
955.800706	2549.314021
956.101108	2545.013916
956.401472	2543.120963
956.701798	2543.365459
957.002087	2543.494008
957.302337	2545.838145
957.602550	2544.860161
957.902724	2542.871426
958.202861	2542.513504
958.502960	2541.016281
958.803022	2540.313040
959.103045	2540.423946
959.403031	2541.366642
959.702979	2542.455531
960.002889	2541.543082
960.302762	2540.096271
960.602596	2541.233051
960.902393	2540.486960
961.202153	2541.207845
961.501875	2539.370345
961.801559	2538.289017
962.101205	2540.179450
962.400814	2539.009902
962.700385	2536.907741
962.999918	2540.799512
963.299414	2534.999664
963.598873	2538.304141
963.898293	2536.844727
964.197677	2537.522762
964.497022	2538.208359
964.796331	2537.114428
965.095601	2536.358255
965.394835	2538.898997
965.694030	2536.741383
965.993189	2540.224820
966.292309	2536.693492
966.591393	2538.417567
966.890439	2535.176105
967.189447	2539.267001
967.488419	2536.121321
967.787353	2534.341794
968.086249	2539.130890
968.385108	2537.278266
968.683930	2537.419418
968.982714	2537.643749
969.281462	2537.953780
969.580172	2538.714995
969.878844	2537.648791
970.177480	2538.362114
970.476078	2536.065868
970.774639	2539.277083
971.073162	2537.605941
971.371649	2537.104346
971.670098	2533.749458
971.968510	2535.670138
972.266885	2535.413039
972.565223	2539.178781
972.863524	2538.399923
973.161788	2538.147865
973.460014	2539.529141
973.758204	2538.243647
974.056356	2539.146013
974.354471	2540.290355
974.652550	2539.133410
974.950591	2538.596528
975.248595	2540.305479
975.546563	2538.331867
975.844493	2539.405633
976.142386	2535.967566
976.440243	2537.293389
976.738062	2539.188863
977.035845	2536.837165
977.333590	2540.912938
977.631299	2537.404295
977.928971	2540.882691
978.226606	2536.151568
978.524204	2536.179294
978.821765	2537.235416
979.119290	2535.629808
979.416777	2539.075437
979.714228	2537.366486
980.011642	2537.759696
980.309020	2540.197094
980.606360	2537.323636
980.903664	2538.896476
981.200931	2539.811446
981.498162	2538.634336
981.795356	2543.463762
982.092513	2544.471992
982.389633	2542.634492
982.686717	2549.656819
982.983764	2553.137736
983.280775	2554.145967
983.577749	2554.082952
983.874686	2551.973229
984.171587	2546.538865
984.468451	2545.729760
984.765279	2543.335212
985.062070	2541.885880
985.358824	2540.169367
985.655543	2541.021323
985.952224	2538.057124
986.248869	2536.370858
986.545478	2531.473377
986.842050	2534.513193
987.138586	2532.269879
987.435086	2533.565456
987.731549	2532.249715
988.027975	2535.786084
988.324366	2534.556043
988.620719	2534.523275
988.917037	2533.928419
989.213318	2537.154758
989.509563	2532.584952
989.805772	2533.968748
990.101944	2534.303985
990.398080	2534.354397
990.694180	2533.124355
990.990244	2533.215096
991.286271	2534.009078
991.582262	2535.201310
991.878217	2534.480425
992.174136	2533.890610
992.470019	2532.264838
992.765865	2534.971938
993.061676	2531.899355
993.357450	2534.082174
993.653188	2533.469674
993.948890	2534.858512
994.244556	2532.579910
994.540186	2535.884387
994.835780	2536.171732
995.131337	2536.567463
995.426859	2536.640560
995.722345	2535.314736
996.017795	2535.788605
996.313208	2537.177443
996.608586	2535.556712
996.903928	2538.246167
997.199234	2536.549819
997.494504	2538.644418
997.789738	2536.000333
998.084936	2537.273225
998.380099	2537.056455
998.675225	2536.766589
998.970316	2535.037473
999.265371	2536.141486
999.560390	2533.588141
999.855373	2536.106198
1000.150320	2533.078985
1000.445232	2533.784746
1000.740108	2531.279293
1001.034948	2532.030425
1001.329752	2532.511855
1001.624521	2530.996988
1001.919254	2530.533202
1002.213951	2529.504807
1002.508613	2528.362985
1002.803239	2529.950949
1003.097829	2528.194107
1003.392384	2532.900024
1003.686903	2533.111752
1003.981386	2533.696526
1004.275834	2532.552184
1004.570246	2534.427493
1004.864623	2531.566638
1005.158964	2531.460774
1005.453270	2532.426155
1005.747540	2532.789118
1006.041775	2532.411032
1006.335974	2531.188552
1006.630138	2530.112266
1006.924266	2532.272400
1007.218359	2530.581093
1007.512416	2530.210568
1007.806438	2533.510003
1008.100425	2531.072605
1008.394376	2532.544622
1008.688292	2532.612678
1008.982172	2529.955990
1009.276017	2529.396422
1009.569827	2530.044210
1009.863602	2534.445137
1010.157341	2528.894827
1010.451045	2531.599406
1010.744714	2535.009747
1011.038347	2530.744930
1011.331945	2535.410518
1011.625508	2528.796524
1011.919036	2528.652852
1012.212528	2532.199303
1012.505986	2531.221319
1012.799408	2532.758871
1013.092795	2530.704601
1013.386147	2529.330887
1013.679464	2530.651669
1013.972745	2530.460105
1014.265992	2531.170908
1014.559204	2533.867925
1014.852380	2533.542771
1015.145521	2532.383305
1015.438628	2531.453212
1015.731699	2533.772143
1016.024736	2533.540250
1016.317737	2532.900024
1016.610703	2531.307019
1016.903635	2528.857018
1017.196531	2530.845753
1017.489393	2530.850795
1017.782219	2526.923736
1018.075011	2531.397760
1018.367768	2531.672503
1018.660490	2532.312729
1018.953177	2532.312729
1019.245829	2532.312729
