Dividing Wavelength (nm)	Counts (n)	Blue Motor Position (mm): 22.200000	Red Motor Position (mm): 0.000000	
326.493990	2058.146840
326.888308	2058.146840
327.282561	2058.146840
327.676750	2036.306041
328.070874	2035.653211
328.464933	2040.558254
328.858929	2050.464121
329.252859	2063.147664
329.646726	2076.925138
330.040528	2090.818558
330.434265	2107.827411
330.827938	2128.939763
331.221547	2148.832156
331.615091	2169.924344
332.008571	2192.294464
332.401986	2211.402958
332.795338	2229.271328
333.188625	2252.816037
333.581847	2268.194076
333.975006	2287.315173
334.368100	2305.649849
334.761129	2323.578713
335.154095	2336.627740
335.546996	2385.617673
335.939833	2482.105358
336.332606	2492.081801
336.725315	2507.623678
337.117960	2517.456449
337.510540	2524.602284
337.903056	2535.145858
338.295508	2544.189688
338.687896	2550.884340
339.080220	2555.426420
339.472480	2558.879610
339.864676	2562.539488
340.256807	2565.770867
340.648875	2567.920919
341.040879	2568.694737
341.432818	2570.577607
341.824694	2575.170099
342.216506	2569.614747
342.608253	2570.176836
342.999937	2567.189952
343.391557	2566.196845
343.783113	2566.194324
344.174605	2565.811197
344.566033	2565.148285
344.957397	2563.164591
345.348697	2559.257697
345.739934	2559.229970
346.131106	2556.999260
346.522215	2555.670916
346.913260	2553.722510
347.304241	2551.849721
347.695159	2550.415513
348.086012	2548.429298
348.476802	2545.470141
348.867528	2542.415202
349.258191	2539.508976
349.648789	2540.872608
350.039324	2535.057638
350.429796	2541.679193
350.820203	2540.058462
351.210548	2543.466282
351.600828	2536.557381
351.991045	2539.057793
352.381198	2534.581248
352.771288	2536.822041
353.161314	2536.370858
353.551276	2535.518903
353.941175	2534.772812
354.331010	2536.990920
354.720782	2539.370345
355.110490	2541.419574
355.500135	2537.220293
355.889717	2536.796836
356.279235	2538.137782
356.668689	2535.438245
357.058080	2540.522248
357.447408	2538.936805
357.836672	2539.766075
358.225873	2539.813966
358.615010	2538.803215
359.004084	2541.646426
359.393095	2542.180788
359.782043	2540.549975
360.170927	2543.433515
360.559748	2543.436035
360.948505	2545.165151
361.337199	2546.198587
361.725830	2547.869730
362.114398	2546.382590
362.502903	2545.906201
362.891344	2545.243289
363.279722	2544.532486
363.668037	2547.705892
364.056289	2544.560212
364.444478	2549.389638
364.832603	2550.314690
365.220665	2548.492313
365.608665	2549.074566
365.996601	2549.964329
366.384474	2549.797971
366.772284	2550.987684
367.160031	2549.233362
367.547715	2548.842673
367.935336	2549.858465
368.322893	2546.904349
368.710388	2544.867723
369.097820	2549.624052
369.485189	2543.783875
369.872495	2553.861141
370.259738	2550.896943
370.646918	2552.081614
371.034035	2552.144628
371.421090	2553.031872
371.808081	2555.184444
372.195010	2552.991542
372.581875	2552.883157
372.968678	2554.450956
373.355418	2554.027499
373.742096	2553.732592
374.128710	2554.576985
374.515262	2554.067829
374.901751	2556.636297
375.288177	2554.496327
375.674540	2557.281564
376.060841	2557.203426
376.447079	2559.217367
376.833254	2556.485062
377.219367	2557.868859
377.605417	2557.006821
377.991404	2557.770556
378.377329	2557.679815
378.763191	2556.699311
379.148991	2556.893395
379.534727	2560.550752
379.920402	2560.878427
380.306013	2559.663509
380.691563	2562.892368
381.077049	2558.705690
381.462474	2557.808365
381.847835	2559.653427
382.233134	2561.357337
382.618371	2561.127965
383.003545	2558.350289
383.388657	2558.441030
383.773706	2560.356668
384.158693	2563.061247
384.543618	2561.952193
384.928480	2563.630898
385.313280	2563.456978
385.698017	2562.413459
386.082692	2563.081412
386.467305	2558.012532
386.851856	2564.200548
387.236344	2563.749365
387.620770	2562.489076
388.005133	2560.903633
388.389435	2562.645352
388.773674	2560.041596
389.157851	2564.059396
389.541965	2566.022925
389.926018	2566.164077
390.310008	2564.261042
390.693936	2568.543502
391.077802	2569.251784
391.461606	2568.823286
391.845348	2568.707339
392.229027	2568.367062
392.612645	2565.007132
392.996200	2568.687175
393.379694	2568.868656
393.763125	2566.353121
394.146494	2570.023081
394.529801	2566.017884
394.913047	2567.263049
395.296230	2570.043245
395.679351	2568.162895
396.062410	2570.232288
396.445408	2570.509552
396.828343	2569.113152
397.211217	2572.825962
397.594028	2570.595252
397.976778	2571.099367
398.359466	2567.996537
398.742092	2571.996692
399.124656	2572.566343
399.507158	2570.668348
399.889598	2575.283525
400.271977	2571.091805
400.654294	2573.027608
401.036549	2570.812021
401.418742	2574.723957
401.800874	2571.207752
402.182944	2571.790005
402.564952	2573.614903
402.946898	2573.743452
403.328783	2574.474419
403.710606	2574.421487
404.092367	2574.182033
404.474067	2572.405026
404.855705	2573.229254
405.237282	2574.207238
405.618797	2575.628844
406.000250	2578.056159
406.381642	2573.342680
406.762972	2574.597928
407.144240	2572.888977
407.525447	2575.081878
407.906593	2572.112639
408.287677	2576.206056
408.668700	2576.521128
409.049661	2577.738567
409.430560	2579.019020
409.811399	2577.151272
410.192176	2578.555233
410.572891	2577.884760
410.953545	2580.334761
411.334138	2578.983732
411.714669	2579.515573
412.095139	2579.951633
412.475547	2581.322827
412.855894	2579.656726
413.236180	2577.579770
413.616405	2582.930955
413.996568	2577.872157
414.376670	2579.661767
414.756711	2578.698906
415.136691	2582.726788
415.516609	2580.233938
415.896466	2582.260482
416.276262	2584.292067
416.655997	2582.482292
417.035670	2576.440469
417.415283	2583.399782
417.794834	2584.670153
418.174324	2584.544124
418.553753	2579.558423
418.933121	2583.016655
419.312428	2583.039340
419.691674	2583.031778
420.070859	2586.502612
420.449983	2581.998342
420.829045	2584.851635
421.208047	2583.263671
421.586988	2582.968764
421.965867	2584.246696
422.344686	2584.045050
422.723444	2583.117478
423.102141	2586.084197
423.480777	2586.197623
423.859352	2583.145204
424.237866	2587.268868
424.616319	2586.114444
424.994712	2586.111923
425.373044	2585.040678
425.751314	2582.431881
426.129524	2581.776531
426.507673	2581.012796
426.885762	2579.734863
427.263789	2586.605956
427.641756	2584.350040
428.019662	2584.196285
428.397508	2586.936152
428.775292	2584.990266
429.153016	2588.380442
429.530679	2585.499423
429.908282	2588.055288
430.285824	2588.864393
430.663305	2586.298446
431.040726	2588.584609
431.418086	2588.014959
431.795385	2586.812643
432.172624	2587.354567
432.549802	2589.756677
432.926920	2588.403127
433.303977	2589.557552
433.680974	2586.822726
434.057910	2589.038313
434.434786	2589.943200
434.811601	2590.356575
435.188355	2589.514702
435.565050	2588.375401
435.941683	2588.622418
436.318257	2590.860690
436.694770	2590.873293
437.071222	2592.574682
437.447614	2589.963365
437.823946	2593.224991
438.200218	2590.825402
438.576429	2589.408838
438.952580	2590.691811
439.328670	2590.154928
439.704700	2593.252717
440.080670	2590.432192
440.456580	2591.208530
440.832429	2590.253231
441.208218	2591.609301
441.583947	2592.851946
441.959616	2592.403283
442.335224	2592.373036
442.710773	2591.795824
443.086261	2591.949579
443.461689	2594.649117
443.837057	2594.369333
444.212365	2594.591144
444.587612	2593.961000
444.962800	2591.296750
445.337927	2592.650300
445.712995	2589.620566
446.088002	2595.511154
446.462949	2596.436206
446.837837	2598.084663
447.212664	2598.041814
447.587431	2599.914602
447.962139	2602.578852
448.336786	2602.069696
448.711374	2598.644232
449.085901	2600.650611
449.460369	2600.184304
449.834776	2600.559870
450.209124	2603.945005
450.583412	2604.922989
450.957640	2600.522061
451.331808	2604.315530
451.705917	2604.403750
452.079965	2602.926692
452.453954	2605.273349
452.827883	2604.711260
453.201752	2607.529265
453.575562	2604.875098
453.949311	2607.889708
454.323001	2608.524893
454.696632	2608.993720
455.070202	2611.524380
455.443713	2609.765017
455.817164	2612.336005
456.190556	2613.815584
456.563888	2614.327261
456.937160	2613.999586
457.310373	2615.821963
457.683526	2615.088475
458.056619	2615.380862
458.429653	2614.319699
458.802628	2616.636110
459.175542	2617.762807
459.548398	2622.224229
459.921194	2621.934362
460.293930	2623.250103
460.666607	2627.787142
461.039224	2626.012656
461.411782	2627.827471
461.784280	2631.366361
462.156719	2631.051289
462.529099	2631.000877
462.901419	2628.492903
463.273680	2629.455764
463.645882	2628.825620
464.018024	2632.455250
464.390106	2632.840899
464.762130	2642.225007
465.134094	2648.314720
465.505999	2660.594971
465.877845	2666.462874
466.249631	2671.816580
466.621358	2670.168122
466.993026	2671.468740
467.364634	2674.198525
467.736184	2671.015036
468.107674	2672.366065
468.479105	2673.649039
468.850477	2676.925789
469.221790	2678.385203
469.593043	2679.509380
469.964238	2680.628517
470.335373	2683.827129
470.706449	2695.971268
471.077467	2709.781509
471.448425	2730.977041
471.819324	2749.190729
472.190164	2749.173085
472.560945	2745.122518
472.931667	2744.187384
473.302330	2750.372880
473.672934	2753.238776
474.043479	2766.948194
474.413965	2775.734925
474.784393	2784.647685
475.154761	2803.476395
475.525070	2817.004331
475.895321	2828.909016
476.265513	2847.536079
476.635645	2871.410984
477.005719	2889.722975
477.375734	2916.025195
477.745691	2944.066614
478.115588	2974.278249
478.485427	3022.774149
478.855207	3095.533122
479.224928	3161.398318
479.594591	3216.719940
479.964194	3235.286510
480.333739	3268.452261
480.703226	3314.125115
481.072653	3380.600290
481.442022	3438.016512
481.811333	3494.633710
482.180584	3519.557175
482.549777	3561.171900
482.918912	3605.309722
483.287988	3661.198475
483.657005	3709.374261
484.025964	3749.106115
484.394864	3813.264880
484.763706	3868.594064
485.132489	3910.102925
485.501213	3974.516268
485.869879	4052.328999
486.238487	4121.859113
486.607036	4208.937484
486.975527	4269.489303
487.343959	4363.806771
487.712333	4464.801248
488.080648	4551.035225
488.448905	4668.491589
488.817104	4753.833283
489.185244	4922.023819
489.553326	5140.136902
489.921350	5429.166417
490.289315	5773.585609
490.657222	5971.786134
491.025070	6140.077494
491.392861	6223.692592
491.760593	6264.664570
492.128267	6279.273834
492.495883	6304.315765
492.863440	6338.434295
493.230939	6371.526949
493.598380	6442.725685
493.965763	6559.952677
494.333088	6646.668085
494.700354	6761.414829
495.067563	6905.465800
495.434713	7039.439504
495.801805	7235.805050
496.168839	7367.744649
496.535815	7507.177923
496.902733	7687.999070
497.269593	7828.004515
497.636395	8021.514247
498.003139	8245.180161
498.369825	8373.487608
498.736453	8624.975650
499.103023	8779.887787
499.469535	8978.731060
499.835989	9193.121251
500.202385	9340.204476
500.568723	9552.437053
500.935003	9829.738323
501.301226	9992.917952
501.667390	10378.460357
502.033497	10641.170008
502.399546	10786.577049
502.765537	10882.230423
503.131470	11218.803059
503.497345	11566.504043
503.863163	11489.170222
504.228923	11922.681727
504.594625	12273.712393
504.960269	12337.167917
505.325856	12798.826704
505.691385	12926.413266
506.056856	13271.273560
506.422270	13672.541844
506.787625	13748.229728
507.152924	14149.936593
507.518164	14467.141116
507.883347	14540.701633
508.248472	14836.244319
508.613540	15347.472771
508.978550	15701.555856
509.343503	15897.949127
509.708398	16298.327648
510.073236	16806.302036
510.438016	17106.147346
510.802738	17224.435501
511.167403	17751.079802
511.532010	18143.808372
511.896561	18648.332090
512.261053	19275.494478
512.625488	19426.887890
512.989866	19670.133645
513.354186	19959.846236
513.718449	20194.617812
514.082655	20933.628280
514.446803	21037.781039
514.810894	21645.013226
515.174927	21912.373341
515.538904	22161.156804
515.902822	22793.866982
516.266684	22881.550291
516.630488	23366.131205
516.994235	23623.383806
517.357925	24227.500559
517.721558	24647.998325
518.085133	25137.297759
518.448651	25510.154100
518.812112	25708.888988
519.175516	26065.664048
519.538863	26598.191376
519.902152	26879.938944
520.265385	27508.709460
520.628560	27777.266849
520.991678	27999.289347
521.354739	28386.308810
521.717743	28896.239165
522.080690	29062.892150
522.443580	29800.856579
522.806413	30054.396370
523.169189	30387.319212
523.531908	30776.188778
523.894569	30916.080797
524.257174	31281.846756
524.619722	31762.699736
524.982213	32090.624273
525.344647	32345.875536
525.707025	32655.523370
526.069345	33238.232864
526.431608	33368.650034
526.793815	33876.488311
527.155964	33737.904471
527.518057	34146.280783
527.880093	34228.481837
528.242072	34936.970640
528.603995	34921.499339
528.965860	35063.768262
529.327669	35440.904543
529.689421	35663.700858
530.051117	35795.680786
530.412755	36221.134006
530.774337	36482.212843
531.135862	36575.391010
531.497331	36891.390698
531.858743	37066.590959
532.220098	37578.842766
532.581396	37532.643111
532.942638	37478.559092
533.303824	37858.967082
533.664953	38059.647855
534.026025	37943.197201
534.387040	38606.502142
534.747999	38815.959564
535.108902	39249.493753
535.469748	38801.032707
535.830537	39161.306328
536.191270	39529.292915
536.551947	39435.403945
536.912567	39831.570582
537.273131	40101.486562
537.633638	39883.207121
537.994089	40176.597234
538.354483	40069.177807
538.714821	40792.643878
539.075103	41163.390496
539.435328	41164.272698
539.795497	41055.875287
540.155609	41292.055866
540.515665	41938.969495
540.875665	41413.804772
541.235609	41791.661938
541.595496	42018.876824
541.955328	42648.257320
542.315102	42243.283788
542.674821	42219.711352
543.034483	42215.577606
543.394090	42328.207066
543.753640	42392.048238
544.113134	43492.978265
544.472571	42728.136924
544.831953	43920.435343
545.191278	43293.451916
545.550548	43067.608224
545.909761	43777.934527
546.268918	44007.836348
546.628019	44484.288401
546.987064	44005.620761
547.346053	43401.088112
547.704986	44357.659657
548.063863	44091.660654
548.422684	44353.994739
548.781449	44044.029312
549.140158	44627.371471
549.498811	44454.336385
549.857408	43938.671717
550.215949	44813.029605
550.574434	44727.934928
550.932864	44719.871602
551.291237	45473.945039
551.649555	45278.333146
552.007817	45512.290576
552.366022	45252.406492
552.724173	45368.005191
553.082267	45812.788715
553.440305	46197.632920
553.798288	45521.163006
554.156215	45942.180011
554.514086	46188.987342
554.871902	45870.499844
555.229661	46069.391008
555.587365	45823.004613
555.945014	45986.249778
556.302606	46026.861313
556.660143	46157.394430
557.017625	46409.923471
557.375050	46152.265056
557.732421	46598.402131
558.089735	46672.093717
558.446994	46581.753720
558.804197	47094.048377
559.161345	46978.588310
559.518437	46346.624222
559.875474	46637.327400
560.232455	46913.789318
560.589381	46985.439238
560.946251	46817.140317
561.303065	47489.791557
561.659825	47205.866210
562.016528	47048.186480
562.373177	46636.878737
562.729770	47289.718243
563.086307	46844.717949
563.442789	47378.019093
563.799216	47266.372659
564.155587	47177.590378
564.511904	47177.260183
564.868164	47226.219869
565.224370	47563.427691
565.580520	47298.441959
565.936615	47505.998866
566.292654	47172.962599
566.648638	47550.723983
567.004567	47507.785955
567.360441	47600.056715
567.716260	47359.485291
568.072023	47730.632682
568.427732	47681.234415
568.783385	47219.399188
569.138982	47637.083990
569.494525	47782.690157
569.850013	47374.626397
570.205445	47499.561313
570.560823	47310.132395
570.916145	47202.715489
571.271412	47441.058722
571.626625	47097.337730
571.981782	47182.749999
572.336884	46779.109852
572.691931	47118.414794
573.046923	46793.232644
573.401860	46644.543812
573.756743	46645.221847
574.111570	46805.739747
574.466342	46723.387458
574.821059	46868.799541
575.175722	46374.635394
575.530330	46492.396748
575.884882	46140.756102
576.239380	46040.842953
576.593823	46142.086967
576.948211	46080.431135
577.302544	45630.671991
577.656823	45631.914636
578.011047	45892.562454
578.365216	45721.551392
578.719330	45439.960100
579.073389	45431.493482
579.427394	45491.198388
579.781344	45409.350214
580.135239	45178.286407
580.489080	45235.085087
580.842866	44717.991252
581.196597	45238.460140
581.550273	45223.742491
581.903895	45147.500080
582.257463	45605.877076
582.610975	45041.598041
582.964434	45370.258587
583.317837	44888.783024
583.671186	44836.556670
584.024481	45107.168329
584.377721	44653.668650
584.730906	44884.082148
585.084037	45013.891859
585.437113	44723.163476
585.790135	44849.255337
586.143103	44395.009566
586.496016	44573.249643
586.848874	44658.866079
587.201679	44703.734869
587.554428	44204.804311
587.907124	44480.106764
588.259765	44254.164769
588.612352	44421.437815
588.964884	43876.325247
589.317362	44191.909040
589.669786	44190.232856
590.022155	44039.794743
590.374470	44510.255384
590.726731	44073.613323
591.078937	43426.167853
591.431090	43760.217392
591.783188	43302.924244
592.135232	43084.362498
592.487222	43353.325700
592.839157	43501.462527
593.191038	43140.553720
593.542866	42966.694406
593.894639	42360.296530
594.246358	42657.800225
594.598022	42662.629650
594.949633	42241.063160
595.301190	42226.799215
595.652692	42180.942359
596.004141	42645.288081
596.355535	41569.107599
596.706876	41578.859711
597.058162	41280.529267
597.409395	41802.848259
597.760573	42019.887576
598.111698	41610.941614
598.462768	41532.823894
598.813785	41554.490773
599.164748	41138.290591
599.515657	41444.674278
599.866511	40948.602054
600.217312	41635.101344
600.568060	40569.308159
600.918753	41422.709971
601.269392	41320.306492
601.619978	41058.287480
601.970510	41257.465989
602.320988	41400.312124
602.671412	41646.922850
603.021783	41516.167922
603.372100	41107.090890
603.722363	41203.286188
604.072572	41241.949317
604.422728	41217.963507
604.772830	41010.086487
605.122878	41171.242093
605.472872	41034.389890
605.822813	41299.234469
606.172701	41047.212065
606.522534	41365.755014
606.872314	41578.400966
607.222041	41400.279357
607.571714	41741.567992
607.921333	41243.938052
608.270899	41460.193470
608.620411	41834.027795
608.969870	41567.403689
609.319276	41598.237906
609.668627	41629.203194
610.017926	42016.492359
610.367171	42152.485045
610.716362	42204.923128
611.065500	42083.953079
611.414585	42316.498986
611.763616	42493.771161
612.112594	42394.478074
612.461518	42517.366281
612.810389	42898.701843
613.159207	42710.490365
613.507971	42671.832276
613.856682	43162.240764
614.205340	42989.881193
614.553945	43677.517263
614.902496	42997.231195
615.250994	43427.851598
615.599439	43495.939943
615.947830	43603.016571
616.296169	43613.411430
616.644454	43649.702697
616.992686	43803.697344
617.340864	44250.066311
617.688990	43772.744659
618.037063	44457.832426
618.385082	44282.080158
618.733048	44613.828411
619.080961	44507.485270
619.428821	44509.980642
619.776628	44530.553590
620.124382	44334.016646
620.472083	44451.004183
620.819731	44551.602928
621.167326	44104.641625
621.514868	44108.626657
621.862357	43584.707100
622.209793	43657.970189
622.557176	43227.649735
622.904506	42983.514216
623.251783	42609.934469
623.599007	42297.907210
623.946179	42209.631565
624.293297	41956.865591
624.640363	41419.554208
624.987376	41260.546134
625.334336	41051.217261
625.681243	40640.527060
626.028097	40558.454555
626.374899	40377.401515
626.721647	40351.414367
627.068343	40135.993260
627.414987	39838.156850
627.761577	39581.236964
628.108115	39907.800390
628.454600	39171.809572
628.801032	39402.512937
629.147412	39296.401690
629.493739	39207.127896
629.840014	38764.305381
630.186236	39175.688740
630.532405	38630.785380
630.878521	38876.208914
631.224585	38642.342225
631.570597	38284.579098
631.916556	38463.376223
632.262462	38345.055301
632.608316	38285.413409
632.954117	38139.676172
633.299866	38096.511293
633.645562	38024.682412
633.991206	37488.948910
634.336797	37084.020748
634.682336	36986.252611
635.027823	36749.877948
635.373257	36629.079299
635.718639	36291.367362
636.063968	36175.544331
636.409245	35515.014546
636.754470	35488.273745
637.099642	35254.583497
637.444762	34696.086665
637.789829	34848.042166
638.134845	34450.930312
638.479808	34372.895772
638.824719	34320.581197
639.169577	33806.602795
639.514383	33913.684465
639.859137	33530.599622
640.203839	33699.798389
640.548489	33396.966196
640.893086	33389.790113
641.237632	33121.003352
641.582125	33221.360122
641.926566	33016.164996
642.270955	33034.981102
642.615292	32974.779643
642.959576	32849.849769
643.303809	32862.573641
643.647990	32943.295117
643.992118	32888.507857
644.336195	32745.452514
644.680219	32833.279496
645.024192	33033.307439
645.368112	33557.418561
645.711981	33579.128290
646.055797	34311.673479
646.399562	34117.672235
646.743274	34977.196527
647.086935	35393.852934
647.430544	35322.465154
647.774101	35378.366509
648.117606	35673.921797
648.461059	35807.325852
648.804460	35410.072846
649.147810	34892.147221
649.491108	34535.231008
649.834354	34395.429729
650.177548	33576.572425
650.520690	33082.010027
650.863781	33076.386620
651.206820	32877.999572
651.549807	32475.680207
651.892742	31896.025652
652.235626	31791.787194
652.578458	31678.325944
652.921238	30973.023151
653.263967	31289.821861
653.606644	30999.395947
653.949269	30904.712995
654.291843	30513.711021
654.634365	30877.062267
654.976836	30415.723593
655.319255	30491.968524
655.661622	30363.295593
656.003938	30229.276518
656.346203	30050.935618
656.688416	30295.950819
657.030577	30067.609235
657.372687	29898.231507
657.714746	30045.987726
658.056753	30239.318496
658.398708	29630.773089
658.740612	29686.714773
659.082465	29896.961136
659.424266	29787.754620
659.766016	29779.104000
660.107715	29642.498813
660.449362	29750.699619
660.790958	29728.710106
661.132503	29656.248560
661.473996	29736.070190
661.815438	29815.102880
662.156829	29927.490363
662.498168	29745.260214
662.839456	29717.990092
663.180693	29849.279382
663.521879	29942.694483
663.863013	29898.954912
664.204097	29870.994152
664.545129	30291.801949
664.886110	30217.374354
665.227040	30316.427986
665.567918	30318.026031
665.908746	30393.721477
666.249522	30477.409672
666.590248	30505.360349
666.930922	30602.964650
667.271545	30594.374523
667.612118	30648.193882
667.952639	30454.646342
668.293109	30505.214156
668.633528	30367.131911
668.973896	30319.379581
669.314213	30305.292077
669.654480	30113.017428
669.994695	30106.859658
670.334859	30019.728355
670.674973	29853.327429
671.015035	30039.910615
671.355047	29987.069240
671.695008	29914.224567
672.034918	29815.488528
672.374777	29921.042728
672.714585	29785.286975
673.054342	29920.105073
673.394049	29775.708783
673.733705	29990.860188
674.073310	29702.483503
674.412864	29754.326729
674.752368	29457.150710
675.091820	29686.918940
675.431223	29289.071079
675.770574	29086.325953
676.109875	28921.414688
676.449125	28712.912564
676.788324	28620.546023
677.127473	28140.779412
677.466571	28048.354897
677.805619	27761.339323
678.144616	27714.806953
678.483562	27645.791036
678.822458	27328.016862
679.161303	27266.235001
679.500098	27190.849587
679.838842	27122.620090
680.177535	27206.073871
680.516179	27448.717209
680.854771	27569.810765
681.193314	28354.766310
681.531805	29366.878768
681.870247	30113.783683
682.208638	30833.942757
682.546978	31093.486563
682.885268	31250.780645
683.223508	30792.368361
683.561697	30525.628308
683.899836	30361.442969
684.237925	29959.539499
684.575963	29815.110441
684.913951	29449.344483
685.251889	29620.486615
685.589776	29639.211981
685.927614	29640.303391
686.265401	29823.390537
686.603137	29955.630084
686.940824	30446.767018
687.278460	30780.156166
687.616046	30944.946444
687.953582	31609.075614
688.291068	31521.115041
688.628504	31848.487572
688.965889	31858.083408
689.303224	31593.571545
689.640510	31314.152990
689.977745	30681.543635
690.314930	29938.984194
690.652065	29518.940132
690.989150	28839.379991
691.326185	27994.497730
691.663170	27361.729578
692.000105	26622.703986
692.336990	26023.759457
692.673825	25599.246412
693.010610	25121.135819
693.347345	24604.031902
693.684030	23983.377643
694.020665	23787.667448
694.357251	23114.189459
694.693786	23122.966108
695.030272	22883.344942
695.366707	22406.028331
695.703093	22112.648301
696.039429	22185.200587
696.375716	21940.997012
696.711952	21946.380965
697.048139	21804.863173
697.384276	21646.941467
697.720363	21759.444898
698.056400	21652.025471
698.392388	21493.287098
698.728326	21494.862459
699.064214	21321.610604
699.400053	21337.772543
699.735842	20944.174374
700.071581	20746.450238
700.407270	20502.060141
700.742910	20330.139151
701.078501	20082.840307
701.414042	19867.638491
701.749533	19570.686803
702.084974	19260.310523
702.420366	19494.812397
702.755709	19082.698070
703.091002	18785.743861
703.426246	18842.870217
703.761440	18776.306821
704.096584	18539.387714
704.431679	18468.803998
704.766725	18417.356503
705.101721	18352.960803
705.436668	18473.237693
705.771565	18189.345114
706.106413	18499.630654
706.441212	18581.393128
706.775961	18687.048151
707.110661	18762.415922
707.445311	19124.781622
707.779913	18993.746910
708.114465	19299.782757
708.448967	19605.317009
708.783421	20245.805688
709.117825	20609.056111
709.452180	20834.917447
709.786485	21299.028755
710.120742	22054.851472
710.454949	22169.197444
710.789107	22669.292508
711.123216	23377.609912
711.457275	23600.590229
711.791286	24138.050326
712.125247	24297.267608
712.459159	24034.804974
712.793023	24786.574603
713.126837	23768.722792
713.460602	24022.466750
713.794318	23704.238873
714.127985	23433.813736
714.461602	22528.513246
714.795171	22509.606399
715.128691	21529.502747
715.462162	21007.178715
715.795584	20580.815567
716.128957	20312.621141
716.462281	19934.380847
716.795556	19653.127313
717.128782	19178.802627
717.461960	18574.542200
717.795088	18529.393626
718.128167	18194.257719
718.461198	17739.250734
718.794180	17609.715766
719.127113	17268.812778
719.459997	17091.235613
719.792833	16714.948767
720.125619	16748.467398
720.458357	16422.072852
720.791046	16283.161337
721.123686	16122.784589
721.456278	15901.931639
721.788821	15898.092800
722.121315	15629.522808
722.453761	15734.812348
722.786158	15623.720440
723.118506	15703.451330
723.450805	15581.483133
723.783056	15761.878303
724.115259	15657.773435
724.447412	15657.196223
724.779518	15869.948038
725.111574	15915.764565
725.443582	16188.957295
725.775542	16149.424566
726.107453	16659.133111
726.439315	16578.247798
726.771129	16990.825911
727.102895	17426.167354
727.434612	17684.007250
727.766281	17855.656018
728.097901	18178.317590
728.429473	18261.206762
728.760996	18271.092465
729.092471	18400.216580
729.423897	18284.738868
729.755276	18164.799736
730.086606	18270.011138
730.417887	18858.522999
730.749120	19412.996990
731.080305	19625.655545
731.411442	20035.844151
731.742530	20147.868672
732.073570	20311.164247
732.404562	20629.122423
732.735506	20472.846654
733.066401	20262.076012
733.397249	19770.397154
733.728048	19152.359254
734.058798	18285.311039
734.389501	17523.194442
734.720156	17013.508583
735.050762	16443.144875
735.381320	16055.510391
735.711831	15779.968483
736.042293	15409.920065
736.372707	15436.434013
736.703073	15231.448095
737.033391	15431.097952
737.363661	15420.448514
737.693883	15542.880497
738.024056	15744.766106
738.354182	15964.983871
738.684260	16323.503170
739.014290	16598.767814
739.344272	16823.114284
739.674207	17172.004980
740.004093	17348.354624
740.333931	17397.720123
740.663722	17483.356724
740.993464	17525.392385
741.323159	17382.208492
741.652806	17075.207264
741.982405	16920.421156
742.311956	16560.157617
742.641460	16449.882377
742.970915	16117.375431
743.300323	15780.349090
743.629683	15553.645881
743.958996	15240.938067
744.288260	14925.762608
744.617477	14620.188027
744.946647	14580.065483
745.275768	14260.645373
745.604842	14069.562957
745.933869	13890.425555
746.262847	13864.423283
746.591778	13774.272329
746.920662	13655.548115
747.249498	13666.938602
747.578286	13827.446420
747.907027	14004.048121
748.235720	14267.072844
748.564365	14337.732177
748.892963	14249.559875
749.221514	14365.087998
749.550017	14220.353950
749.878473	14191.029558
750.206881	13962.932470
750.535242	13888.951017
750.863555	13818.190861
751.191821	13716.699831
751.520039	13729.884969
751.848210	13649.657526
752.176334	13713.473493
752.504411	13630.904434
752.832440	13457.042600
753.160421	13563.375658
753.488356	13458.673413
753.816243	13373.470351
754.144082	13201.950133
754.471875	13155.105211
754.799620	13121.513482
755.127318	13093.288062
755.454969	13085.484355
755.782572	13052.116958
756.110129	13070.711254
756.437638	12970.606542
756.765100	12976.640803
757.092515	12997.569153
757.419882	13039.743446
757.747203	13050.662585
758.074477	13146.653716
758.401703	13121.571455
758.728882	13330.098784
759.056014	13362.044576
759.383099	13533.400957
759.710138	13655.651458
760.037129	13781.624852
760.364073	13830.735772
760.690970	13868.572153
761.017820	13881.114543
761.344623	14112.926962
761.671379	14496.457947
761.998088	15193.906622
762.324751	16968.715410
762.651366	20375.403671
762.977935	24847.489386
763.304456	27798.895919
763.630931	28849.752165
763.957359	27654.575247
764.283740	25409.895632
764.610074	23142.941680
764.936362	20518.204436
765.262602	18649.357964
765.588796	16715.382306
765.914943	15428.184165
766.241044	14328.766484
766.567097	13519.076518
766.893104	12803.754432
767.219064	12338.087927
767.544978	11866.949251
767.870845	11479.395425
768.196665	11253.546692
768.522438	11023.755776
768.848165	10821.214817
769.173846	10616.886770
769.499479	10483.805349
769.825066	10311.803701
770.150607	10091.492675
770.476101	10000.094035
770.801548	9880.457372
771.126949	9719.974760
771.452303	9606.339590
771.777611	9406.936750
772.102872	9402.056913
772.428087	9261.005428
772.753256	9102.935008
773.078378	9012.380762
773.403453	8834.475922
773.728482	8722.564827
774.053465	8640.507445
774.378401	8543.109833
774.703291	8418.868075
775.028135	8293.557594
775.352932	8258.995443
775.677683	8151.717168
776.002388	8053.270996
776.327046	8062.466060
776.651658	7965.444013
776.976224	7856.494596
777.300743	7860.666151
777.625216	7774.722040
777.949643	7726.097590
778.274024	7743.918069
778.598359	7656.640573
778.922647	7668.603231
779.246889	7618.305118
779.571086	7632.125442
779.895236	7639.606514
780.219339	7646.306207
780.543397	7647.100189
780.867409	7734.526400
781.191374	7744.323882
781.515294	7709.766772
781.839167	7802.150958
782.162995	7773.502081
782.486776	7714.623924
782.810511	7671.406112
783.134201	7579.435302
783.457844	7573.264929
783.781441	7524.287599
784.104993	7458.981972
784.428498	7431.283352
784.751958	7419.121568
785.075372	7387.833647
785.398739	7337.107036
785.722061	7377.816874
786.045337	7385.255097
786.368568	7543.983387
786.691752	7568.475833
787.014891	7912.297649
787.337983	8266.617668
787.661030	8856.306639
787.984031	9485.898863
788.306987	9887.303259
788.629897	10095.051729
788.952760	10042.384274
789.275579	9820.540738
789.598351	9420.411754
789.921078	9063.740037
790.243759	8657.115527
790.566395	8369.459727
790.888984	8116.764328
791.211529	7906.016371
791.534027	7685.861621
791.856480	7485.843760
792.178888	7412.812564
792.501249	7310.260371
792.823566	7154.760940
793.145836	7156.167422
793.468062	7133.330995
793.790241	7082.047337
794.112375	7145.603684
794.434464	7298.688403
794.756507	7335.612334
795.078505	7497.627457
795.400457	7808.616238
795.722364	8161.227305
796.044226	8451.335627
796.366042	8720.568530
796.687812	8669.940222
797.009538	8755.072708
797.331218	8644.971387
797.652852	8563.985251
797.974442	8409.431035
798.295986	8316.056263
798.617484	8123.469063
798.938938	7988.696335
799.260346	7882.078452
799.581709	7682.491610
799.903026	7610.413192
800.224299	7499.754824
800.545526	7327.594379
800.866708	7236.283959
801.187845	7165.271746
801.508936	7060.874491
801.829983	7025.936774
802.150984	6869.842486
802.471940	6823.292472
802.792851	6811.541542
803.113717	6778.479134
803.434538	6744.506799
803.755314	6684.882552
804.076045	6681.910791
804.396731	6635.398585
804.717372	6665.045611
805.037967	6667.677093
805.358518	6704.608587
805.679024	6793.015302
805.999485	6800.677855
806.319901	6840.402148
806.640272	6862.121959
806.960598	6943.009793
807.280879	6947.564476
807.601115	7023.552308
807.921306	6970.736139
808.241453	6979.026317
808.561554	7005.688979
808.881611	6970.695810
809.201623	6978.587736
809.521590	6919.455002
809.841513	6904.102168
810.161390	6948.229908
810.481223	6815.395504
810.801011	6795.364479
811.120755	6777.085255
811.440453	6690.828593
811.760107	6665.796743
812.079716	6633.959336
812.399281	6567.816877
812.718801	6558.369755
813.038276	6513.780749
813.357707	6453.806142
813.677093	6496.446741
813.996434	6405.693369
814.315731	6438.463390
814.634983	6435.383245
814.954191	6450.529392
815.273354	6556.978396
815.592473	6614.439988
815.911547	6742.623928
816.230577	6824.951011
816.549562	6976.190668
816.868502	7077.850576
817.187399	7168.818197
817.506250	7322.033986
817.825058	7361.642332
818.143821	7623.910881
818.462539	7896.841471
818.781213	8261.155577
819.099843	8813.991193
819.418429	9809.281321
819.736970	10781.051945
820.055466	11958.617592
820.373919	13493.974093
820.692327	15843.512227
821.010691	19985.704835
821.329011	28960.745770
821.647286	41849.587317
821.965517	55221.983902
822.283704	60617.755195
822.601847	62626.914622
822.919945	59931.792788
823.237999	55772.437573
823.556010	49640.718312
823.873976	42950.328300
824.191897	36448.464839
824.509775	31615.213218
824.827609	27107.630219
825.145398	24529.626992
825.463144	23169.193488
825.780845	23472.590292
826.098502	25246.602577
826.416116	29010.572534
826.733685	32630.057982
827.051210	33755.021709
827.368692	31977.367190
827.686129	28031.847639
828.003522	23932.819911
828.320872	20249.904146
828.638177	17403.865289
828.955439	15262.299957
829.272656	13448.795272
829.589830	11975.754995
829.906960	10701.023627
830.224046	9768.599209
830.541088	9016.201956
830.858086	8562.127585
831.175041	8179.957712
831.491952	8067.729025
831.808819	8107.228986
832.125642	8510.402826
832.442421	9393.847394
832.759157	11187.338698
833.075849	14100.881125
833.392497	17305.522460
833.709101	19472.212904
834.025662	19318.709769
834.342179	17618.560470
834.658653	15439.680516
834.975083	13519.852856
835.291469	11905.219170
835.607811	10595.461866
835.924110	9684.527886
836.240366	8815.070000
836.556578	8011.605859
836.872746	7369.657767
837.188871	6876.443877
837.504952	6452.402180
837.820990	6141.602443
838.136984	5922.501294
838.452935	5831.314382
838.768842	5864.364187
839.084706	6284.249452
839.400526	7491.021025
839.716303	9067.437723
840.032037	10158.267798
840.347727	10076.971631
840.663373	9110.242161
840.978977	8071.398985
841.294537	7262.404698
841.610054	6667.009141
841.925527	6230.450259
842.240957	5869.904415
842.556344	5537.357140
842.871687	5254.162761
843.186987	4971.961489
843.502244	4753.871091
843.817458	4583.470009
844.132629	4447.361376
844.447756	4357.936348
844.762840	4277.938277
845.077881	4206.726938
845.392879	4141.446516
845.707833	4088.239658
846.022745	4044.729459
846.337613	4017.560161
846.652438	3980.419460
846.967221	3961.008497
847.281960	3923.676232
847.596656	3907.988161
847.911309	3887.513515
848.225919	3866.605329
848.540485	3848.409284
848.855009	3833.318590
849.169490	3815.188081
849.483928	3797.138229
849.798323	3790.637661
850.112675	3768.501955
850.426984	3782.700365
850.741251	3765.704114
851.055474	3762.109772
851.369654	3768.713683
851.683792	3761.963578
851.997887	3768.806945
852.311938	3769.283334
852.625947	3771.700567
852.939914	3762.258486
853.253837	3771.398098
853.567718	3768.368364
853.881555	3760.163886
854.195350	3775.756175
854.509103	3772.471863
854.822812	3770.616719
855.136479	3757.161879
855.450103	3772.993623
855.763685	3754.996704
856.077224	3759.942076
856.390720	3778.836320
856.704173	3801.017397
857.017584	3812.886794
857.330953	3823.584122
857.644278	3842.135568
857.957561	3851.310468
858.270802	3848.121939
858.584000	3851.386086
858.897155	3841.049200
859.210268	3826.976819
859.523339	3803.522851
859.836367	3803.858087
860.149352	3794.413486
860.462295	3788.326292
860.775195	3778.024694
861.088054	3774.168212
861.400869	3774.074950
861.713642	3771.430865
862.026373	3781.321609
862.339062	3789.815953
862.651708	3807.787667
862.964312	3841.588603
863.276873	3855.640820
863.589392	3914.153492
863.901869	3958.064463
864.214303	4000.016945
864.526696	4032.623128
864.839045	4079.427721
865.151353	4107.564921
865.463619	4115.658494
865.775842	4124.059577
866.088023	4142.611023
866.400162	4128.374804
866.712258	4138.094149
867.024313	4137.292606
867.336325	4139.152791
867.648296	4143.069768
867.960224	4143.334428
868.272110	4154.737518
868.583954	4156.305317
868.895755	4176.379192
869.207515	4169.238398
869.519233	4211.727763
869.830909	4223.377869
870.142542	4245.334615
870.454134	4259.384311
870.765684	4292.139208
871.077191	4327.696986
871.388657	4350.528372
871.700081	4387.953898
872.011463	4430.236576
872.322803	4464.886947
872.634101	4498.466073
872.945357	4536.388153
873.256571	4591.263633
873.567744	4621.578612
873.878874	4637.377588
874.189963	4676.829658
874.501010	4685.873488
874.812015	4684.222510
875.122979	4728.251947
875.433900	4725.121391
875.744780	4741.114452
876.055618	4764.291156
876.366415	4764.162607
876.677169	4787.815701
876.987882	4831.865303
877.298554	4886.720619
877.609183	4963.898163
877.919771	5077.122479
878.230317	5215.250094
878.540822	5429.471406
878.851285	5751.349079
879.161707	6205.620055
879.472087	6963.214738
879.782425	8198.428500
880.092722	10364.929900
880.402977	13638.657729
880.713191	17346.827154
881.023363	21018.211280
881.333494	23186.051107
881.643583	24403.693928
881.953631	24418.318315
882.263637	23595.057562
882.573602	22136.520685
882.883526	20598.623443
883.193408	18950.934911
883.503248	17262.670132
883.813048	15731.089456
884.122806	14322.490248
884.432522	12855.522040
884.742197	11602.810433
885.051831	10522.685248
885.361424	9525.751705
885.670975	8709.921613
885.980485	8022.638424
886.289954	7454.956610
886.599382	6975.573126
886.908768	6612.965451
887.218113	6246.254276
887.527417	5961.673580
887.836680	5694.560481
888.145901	5474.206606
888.455082	5312.199044
888.764221	5156.540817
889.073319	5031.048853
889.382376	4956.785095
889.691392	4896.651692
890.000366	4871.403073
890.309300	4851.639229
890.618193	4855.344477
890.927044	4845.168908
891.235855	4865.444429
891.544625	4894.811671
891.853353	4956.669149
892.162041	5074.422941
892.470687	5260.365901
892.779293	5508.456205
893.087858	5879.154932
893.396381	6456.064578
893.704864	7255.455467
894.013306	8395.230105
894.321707	9558.095748
894.630068	10356.896822
894.938387	10564.917515
895.246665	10331.852369
895.554903	9740.580476
895.863100	9041.022077
896.171256	8487.490782
896.479371	7980.436405
896.787446	7494.771643
897.095480	7067.690131
897.403473	6748.532160
897.711425	6431.730929
898.019336	6165.827708
898.327207	5898.260905
898.635038	5671.696328
898.942827	5428.533752
899.250576	5236.286829
899.558284	5045.229619
899.865952	4920.022481
900.173579	4772.447743
900.481165	4668.388246
900.788711	4576.102363
901.096216	4504.691898
901.403681	4438.919964
901.711105	4414.896345
902.018489	4402.076691
902.325832	4470.343996
902.633135	4595.989715
902.940397	4933.172331
903.247619	5725.656839
903.554800	7155.189438
903.861941	9058.676198
904.169041	10551.445031
904.476101	11170.518888
904.783121	10821.734056
905.090100	10094.048540
905.397039	9270.807952
905.703938	8519.756687
906.010796	7836.327460
906.317614	7276.993797
906.624391	6750.563745
906.931129	6330.628068
907.237826	5936.140135
907.544483	5562.260440
907.851099	5191.365107
908.157675	4836.518288
908.464211	4514.600286
908.770707	4282.971869
909.077163	4087.370059
909.383578	3942.010908
909.689954	3826.870955
909.996289	3756.945110
910.302584	3694.013866
910.608839	3662.645286
910.915054	3627.001807
911.221229	3615.712143
911.527363	3624.715644
911.833458	3640.063437
912.139513	3669.760874
912.445527	3695.322045
912.751502	3779.952936
913.057436	3878.883059
913.363331	4016.221734
913.669186	4216.680696
913.975000	4472.015139
914.280775	4893.072472
914.586510	5468.994052
914.892205	6256.833137
915.197859	7283.844725
915.503475	8491.725351
915.809050	9534.563642
916.114585	10171.047123
916.420081	10425.658160
916.725536	10391.307738
917.030952	9953.327251
917.336328	9548.998986
917.641665	9142.150144
917.946961	8673.766458
918.252218	8255.701049
918.557435	7753.763443
918.862612	7323.311919
919.167750	6956.812472
919.472848	6532.919489
919.777906	6171.577143
920.082925	5803.572913
920.387904	5445.325835
920.692843	5187.170867
920.997743	4943.973003
921.302603	4710.988516
921.607423	4547.466088
921.912204	4385.173702
922.216946	4271.702370
922.521647	4150.248371
922.826310	4043.890107
923.130932	3948.660190
923.435516	3848.835262
923.740059	3784.537865
924.044564	3706.374775
924.349028	3648.020898
924.653454	3581.986824
924.957840	3514.168182
925.262186	3466.662868
925.566493	3408.722367
925.870761	3351.530476
926.174989	3316.542348
926.479178	3281.148407
926.783328	3233.209554
927.087438	3209.924465
927.391509	3174.243178
927.695541	3147.134373
927.999533	3117.996504
928.303486	3098.930860
928.607400	3082.284970
928.911275	3070.193762
929.215110	3051.279353
929.518906	3046.724671
929.822663	3045.502191
930.126381	3040.458516
930.430060	3052.539642
930.733699	3049.925803
931.037299	3059.788821
931.340861	3057.230435
931.644383	3067.423648
931.947866	3063.723441
932.251309	3057.555590
932.554714	3058.301680
932.858080	3052.635423
933.161407	3045.776934
933.464694	3035.792928
933.767943	3031.187834
934.071153	3024.029396
934.374323	3016.916328
934.677455	3009.702437
934.980548	3002.856550
935.283602	2999.007629
935.586617	2993.631238
935.889593	3003.295130
936.192530	3005.762775
936.495428	3022.126360
936.798287	3042.117056
937.101108	3074.219124
937.403890	3125.044037
937.706632	3185.825229
938.009336	3265.021756
938.312002	3336.906089
938.614628	3398.924884
938.917216	3452.683749
939.219765	3481.589725
939.522275	3515.405785
939.824747	3520.840149
940.127179	3514.717667
940.429573	3511.700537
940.731929	3510.714991
941.034246	3495.473063
941.336524	3482.867657
941.638763	3468.873414
941.940964	3450.894139
942.243126	3412.851072
942.545250	3389.324007
942.847335	3353.299921
943.149381	3319.350271
943.451389	3288.324489
943.753359	3254.410127
944.055290	3227.540777
944.357182	3203.421376
944.659036	3188.116433
944.960851	3177.850123
945.262628	3164.034841
945.564367	3163.409738
945.866067	3160.624501
946.167729	3154.854900
946.469352	3155.666526
946.770937	3150.653098
947.072484	3137.664565
947.373992	3140.328815
947.675462	3131.597537
947.976893	3113.489712
948.278286	3108.350256
948.579641	3100.178545
948.880958	3091.371650
949.182236	3095.520519
949.483476	3088.757811
949.784678	3090.416351
950.085841	3090.539859
950.386967	3101.950511
950.688054	3116.234620
950.989103	3136.358907
951.290114	3157.176351
951.591087	3183.528983
951.892021	3213.634754
952.192917	3239.823548
952.493776	3267.151643
952.794596	3274.073147
953.095378	3276.568518
953.396122	3271.456788
953.696828	3264.988988
953.997496	3254.042122
954.298126	3232.166035
954.598718	3212.235834
954.899272	3190.528625
955.199788	3157.851866
955.500266	3129.122330
955.800706	3095.671754
956.101108	3056.988460
956.401472	3025.687936
956.701798	2993.275837
957.002087	2953.425516
957.302337	2922.671957
957.602550	2898.552556
957.902724	2868.713967
958.202861	2841.935357
958.502960	2821.543890
958.803022	2803.705767
959.103045	2780.987807
959.403031	2766.383585
959.702979	2753.014445
960.002889	2738.143041
960.302762	2726.140053
960.602596	2713.806871
960.902393	2706.378730
961.202153	2698.239787
961.501875	2688.044054
961.801559	2685.646985
962.101205	2678.803619
962.400814	2672.953360
962.700385	2666.377175
962.999918	2661.245280
963.299414	2650.779845
963.598873	2654.553148
963.898293	2643.717188
964.197677	2647.956798
964.497022	2644.826242
964.796331	2640.216107
965.095601	2637.849285
965.394835	2636.954480
965.694030	2636.220992
965.993189	2636.004223
966.292309	2632.402318
966.591393	2634.567494
966.890439	2630.942904
967.189447	2631.217647
967.488419	2632.031793
967.787353	2633.148409
968.086249	2634.297792
968.385108	2632.609006
968.683930	2637.801394
968.982714	2641.577218
969.281462	2645.700882
969.580172	2651.379742
969.878844	2656.604898
970.177480	2664.020435
970.476078	2671.952691
970.774639	2677.835717
971.073162	2687.290401
971.371649	2691.091431
971.670098	2698.786753
971.968510	2702.302957
972.266885	2706.290510
972.565223	2710.174719
972.863524	2712.352498
973.161788	2717.791903
973.460014	2720.932542
973.758204	2725.958572
974.056356	2723.654765
974.354471	2727.044941
974.652550	2726.840774
974.950591	2722.901112
975.248595	2721.734085
975.546563	2721.663509
975.844493	2717.963302
976.142386	2711.261088
976.440243	2707.220603
976.738062	2702.360931
977.035845	2700.102494
977.333590	2690.456246
977.631299	2684.636234
977.928971	2677.712209
978.226606	2673.036539
978.524204	2669.104439
978.821765	2665.711742
979.119290	2669.164933
979.416777	2665.517658
979.714228	2673.618792
980.011642	2671.332629
980.309020	2682.952488
980.606360	2698.423790
980.903664	2717.945658
981.200931	2754.063005
981.498162	2802.077474
981.795356	2875.617827
982.092513	2963.684264
982.389633	3064.393915
982.686717	3160.085097
982.983764	3232.413052
983.280775	3279.537758
983.577749	3287.560754
983.874686	3276.686986
984.171587	3238.512848
984.468451	3204.371634
984.765279	3164.455777
985.062070	3117.489868
985.358824	3071.532189
985.655543	3014.730988
985.952224	2965.037814
986.248869	2901.499111
986.545478	2844.541634
986.842050	2788.753705
987.138586	2746.196284
987.435086	2705.564584
987.731549	2677.623989
988.027975	2653.716317
988.324366	2637.264511
988.620719	2622.564507
988.917037	2611.736108
989.213318	2603.302258
989.509563	2592.791452
989.805772	2589.784404
990.101944	2585.118816
990.398080	2585.302818
990.694180	2582.699062
990.990244	2582.386510
991.286271	2581.574885
991.582262	2581.811819
991.878217	2586.600915
992.174136	2590.601071
992.470019	2590.787593
992.765865	2594.495362
993.061676	2599.213882
993.357450	2608.146807
993.653188	2616.484875
993.948890	2633.097997
994.244556	2652.420740
994.540186	2673.974193
994.835780	2705.393185
995.131337	2739.650346
995.426859	2780.526542
995.722345	2826.378357
996.017795	2878.861809
996.313208	2913.492016
996.608586	2939.395985
996.903928	2954.012810
997.199234	2954.738736
997.494504	2950.108437
997.789738	2936.751899
998.084936	2911.871285
998.380099	2881.311810
998.675225	2851.057325
998.970316	2820.830567
999.265371	2787.541307
999.560390	2754.115937
999.855373	2724.771380
1000.150320	2695.116793
1000.445232	2668.063441
1000.740108	2650.464772
1001.034948	2631.391567
1001.329752	2616.615945
1001.624521	2607.337701
1001.919254	2593.424117
1002.213951	2584.899526
1002.508613	2578.293093
1002.803239	2572.641960
1003.097829	2565.992678
1003.392384	2562.305074
1003.686903	2556.454815
1003.981386	2554.670247
1004.275834	2548.928372
1004.570246	2548.855276
1004.864623	2543.146169
1005.158964	2541.815304
1005.453270	2539.917310
1005.747540	2542.238761
1006.041775	2536.738862
1006.335974	2536.985879
1006.630138	2535.166022
1006.924266	2535.413039
1007.218359	2533.164684
1007.512416	2531.027235
1007.806438	2529.139323
1008.100425	2528.587317
1008.394376	2526.190248
1008.688292	2532.864736
1008.982172	2528.362985
1009.276017	2529.673685
1009.569827	2526.911133
1009.863602	2530.258459
1010.157341	2527.800897
1010.451045	2525.008097
1010.744714	2527.561442
1011.038347	2526.185207
1011.331945	2522.684125
1011.625508	2522.946265
1011.919036	2522.603467
1012.212528	2520.929804
1012.505986	2520.597088
1012.799408	2520.176151
1013.092795	2520.082890
1013.386147	2517.426202
1013.679464	2519.362005
1013.972745	2517.688342
1014.265992	2517.791686
1014.559204	2519.654392
1014.852380	2517.877385
1015.145521	2518.106758
1015.438628	2517.156500
1015.731699	2516.912004
1016.024736	2519.442663
1016.317737	2520.440812
1016.610703	2520.513909
1016.903635	2519.359484
1017.196531	2526.318797
1017.489393	2525.040865
1017.782219	2528.073119
1018.075011	2527.475742
1018.367768	2528.826771
1018.660490	2529.192255
1018.953177	2529.192255
1019.245829	2529.192255
