Dividing Wavelength (nm)	Counts (n)	Blue Motor Position (mm): 27.000000	Red Motor Position (mm): 0.000000	
326.493990	2103.131576
326.888308	2103.131576
327.282561	2103.131576
327.676750	2078.588718
328.070874	2077.842628
328.464933	2083.639955
328.858929	2094.783425
329.252859	2108.218100
329.646726	2123.273506
330.040528	2138.548202
330.434265	2158.637200
330.827938	2177.473472
331.221547	2196.627336
331.615091	2219.257075
332.008571	2238.249623
332.401986	2259.273755
332.795338	2278.384769
333.188625	2301.296813
333.581847	2316.780717
333.975006	2336.625219
334.368100	2355.958044
334.761129	2371.235261
335.154095	2387.520708
335.546996	2432.260949
335.939833	2508.294152
336.332606	2519.435102
336.725315	2532.461443
337.117960	2541.031405
337.510540	2549.051881
337.903056	2559.446740
338.295508	2562.731052
338.687896	2570.002916
339.080220	2579.258474
339.472480	2585.605287
339.864676	2586.212746
340.256807	2588.748447
340.648875	2593.582913
341.040879	2593.996288
341.432818	2592.005032
341.824694	2595.667430
342.216506	2593.242635
342.608253	2593.658530
342.999937	2592.226843
343.391557	2593.663572
343.783113	2590.064188
344.174605	2590.492686
344.566033	2585.713672
344.957397	2584.833991
345.348697	2584.460945
345.739934	2582.366346
346.131106	2581.378280
346.522215	2578.908114
346.913260	2579.848289
347.304241	2574.608010
347.695159	2573.534244
348.086012	2571.167422
348.476802	2571.893349
348.867528	2571.429562
349.258191	2568.858574
349.648789	2569.415622
350.039324	2566.738769
350.429796	2567.215158
350.820203	2564.321536
351.210548	2566.043090
351.600828	2565.319684
351.991045	2564.739951
352.381198	2560.850701
352.771288	2563.557801
353.161314	2562.872204
353.551276	2563.449416
353.941175	2560.112172
354.331010	2561.848850
354.720782	2565.435631
355.110490	2570.189439
355.500135	2562.884807
355.889717	2565.796073
356.279235	2563.008315
356.668689	2566.290106
357.058080	2564.397153
357.447408	2562.990671
357.836672	2562.882286
358.225873	2562.168963
358.615010	2562.511761
359.004084	2569.657597
359.393095	2568.278841
359.782043	2569.521486
360.170927	2567.394119
360.559748	2571.941240
360.948505	2569.687844
361.337199	2574.303020
361.725830	2572.644481
362.114398	2574.812177
362.502903	2572.538616
362.891344	2575.767475
363.279722	2571.754717
363.668037	2573.539285
364.056289	2573.985427
364.444478	2574.731518
364.832603	2573.390571
365.220665	2575.331416
365.608665	2578.910635
365.996601	2576.747980
366.384474	2577.360480
366.772284	2576.684965
367.160031	2578.509863
367.547715	2579.392065
367.935336	2576.674883
368.322893	2578.835017
368.710388	2581.453897
369.097820	2582.883064
369.485189	2580.707806
369.872495	2580.266705
370.259738	2581.446335
370.646918	2580.357446
371.034035	2579.427353
371.421090	2583.377097
371.808081	2581.849627
372.195010	2579.651684
372.581875	2583.306521
372.968678	2581.995821
373.355418	2585.086048
373.742096	2583.752663
374.128710	2586.711820
374.515262	2583.722416
374.901751	2585.302818
375.288177	2585.771645
375.674540	2584.627303
376.060841	2588.410689
376.447079	2586.772314
376.833254	2586.966399
377.219367	2582.275605
377.605417	2586.442119
377.991404	2587.304156
378.377329	2585.086048
378.763191	2583.631675
379.148991	2589.502099
379.534727	2593.998808
379.920402	2591.198447
380.306013	2591.153077
380.691563	2592.173911
381.077049	2590.326328
381.462474	2591.107707
381.847835	2591.863880
382.233134	2593.978644
382.618371	2592.304981
383.003545	2596.272369
383.388657	2596.010229
383.773706	2595.400249
384.158693	2596.564756
384.543618	2598.803028
384.928480	2597.779674
385.313280	2595.165835
385.698017	2594.329004
386.082692	2597.915785
386.467305	2597.883017
386.851856	2600.199427
387.236344	2598.666917
387.620770	2600.983327
388.005133	2598.679520
388.389435	2599.738162
388.773674	2600.396032
389.157851	2599.234047
389.541965	2598.578697
389.926018	2600.363265
390.310008	2600.214551
390.693936	2602.412494
391.077802	2600.597679
391.461606	2602.583893
391.845348	2603.332505
392.229027	2604.688575
392.612645	2604.159254
392.996200	2602.893924
393.379694	2603.902155
393.763125	2603.914758
394.146494	2607.993051
394.529801	2607.350304
394.913047	2609.321395
395.296230	2607.075561
395.679351	2607.824173
396.062410	2605.207814
396.445408	2608.406426
396.828343	2607.917434
397.211217	2605.185129
397.594028	2607.259563
397.976778	2604.476847
398.359466	2608.809718
398.742092	2604.554984
399.124656	2611.143772
399.507158	2610.483381
399.889598	2611.191663
400.271977	2610.448093
400.654294	2612.293156
401.036549	2611.859616
401.418742	2611.912548
401.800874	2612.028495
402.182944	2613.472786
402.564952	2613.835749
402.946898	2615.527056
403.328783	2616.890688
403.710606	2616.550410
404.092367	2615.562344
404.474067	2619.620473
404.855705	2617.205760
405.237282	2619.648199
405.618797	2617.399844
406.000250	2618.614762
406.381642	2620.958899
406.762972	2620.250617
407.144240	2621.861266
407.525447	2620.963940
407.906593	2625.599281
408.287677	2623.373612
408.668700	2623.154322
409.049661	2619.136522
409.430560	2622.375463
409.811399	2625.924436
410.192176	2623.933180
410.572891	2624.424692
410.953545	2627.139354
411.334138	2626.839405
411.714669	2626.975516
412.095139	2626.962913
412.475547	2626.426030
412.855894	2624.593571
413.236180	2626.375619
413.616405	2629.589354
413.996568	2627.754374
414.376670	2629.337297
414.756711	2628.296298
415.136691	2629.831330
415.516609	2628.936525
415.896466	2631.436937
416.276262	2635.852988
416.655997	2630.630353
417.035670	2630.577421
417.415283	2633.216465
417.794834	2629.778398
418.174324	2630.622791
418.553753	2633.592031
418.933121	2635.850467
419.312428	2637.118318
419.691674	2635.250570
420.070859	2638.272742
420.449983	2636.946918
420.829045	2635.172432
421.208047	2637.307361
421.586988	2639.742238
421.965867	2643.306334
422.344686	2642.416570
422.723444	2644.894297
423.102141	2642.545120
423.480777	2644.070069
423.859352	2644.007054
424.237866	2645.738691
424.616319	2647.102323
424.994712	2647.235913
425.373044	2647.687097
425.751314	2648.445790
426.129524	2651.122643
426.507673	2652.398055
426.885762	2653.842346
427.263789	2653.958292
427.641756	2651.856131
428.019662	2655.231183
428.397508	2657.693787
428.775292	2660.499189
429.153016	2661.036072
429.530679	2660.794097
429.908282	2663.102945
430.285824	2660.103459
430.663305	2666.183090
431.040726	2666.246105
431.418086	2667.466064
431.795385	2672.139213
432.172624	2675.189112
432.549802	2671.879594
432.926920	2678.538958
433.303977	2680.303362
433.680974	2680.691531
434.057910	2682.753363
434.434786	2685.614218
434.811601	2688.051616
435.188355	2692.341637
435.565050	2691.590506
435.941683	2694.453881
436.318257	2698.330528
436.694770	2698.998481
437.071222	2705.418391
437.447614	2703.956456
437.823946	2709.615151
438.200218	2715.556151
438.576429	2717.433981
438.952580	2722.974209
439.328670	2729.343707
439.704700	2736.552557
440.080670	2740.388875
440.456580	2746.697879
440.832429	2756.737337
441.208218	2760.180445
441.583947	2770.393822
441.959616	2779.999741
442.335224	2793.061371
442.710773	2805.419759
443.086261	2823.222594
443.461689	2830.507062
443.837057	2848.370390
444.212365	2872.903165
444.587612	2890.007800
444.962800	2903.979358
445.337927	2931.834254
445.712995	2933.185283
446.088002	2991.995384
446.462949	3024.127698
446.837837	3057.255641
447.212664	3096.564038
447.587431	3200.290820
447.962139	3320.025785
448.336786	3421.126126
448.711374	3431.788166
449.085901	3375.647356
449.460369	3429.239863
449.834776	3493.955675
450.209124	3656.064059
450.583412	3712.237637
450.957640	3795.343578
451.331808	3814.157165
451.705917	3832.113755
452.079965	3909.752565
452.453954	4015.909183
452.827883	4103.035445
453.201752	4182.075696
453.575562	4283.841468
453.949311	4467.284016
454.323001	4586.247685
454.696632	4682.258980
455.070202	4928.184109
455.443713	5073.170214
455.817164	5260.045787
456.190556	5447.294406
456.563888	5532.986459
456.937160	5713.616043
457.310373	5677.092883
457.683526	5865.984918
458.056619	6023.009298
458.429653	6178.092835
458.802628	6416.826757
459.175542	6612.892354
459.548398	6991.452761
459.921194	7436.505987
460.293930	7775.223635
460.666607	8348.160852
461.039224	8881.272953
461.411782	9183.001134
461.784280	9170.816665
462.156719	9287.297566
462.529099	9405.051358
462.901419	9362.597281
463.273680	9367.237663
463.645882	9629.307087
464.018024	9868.875321
464.390106	10337.110293
464.762130	11325.887249
465.134094	12764.995520
465.505999	14603.630357
465.877845	16297.616845
466.249631	17006.193868
466.621358	16803.950338
466.993026	16486.317316
467.364634	16189.542069
467.736184	15920.704896
468.107674	15842.219172
468.479105	15913.886735
468.850477	15995.175341
469.221790	15808.970241
469.593043	15478.963708
469.964238	15462.670698
470.335373	15760.991060
470.706449	16829.047722
471.077467	18362.317185
471.448425	20666.137096
471.819324	22224.970250
472.190164	21672.832833
472.560945	20417.373797
472.931667	19352.389718
473.302330	19192.053299
473.672934	19121.136868
474.043479	19710.470437
474.413965	19641.363780
474.784393	19764.511607
475.154761	20536.939884
475.525070	20873.542768
475.895321	20926.278278
476.265513	21582.167682
476.635645	22445.616512
477.005719	22679.896576
477.375734	23285.969297
477.745691	24019.542881
478.115588	25155.093032
478.485427	26743.767296
478.855207	29221.665811
479.224928	31253.747364
479.594591	32698.136244
479.964194	32373.662376
480.333739	32905.083171
480.703226	33360.584188
481.072653	34224.141404
481.442022	34920.513793
481.811333	35456.597655
482.180584	34882.780757
482.549777	34865.877768
482.918912	34834.743602
483.287988	34949.853309
483.657005	34681.464798
484.025964	34531.987025
484.394864	34874.924118
484.763706	34899.323303
485.132489	34529.148856
485.501213	34715.555601
485.869879	35150.420656
486.238487	35130.576153
486.607036	35566.706537
486.975527	35409.624183
487.343959	35858.168409
487.712333	36202.617848
488.080648	36385.339510
488.448905	37031.156688
488.817104	37148.918042
489.185244	38271.071327
489.553326	40022.237103
489.921350	42656.623115
490.289315	45534.925356
490.657222	46316.533575
491.025070	46832.019282
491.392861	46197.360698
491.760593	45301.545139
492.128267	43994.159698
492.495883	42846.135212
492.863440	41824.920951
493.230939	40838.699859
493.598380	40085.700189
493.965763	39995.070325
494.333088	39468.365530
494.700354	39223.441070
495.067563	39132.029828
495.434713	39175.227475
495.801805	39425.861041
496.168839	39237.276517
496.535815	39094.755536
496.902733	39284.799474
497.269593	39054.300276
497.636395	39143.679934
498.003139	39678.349752
498.369825	39300.119541
498.736453	39737.109441
499.103023	39431.048388
499.469535	39447.590935
499.835989	39675.340183
500.202385	39482.097633
500.568723	39624.656422
500.935003	39920.496536
501.301226	39831.053864
501.667390	40544.291433
502.033497	40883.447661
502.399546	40451.541764
502.765537	39868.423937
503.131470	40350.670797
503.497345	40807.853039
503.863163	39587.326678
504.228923	40281.377616
504.594625	40779.158791
504.960269	40144.764868
505.325856	40905.966496
505.691385	40359.381910
506.056856	40563.979660
506.422270	41069.763666
506.787625	40720.520090
507.152924	40975.685653
507.518164	41142.517599
507.883347	40404.787583
508.248472	40705.424354
508.613540	41256.460278
508.978550	41617.376647
509.343503	41406.487537
509.708398	41660.299551
510.073236	42251.735282
510.438016	42292.500573
510.802738	41776.682150
511.167403	42451.009573
511.532010	42712.095972
511.896561	43050.180955
512.261053	43972.681862
512.625488	43544.947520
512.989866	43440.436839
513.354186	43293.383860
513.718449	43325.037265
514.082655	44051.586002
514.446803	43734.424328
514.810894	44311.404550
515.174927	44240.374693
515.538904	44156.888144
515.902822	44848.650398
516.266684	44313.244572
516.630488	44762.585299
516.994235	44607.950425
517.357925	45229.998563
517.721558	45431.047340
518.085133	45765.464883
518.448651	45875.084774
518.812112	45659.154511
519.175516	45781.871319
519.538863	46120.835983
519.902152	46093.505367
520.265385	46591.321830
520.628560	46640.767987
520.991678	46419.176508
521.354739	46678.067485
521.717743	46991.720515
522.080690	46880.376550
522.443580	47442.722303
522.806413	47500.080552
523.169189	47455.776371
523.531908	47637.083990
523.894569	47488.914396
524.257174	47669.881737
524.619722	47981.241042
524.982213	47967.541707
525.344647	47891.576559
525.707025	47940.672357
526.069345	48361.860760
526.431608	48267.802912
526.793815	48596.244167
527.155964	48121.606930
527.518057	48294.178229
527.880093	48084.380529
528.242072	48621.069329
528.603995	48302.327254
528.965860	48315.419131
529.327669	48427.771326
529.689421	48325.899689
530.051117	48285.401580
530.412755	48426.753013
530.774337	48503.597842
531.135862	48308.200198
531.497331	48510.186630
531.858743	48413.739275
532.220098	48743.876878
532.581396	48458.955904
532.942638	48110.216443
533.303824	48448.876117
533.664953	48404.829035
534.026025	48114.657699
534.387040	48610.167834
534.747999	48561.051872
535.108902	48723.021625
535.469748	48220.305160
535.830537	48326.834823
536.191270	48521.398156
536.551947	48178.375363
536.912567	48497.152727
537.273131	48634.985435
537.633638	48106.264178
537.994089	48445.128019
538.354483	48025.399029
538.714821	48606.858317
539.075103	48963.066247
539.435328	48704.475220
539.795497	48598.270711
540.155609	48577.707845
540.515665	49056.720804
540.875665	48497.084671
541.235609	48811.710644
541.595496	48800.995672
541.955328	49488.130147
542.315102	48826.705557
542.674821	48583.195141
543.034483	48638.420981
543.394090	48607.027195
543.753640	48567.141586
544.113134	49580.547100
544.472571	48551.435871
544.831953	49817.007462
545.191278	49015.708497
545.550548	48718.348475
545.909761	49199.735818
546.268918	49392.691022
546.628019	49701.035718
546.987064	49238.593032
547.346053	48496.739352
547.704986	49396.877701
548.063863	48940.769224
548.422684	49108.783320
548.781449	48922.961348
549.140158	49332.093833
549.498811	49177.431233
549.857408	48590.678733
550.215949	49446.089444
550.574434	49378.527901
550.932864	49120.824116
551.291237	49841.217603
551.649555	49432.629564
552.007817	49660.240180
552.366022	49306.555347
552.724173	49468.114246
553.082267	49862.942456
553.440305	50121.798144
553.798288	49413.064846
554.156215	49751.233007
554.514086	49950.540066
554.871902	49693.768895
555.229661	49691.109686
555.587365	49507.669659
555.945014	49620.815837
556.302606	49533.452641
556.660143	49764.317322
557.017625	49839.120483
557.375050	49606.342684
557.732421	49946.149221
558.089735	49924.931004
558.446994	49834.442293
558.804197	50280.052566
559.161345	50209.153779
559.518437	49447.881575
559.875474	49762.966293
560.232455	49920.225087
560.589381	50108.020671
560.946251	49781.381628
561.303065	50462.708694
561.659825	50250.660119
562.016528	49921.082083
562.373177	49629.206837
562.729770	50093.620615
563.086307	49618.310383
563.442789	50065.735472
563.799216	50097.537591
564.155587	49881.330065
564.511904	49906.009033
564.868164	49990.448360
565.224370	50209.282328
565.580520	49928.487538
565.936615	50144.100209
566.292654	49849.386793
566.648638	50126.282251
567.004567	50064.971737
567.360441	50106.120156
567.716260	49959.296550
568.072023	50235.128324
568.427732	50206.398788
568.783385	49750.345764
569.138982	50123.295367
569.494525	50070.983313
569.850013	49830.384164
570.205445	49810.000258
570.560823	49744.918962
570.916145	49614.244693
571.271412	49649.457152
571.626625	49383.712727
571.981782	49417.329662
572.336884	49099.691599
572.691931	49426.713770
573.046923	49016.363847
573.401860	48854.910812
573.756743	48805.419284
574.111570	48922.021173
574.466342	48773.521383
574.821059	48885.538342
575.175722	48371.007934
575.530330	48400.216379
575.884882	48085.925643
576.239380	48034.518477
576.593823	48010.492337
576.948211	47916.989016
577.302544	47435.518494
577.656823	47427.765200
578.011047	47673.332406
578.365216	47384.973365
578.719330	47151.555339
579.073389	47002.112854
579.427394	47082.236953
579.781344	47042.053916
580.135239	46663.014599
580.489080	46738.805827
580.842866	46201.471759
581.196597	46644.160684
581.550273	46584.332270
581.903895	46438.789118
582.257463	46861.315948
582.610975	46207.483335
582.964434	46509.599685
583.317837	46117.954963
583.671186	45949.678727
584.024481	46157.144893
584.377721	45659.436815
584.730906	45958.301621
585.084037	45997.665471
585.437113	45707.375668
585.790135	45717.788171
586.143103	45302.966744
586.496016	45420.060145
586.848874	45433.590602
587.201679	45438.788032
587.554428	44901.847174
587.907124	45085.877016
588.259765	44828.543756
588.612352	45069.125262
588.964884	44438.880208
589.317362	44735.594961
589.669786	44677.704871
590.022155	44429.556594
590.374470	44839.271331
590.726731	44357.190830
591.078937	43855.469994
591.431090	43972.361748
591.783188	43604.798619
592.135232	43283.215853
592.487222	43530.986044
592.839157	43598.134213
593.191038	43248.752005
593.542866	42989.513189
593.894639	42374.752039
594.246358	42680.767722
594.598022	42633.242244
594.949633	42229.375244
595.301190	42176.755681
595.652692	42027.086343
596.004141	42337.447501
596.355535	41338.421878
596.706876	41265.882195
597.058162	41113.472991
597.409395	41566.808833
597.760573	41652.682368
598.111698	41245.994843
598.462768	41228.554971
598.813785	41276.246807
599.164748	40699.132994
599.515657	41090.868457
599.866511	40586.281724
600.217312	41199.129756
600.568060	40141.624229
600.918753	40918.609709
601.269392	40846.127999
601.619978	40503.584116
601.970510	40708.685981
602.320988	40870.360826
602.671412	41191.021060
603.021783	40927.799733
603.372100	40587.673083
603.722363	40683.381909
604.072572	40748.886662
604.422728	40777.343976
604.772830	40577.474829
605.122878	40688.496160
605.472872	40609.385333
605.822813	40874.905426
606.172701	40719.902548
606.522534	40958.933899
606.872314	41212.065357
607.222041	40965.442029
607.571714	41348.877231
607.921333	40787.401078
608.270899	41081.451582
608.620411	41434.347474
608.969870	41221.721687
609.319276	41226.586401
609.668627	41260.286514
610.017926	41748.053437
610.367171	41913.806575
610.716362	41987.664520
611.065500	41923.737648
611.414585	42084.550456
611.763616	42415.494644
612.112594	42341.540917
612.461518	42562.151892
612.810389	42862.256822
613.159207	42738.839293
613.507971	42814.859893
613.856682	43278.048670
614.205340	43169.018595
614.553945	43867.115059
614.902496	43323.000639
615.250994	43780.334116
615.599439	43852.278943
615.947830	44044.014189
616.296169	44111.232934
616.644454	44209.926123
616.992686	44392.506633
617.340864	44910.948977
617.688990	44616.016272
618.037063	45239.042393
618.385082	45172.337845
618.733048	45477.287324
619.080961	45481.869733
619.428821	45504.507034
619.776628	45619.112626
620.124382	45453.430063
620.472083	45584.331185
620.819731	45726.138842
621.167326	45389.193160
621.514868	45381.780144
621.862357	44940.785046
622.209793	44974.331405
622.557176	44641.534592
622.904506	44386.285850
623.251783	44036.535637
623.599007	43813.976256
623.946179	43592.553656
624.293297	43530.839851
624.640363	42938.569809
624.987376	42907.334819
625.334336	42676.593646
625.681243	42318.510406
626.028097	42267.660287
626.374899	42125.474543
626.721647	42090.372989
627.068343	41987.636794
627.414987	41743.811306
627.761577	41511.832529
628.108115	41862.732125
628.454600	41280.428444
628.801032	41468.897022
629.147412	41437.359564
629.493739	41426.626947
629.840014	41060.621534
630.186236	41405.680953
630.532405	40971.839253
630.878521	41206.784748
631.224585	41057.029712
631.570597	40770.319128
631.916556	40937.146032
632.262462	40867.731864
632.608316	40902.041957
632.954117	40787.630450
633.299866	40771.418099
633.645562	40712.849974
633.991206	40227.596067
634.336797	39768.150346
634.682336	39782.363879
635.027823	39540.237260
635.373257	39339.241415
635.718639	39102.486145
636.063968	38963.289805
636.409245	38377.462358
636.754470	38429.038403
637.099642	38182.722585
637.444762	37678.186264
637.789829	37846.961574
638.134845	37497.876794
638.479808	37434.524613
638.824719	37329.618202
639.169577	36933.559950
639.514383	36990.860225
639.859137	36674.079159
640.203839	36935.377286
640.548489	36557.777219
640.893086	36635.312686
641.237632	36369.583384
641.582125	36477.635476
641.926566	36410.588129
642.270955	36363.314709
642.615292	36389.440489
642.959576	36357.202310
643.303809	36342.935845
643.647990	36512.817688
643.992118	36464.402447
644.336195	36447.859900
644.680219	36529.813938
645.024192	36836.953798
645.368112	37359.723973
645.711981	37344.388783
646.055797	38223.608863
646.399562	38130.813824
646.743274	39078.550747
647.086935	39536.607629
647.430544	39414.107591
647.774101	39525.451556
648.117606	39794.417278
648.461059	40098.744174
648.804460	39706.502076
649.147810	39096.852656
649.491108	38841.031742
649.834354	38473.332501
650.177548	37639.447517
650.520690	37171.688934
650.863781	37207.791158
651.206820	37046.668319
651.549807	36602.512418
651.892742	36102.659329
652.235626	35906.089617
652.578458	35768.564420
652.921238	35146.692722
653.263967	35477.215974
653.606644	35149.843443
653.949269	35091.618117
654.291843	34661.975698
654.634365	35074.140436
654.976836	34663.329247
655.319255	34679.087894
655.661622	34667.359650
656.003938	34452.724963
656.346203	34311.325639
656.688416	34543.080084
657.030577	34326.663350
657.372687	34152.105836
657.714746	34432.610759
658.056753	34562.281839
658.398708	34005.970348
658.740612	34045.750093
659.082465	34326.839790
659.424266	34150.192718
659.766016	34269.756284
660.107715	34131.757218
660.449362	34263.747229
660.790958	34233.338989
661.132503	34245.152933
661.473996	34270.454484
661.815438	34397.894853
662.156829	34596.904484
662.498168	34361.767424
662.839456	34369.374526
663.180693	34514.073285
663.521879	34683.955128
663.863013	34645.768388
664.204097	34637.344620
664.545129	35099.192450
664.886110	35052.241664
665.227040	35124.347808
665.567918	35229.302110
665.908746	35275.204337
666.249522	35447.445440
666.590248	35450.286130
666.930922	35564.690076
667.271545	35507.127661
667.612118	35584.622798
667.952639	35371.671857
668.293109	35444.428310
668.633528	35329.691648
668.973896	35257.187253
669.314213	35309.383360
669.654480	35038.232297
669.994695	35065.094086
670.334859	34933.509888
670.674973	34830.108261
671.015035	35001.847769
671.355047	34926.628713
671.695008	34880.539964
672.034918	34783.449861
672.374777	34865.648395
672.714585	34686.387485
673.054342	34891.930451
673.394049	34656.649719
673.733705	34943.917350
674.073310	34588.974749
674.412864	34663.188095
674.752368	34267.177734
675.091820	34586.620530
675.431223	34153.552647
675.770574	33862.834346
676.109875	33723.196905
676.449125	33443.594348
676.788324	33361.390773
677.127473	32810.138079
677.466571	32744.905548
677.805619	32379.356360
678.144616	32383.848028
678.483562	32305.044711
678.822458	31967.705819
679.161303	31904.701478
679.500098	31811.596408
679.838842	31680.594463
680.177535	31826.651814
680.516179	32115.265433
680.854771	32351.592205
681.193314	33219.033629
681.531805	34328.984801
681.870247	35067.687759
682.208638	35780.879958
682.546978	35994.322412
682.885268	36091.551147
683.223508	35587.740752
683.561697	35248.488742
683.899836	35063.687604
684.237925	34554.155499
684.575963	34400.642282
684.913951	33934.950572
685.251889	34074.734207
685.589776	34057.909356
685.927614	34047.106163
686.265401	34178.700443
686.603137	34261.501395
686.940824	34750.402577
687.278460	35109.612515
687.616046	35223.603086
687.953582	35821.441082
688.291068	35668.875602
688.628504	35983.100804
688.965889	35902.459986
689.303224	35543.000511
689.640510	35226.844548
689.977745	34476.468798
690.314930	33684.798436
690.652065	33187.218908
690.989150	32445.914714
691.326185	31538.726312
691.663170	30847.357268
692.000105	30088.086402
692.336990	29416.476160
692.673825	28941.503686
693.010610	28421.566640
693.347345	27827.612852
693.684030	27147.261250
694.020665	26861.904216
694.357251	26176.897108
694.693786	26137.145089
695.030272	25884.457252
695.366707	25328.838920
695.703093	25031.887232
696.039429	25013.769325
696.375716	24750.525312
696.711952	24701.822725
697.048139	24534.360635
697.384276	24346.776780
697.720363	24480.420289
698.056400	24264.187557
698.392388	24036.385376
698.728326	24011.240101
699.064214	23801.767555
699.400053	23745.180603
699.735842	23376.848698
700.071581	23095.753959
700.407270	22798.956027
700.742910	22614.371658
701.078501	22346.366275
701.414042	22048.877705
701.749533	21756.223600
702.084974	21392.746326
702.420366	21600.308274
702.755709	21150.791106
703.091002	20849.027637
703.426246	20868.441120
703.761440	20758.077659
704.096584	20479.158179
704.431679	20431.887279
704.766725	20336.173412
705.101721	20269.597413
705.436668	20363.294819
705.771565	20023.914260
706.106413	20376.893332
706.441212	20359.612257
706.775961	20477.996193
707.110661	20551.269364
707.445311	20906.360679
707.779913	20727.359388
708.114465	20963.071139
708.448967	21253.771797
708.783421	21930.934869
709.117825	22203.280685
709.452180	22411.427407
709.786485	22806.137150
710.120742	23611.907619
710.454949	23615.491880
710.789107	24065.719850
711.123216	24773.870896
711.457275	24880.226639
711.791286	25426.672592
712.125247	25502.899880
712.459159	25199.780340
712.793023	25886.635031
713.126837	24787.287927
713.460602	25072.919703
713.794318	24700.547313
714.127985	24332.908566
714.461602	23439.588378
714.795171	23408.713831
715.128691	22364.043081
715.462162	21826.966112
715.795584	21413.813308
716.128957	21155.186992
716.462281	20744.373283
716.795556	20502.473515
717.128782	20002.721249
717.461960	19445.971177
717.795088	19350.216981
718.128167	18947.106155
718.461198	18476.325400
718.794180	18330.648657
719.127113	17962.929251
719.459997	17763.702851
719.792833	17393.699803
720.125619	17371.818674
720.458357	17033.025410
720.791046	16856.983276
721.123686	16685.765527
721.456278	16430.889830
721.788821	16402.072074
722.121315	16140.678164
722.453761	16207.176025
722.786158	16125.968077
723.118506	16143.216385
723.450805	15996.879251
723.783056	16156.585525
724.115259	16042.962959
724.447412	15965.457739
724.779518	16212.257508
725.111574	16233.614356
725.443582	16430.821774
725.775542	16422.380362
726.107453	16874.249228
726.439315	16753.768172
726.771129	17151.018657
727.102895	17527.834824
727.434612	17721.843630
727.766281	17841.916353
728.097901	18106.085417
728.429473	18152.335483
728.760996	18137.456518
729.092471	18222.226040
729.423897	18109.697404
729.755276	17979.081108
730.086606	18100.409078
730.417887	18612.925546
730.749120	19141.714858
731.080305	19300.705288
731.411442	19633.660897
731.742530	19705.129335
732.073570	19819.072015
732.404562	20112.046232
732.735506	19929.541340
733.066401	19624.952304
733.397249	19115.299212
733.728048	18476.312797
734.058798	17643.781363
734.389501	16950.547092
734.720156	16489.087430
735.050762	15956.474403
735.381320	15588.447487
735.711831	15347.820611
736.042293	14983.259488
736.372707	14989.122350
736.703073	14779.528817
737.033391	14960.579337
737.363661	14917.764817
737.693883	15004.071892
738.024056	15169.545246
738.354182	15341.322564
738.684260	15608.932216
739.014290	15826.672253
739.344272	15998.177348
739.674207	16281.026408
740.004093	16394.270888
740.333931	16385.332922
740.663722	16447.455061
740.993464	16447.646625
741.323159	16274.243536
741.652806	16005.224881
741.982405	15800.954807
742.311956	15461.584330
742.641460	15350.978894
742.970915	15053.323965
743.300323	14712.536924
743.629683	14508.453372
743.958996	14229.707811
744.288260	13958.218992
744.617477	13658.577848
744.946647	13587.719390
745.275768	13315.497082
745.604842	13126.720994
745.933869	12947.465125
746.262847	12891.271383
746.591778	12817.337821
746.920662	12711.125750
747.249498	12710.805637
747.578286	12820.213799
747.907027	12969.119401
748.235720	13186.831712
748.564365	13198.267570
748.892963	13096.867281
749.221514	13157.509841
749.550017	13006.514680
749.878473	12972.184423
750.206881	12740.500554
750.535242	12647.566882
750.863555	12560.768296
751.191821	12449.394084
751.520039	12478.221922
751.848210	12379.785831
752.176334	12418.522058
752.504411	12314.943990
752.832440	12155.023467
753.160421	12205.266126
753.488356	12082.604771
753.816243	12003.357833
754.144082	11855.034483
754.471875	11787.939246
754.799620	11737.628531
755.127318	11706.660723
755.454969	11668.930207
755.782572	11618.995057
756.110129	11629.120215
756.437638	11541.930939
756.765100	11541.366329
757.092515	11540.375743
757.419882	11551.042824
757.747203	11543.937318
758.074477	11620.497321
758.401703	11567.421533
758.728882	11725.519679
759.056014	11776.503389
759.383099	11883.890048
759.710138	11981.683392
760.037129	12064.718757
760.364073	12082.340110
760.690970	12070.712689
761.017820	12068.822256
761.344623	12261.510280
761.671379	12610.421140
761.998088	13264.536058
762.324751	14867.549884
762.651366	17767.902132
762.977935	21361.380267
763.304456	23480.487259
763.630931	23898.938316
763.957359	22737.317838
764.283740	20863.566324
764.610074	19005.308796
764.936362	16892.906538
765.262602	15382.246651
765.588796	13914.476900
765.914943	12898.966704
766.241044	12036.684901
766.567097	11402.923642
766.893104	10849.422594
767.219064	10488.712912
767.544978	10102.784859
767.870845	9791.879257
768.196665	9605.228016
768.522438	9396.748578
768.848165	9230.229184
769.173846	9066.870594
769.499479	8943.450545
769.825066	8785.317110
770.150607	8599.810210
770.476101	8536.795787
770.801548	8425.875279
771.126949	8287.914022
771.452303	8201.269190
771.777611	8038.034108
772.102872	8010.358173
772.428087	7893.789053
772.753256	7771.294055
773.078378	7685.218874
773.403453	7536.933333
773.728482	7427.162208
774.053465	7364.099894
774.378401	7270.851151
774.703291	7172.962026
775.028135	7074.714978
775.352932	7040.987139
775.677683	6954.974972
776.002388	6869.237548
776.327046	6868.927517
776.651658	6783.893334
776.976224	6703.716302
777.300743	6688.131575
777.625216	6623.032635
777.949643	6577.175779
778.274024	6579.169555
778.598359	6513.884092
778.922647	6510.458628
779.246889	6469.438760
779.571086	6478.759853
779.895236	6488.022973
780.219339	6478.643907
780.543397	6475.329348
780.867409	6523.966400
781.191374	6527.152409
781.515294	6489.618498
781.839167	6533.829418
782.162995	6515.371233
782.486776	6463.099509
782.810511	6424.640546
783.134201	6348.350244
783.457844	6335.923800
783.781441	6296.078520
784.104993	6246.029945
784.428498	6219.866356
784.751958	6202.113933
785.075372	6177.160221
785.398739	6138.106403
785.722061	6162.198077
786.045337	6165.182440
786.368568	6273.388287
786.691752	6292.809332
787.014891	6547.049844
787.337983	6822.460681
787.661030	7255.720128
787.984031	7670.418046
788.306987	7924.197292
788.629897	8008.923965
788.952760	7924.288033
789.275579	7749.473421
789.598351	7454.069367
789.921078	7192.816610
790.243759	6912.720020
790.566395	6714.890020
790.888984	6523.966400
791.211529	6383.275358
791.534027	6221.655966
791.856480	6081.942908
792.178888	6024.645153
792.501249	5958.364062
792.823566	5850.964800
793.145836	5847.587227
793.468062	5826.638712
793.790241	5785.560870
794.112375	5823.883722
794.434464	5921.566160
794.756507	5950.094049
795.078505	6068.362039
795.400457	6280.221571
795.722364	6513.901737
796.044226	6705.437856
796.366042	6862.580704
796.687812	6804.635161
797.009538	6834.332598
797.331218	6747.284474
797.652852	6681.222674
797.974442	6563.597431
798.295986	6497.500342
798.617484	6366.682400
798.938938	6258.209372
799.260346	6195.696544
799.581709	6059.666049
799.903026	6004.021792
800.224299	5922.990286
800.545526	5818.368699
800.866708	5746.421352
801.187845	5700.808992
801.508936	5624.488443
801.829983	5593.074493
802.150984	5484.369572
802.471940	5458.538699
802.792851	5444.713335
803.113717	5414.718470
803.434538	5393.575870
803.755314	5358.953226
804.076045	5347.955949
804.396731	5308.249300
804.717372	5317.283048
805.037967	5322.505683
805.358518	5347.903017
805.679024	5405.863683
805.999485	5409.636987
806.319901	5425.894708
806.640272	5440.791317
806.960598	5485.125745
807.280879	5482.123738
807.601115	5515.080281
807.921306	5481.430579
808.241453	5472.563189
808.561554	5485.912165
808.881611	5456.161795
809.201623	5455.887053
809.521590	5406.854270
809.841513	5396.535028
810.161390	5413.445578
810.481223	5329.621272
810.801011	5309.796935
811.120755	5293.047701
811.440453	5240.738168
811.760107	5211.191965
812.079716	5186.507956
812.399281	5134.818485
812.718801	5130.233555
813.038276	5097.700469
813.357707	5059.075148
813.677093	5085.014405
813.996434	5021.274056
814.315731	5041.254669
814.634983	5038.172004
814.954191	5049.668355
815.273354	5106.257828
815.592473	5150.113345
815.911547	5224.220828
816.230577	5277.024393
816.549562	5364.823649
816.868502	5418.600158
817.187399	5470.095545
817.506250	5556.987393
817.825058	5584.655766
818.143821	5741.304580
818.462539	5913.023924
818.781213	6151.911602
819.099843	6512.394432
819.418429	7146.808520
819.736970	7771.500743
820.055466	8472.332033
820.373919	9408.602851
820.692327	10922.466392
821.010691	13765.362089
821.329011	20166.062196
821.647286	29634.851383
821.965517	39617.124939
822.283704	44601.182676
822.601847	45832.872672
822.919945	41324.911586
823.237999	36384.293471
823.556010	31361.963293
823.873976	26787.403524
824.191897	22674.222757
824.509775	19655.589916
824.827609	16935.363136
825.145398	15414.825107
825.463144	14691.490107
825.780845	15040.610175
826.098502	16330.535580
826.416116	18714.035968
826.733685	20820.431691
827.051210	21170.635608
827.368692	19673.244037
827.686129	17175.203592
828.003522	14782.664415
828.320872	12633.585242
828.638177	11036.799762
828.955439	9816.059152
829.272656	8763.130992
829.589830	7937.052235
829.906960	7210.750515
830.224046	6684.620412
830.541088	6282.860615
830.858086	6028.161358
831.175041	5826.769782
831.491952	5771.851452
831.808819	5809.614736
832.125642	6071.737092
832.442421	6640.666591
832.759157	7775.904190
833.075849	9529.651037
833.392497	11303.660802
833.709101	12328.355980
834.025662	12015.905264
834.342179	10970.722837
834.658653	9705.637718
834.975083	8636.361096
835.291469	7754.711180
835.607811	7027.885180
835.924110	6518.428693
836.240366	6033.532707
836.556578	5582.616619
836.872746	5230.383638
837.188871	4964.450170
837.504952	4743.284668
837.820990	4580.820883
838.136984	4463.908963
838.452935	4418.533537
838.768842	4458.640958
839.084706	4765.228811
839.400526	5520.312999
839.716303	6392.795577
840.032037	6910.423775
840.347727	6733.537248
840.663373	6139.769983
840.978977	5580.191824
841.294537	5156.041742
841.610054	4828.238193
841.925527	4590.610803
842.240957	4383.578177
842.556344	4199.939024
842.871687	4042.841547
843.186987	3890.628948
843.502244	3774.700053
843.817458	3684.715457
844.132629	3616.024695
844.447756	3570.084660
844.762840	3524.220242
845.077881	3482.126608
845.392879	3447.942543
845.707833	3420.848862
846.022745	3394.304667
846.337613	3382.226062
846.652438	3358.552803
846.967221	3348.614169
847.281960	3325.533246
847.596656	3319.196515
847.911309	3308.153868
848.225919	3292.531332
848.540485	3286.353398
848.855009	3278.133797
849.169490	3264.094183
849.483928	3256.837442
849.798323	3251.839138
850.112675	3240.796491
850.426984	3243.032242
850.741251	3233.151581
851.055474	3233.655696
851.369654	3233.058320
851.683792	3227.044223
851.997887	3230.613360
852.311938	3233.265007
852.625947	3233.766602
852.939914	3225.526836
853.253837	3232.619739
853.567718	3226.915674
853.881555	3221.249417
854.195350	3227.291240
854.509103	3222.804613
854.822812	3219.427040
855.136479	3217.362687
855.450103	3223.091958
855.763685	3216.780434
856.077224	3216.871175
856.390720	3221.125908
856.704173	3236.445975
857.017584	3242.971749
857.330953	3245.305803
857.644278	3253.651433
857.957561	3251.914756
858.270802	3250.120105
858.584000	3252.938110
858.897155	3246.596338
859.210268	3234.535378
859.523339	3226.018348
859.836367	3223.752350
860.149352	3217.541648
860.462295	3211.673745
860.775195	3207.350956
861.088054	3200.331149
861.400869	3198.901982
861.713642	3199.451467
862.026373	3205.677292
862.339062	3209.621995
862.651708	3221.972822
862.964312	3233.751478
863.276873	3248.378386
863.589392	3272.490225
863.901869	3295.964358
864.214303	3319.995538
864.526696	3338.831810
864.839045	3356.354860
865.151353	3367.747868
865.463619	3370.497818
865.775842	3368.443547
866.088023	3376.436297
866.400162	3368.141078
866.712258	3369.953373
867.024313	3370.263404
867.336325	3369.161912
867.648296	3368.012529
867.960224	3369.124103
868.272110	3370.447406
868.583954	3370.994371
868.895755	3378.714898
869.207515	3377.777244
869.519233	3394.584451
869.830909	3399.335738
870.142542	3413.279570
870.454134	3418.270312
870.765684	3428.317332
871.077191	3449.865744
871.388657	3461.679688
871.700081	3478.600321
872.011463	3501.058661
872.322803	3520.598173
872.634101	3534.302550
872.945357	3557.222156
873.256571	3583.864654
873.567744	3601.085236
873.878874	3604.921554
874.189963	3618.104171
874.501010	3624.735809
874.812015	3620.531487
875.122979	3635.387767
875.433900	3631.987509
875.744780	3635.859115
876.055618	3647.819252
876.366415	3644.277842
876.677169	3651.748832
876.987882	3669.816327
877.298554	3691.009338
877.609183	3728.538208
877.919771	3780.394037
878.230317	3850.650077
878.540822	3952.282259
878.851285	4110.405612
879.161707	4343.662321
879.472087	4731.553903
879.782425	5378.336462
880.092722	6590.612975
880.402977	8527.593161
880.713191	10858.287463
881.023363	13134.197025
881.333494	14341.455069
881.643583	14747.948509
881.953631	14325.514940
882.263637	13526.572714
882.573602	12543.956047
882.883526	11624.613423
883.193408	10700.000273
883.503248	9810.135796
883.813048	8992.684974
884.122806	8240.905262
884.432522	7485.662278
884.742197	6829.563667
885.051831	6282.651407
885.361424	5789.329133
885.670975	5403.196913
885.980485	5079.756482
886.289954	4808.368485
886.599382	4594.875620
886.908768	4416.794339
887.218113	4248.634050
887.527417	4120.109833
887.836680	3992.780369
888.145901	3894.745050
888.455082	3819.785613
888.764221	3751.150303
889.073319	3688.350129
889.382376	3656.414420
889.691392	3631.427941
890.000366	3622.631127
890.309300	3620.453349
890.618193	3623.800675
890.927044	3620.213894
891.235855	3622.247999
891.544625	3638.364568
891.853353	3668.717356
892.162041	3733.912078
892.470687	3824.771314
892.779293	3952.451138
893.087858	4126.933034
893.396381	4411.980038
893.704864	4833.780942
894.013306	5391.942537
894.321707	5939.361433
894.630068	6264.452841
894.938387	6277.552280
895.246665	6095.004537
895.554903	5790.095388
895.863100	5461.747394
896.171256	5203.995718
896.479371	4969.140963
896.787446	4753.573663
897.095480	4558.123088
897.403473	4413.540275
897.711425	4269.048203
898.019336	4146.772495
898.327207	4026.515770
898.635038	3924.172786
898.942827	3818.691683
899.250576	3734.839650
899.558284	3650.543996
899.865952	3600.006429
900.173579	3534.216850
900.481165	3490.636075
900.788711	3449.996814
901.096216	3418.056063
901.403681	3393.424985
901.711105	3383.022564
902.018489	3376.259856
902.325832	3413.269487
902.633135	3478.451607
902.940397	3656.807630
903.247619	4079.904110
903.554800	4833.264223
903.861941	5777.454695
904.169041	6433.550785
904.476101	6605.444049
904.783121	6334.116546
905.090100	5941.524088
905.397039	5547.169746
905.703938	5194.351991
906.010796	4885.730032
906.317614	4628.863079
906.624391	4395.019075
906.931129	4207.467988
907.237826	4024.637941
907.544483	3858.121067
907.851099	3685.585056
908.157675	3524.772249
908.464211	3385.202863
908.770707	3285.889612
909.077163	3207.038404
909.383578	3148.326606
909.689954	3104.526541
909.996289	3074.269535
910.302584	3054.367060
910.608839	3039.014226
910.915054	3027.724562
911.221229	3022.300280
911.527363	3031.076929
911.833458	3033.978113
912.139513	3048.073179
912.445527	3059.672874
912.751502	3096.987495
913.057436	3139.726397
913.363331	3200.338711
913.669186	3290.063687
913.975000	3412.823345
914.280775	3607.051441
914.586510	3879.225858
914.892205	4263.076956
915.197859	4753.135083
915.503475	5317.497297
915.809050	5781.623729
916.114585	6045.107196
916.420081	6097.777172
916.725536	6027.168250
917.030952	5795.247447
917.336328	5595.839566
917.641665	5393.313730
917.946961	5178.101832
918.252218	4977.491635
918.557435	4761.437863
918.862612	4566.425868
919.167750	4396.972522
919.472848	4210.694326
919.777906	4044.865570
920.082925	3888.199112
920.387904	3739.159919
920.692843	3630.938949
920.997743	3534.174001
921.302603	3436.990637
921.607423	3375.715412
921.912204	3308.758806
922.216946	3259.216867
922.521647	3212.162737
922.826310	3170.043897
923.130932	3131.116107
923.435516	3092.541197
923.740059	3066.080181
924.044564	3032.067516
924.349028	3010.204032
924.653454	2981.754280
924.957840	2953.677573
925.262186	2936.857764
925.566493	2910.643764
925.870761	2886.650392
926.174989	2875.108670
926.479178	2859.440764
926.783328	2844.909638
927.087438	2832.755416
927.391509	2818.557006
927.695541	2806.032260
927.999533	2798.503296
928.303486	2789.174641
928.607400	2781.582663
928.911275	2776.241561
929.215110	2770.615633
929.518906	2766.875097
929.822663	2769.115890
930.126381	2766.852412
930.430060	2771.777619
930.733699	2773.743669
931.037299	2776.808691
931.340861	2773.887342
931.644383	2777.085954
931.947866	2774.275511
932.251309	2769.715787
932.554714	2770.159409
932.858080	2767.598503
933.161407	2764.014242
933.464694	2761.337390
933.767943	2758.295053
934.071153	2757.017121
934.374323	2751.129053
934.677455	2749.059659
934.980548	2745.193094
935.283602	2745.850965
935.586617	2741.218145
935.889593	2746.261819
936.192530	2745.233424
936.495428	2753.969743
936.798287	2762.060795
937.101108	2773.272321
937.403890	2791.826288
937.706632	2819.718992
938.009336	2850.517922
938.312002	2880.681666
938.614628	2902.961045
938.917216	2918.170206
939.219765	2930.236208
939.522275	2940.900769
939.824747	2943.025615
940.127179	2934.571600
940.429573	2932.910540
940.731929	2930.135385
941.034246	2923.531473
941.336524	2920.229518
941.638763	2911.490678
941.940964	2908.977662
942.243126	2891.144581
942.545250	2882.662839
942.847335	2867.083153
943.149381	2852.393231
943.451389	2840.841427
943.753359	2829.231650
944.055290	2819.293015
944.357182	2812.890749
944.659036	2803.345325
944.960851	2801.656538
945.262628	2796.305353
945.564367	2796.791825
945.866067	2798.168060
946.167729	2796.030610
946.469352	2795.619756
946.770937	2791.266720
947.072484	2786.941410
947.373992	2784.042747
947.675462	2781.738939
947.976893	2774.769544
948.278286	2773.136210
948.579641	2770.487084
948.880958	2768.609254
949.182236	2766.249994
949.483476	2764.450302
949.784678	2762.885024
950.085841	2764.079777
950.386967	2769.793925
950.688054	2774.167126
950.989103	2783.878909
951.290114	2787.974847
951.591087	2800.096301
951.892021	2810.589463
952.192917	2822.370639
952.493776	2833.239367
952.794596	2836.669872
953.095378	2838.923268
953.396122	2835.901096
953.696828	2833.894717
953.997496	2831.593430
954.298126	2817.445432
954.598718	2814.171202
954.899272	2799.687967
955.199788	2793.152112
955.500266	2777.564864
955.800706	2763.716814
956.101108	2747.920359
956.401472	2738.503483
956.701798	2726.223232
957.002087	2712.307127
957.302337	2702.764223
957.602550	2692.296267
957.902724	2682.561799
958.202861	2672.590397
958.502960	2666.324243
958.803022	2657.988695
959.103045	2653.020637
959.403031	2644.768269
959.702979	2639.631333
960.002889	2633.957514
960.302762	2635.134624
960.602596	2626.068108
960.902393	2623.955865
961.202153	2619.224742
961.501875	2617.311624
961.801559	2615.053187
962.101205	2612.716612
962.400814	2610.075048
962.700385	2608.965994
962.999918	2607.892228
963.299414	2606.062289
963.598873	2605.785026
963.898293	2601.575663
964.197677	2604.280242
964.497022	2601.560539
964.796331	2600.738831
965.095601	2598.961824
965.394835	2597.139447
965.694030	2598.286310
965.993189	2595.962338
966.292309	2594.180290
966.591393	2595.581731
966.890439	2594.313880
967.189447	2594.845722
967.488419	2596.421083
967.787353	2596.088367
968.086249	2594.384457
968.385108	2597.711618
968.683930	2595.765733
968.982714	2597.688933
969.281462	2595.990064
969.580172	2602.102463
969.878844	2602.157916
970.177480	2608.035901
970.476078	2609.225613
970.774639	2613.593773
971.073162	2614.322220
971.371649	2615.864813
971.670098	2613.802981
971.968510	2615.905142
972.266885	2616.542848
972.565223	2622.282202
972.863524	2622.710700
973.161788	2625.228756
973.460014	2624.722120
973.758204	2627.847636
974.056356	2626.484004
974.354471	2624.621297
974.652550	2627.981226
974.950591	2626.481483
975.248595	2624.696915
975.546563	2627.023407
975.844493	2620.994187
976.142386	2620.865638
976.440243	2617.808178
976.738062	2619.234824
977.035845	2614.811212
977.333590	2610.755604
977.631299	2609.114708
977.928971	2609.069338
978.226606	2609.248299
978.524204	2608.005654
978.821765	2603.939964
979.119290	2605.359048
979.416777	2603.690427
979.714228	2606.276538
980.011642	2607.012547
980.309020	2609.412136
980.606360	2614.705348
980.903664	2624.475104
981.200931	2636.006743
981.498162	2652.950061
981.795356	2683.421316
982.092513	2718.548076
982.389633	2761.259252
982.686717	2799.519089
982.983764	2832.110148
983.280775	2848.700586
983.577749	2848.272088
983.874686	2839.465192
984.171587	2824.374498
984.468451	2809.026705
984.765279	2791.382667
985.062070	2772.226282
985.358824	2752.522932
985.655543	2732.307905
985.952224	2713.305276
986.248869	2687.068591
986.545478	2661.134375
986.842050	2643.828093
987.138586	2626.441154
987.435086	2611.957919
987.731549	2601.474839
988.027975	2595.269179
988.324366	2588.667788
988.620719	2584.360122
988.917037	2580.591860
989.213318	2578.162023
989.509563	2577.325192
989.805772	2574.953329
990.101944	2572.430232
990.398080	2574.643298
990.694180	2572.992320
990.990244	2572.500808
991.286271	2574.965932
991.582262	2574.358473
991.878217	2575.956519
992.174136	2573.032649
992.470019	2576.558937
992.765865	2578.766962
993.061676	2579.686973
993.357450	2581.237127
993.653188	2584.203846
993.948890	2592.574682
994.244556	2598.556011
994.540186	2604.827207
994.835780	2618.960082
995.131337	2631.220168
995.426859	2644.833804
995.722345	2664.179232
996.017795	2684.215297
996.313208	2696.132585
996.608586	2704.584080
996.903928	2709.842003
997.199234	2703.979141
997.494504	2703.187680
997.789738	2697.536547
998.084936	2686.103210
998.380099	2675.332784
998.675225	2662.029179
998.970316	2651.946872
999.265371	2640.357259
999.560390	2624.666668
999.855373	2619.207098
1000.150320	2606.460541
1000.445232	2596.237081
1000.740108	2590.404466
1001.034948	2586.646285
1001.329752	2580.143197
1001.624521	2577.085737
1001.919254	2568.699778
1002.213951	2569.057700
1002.508613	2561.800959
1002.803239	2563.910682
1003.097829	2557.266441
1003.392384	2561.488407
1003.686903	2557.546225
1003.981386	2558.980433
1004.275834	2557.533622
1004.570246	2556.686708
1004.864623	2560.041596
1005.158964	2558.040258
1005.453270	2555.262582
1005.747540	2551.983312
1006.041775	2553.215874
1006.335974	2556.482541
1006.630138	2552.356357
1006.924266	2553.689742
1007.218359	2552.721841
1007.512416	2553.644372
1007.806438	2550.135729
1008.100425	2550.037426
1008.394376	2553.208312
1008.688292	2551.827036
1008.982172	2551.307797
1009.276017	2548.464586
1009.569827	2551.842159
1009.863602	2552.663867
1010.157341	2550.917107
1010.451045	2550.844011
1010.744714	2549.283774
1011.038347	2549.777807
1011.331945	2547.937786
1011.625508	2550.029864
1011.919036	2547.378217
1012.212528	2548.583053
1012.505986	2546.286808
1012.799408	2548.378887
1013.092795	2546.876623
1013.386147	2547.108516
1013.679464	2545.923845
1013.972745	2547.292518
1014.265992	2546.382590
1014.559204	2547.655481
1014.852380	2545.628937
1015.145521	2549.011551
1015.438628	2545.041643
1015.731699	2545.969215
1016.024736	2544.744215
1016.317737	2546.982487
1016.610703	2548.487271
1016.903635	2543.977959
1017.196531	2545.351674
1017.489393	2544.739173
1017.782219	2546.995090
1018.075011	2546.579195
1018.367768	2549.029195
1018.660490	2549.619010
1018.953177	2549.619010
1019.245829	2549.619010
