Dividing Wavelength (nm)	Counts (n)	Blue Motor Position (mm): 37.700000	Red Motor Position (mm): 0.000000	
326.493990	2128.407921
326.888308	2128.407921
327.282561	2128.407921
327.676750	2097.268714
328.070874	2099.265011
328.464933	2099.930443
328.858929	2103.802049
329.252859	2117.226642
329.646726	2126.986316
330.040528	2138.366721
330.434265	2155.236942
330.827938	2174.693275
331.221547	2192.564166
331.615091	2209.257947
332.008571	2230.377861
332.401986	2252.052302
332.795338	2269.237595
333.188625	2290.445729
333.581847	2305.400312
333.975006	2323.319094
334.368100	2344.819615
334.761129	2361.636904
335.154095	2377.019985
335.546996	2399.453120
335.939833	2423.305339
336.332606	2439.116918
336.725315	2451.349278
337.117960	2460.982923
337.510540	2468.027935
337.903056	2480.872795
338.295508	2487.869917
338.687896	2496.603716
339.080220	2505.201404
339.472480	2510.673576
339.864676	2515.495440
340.256807	2518.585667
340.648875	2521.791841
341.040879	2526.775022
341.432818	2525.905423
341.824694	2528.186545
342.216506	2530.888603
342.608253	2530.064375
342.999937	2526.933818
343.391557	2527.299302
343.783113	2530.465146
344.174605	2527.879034
344.566033	2525.260155
344.957397	2523.636903
345.348697	2522.817716
345.739934	2522.084228
346.131106	2519.971985
346.522215	2520.660102
346.913260	2514.540141
347.304241	2513.390758
347.695159	2511.558299
348.086012	2510.764317
348.476802	2508.289111
348.867528	2509.103257
349.258191	2507.149810
349.648789	2503.989006
350.039324	2503.578152
350.429796	2502.491784
350.820203	2496.767553
351.210548	2501.138234
351.600828	2497.435506
351.991045	2498.728562
352.381198	2496.139930
352.771288	2496.880979
353.161314	2496.805362
353.551276	2497.596823
353.941175	2495.320742
354.331010	2498.940291
354.720782	2496.616319
355.110490	2494.534322
355.500135	2497.329642
355.889717	2493.982316
356.279235	2493.957110
356.668689	2495.688747
357.058080	2497.800990
357.447408	2496.848212
357.836672	2495.114055
358.225873	2495.527430
358.615010	2493.440392
359.004084	2497.760661
359.393095	2497.939622
359.782043	2501.113028
360.170927	2499.877945
360.559748	2502.297699
360.948505	2503.757113
361.337199	2503.386588
361.725830	2503.989006
362.114398	2503.462206
362.502903	2504.508245
362.891344	2504.362052
363.279722	2505.168636
363.668037	2506.098729
364.056289	2505.798781
364.444478	2506.111332
364.832603	2506.353307
365.220665	2505.304748
365.608665	2508.052176
365.996601	2505.113184
366.384474	2508.528565
366.772284	2508.367248
367.160031	2509.103257
367.547715	2509.597290
367.935336	2509.856909
368.322893	2509.143586
368.710388	2509.985459
369.097820	2510.083761
369.485189	2510.608041
369.872495	2511.628875
370.259738	2509.529234
370.646918	2511.066786
371.034035	2511.712054
371.421090	2513.988135
371.808081	2513.990656
372.195010	2512.130470
372.581875	2512.445542
372.968678	2512.349760
373.355418	2515.326561
373.742096	2514.467045
374.128710	2515.182888
374.515262	2515.525687
374.901751	2513.854544
375.288177	2515.261026
375.674540	2518.623476
376.060841	2514.956037
376.447079	2515.926459
376.833254	2517.763959
377.219367	2512.838752
377.605417	2514.477127
377.991404	2512.891684
378.377329	2516.261695
378.763191	2511.633916
379.148991	2519.538445
379.534727	2518.598270
379.920402	2518.996521
380.306013	2522.089269
380.691563	2524.443488
381.077049	2519.533404
381.462474	2522.424506
381.847835	2520.430730
382.233134	2522.134640
382.618371	2522.416944
383.003545	2522.101872
383.388657	2523.034486
383.773706	2526.603622
384.158693	2523.039527
384.543618	2525.565145
384.928480	2522.744619
385.313280	2525.025741
385.698017	2527.775691
386.082692	2525.469363
386.467305	2525.539939
386.851856	2528.541946
387.236344	2528.340300
387.620770	2530.697039
388.005133	2526.306194
388.389435	2526.144878
388.773674	2526.096987
389.157851	2527.122861
389.541965	2530.238294
389.926018	2529.456916
390.310008	2529.358613
390.693936	2532.257277
391.077802	2529.159487
391.461606	2533.328522
391.845348	2534.185518
392.229027	2532.078316
392.612645	2535.352545
392.996200	2535.483615
393.379694	2537.598379
393.763125	2541.296065
394.146494	2540.083668
394.529801	2545.240768
394.913047	2546.957281
395.296230	2550.158414
395.679351	2558.146122
396.062410	2563.235167
396.445408	2571.137176
396.828343	2578.673701
397.211217	2582.666294
397.594028	2592.972933
397.976778	2608.776951
398.359466	2624.023921
398.742092	2632.472894
399.124656	2647.520739
399.507158	2668.998575
399.889598	2686.075483
400.271977	2712.022302
400.654294	2730.621639
401.036549	2753.233735
401.418742	2765.403080
401.800874	2804.887918
402.182944	2830.244922
402.564952	2869.150026
402.946898	2893.410579
403.328783	2918.308838
403.710606	2928.343255
404.092367	3003.685820
404.474067	3029.057947
404.855705	3060.865107
405.237282	3071.917837
405.618797	3140.848054
406.000250	3187.801361
406.381642	3246.273704
406.762972	3271.350924
407.144240	3317.399344
407.525447	3356.916949
407.906593	3421.705858
408.287677	3475.321050
408.668700	3484.591732
409.049661	3550.111608
409.430560	3611.865743
409.811399	3617.113584
410.192176	3741.151175
410.572891	3747.908841
410.953545	3849.833410
411.334138	3825.222497
411.714669	3900.244949
412.095139	3877.388357
412.475547	4006.759488
412.855894	4037.944066
413.236180	4085.114143
413.616405	4092.756532
413.996568	4188.046943
414.376670	4187.137014
414.756711	4184.346736
415.136691	4245.208586
415.516609	4337.469263
415.896466	4399.006628
416.276262	4456.316986
416.655997	4472.826764
417.035670	4653.864681
417.415283	4764.079428
417.794834	4743.231736
418.174324	4728.481320
418.553753	4676.441489
418.933121	4862.810426
419.312428	4946.980051
419.691674	4921.643212
420.070859	5061.205036
420.449983	4994.881095
420.829045	5124.544613
421.208047	5053.555085
421.586988	5146.816431
421.965867	5171.639072
422.344686	5312.395649
422.723444	5187.654818
423.102141	5027.293194
423.480777	5326.447866
423.859352	5114.684116
424.237866	5374.795052
424.616319	5378.003746
424.994712	5487.323688
425.373044	5376.256986
425.751314	5520.940622
426.129524	5339.486810
426.507673	5532.346233
426.885762	5622.335870
427.263789	5556.992434
427.641756	5444.804076
428.019662	5570.454835
428.397508	5580.829530
428.775292	5525.507908
429.153016	5632.839114
429.530679	5560.642229
429.908282	5647.478625
430.285824	5525.084451
430.663305	5791.315347
431.040726	5531.658115
431.418086	5535.229773
431.795385	5633.749042
432.172624	5652.368544
432.549802	5646.631711
432.926920	5665.677190
433.303977	5669.994939
433.680974	5708.859714
434.057910	5720.983689
434.434786	5735.114043
434.811601	5701.328230
435.188355	5938.547286
435.565050	5811.895858
435.941683	5793.180574
436.318257	6006.678481
436.694770	5987.138968
437.071222	6023.704978
437.447614	5957.585204
437.823946	5869.927100
438.200218	6021.365882
438.576429	5893.602879
438.952580	5989.798177
439.328670	6035.400455
439.704700	5946.436692
440.080670	5934.950423
440.456580	6195.462130
440.832429	6081.166570
441.208218	5925.036994
441.583947	6078.928297
441.959616	6084.808803
442.335224	6014.535119
442.710773	6152.322456
443.086261	6176.320869
443.461689	5972.433923
443.837057	6119.345748
444.212365	6281.880110
444.587612	6166.591442
444.962800	6323.267983
445.337927	6300.174457
445.712995	5909.979068
446.088002	6490.878787
446.462949	6321.284289
446.837837	6254.937663
447.212664	6424.222130
447.587431	6566.516259
447.962139	7115.263499
448.336786	8033.330712
448.711374	7774.084334
449.085901	6850.610484
449.460369	6772.994359
449.834776	6707.106478
450.209124	7096.258349
450.583412	7244.911894
450.957640	7390.084522
451.331808	7158.428379
451.705917	6715.948662
452.079965	6630.717874
452.453954	6843.419278
452.827883	6721.413273
453.201752	6816.781821
453.575562	6614.160204
453.949311	6821.384395
454.323001	6705.412651
454.696632	6783.202696
455.070202	6924.173522
455.443713	7079.345278
455.817164	7176.006883
456.190556	7257.686178
456.563888	7330.717374
456.937160	7377.143880
457.310373	7037.115533
457.683526	7060.667803
458.056619	6948.597912
458.429653	6932.839265
458.802628	6866.157403
459.175542	6980.337017
459.548398	7335.375400
459.921194	7498.565112
460.293930	7501.597366
460.666607	8030.348869
461.039224	8339.979059
461.411782	8460.734858
461.784280	8474.237589
462.156719	8368.723718
462.529099	8242.498267
462.901419	7836.072882
463.273680	7728.779484
463.645882	7741.392451
464.018024	7610.400589
464.390106	7774.568285
464.762130	8166.144951
465.134094	8632.955797
465.505999	9653.053442
465.877845	10877.020390
466.249631	11525.688341
466.621358	11135.853393
466.993026	10506.266210
467.364634	10250.415050
467.736184	9890.955575
468.107674	9563.658661
468.479105	9585.239841
468.850477	9347.887194
469.221790	9125.184141
469.593043	8800.410325
469.964238	8662.502000
470.335373	8667.583483
470.706449	8733.249553
471.077467	8701.989358
471.448425	10019.061376
471.819324	11089.928482
472.190164	11112.492687
472.560945	9864.504640
472.931667	9073.482067
473.302330	8945.777037
473.672934	8586.597346
474.043479	8947.488509
474.413965	8882.460145
474.784393	8769.117362
475.154761	8926.020755
475.525070	9013.041153
475.895321	8840.661418
476.265513	9013.580556
476.635645	9190.789717
477.005719	9183.661525
477.375734	9301.115369
477.745691	9536.005412
478.115588	9674.468264
478.485427	9914.437269
478.855207	10451.514238
479.224928	11256.004254
479.594591	11889.233671
479.964194	11700.361801
480.333739	11640.019190
480.703226	11559.194370
481.072653	11647.868266
481.442022	11880.288144
481.811333	12072.948441
482.180584	11880.653627
482.549777	11585.751168
482.918912	11412.249777
483.287988	11438.415886
483.657005	11449.771085
484.025964	11132.536314
484.394864	11260.173288
484.763706	11234.949875
485.132489	10994.706127
485.501213	10952.589807
485.869879	11027.894563
486.238487	10873.466377
486.607036	10981.024435
486.975527	10763.221383
487.343959	10949.824734
487.712333	11006.497386
488.080648	10931.164903
488.448905	10980.651390
488.817104	10911.920298
489.185244	11185.271825
489.553326	11340.294867
489.921350	11874.730272
490.289315	12936.195625
490.657222	13276.798664
491.025070	13181.281402
491.392861	13061.017115
491.760593	12676.641737
492.128267	12330.566526
492.495883	11998.447749
492.863440	11660.231696
493.230939	11321.332567
493.598380	11254.151630
493.965763	11129.083124
494.333088	11034.173320
494.700354	10943.631677
495.067563	11008.133240
495.434713	10844.313384
495.801805	10964.459204
496.168839	10892.438759
496.535815	10828.655560
496.902733	10823.246402
497.269593	10759.654767
497.636395	10864.142763
498.003139	10849.919147
498.369825	10714.654907
498.736453	10875.387057
499.103023	10800.929214
499.469535	10835.403145
499.835989	10817.305403
500.202385	10786.531679
500.568723	10633.078956
500.935003	10854.090702
501.301226	10662.625158
501.667390	10920.752400
502.033497	11014.399394
502.399546	10878.084074
502.765537	10784.046390
503.131470	10855.134221
503.497345	11027.266940
503.863163	10642.679833
504.228923	10956.610127
504.594625	11016.786381
504.960269	10769.507702
505.325856	10992.805612
505.691385	10780.136975
506.056856	10936.006932
506.422270	10960.040633
506.787625	10847.496873
507.152924	10957.441918
507.518164	10945.506986
507.883347	10863.991528
508.248472	10786.229210
508.613540	11017.928202
508.978550	10904.645913
509.343503	10879.369568
509.708398	10995.487506
510.073236	11112.563263
510.438016	11119.197421
510.802738	11064.500902
511.167403	11114.932605
511.532010	11014.059117
511.896561	11251.091650
512.261053	11314.065744
512.625488	11188.840962
512.989866	11165.104689
513.354186	11156.113791
513.718449	11059.779861
514.082655	11246.053017
514.446803	11147.097687
514.810894	11267.714855
515.174927	11140.728189
515.538904	11162.218628
515.902822	11316.835858
516.266684	11199.382014
516.630488	11139.997222
516.994235	11190.108812
517.357925	11255.036353
517.721558	11348.567401
518.085133	11357.744821
518.448651	11368.427026
518.812112	11250.579973
519.175516	11265.148907
519.538863	11382.053265
519.902152	11301.871192
520.265385	11467.160545
520.628560	11372.107068
520.991678	11353.016219
521.354739	11420.237485
521.717743	11350.477998
522.080690	11336.650113
522.443580	11473.976185
522.806413	11418.523492
523.169189	11452.115221
523.531908	11512.420024
523.894569	11328.798516
524.257174	11335.009217
524.619722	11451.369130
524.982213	11401.711244
525.344647	11453.879625
525.707025	11402.558158
526.069345	11501.591626
526.431608	11415.687843
526.793815	11532.075483
527.155964	11315.978862
527.518057	11368.966430
527.880093	11317.029942
528.242072	11380.291382
528.603995	11288.126487
528.965860	11205.469207
529.327669	11258.464337
529.689421	11206.951307
530.051117	11184.760147
530.412755	11277.610640
530.774337	11173.193220
531.135862	11151.312092
531.497331	11182.161433
531.858743	11027.813905
532.220098	11195.747342
532.581396	11064.029554
532.942638	11051.093953
533.303824	11008.942345
533.664953	11026.402382
534.026025	10940.397777
534.387040	11034.894205
534.747999	11045.163036
535.108902	11106.213929
535.469748	10859.033553
535.830537	10965.038937
536.191270	10937.289905
536.551947	10963.743360
536.912567	10966.450460
537.273131	10889.257791
537.633638	10869.844308
537.994089	10859.225117
538.354483	10802.738988
538.714821	10953.829931
539.075103	10957.658687
539.435328	10925.899418
539.795497	10751.281411
540.155609	10908.283106
540.515665	11000.022024
540.875665	10729.969933
541.235609	10801.851745
541.595496	10801.539194
541.955328	10958.613986
542.315102	10835.889616
542.674821	10788.938830
543.034483	10787.572677
543.394090	10794.214397
543.753640	10724.475075
544.113134	10942.933477
544.472571	10790.272215
544.831953	10936.858887
545.191278	10745.259752
545.550548	10770.594071
545.909761	10914.934908
546.268918	10878.590710
546.628019	10969.500358
546.987064	10834.150418
547.346053	10748.143292
547.704986	10859.406599
548.063863	10841.175266
548.422684	10836.421458
548.781449	10746.900648
549.140158	10848.172388
549.498811	10730.285005
549.857408	10582.498539
550.215949	10814.565535
550.574434	10668.384677
550.932864	10766.997208
551.291237	10825.751856
551.649555	10771.607343
552.007817	10784.865577
552.366022	10750.174877
552.724173	10737.929915
553.082267	10732.248534
553.440305	10859.429284
553.798288	10660.956537
554.156215	10819.387399
554.514086	10793.359922
554.871902	10641.290995
555.229661	10680.488487
555.587365	10653.142748
555.945014	10545.874556
556.302606	10676.889103
556.660143	10573.948742
557.017625	10720.270753
557.375050	10624.382965
557.732421	10755.674776
558.089735	10658.383027
558.446994	10668.185551
558.804197	10704.635614
559.161345	10700.338030
559.518437	10556.009796
559.875474	10644.459361
560.232455	10672.868783
560.589381	10625.091248
560.946251	10622.328695
561.303065	10730.310211
561.659825	10662.226907
562.016528	10597.233831
562.373177	10470.118617
562.729770	10585.324105
563.086307	10501.998873
563.442789	10595.847514
563.799216	10473.266817
564.155587	10526.025013
564.511904	10475.268155
564.868164	10464.081835
565.224370	10482.532458
565.580520	10404.404656
565.936615	10414.749103
566.292654	10285.133476
566.648638	10415.414536
567.004567	10373.391477
567.360441	10359.404796
567.716260	10262.765877
568.072023	10361.638027
568.427732	10314.651952
568.783385	10219.260719
569.138982	10290.504826
569.494525	10308.340428
569.850013	10183.927272
570.205445	10260.872923
570.560823	10151.996603
570.916145	10072.379140
571.271412	10144.492846
571.626625	10097.705897
571.981782	10068.137009
572.336884	10030.988746
572.691931	10050.346777
573.046923	9995.642696
573.401860	9947.925654
573.756743	9884.870902
574.111570	9923.160986
574.466342	9911.468030
574.821059	9941.972052
575.175722	9829.151028
575.530330	9838.288120
575.884882	9835.596144
576.239380	9769.546946
576.593823	9739.191638
576.948211	9751.590356
577.302544	9635.994178
577.656823	9653.381117
578.011047	9652.282146
578.365216	9628.611408
578.719330	9549.702227
579.073389	9561.803517
579.427394	9512.468264
579.781344	9484.111774
580.135239	9428.956510
580.489080	9440.626781
580.842866	9343.367800
581.196597	9347.509108
581.550273	9393.161797
581.903895	9362.652734
582.257463	9426.705635
582.610975	9300.676788
582.964434	9332.156274
583.317837	9253.922607
583.671186	9230.879493
584.024481	9227.491838
584.377721	9152.146752
584.730906	9121.226835
585.084037	9151.541814
585.437113	9096.308412
585.790135	9109.407850
586.143103	9007.783229
586.496016	8980.485381
586.848874	9046.642964
587.201679	9031.917753
587.554428	8914.680680
587.907124	8968.028690
588.259765	8933.630377
588.612352	8939.815873
588.964884	8814.676790
589.317362	8831.126075
589.669786	8825.560641
590.022155	8874.437148
590.374470	8893.170076
590.726731	8833.697064
591.078937	8678.379114
591.431090	8788.553531
591.783188	8668.440479
592.135232	8660.535950
592.487222	8652.175196
592.839157	8708.840286
593.191038	8647.199577
593.542866	8587.875279
593.894639	8495.070157
594.246358	8541.602528
594.598022	8557.714055
594.949633	8455.600443
595.301190	8430.878624
595.652692	8456.654044
596.004141	8572.880367
596.355535	8346.376283
596.706876	8327.330804
597.058162	8264.399560
597.409395	8336.236002
597.760573	8402.350735
598.111698	8310.415212
598.462768	8297.230074
598.813785	8262.095753
599.164748	8229.217347
599.515657	8220.370122
599.866511	8127.481821
600.217312	8254.662571
600.568060	8116.529915
600.918753	8220.697797
601.269392	8190.176131
601.619978	8095.110052
601.970510	8159.601533
602.320988	8159.712438
602.671412	8218.630924
603.021783	8152.044843
603.372100	8119.962940
603.722363	8127.108776
604.072572	8106.495498
604.422728	8114.047146
604.772830	8045.033750
605.122878	8049.253196
605.472872	8044.761528
605.822813	8074.451403
606.172701	8019.621294
606.522534	8093.895134
606.872314	8096.012418
607.222041	8062.748365
607.571714	8114.205943
607.921333	8080.089934
608.270899	8079.792506
608.620411	8173.968822
608.969870	8079.028771
609.319276	8069.904283
609.668627	8087.868434
610.017926	8123.295143
610.367171	8170.810539
610.716362	8147.729616
611.065500	8136.366855
611.414585	8168.030342
611.763616	8152.349833
612.112594	8129.205896
612.461518	8152.175913
612.810389	8212.014410
613.159207	8148.531159
613.507971	8096.640042
613.856682	8212.568937
614.205340	8176.436466
614.553945	8247.978001
614.902496	8149.131057
615.250994	8202.400929
615.599439	8185.208074
615.947830	8197.163170
616.296169	8171.251640
616.644454	8180.262702
616.992686	8183.453752
617.340864	8235.962411
617.688990	8145.909759
618.037063	8234.208089
618.385082	8183.141201
618.733048	8270.174202
619.080961	8207.933596
619.428821	8220.889361
619.776628	8226.480001
620.124382	8185.714710
620.472083	8157.335534
620.819731	8191.317952
621.167326	8081.854338
621.514868	8092.584434
621.862357	7977.683935
622.209793	7995.091039
622.557176	7933.218437
622.904506	7900.161071
623.251783	7834.827717
623.599007	7788.426417
623.946179	7799.511914
624.293297	7750.673215
624.640363	7669.805546
624.987376	7649.736712
625.334336	7601.402129
625.681243	7547.439098
626.028097	7534.054835
626.374899	7510.663881
626.721647	7502.683734
627.068343	7432.092457
627.414987	7411.421206
627.761577	7363.797425
628.108115	7397.873105
628.454600	7299.268135
628.801032	7351.426434
629.147412	7307.235679
629.493739	7294.897455
629.840014	7227.915644
630.186236	7290.940149
630.532405	7173.390524
630.878521	7221.780560
631.224585	7179.707090
631.570597	7099.570388
631.916556	7139.738301
632.262462	7131.475850
632.608316	7095.532423
632.954117	7073.426964
633.299866	7058.338790
633.645562	7053.605147
633.991206	6969.967363
634.336797	6912.939310
634.682336	6868.178905
635.027823	6840.344174
635.373257	6832.500139
635.718639	6762.561691
636.063968	6772.636437
636.409245	6667.616600
636.754470	6665.315313
637.099642	6628.174612
637.444762	6569.674542
637.789829	6577.624442
638.134845	6518.433734
638.479808	6510.075501
638.824719	6512.011304
639.169577	6439.093534
639.514383	6457.100536
639.859137	6386.887345
640.203839	6399.875878
640.548489	6380.149843
640.893086	6356.859712
641.237632	6326.133879
641.582125	6349.151788
641.926566	6317.833619
642.270955	6331.348953
642.615292	6327.318550
642.959576	6341.995870
643.303809	6333.493964
643.647990	6340.022258
643.992118	6333.229303
644.336195	6276.627228
644.680219	6301.091947
645.024192	6291.049969
645.368112	6385.861470
645.711981	6411.062198
646.055797	6481.671119
646.399562	6444.497651
646.743274	6567.955509
647.086935	6622.107583
647.430544	6618.689681
647.774101	6639.408823
648.117606	6647.958620
648.461059	6637.306662
648.804460	6601.779130
649.147810	6509.828484
649.491108	6478.596016
649.834354	6456.329239
650.177548	6364.693665
650.520690	6283.662158
650.863781	6264.760352
651.206820	6285.310615
651.549807	6203.109561
651.892742	6142.532536
652.235626	6154.585934
652.578458	6136.858717
652.921238	6044.567793
653.263967	6085.890131
653.606644	6019.117528
653.949269	6024.882087
654.291843	5967.700279
654.634365	6014.575448
654.976836	5970.672039
655.319255	5968.176668
655.661622	5950.537671
656.003938	5948.269152
656.346203	5904.040588
656.688416	5936.147697
657.030577	5896.042798
657.372687	5856.023598
657.714746	5847.879614
658.056753	5891.165481
658.398708	5831.662222
658.740612	5821.993289
659.082465	5869.148242
659.424266	5858.405543
659.766016	5860.868147
660.107715	5831.687428
660.449362	5850.269121
660.790958	5841.714283
661.132503	5829.615513
661.473996	5870.116143
661.815438	5856.580645
662.156829	5853.379513
662.498168	5839.690259
662.839456	5821.123690
663.180693	5853.989492
663.521879	5855.522003
663.863013	5844.585220
664.204097	5866.731009
664.545129	5908.433954
664.886110	5897.242592
665.227040	5933.496050
665.567918	5899.740484
665.908746	5932.059321
666.249522	5930.967912
666.590248	5916.925778
666.930922	5950.341066
667.271545	5963.440504
667.612118	5963.463189
667.952639	5930.388179
668.293109	5958.348939
668.633528	5912.865128
668.973896	5916.867804
669.314213	5908.050826
669.654480	5889.030553
669.994695	5882.666096
670.334859	5874.822061
670.674973	5870.000197
671.015035	5870.027923
671.355047	5866.526842
671.695008	5854.400346
672.034918	5828.027550
672.374777	5840.663202
672.714585	5822.013453
673.054342	5825.655687
673.394049	5824.571839
673.733705	5853.986972
674.073310	5841.633624
674.412864	5801.140556
674.752368	5789.545902
675.091820	5797.641995
675.431223	5730.829063
675.770574	5733.127829
676.109875	5679.126989
676.449125	5689.884811
676.788324	5654.720242
677.127473	5597.425008
677.466571	5590.949646
677.805619	5579.062606
678.144616	5567.530966
678.483562	5544.296288
678.822458	5515.024828
679.161303	5506.701883
679.500098	5500.370194
679.838842	5479.535105
680.177535	5490.923072
680.516179	5501.358260
680.854771	5511.009549
681.193314	5596.787302
681.531805	5702.233117
681.870247	5855.688361
682.208638	5955.301561
682.546978	5966.550896
682.885268	5941.592143
683.223508	5860.424525
683.561697	5804.739940
683.899836	5776.133912
684.237925	5735.025823
684.575963	5694.310944
684.913951	5653.817876
685.251889	5716.229881
685.589776	5684.974727
685.927614	5657.316437
686.265401	5733.495833
686.603137	5713.081681
686.940824	5791.527076
687.278460	5810.731351
687.616046	5821.862219
687.953582	5888.173557
688.291068	5873.259303
688.628504	5934.516884
688.965889	5897.998765
689.303224	5841.714283
689.640510	5793.543537
689.977745	5714.828440
690.314930	5619.064161
690.652065	5561.055604
690.989150	5467.852231
691.326185	5393.865737
691.663170	5340.280792
692.000105	5263.143576
692.336990	5185.368655
692.673825	5158.942926
693.010610	5090.496660
693.347345	5021.538717
693.684030	5012.504969
694.020665	4965.539059
694.357251	4877.190317
694.693786	4888.810177
695.030272	4855.616699
695.366707	4817.964321
695.703093	4783.891162
696.039429	4804.577537
696.375716	4789.590187
696.711952	4763.872741
697.048139	4751.375720
697.384276	4727.921752
697.720363	4744.398763
698.056400	4751.776492
698.392388	4707.379050
698.728326	4680.237478
699.064214	4662.772400
699.400053	4654.847706
699.735842	4623.448880
700.071581	4596.879478
700.407270	4572.051796
700.742910	4552.895411
701.078501	4501.349613
701.414042	4497.044468
701.749533	4471.246363
702.084974	4403.906630
702.420366	4458.971153
702.755709	4399.810692
703.091002	4346.253474
703.426246	4391.971698
703.761440	4350.377138
704.096584	4312.888597
704.431679	4335.062112
704.766725	4318.796829
705.101721	4308.522958
705.436668	4338.001105
705.771565	4285.857930
706.106413	4314.075789
706.441212	4348.274976
706.775961	4354.747818
707.110661	4332.992718
707.445311	4359.524311
707.779913	4383.752097
708.114465	4394.951020
708.448967	4418.793157
708.783421	4481.782374
709.117825	4519.265874
709.452180	4525.471534
709.786485	4571.769491
710.120742	4657.912728
710.454949	4638.917660
710.789107	4706.196899
711.123216	4781.368065
711.457275	4769.579327
711.791286	4850.078992
712.125247	4860.859499
712.459159	4765.054891
712.793023	4843.263352
713.126837	4803.302125
713.460602	4792.385507
713.794318	4711.845512
714.127985	4720.861616
714.461602	4638.237104
714.795171	4607.309626
715.128691	4541.078946
715.462162	4483.579546
715.795584	4433.427627
716.128957	4418.273918
716.462281	4362.725444
716.795556	4343.138041
717.128782	4302.672699
717.461960	4235.244745
717.795088	4242.947628
718.128167	4201.821895
718.461198	4142.812669
718.794180	4136.438130
719.127113	4116.870891
719.459997	4094.578909
719.792833	4055.716654
720.125619	4043.519582
720.458357	4009.993389
720.791046	4014.137217
721.123686	3983.802074
721.456278	3946.343780
721.788821	3962.730051
722.121315	3937.194086
722.453761	3910.932195
722.786158	3920.238165
723.118506	3946.757155
723.450805	3895.740678
723.783056	3918.808998
724.115259	3938.156946
724.447412	3942.164664
724.779518	3932.790638
725.111574	3934.108900
725.443582	3968.141729
725.775542	3954.248309
726.107453	4005.176566
726.439315	4005.622708
726.771129	4019.261550
727.102895	4057.178589
727.434612	4099.393211
727.766281	4115.320737
728.097901	4116.061786
728.429473	4122.262405
728.760996	4131.230618
729.092471	4122.133856
729.423897	4105.059468
729.755276	4111.870067
730.086606	4114.856950
730.417887	4149.565295
730.749120	4215.677507
731.080305	4276.342752
731.411442	4303.340652
731.742530	4276.299902
732.073570	4278.666724
732.404562	4334.419365
732.735506	4325.239424
733.066401	4289.359011
733.397249	4225.618662
733.728048	4149.015809
734.058798	4058.146490
734.389501	3991.981346
734.720156	3931.822737
735.050762	3881.920355
735.381320	3879.805591
735.711831	3828.385821
736.042293	3797.239052
736.372707	3821.857527
736.703073	3791.121612
737.033391	3780.464613
737.363661	3800.972027
737.693883	3825.976150
738.024056	3834.825895
738.354182	3827.599401
738.684260	3897.109351
739.014290	3916.313627
739.344272	3912.227772
739.674207	3953.902990
740.004093	3956.700831
740.333931	3952.950212
740.663722	3952.544399
740.993464	3952.627578
741.323159	3927.487344
741.652806	3898.092376
741.982405	3872.115310
742.311956	3839.229343
742.641460	3828.630317
742.970915	3807.349086
743.300323	3761.189761
743.629683	3726.103330
743.958996	3720.326168
744.288260	3691.649564
744.617477	3659.010614
744.946647	3647.113491
745.275768	3622.152217
745.604842	3618.404120
745.933869	3574.014239
746.262847	3564.471335
746.591778	3601.488528
746.920662	3575.493818
747.249498	3543.968963
747.578286	3590.415633
747.907027	3604.225874
748.235720	3602.771502
748.564365	3627.790748
748.892963	3626.432157
749.221514	3611.245681
749.550017	3584.898091
749.878473	3585.944130
750.206881	3554.706620
750.535242	3555.689645
750.863555	3555.893812
751.191821	3548.934499
751.520039	3529.873896
751.848210	3505.668796
752.176334	3540.614075
752.504411	3547.167575
752.832440	3505.885566
753.160421	3486.877895
753.488356	3497.975995
753.816243	3512.129035
754.144082	3469.007005
754.471875	3452.691310
754.799620	3473.710401
755.127318	3464.863176
755.454969	3465.831078
755.782572	3470.632777
756.110129	3447.075465
756.437638	3433.413938
756.765100	3450.475723
757.092515	3458.677681
757.419882	3467.313177
757.747203	3440.138837
758.074477	3443.526493
758.401703	3458.508802
758.728882	3478.345742
759.056014	3484.551403
759.383099	3490.557938
759.710138	3485.476454
760.037129	3507.564270
760.364073	3534.859597
760.690970	3519.849562
761.017820	3495.891478
761.344623	3515.892256
761.671379	3563.269020
761.998088	3610.459261
762.324751	3738.484404
762.651366	3986.788957
762.977935	4459.699600
763.304456	4903.311056
763.630931	4996.441332
763.957359	4637.732989
764.283740	4292.298004
764.610074	4100.184672
764.936362	3903.004981
765.262602	3749.038060
765.588796	3634.881131
765.914943	3546.396278
766.241044	3456.633493
766.567097	3429.297836
766.893104	3381.411916
767.219064	3350.033253
767.544978	3323.864624
767.870845	3267.577621
768.196665	3246.193046
768.522438	3255.241917
768.848165	3252.103799
769.173846	3217.231617
769.499479	3198.506251
769.825066	3180.516894
770.150607	3167.243536
770.476101	3180.194260
770.801548	3174.853157
771.126949	3132.845222
771.452303	3115.997686
771.777611	3122.228552
772.102872	3125.278450
772.428087	3097.138730
772.753256	3093.055395
773.078378	3083.434353
773.403453	3050.288766
773.728482	3038.535316
774.053465	3058.117678
774.378401	3044.831717
774.703291	3015.504805
775.028135	3016.636544
775.352932	3009.767972
775.677683	3000.169615
776.002388	2997.296157
776.327046	2998.518637
776.651658	2986.992039
776.976224	2972.584421
777.300743	2975.087354
777.625216	2964.755509
777.949643	2962.471866
778.274024	2961.201496
778.598359	2951.119188
778.922647	2956.374591
779.246889	2956.939200
779.571086	2941.452775
779.895236	2935.841971
780.219339	2946.955195
780.543397	2958.348203
780.867409	2963.381795
781.191374	2953.062553
781.515294	2953.478448
781.839167	2951.562809
782.162995	2941.661983
782.486776	2952.263530
782.810511	2948.601132
783.134201	2935.748710
783.457844	2942.060234
783.781441	2933.739810
784.104993	2914.835483
784.428498	2917.093920
784.751958	2928.673450
785.075372	2925.426947
785.398739	2908.975142
785.722061	2919.740526
786.045337	2937.563525
786.368568	2915.982346
786.691752	2911.404978
787.014891	2959.585806
787.337983	2987.561689
787.661030	3015.570340
787.984031	3084.308993
788.306987	3130.579224
788.629897	3123.811475
788.952760	3109.799587
789.275579	3090.360898
789.598351	3033.635315
789.921078	2985.000783
790.243759	2976.675317
790.566395	2961.940025
790.888984	2938.735593
791.211529	2920.484096
791.534027	2910.336253
791.856480	2899.580952
792.178888	2887.305742
792.501249	2877.548589
792.823566	2876.023640
793.145836	2872.356200
793.468062	2867.811600
793.790241	2866.876466
794.112375	2872.678834
794.434464	2884.538148
794.756507	2888.253479
795.078505	2894.131464
795.400457	2906.941036
795.722364	2945.150462
796.044226	2969.272383
796.366042	2972.032415
796.687812	2961.380457
797.009538	2980.335195
797.331218	2970.073926
797.652852	2955.164714
797.974442	2936.993875
798.295986	2932.144285
798.617484	2927.682864
798.938938	2912.491347
799.260346	2894.794376
799.581709	2892.977040
799.903026	2882.894732
800.224299	2879.549927
800.545526	2869.281096
800.866708	2855.579240
801.187845	2842.363855
801.508936	2844.481140
801.829983	2851.435412
802.150984	2838.706498
802.471940	2825.435661
802.792851	2826.632935
803.113717	2826.148984
803.434538	2833.602330
803.755314	2823.638489
804.076045	2820.311328
804.396731	2817.463076
804.717372	2816.946358
805.037967	2810.163485
805.358518	2820.429795
805.679024	2830.484376
805.999485	2829.965137
806.319901	2831.006136
806.640272	2822.559682
806.960598	2827.189982
807.280879	2838.527537
807.601115	2847.790657
807.921306	2833.539316
808.241453	2827.489931
808.561554	2833.614933
808.881611	2837.322702
809.201623	2832.974706
809.521590	2832.231136
809.841513	2824.422389
810.161390	2828.253666
810.481223	2824.346772
810.801011	2814.516522
811.120755	2810.629792
811.440453	2812.305976
811.760107	2813.904021
812.079716	2814.158600
812.399281	2799.274593
812.718801	2794.581279
813.038276	2790.364353
813.357707	2796.539767
813.677093	2802.679892
813.996434	2796.113789
814.315731	2791.478448
814.634983	2785.555093
814.954191	2789.661112
815.273354	2803.312557
815.592473	2814.965184
815.911547	2814.337561
816.230577	2823.116730
816.549562	2831.633759
816.868502	2831.359017
817.187399	2838.267918
817.506250	2856.544621
817.825058	2846.729495
818.143821	2863.582072
818.462539	2879.524721
818.781213	2904.004564
819.099843	2941.634257
819.418429	3000.484687
819.736970	3061.417113
820.055466	3134.503762
820.373919	3240.733476
820.692327	3380.040722
821.010691	3550.698903
821.329011	3996.752798
821.647286	4900.077156
821.965517	6281.635614
822.283704	7025.188162
822.601847	7010.989753
822.919945	6376.868052
823.237999	5863.771851
823.556010	5279.199651
823.873976	4728.342688
824.191897	4314.801715
824.509775	4012.927340
824.827609	3750.971342
825.145398	3621.517032
825.463144	3612.442955
825.780845	3701.913354
826.098502	3807.749858
826.416116	4088.867282
826.733685	4409.550201
827.051210	4473.671158
827.368692	4356.890308
827.686129	4092.602777
828.003522	3762.770163
828.320872	3504.174094
828.638177	3308.799136
828.955439	3167.561128
829.272656	3087.295877
829.589830	3020.770290
829.906960	2972.113073
830.224046	2924.791762
830.541088	2892.566186
830.858086	2875.708568
831.175041	2858.349354
831.491952	2857.855321
831.808819	2870.208669
832.125642	2895.341341
832.442421	2938.770882
832.759157	3024.039478
833.075849	3202.067826
833.392497	3482.217348
833.709101	3685.622865
834.025662	3642.334477
834.342179	3479.147286
834.658653	3299.359575
834.975083	3148.399702
835.291469	3052.605177
835.607811	2967.913792
835.924110	2909.849782
836.240366	2857.870445
836.556578	2815.638178
836.872746	2791.027265
837.188871	2772.485901
837.504952	2754.529311
837.820990	2747.285173
838.136984	2731.836557
838.452935	2721.524877
838.768842	2722.954044
839.084706	2738.632033
839.400526	2819.300577
839.716303	2954.791668
840.032037	3035.921478
840.347727	3018.804240
840.663373	2958.408696
840.978977	2881.576471
841.294537	2808.628454
841.610054	2762.869900
841.925527	2740.035994
842.240957	2716.844166
842.556344	2695.757019
842.871687	2682.390400
843.186987	2670.450427
843.502244	2662.916422
843.817458	2659.750578
844.132629	2650.676501
844.447756	2641.156282
844.762840	2636.291568
845.077881	2637.141003
845.392879	2634.602782
845.707833	2632.397277
846.022745	2623.361009
846.337613	2626.433592
846.652438	2623.986112
846.967221	2625.153139
847.281960	2623.592902
847.596656	2621.503344
847.911309	2622.730865
848.225919	2618.955040
848.540485	2615.539659
848.855009	2614.569237
849.169490	2613.248454
849.483928	2613.646705
849.798323	2613.757611
850.112675	2610.304420
850.426984	2612.913217
850.741251	2614.261726
851.055474	2611.360542
851.369654	2615.297683
851.683792	2614.218876
851.997887	2611.877260
852.311938	2613.374483
852.625947	2613.760131
852.939914	2615.615276
853.253837	2617.288939
853.567718	2616.179885
853.881555	2611.491612
854.195350	2617.324227
854.509103	2615.973198
854.822812	2614.239041
855.136479	2609.039091
855.450103	2612.078907
855.763685	2613.747528
856.077224	2614.135697
856.390720	2608.330809
856.704173	2611.534462
857.017584	2616.580657
857.330953	2619.895216
857.644278	2621.349588
857.957561	2622.647686
858.270802	2616.278188
858.584000	2614.370111
858.897155	2618.846656
859.210268	2619.703652
859.523339	2613.687035
859.836367	2610.014554
860.149352	2611.814246
860.462295	2612.411623
860.775195	2609.386930
861.088054	2605.651435
861.400869	2607.279728
861.713642	2604.859974
862.026373	2605.754779
862.339062	2609.873402
862.651708	2615.569906
862.964312	2613.782817
863.276873	2613.129987
863.589392	2618.183744
863.901869	2619.403703
864.214303	2627.792183
864.526696	2628.770167
864.839045	2628.203037
865.151353	2632.215796
865.463619	2631.736886
865.775842	2632.742596
866.088023	2629.246556
866.400162	2634.282669
866.712258	2634.995992
867.024313	2632.692185
867.336325	2628.684467
867.648296	2629.080198
867.960224	2634.292751
868.272110	2634.592700
868.583954	2626.955352
868.895755	2628.197996
869.207515	2633.052627
869.519233	2639.631333
869.830909	2636.394912
870.142542	2630.781587
870.454134	2633.138327
870.765684	2638.182001
871.077191	2642.867754
871.388657	2646.767086
871.700081	2642.177116
872.011463	2640.871457
872.322803	2644.788433
872.634101	2648.050060
872.945357	2654.187665
873.256571	2660.403407
873.567744	2657.882830
873.878874	2652.738333
874.189963	2656.428457
874.501010	2661.328459
874.812015	2670.331960
875.122979	2668.307937
875.433900	2658.812923
875.744780	2656.935093
876.055618	2662.462719
876.366415	2668.628050
876.677169	2666.049500
876.987882	2663.496155
877.298554	2660.670588
877.609183	2672.832372
877.919771	2675.065603
878.230317	2686.070442
878.540822	2696.712318
878.851285	2708.304451
879.161707	2734.455437
879.472087	2772.967332
879.782425	2821.077583
880.092722	2937.755089
880.402977	3127.010087
880.713191	3384.905435
881.023363	3681.199252
881.333494	3877.244684
881.643583	4049.921848
881.953631	4044.500087
882.263637	3871.132285
882.573602	3648.557781
882.883526	3513.636340
883.193408	3398.045203
883.503248	3297.529636
883.813048	3181.683921
884.122806	3064.005746
884.432522	2980.821666
884.742197	2915.647109
885.051831	2877.523383
885.361424	2840.967456
885.670975	2804.804739
885.980485	2775.523197
886.289954	2758.335382
886.599382	2742.425501
886.908768	2730.409911
887.218113	2711.442569
887.527417	2697.682740
887.836680	2688.613704
888.145901	2684.858045
888.455082	2676.179698
888.764221	2665.419355
889.073319	2658.933911
889.382376	2656.322593
889.691392	2658.472645
890.000366	2656.788900
890.309300	2654.749753
890.618193	2660.325269
890.927044	2662.881134
891.235855	2660.930208
891.544625	2659.793428
891.853353	2659.027172
892.162041	2667.776095
892.470687	2687.814681
892.779293	2701.703060
893.087858	2708.811087
893.396381	2734.689850
893.704864	2776.118053
894.013306	2846.603466
894.321707	2937.321550
894.630068	2992.716269
894.938387	3009.732684
895.246665	3004.681448
895.554903	2960.634366
895.863100	2914.812798
896.171256	2859.176103
896.479371	2795.309725
896.787446	2757.291864
897.095480	2737.860736
897.403473	2730.261197
897.711425	2714.653784
898.019336	2697.622246
898.327207	2684.250586
898.635038	2684.744619
898.942827	2678.612055
899.250576	2670.246260
899.558284	2658.197902
899.865952	2654.868220
900.173579	2650.258085
900.481165	2649.597694
900.788711	2643.689462
901.096216	2636.188225
901.403681	2631.648666
901.711105	2631.696557
902.018489	2630.307719
902.325832	2633.871815
902.633135	2634.411218
902.940397	2653.257572
903.247619	2689.289219
903.554800	2757.783376
903.861941	2886.675598
904.169041	3016.558406
904.476101	3077.014443
904.783121	3071.418763
905.090100	3014.040350
905.397039	2937.762651
905.703938	2863.138450
906.010796	2798.480611
906.317614	2746.481109
906.624391	2709.952908
906.931129	2683.113805
907.237826	2660.312667
907.544483	2639.026394
907.851099	2628.699591
908.157675	2617.556120
908.464211	2614.901953
908.770707	2602.750251
909.077163	2595.710280
909.383578	2594.230701
909.689954	2593.167018
909.996289	2590.840525
910.302584	2590.921184
910.608839	2586.356419
910.915054	2587.420102
911.221229	2589.403797
911.527363	2589.776842
911.833458	2591.362285
912.139513	2591.929415
912.445527	2591.183324
912.751502	2597.464602
913.057436	2602.858636
913.363331	2609.825511
913.669186	2622.614918
913.975000	2635.938688
914.280775	2651.120123
914.586510	2671.670386
914.892205	2709.789071
915.197859	2775.888680
915.503475	2859.975126
915.809050	2927.718152
916.114585	2944.454783
916.420081	2956.097327
916.725536	2967.354224
917.030952	2939.378341
917.336328	2889.372615
917.641665	2842.925944
917.946961	2791.927111
918.252218	2755.834970
918.557435	2730.011660
918.862612	2707.790253
919.167750	2689.430371
919.472848	2674.808504
919.777906	2658.150012
920.082925	2644.130563
920.387904	2631.704118
920.692843	2630.373254
920.997743	2625.440485
921.302603	2616.167282
921.607423	2611.683176
921.912204	2604.980962
922.216946	2600.043152
922.521647	2604.149172
922.826310	2596.315218
923.130932	2593.580393
923.435516	2587.410020
923.740059	2582.391552
924.044564	2582.830132
924.349028	2580.619586
924.653454	2572.992320
924.957840	2570.068451
925.262186	2566.806824
925.566493	2570.746486
925.870761	2562.224416
926.174989	2565.607030
926.479178	2564.828172
926.783328	2564.056875
927.087438	2563.404046
927.391509	2560.840619
927.695541	2559.875238
927.999533	2556.691749
928.303486	2554.728220
928.607400	2556.149825
928.911275	2554.990360
929.215110	2558.241904
929.518906	2554.619835
929.822663	2556.464897
930.126381	2557.324414
930.430060	2556.333827
930.733699	2556.235525
931.037299	2557.069836
931.340861	2557.435319
931.644383	2556.931204
931.947866	2558.410783
932.251309	2554.950031
932.554714	2553.495658
932.858080	2558.481359
933.161407	2557.463046
933.464694	2552.459701
933.767943	2554.382901
934.071153	2554.055226
934.374323	2556.210319
934.677455	2553.306614
934.980548	2551.869886
935.283602	2552.477345
935.586617	2551.275029
935.889593	2551.378373
936.192530	2551.411141
936.495428	2552.948692
936.798287	2556.792572
937.101108	2556.434650
937.403890	2558.856925
937.706632	2559.618139
938.009336	2563.293140
938.312002	2567.792370
938.614628	2570.872515
938.917216	2575.066755
939.219765	2574.892835
939.522275	2575.076837
939.824747	2579.480285
940.127179	2570.789336
940.429573	2569.546692
940.731929	2568.195662
941.034246	2566.401012
941.336524	2568.863615
941.638763	2565.818758
941.940964	2566.116186
942.243126	2562.216854
942.545250	2563.893037
942.847335	2562.693243
943.149381	2560.512944
943.451389	2559.691236
943.753359	2556.865669
944.055290	2556.227963
944.357182	2556.033879
944.659036	2555.842315
944.960851	2557.082439
945.262628	2553.684701
945.564367	2558.700649
945.866067	2554.466080
946.167729	2557.750392
946.469352	2557.223591
946.770937	2556.938766
947.072484	2555.330638
947.373992	2554.425751
947.675462	2556.159907
947.976893	2554.879454
948.278286	2553.876265
948.579641	2554.173693
948.880958	2549.813095
949.182236	2554.529094
949.483476	2551.927859
949.784678	2553.319217
950.085841	2550.589432
950.386967	2555.033210
950.688054	2551.413661
950.989103	2557.662171
951.290114	2555.285267
951.591087	2558.085628
951.892021	2556.767367
952.192917	2560.628890
952.493776	2556.348951
952.794596	2559.910526
953.095378	2561.450598
953.396122	2561.851370
953.696828	2560.885989
953.997496	2557.241235
954.298126	2554.773590
954.598718	2555.136553
954.899272	2552.835267
955.199788	2552.573127
955.500266	2553.722510
955.800706	2544.978628
956.101108	2543.168854
956.401472	2544.424101
956.701798	2542.014430
957.002087	2544.114070
957.302337	2544.910573
957.602550	2543.695655
957.902724	2543.509132
958.202861	2544.550130
958.502960	2541.021323
958.803022	2545.021478
959.103045	2541.732125
959.403031	2542.644574
959.702979	2540.151723
960.002889	2539.619882
960.302762	2536.932947
960.602596	2538.775488
960.902393	2540.202135
961.202153	2537.749614
961.501875	2541.149872
961.801559	2536.176774
962.101205	2539.604758
962.400814	2540.159285
962.700385	2539.302289
962.999918	2539.740869
963.299414	2540.333205
963.598873	2537.623585
963.898293	2537.673996
964.197677	2537.305992
964.497022	2535.574356
964.796331	2539.322454
965.095601	2536.443955
965.394835	2537.510159
965.694030	2536.527134
965.993189	2537.303472
966.292309	2536.391023
966.591393	2539.687937
966.890439	2535.166022
967.189447	2535.443286
967.488419	2536.418749
967.787353	2538.261291
968.086249	2534.208203
968.385108	2538.959491
968.683930	2535.836496
968.982714	2538.520910
969.281462	2537.928575
969.580172	2536.436393
969.878844	2537.739531
970.177480	2539.022505
970.476078	2538.281455
970.774639	2537.053934
971.073162	2538.616692
971.371649	2536.869932
971.670098	2534.742565
971.968510	2535.589479
972.266885	2536.070909
972.565223	2538.974614
972.863524	2535.987730
973.161788	2538.084850
973.460014	2537.938657
973.758204	2538.316743
974.056356	2537.754655
974.354471	2540.786909
974.652550	2537.106867
974.950591	2541.170037
975.248595	2538.145344
975.546563	2539.035108
975.844493	2536.564942
976.142386	2537.822710
976.440243	2536.920344
976.738062	2534.671989
977.035845	2534.752648
977.333590	2538.079809
977.631299	2539.468647
977.928971	2534.782895
978.226606	2532.703419
978.524204	2538.717515
978.821765	2534.835827
979.119290	2536.489325
979.416777	2536.300282
979.714228	2533.978831
980.011642	2539.014943
980.309020	2536.259953
980.606360	2537.437062
980.903664	2538.951929
981.200931	2538.704912
981.498162	2541.046528
981.795356	2538.089892
982.092513	2544.887888
982.389633	2547.025337
982.686717	2548.257899
982.983764	2552.908363
983.280775	2554.324928
983.577749	2551.867365
983.874686	2551.438867
984.171587	2546.001983
984.468451	2546.327137
984.765279	2543.788916
985.062070	2543.650284
985.358824	2542.281611
985.655543	2538.780530
985.952224	2535.808769
986.248869	2537.479912
986.545478	2532.342976
986.842050	2534.182997
987.138586	2530.860877
987.435086	2532.360620
987.731549	2529.681247
988.027975	2535.886907
988.324366	2536.300282
988.620719	2533.862884
988.917037	2533.225178
989.213318	2536.880015
989.509563	2533.260466
989.805772	2534.288862
990.101944	2535.150899
990.398080	2532.653007
990.694180	2534.258615
990.990244	2532.937832
991.286271	2533.867925
991.582262	2532.698378
991.878217	2535.339942
992.174136	2535.844058
992.470019	2534.059489
992.765865	2535.092926
993.061676	2534.475384
993.357450	2534.150230
993.653188	2533.552853
993.948890	2533.656197
994.244556	2533.482277
994.540186	2533.951104
994.835780	2533.832637
995.131337	2534.866074
995.426859	2533.905734
995.722345	2535.261804
996.017795	2536.151568
996.313208	2536.491846
996.608586	2537.101825
996.903928	2538.152906
997.199234	2536.607792
997.494504	2538.125180
997.789738	2535.660055
998.084936	2538.253729
998.380099	2536.322967
998.675225	2535.997813
998.970316	2537.162319
999.265371	2534.228368
999.560390	2534.346835
999.855373	2533.648635
1000.150320	2533.222657
1000.445232	2535.627288
1000.740108	2532.935312
1001.034948	2535.045035
1001.329752	2532.589993
1001.624521	2533.353727
1001.919254	2527.422810
1002.213951	2529.915661
1002.508613	2528.652852
1002.803239	2529.837523
1003.097829	2526.313756
1003.392384	2532.907585
1003.686903	2532.615198
1003.981386	2531.002029
1004.275834	2530.450023
1004.570246	2534.377082
1004.864623	2531.115455
1005.158964	2534.288862
1005.453270	2530.994467
1005.747540	2530.772657
1006.041775	2530.878521
1006.335974	2532.534540
1006.630138	2529.250228
1006.924266	2528.743592
1007.218359	2531.881711
1007.512416	2533.378933
1007.806438	2532.254756
1008.100425	2533.139478
1008.394376	2532.433717
1008.688292	2531.054961
1008.982172	2532.577390
1009.276017	2531.485980
1009.569827	2531.574200
1009.863602	2531.188552
1010.157341	2529.948428
1010.451045	2531.753161
1010.744714	2531.710311
1011.038347	2534.588810
1011.331945	2529.744261
1011.625508	2529.451874
1011.919036	2529.308202
1012.212528	2529.288037
1012.505986	2530.243336
1012.799408	2529.179652
1013.092795	2530.860877
1013.386147	2532.118645
1013.679464	2530.092101
1013.972745	2532.085877
1014.265992	2530.071936
1014.559204	2531.760723
1014.852380	2531.206196
1015.145521	2529.620753
1015.438628	2529.729138
1015.731699	2530.089580
1016.024736	2529.847605
1016.317737	2533.515044
1016.610703	2531.445651
1016.903635	2528.725948
1017.196531	2527.606812
1017.489393	2527.077491
1017.782219	2525.867614
1018.075011	2531.153264
1018.367768	2531.155784
1018.660490	2530.414735
1018.953177	2530.414735
1019.245829	2530.414735
