Dividing Wavelength (nm)	Counts (n)	Blue Motor Position (mm): 44.300000	Red Motor Position (mm): 0.000000	
326.493990	2129.514455
326.888308	2129.514455
327.282561	2129.514455
327.676750	2096.275607
328.070874	2094.463312
328.464933	2098.181163
328.858929	2104.817842
329.252859	2115.495006
329.646726	2125.141254
330.040528	2138.848151
330.434265	2157.906233
330.827938	2173.551454
331.221547	2189.171469
331.615091	2211.675180
332.008571	2227.988354
332.401986	2250.441653
332.795338	2266.565784
333.188625	2287.315173
333.581847	2306.622792
333.975006	2325.915288
334.368100	2341.527741
334.761129	2360.951307
335.154095	2376.679707
335.546996	2397.897924
335.939833	2425.392377
336.332606	2438.937957
336.725315	2450.588064
337.117960	2462.520475
337.510540	2469.235292
337.903056	2479.229379
338.295508	2485.924032
338.687896	2498.998264
339.080220	2502.912720
339.472480	2508.609224
339.864676	2515.195491
340.256807	2521.297808
340.648875	2523.256296
341.040879	2525.698735
341.432818	2527.889117
341.824694	2528.670496
342.216506	2529.325846
342.608253	2529.257790
342.999937	2530.568490
343.391557	2528.456247
343.783113	2524.443488
344.174605	2527.700073
344.566033	2524.272089
344.957397	2522.845442
345.348697	2522.406862
345.739934	2519.069618
346.131106	2519.634227
346.522215	2516.173475
346.913260	2512.432939
347.304241	2513.378155
347.695159	2512.138032
348.086012	2509.602331
348.476802	2507.268277
348.867528	2507.001096
349.258191	2505.309789
349.648789	2505.798781
350.039324	2502.078409
350.429796	2502.650580
350.820203	2497.904334
351.210548	2499.396515
351.600828	2499.593120
351.991045	2499.204951
352.381198	2499.378871
352.771288	2496.797800
353.161314	2494.917450
353.551276	2495.169508
353.941175	2497.458192
354.331010	2498.723521
354.720782	2497.584220
355.110490	2496.664210
355.500135	2496.603716
355.889717	2495.713952
356.279235	2497.990033
356.668689	2498.257214
357.058080	2497.105311
357.447408	2496.802842
357.836672	2497.823675
358.225873	2496.679333
358.615010	2492.979126
359.004084	2500.561022
359.393095	2498.925167
359.782043	2500.487925
360.170927	2500.687051
360.559748	2502.998420
360.948505	2503.242916
361.337199	2503.126969
361.725830	2504.009171
362.114398	2506.955725
362.502903	2508.241220
362.891344	2507.454800
363.279722	2507.046466
363.668037	2508.289111
364.056289	2509.136024
364.444478	2507.459841
364.832603	2508.054697
365.220665	2507.550582
365.608665	2511.407064
365.996601	2509.509070
366.384474	2511.427229
366.772284	2512.891684
367.160031	2510.028309
367.547715	2511.820439
367.935336	2512.579133
368.322893	2513.778927
368.710388	2512.022085
369.097820	2515.455111
369.485189	2513.899915
369.872495	2514.209946
370.259738	2516.173475
370.646918	2515.185409
371.034035	2517.690863
371.421090	2517.353105
371.808081	2513.700789
372.195010	2517.837056
372.581875	2518.356295
372.968678	2519.457787
373.355418	2518.689011
373.742096	2519.460307
374.128710	2521.237314
374.515262	2518.568023
374.901751	2520.435771
375.288177	2522.434588
375.674540	2527.271575
376.060841	2523.888961
376.447079	2525.734023
376.833254	2530.598737
377.219367	2532.363141
377.605417	2541.943854
377.991404	2540.867567
378.377329	2548.711603
378.763191	2556.779969
379.148991	2570.015519
379.534727	2578.875347
379.920402	2590.457398
380.306013	2602.357041
380.691563	2621.425206
381.077049	2633.644963
381.462474	2648.007210
381.847835	2666.624191
382.233134	2685.644465
382.618371	2697.728110
383.003545	2729.305898
383.388657	2745.273753
383.773706	2775.671911
384.158693	2795.433234
384.543618	2820.848211
384.928480	2852.685618
385.313280	2890.501833
385.698017	2908.503794
386.082692	2952.505505
386.467305	2976.876963
386.851856	3014.090761
387.236344	3043.480688
387.620770	3081.803540
388.005133	3122.699900
388.389435	3157.751043
388.773674	3188.229859
389.157851	3238.031418
389.541965	3272.898558
389.926018	3270.677930
390.310008	3340.278621
390.693936	3376.262377
391.077802	3427.974533
391.461606	3445.568160
391.845348	3511.307327
392.229027	3530.418341
392.612645	3559.425140
392.996200	3641.691730
393.379694	3692.493958
393.763125	3768.673354
394.146494	3759.400152
394.529801	3827.899350
394.913047	3892.355543
395.296230	3875.931464
395.679351	3942.935960
396.062410	3977.177998
396.445408	3975.103563
396.828343	4017.358514
397.211217	4050.045356
397.594028	3983.101353
397.976778	4057.939803
398.359466	4094.803240
398.742092	4129.892192
399.124656	4058.678332
399.507158	4143.336949
399.889598	4171.872400
400.271977	4237.535950
400.654294	4214.639029
401.036549	4225.840473
401.418742	4195.273437
401.800874	4301.392246
402.182944	4326.429136
402.564952	4392.566554
402.946898	4380.606417
403.328783	4378.229513
403.710606	4292.683652
404.092367	4485.061645
404.474067	4450.360862
404.855705	4463.137667
405.237282	4392.982449
405.618797	4497.951875
406.000250	4535.286661
406.381642	4615.060400
406.762972	4572.727310
407.144240	4585.395730
407.525447	4586.262808
407.906593	4646.272704
408.287677	4689.364487
408.668700	4618.415287
409.049661	4664.841794
409.430560	4708.939287
409.811399	4634.738544
410.192176	4800.055622
410.572891	4737.532712
410.953545	4841.466181
411.334138	4721.728694
411.714669	4792.279642
412.095139	4683.678065
412.475547	4830.330272
412.855894	4805.850429
413.236180	4817.011543
413.616405	4769.957413
413.996568	4860.471331
414.376670	4799.329696
414.756711	4753.611472
415.136691	4786.358807
415.516609	4862.732288
415.896466	4900.755191
416.276262	4938.667188
416.655997	4916.748252
417.035670	5098.244913
417.415283	5190.167833
417.794834	5129.006034
418.174324	5087.855095
418.553753	4995.183564
418.933121	5178.172408
419.312428	5245.698663
419.691674	5186.699519
420.070859	5315.926978
420.449983	5223.613368
420.829045	5337.916491
421.208047	5246.570783
421.586988	5318.482843
421.965867	5327.193957
422.344686	5463.229493
422.723444	5318.495446
423.102141	5135.244462
423.480777	5431.281181
423.859352	5203.917580
424.237866	5458.780675
424.616319	5448.907575
424.994712	5559.818001
425.373044	5440.022541
425.751314	5580.408594
426.129524	5381.386360
426.507673	5577.179735
426.885762	5661.319113
427.263789	5592.540130
427.641756	5475.171987
428.019662	5595.138845
428.397508	5602.773673
428.775292	5549.130755
429.153016	5652.552546
429.530679	5577.991360
429.908282	5665.747767
430.285824	5537.420154
430.663305	5807.192461
431.040726	5540.931318
431.418086	5541.455598
431.795385	5646.246063
432.172624	5660.043701
432.549802	5654.087578
432.926920	5667.025699
433.303977	5668.585936
433.680974	5712.701073
434.057910	5733.387448
434.434786	5737.634620
434.811601	5705.252769
435.188355	5942.058450
435.565050	5812.294109
435.941683	5792.053876
436.318257	6009.110837
436.694770	5997.047356
437.071222	6025.272777
437.447614	5963.412778
437.823946	5873.564293
438.200218	6027.264032
438.576429	5895.203446
438.952580	5994.481409
439.328670	6033.764600
439.704700	5943.371671
440.080670	5928.172592
440.456580	6201.456062
440.832429	6083.208237
441.208218	5928.744763
441.583947	6084.322332
441.959616	6087.309216
442.335224	6014.288102
442.710773	6153.434031
443.086261	6178.435633
443.461689	5970.079704
443.837057	6122.723322
444.212365	6273.486589
444.587612	6165.376524
444.962800	6320.709598
445.337927	6303.715868
445.712995	5915.930150
446.088002	6490.641853
446.462949	6322.877294
446.837837	6255.751810
447.212664	6424.451503
447.587431	6570.622279
447.962139	7112.448015
448.336786	8039.906897
448.711374	7777.943337
449.085901	6856.024683
449.460369	6772.696931
449.834776	6708.765018
450.209124	7096.762465
450.583412	7250.893223
450.957640	7393.998978
451.331808	7161.178329
451.705917	6712.485389
452.079965	6631.622761
452.453954	6846.270051
452.827883	6724.110290
453.201752	6816.713766
453.575562	6618.367047
453.949311	6821.170146
454.323001	6713.123095
454.696632	6782.091121
455.070202	6921.703356
455.443713	7075.682880
455.817164	7177.723396
456.190556	7261.391426
456.563888	7337.013775
456.937160	7379.271247
457.310373	7031.678648
457.683526	7060.372896
458.056619	6948.761750
458.429653	6938.843279
458.802628	6876.237190
459.175542	6979.563200
459.548398	7338.427818
459.921194	7499.631316
460.293930	7503.371852
460.666607	8028.579424
461.039224	8334.862288
461.411782	8466.128893
461.784280	8482.343764
462.156719	8367.833954
462.529099	8257.213395
462.901419	7843.261567
463.273680	7732.734269
463.645882	7747.608194
464.018024	7617.170859
464.390106	7777.008203
464.762130	8160.708066
465.134094	8633.104511
465.505999	9660.718517
465.877845	10883.127748
466.249631	11532.602283
466.621358	11143.231122
466.993026	10513.046562
467.364634	10261.566082
467.736184	9899.951514
468.107674	9568.130165
468.479105	9599.483621
468.850477	9362.972847
469.221790	9135.505903
469.593043	8802.835120
469.964238	8665.375457
470.335373	8678.802571
470.706449	8736.768278
471.077467	8719.920742
471.448425	10029.098313
471.819324	11095.660274
472.190164	11122.948040
472.560945	9876.298420
472.931667	9081.515146
473.302330	8952.242317
473.672934	8594.645548
474.043479	8954.939334
474.413965	8895.678050
474.784393	8781.407695
475.154761	8935.969472
475.525070	9026.306949
475.895321	8846.463786
476.265513	9032.782311
476.635645	9192.728041
477.005719	9194.822640
477.375734	9309.450917
477.745691	9547.027895
478.115588	9675.862143
478.485427	9926.919166
478.855207	10460.795002
479.224928	11271.520926
479.594591	11907.187741
479.964194	11713.831764
480.333739	11653.020325
480.703226	11570.015207
481.072653	11660.398054
481.442022	11900.178016
481.811333	12084.855646
482.180584	11890.894731
482.549777	11602.535690
482.918912	11429.125039
483.287988	11446.670775
483.657005	11452.989861
484.025964	11138.283230
484.394864	11270.792479
484.763706	11245.919426
485.132489	10998.461787
485.501213	10964.444080
485.869879	11038.526357
486.238487	10879.593899
486.607036	10989.617082
486.975527	10777.616398
487.343959	10964.643206
487.712333	11012.201451
488.080648	10940.682602
488.448905	10983.776905
488.817104	10922.662997
489.185244	11191.757269
489.553326	11346.472801
489.921350	11878.180941
490.289315	12945.466307
490.657222	13288.242084
491.025070	13201.927448
491.392861	13074.038416
491.760593	12687.994416
492.128267	12338.574399
492.495883	12003.922442
492.863440	11672.665702
493.230939	11335.992242
493.598380	11269.527149
493.965763	11137.345575
494.333088	11037.901254
494.700354	10963.191354
495.067563	11019.342246
495.434713	10849.097439
495.801805	10976.074022
496.168839	10898.162990
496.535815	10842.077633
496.902733	10842.687612
497.269593	10772.965934
497.636395	10873.375636
498.003139	10856.550785
498.369825	10730.869779
498.736453	10881.433921
499.103023	10820.408233
499.469535	10839.355409
499.835989	10826.238327
500.202385	10791.582915
500.568723	10646.674948
500.935003	10865.269461
501.301226	10672.130254
501.667390	10930.930490
502.033497	11030.216015
502.399546	10880.491225
502.765537	10791.572833
503.131470	10871.137364
503.497345	11043.517099
503.863163	10652.636112
504.228923	10961.328647
504.594625	11025.237875
504.960269	10771.940059
505.325856	10993.496250
505.691385	10788.974118
506.056856	10940.322159
506.422270	10966.604215
506.787625	10856.999448
507.152924	10973.026645
507.518164	10958.959305
507.883347	10872.473270
508.248472	10792.792792
508.613540	11027.869357
508.978550	10910.571790
509.343503	10890.220652
509.708398	11007.021666
510.073236	11123.270673
510.438016	11128.372321
510.802738	11072.062633
511.167403	11120.180446
511.532010	11020.970538
511.896561	11256.848648
512.261053	11324.624440
512.625488	11202.668847
512.989866	11186.753924
513.354186	11170.667602
513.718449	11067.913763
514.082655	11258.245047
514.446803	11155.682772
514.810894	11277.923191
515.174927	11136.007149
515.538904	11164.887919
515.902822	11318.577576
516.266684	11204.430730
516.630488	11147.077522
516.994235	11199.974350
517.357925	11259.737229
517.721558	11350.563698
518.085133	11366.776048
518.448651	11376.974302
518.812112	11258.323185
519.175516	11274.661565
519.538863	11395.271170
519.902152	11313.612040
520.265385	11476.005249
520.628560	11385.516538
520.991678	11369.110102
521.354739	11433.452870
521.717743	11357.971673
522.080690	11342.951555
522.443580	11474.757564
522.806413	11429.873650
523.169189	11470.102058
523.531908	11523.235820
523.894569	11342.094559
524.257174	11347.884324
524.619722	11465.771707
524.982213	11412.264900
525.344647	11456.380037
525.707025	11410.702142
526.069345	11509.050013
526.431608	11419.745972
526.793815	11533.910463
527.155964	11318.834675
527.518057	11374.040351
527.880093	11322.786940
528.242072	11395.094730
528.603995	11297.971860
528.965860	11216.728625
529.327669	11273.386153
529.689421	11222.132742
530.051117	11192.389934
530.412755	11282.755137
530.774337	11182.060610
531.135862	11162.816005
531.497331	11187.522700
531.858743	11038.546521
532.220098	11207.407531
532.581396	11072.249155
532.942638	11062.164327
533.303824	11016.655311
533.664953	11038.695235
534.026025	10945.363313
534.387040	11044.094311
534.747999	11053.715353
535.108902	11104.751995
535.469748	10872.289268
535.830537	10978.085443
536.191270	10956.678183
536.551947	10972.159566
536.912567	10977.019239
537.273131	10903.103320
537.633638	10874.167097
537.994089	10861.428102
538.354483	10817.527213
538.714821	10958.586260
539.075103	10966.533639
539.435328	10931.127095
539.795497	10763.899419
540.155609	10923.179716
540.515665	11006.202478
540.875665	10740.228681
541.235609	10809.347941
541.595496	10802.522219
541.955328	10959.889398
542.315102	10844.656183
542.674821	10788.570826
543.034483	10790.047884
543.394090	10792.034098
543.753640	10724.044056
544.113134	10947.233581
544.472571	10800.026848
544.831953	10941.065729
545.191278	10751.437686
545.550548	10775.141192
545.909761	10920.719633
546.268918	10892.857175
546.628019	10970.054885
546.987064	10837.505306
547.346053	10756.347770
547.704986	10854.499036
548.063863	10851.567605
548.422684	10839.052940
548.781449	10752.697975
549.140158	10856.691937
549.498811	10732.578730
549.857408	10590.488768
550.215949	10818.905969
550.574434	10673.173773
550.932864	10771.937538
551.291237	10832.953144
551.649555	10773.827971
552.007817	10792.180292
552.366022	10748.891904
552.724173	10746.782181
553.082267	10731.510005
553.440305	10868.825995
553.798288	10668.170428
554.156215	10824.662967
554.514086	10799.868051
554.871902	10652.694085
555.229661	10687.846051
555.587365	10658.776237
555.945014	10551.918899
556.302606	10684.765906
556.660143	10569.444471
557.017625	10728.823070
557.375050	10621.257450
557.732421	10756.471278
558.089735	10676.606799
558.446994	10668.921560
558.804197	10708.945801
559.161345	10711.647859
559.518437	10555.644312
559.875474	10648.134362
560.232455	10680.299444
560.589381	10626.333892
560.946251	10626.470003
561.303065	10736.397404
561.659825	10665.362505
562.016528	10600.077042
562.373177	10473.748247
562.729770	10599.565365
563.086307	10511.415749
563.442789	10603.855387
563.799216	10485.254681
564.155587	10535.431806
564.511904	10480.480708
564.868164	10477.181273
565.224370	10486.401543
565.580520	10412.704915
565.936615	10415.704402
566.292654	10289.675556
566.648638	10414.663404
567.004567	10379.332477
567.360441	10359.608962
567.716260	10271.295509
568.072023	10370.109686
568.427732	10316.305451
568.783385	10227.480320
569.138982	10305.096445
569.494525	10306.442433
569.850013	10188.870123
570.205445	10270.811558
570.560823	10164.246607
570.916145	10081.654863
571.271412	10153.050204
571.626625	10100.024828
571.981782	10073.420138
572.336884	10046.880984
572.691931	10056.368435
573.046923	10002.319704
573.401860	9958.610380
573.756743	9892.241069
574.111570	9934.833778
574.466342	9922.520759
574.821059	9948.303741
575.175722	9832.712604
575.530330	9842.174849
575.884882	9841.857257
576.239380	9766.958313
576.593823	9738.155681
576.948211	9760.387169
577.302544	9640.427872
577.656823	9653.875150
578.011047	9655.765583
578.365216	9633.776070
578.719330	9555.698679
579.073389	9567.358868
579.427394	9514.832566
579.781344	9495.388835
580.135239	9439.694167
580.489080	9450.071383
580.842866	9351.068162
581.196597	9361.160552
581.550273	9401.406604
581.903895	9360.974030
582.257463	9434.020349
582.610975	9312.790681
582.964434	9338.669444
583.317837	9264.834185
583.671186	9243.941123
584.024481	9231.504596
584.377721	9153.878388
584.730906	9130.245459
585.084037	9163.847270
585.437113	9098.650028
585.790135	9115.497564
586.143103	9015.380248
586.496016	8993.670519
586.848874	9046.774034
587.201679	9038.635091
587.554428	8922.280219
587.907124	8968.069019
588.259765	8941.461809
588.612352	8939.909134
588.964884	8818.825660
589.317362	8834.589348
589.669786	8829.535591
590.022155	8881.081389
590.374470	8896.691322
590.726731	8830.148091
591.078937	8689.527625
591.431090	8797.158781
591.783188	8672.165892
592.135232	8667.351590
592.487222	8661.224067
592.839157	8714.446049
593.191038	8648.399372
593.542866	8598.350796
593.894639	8497.772215
594.246358	8548.085451
594.598022	8562.956855
594.949633	8457.170762
595.301190	8431.972555
595.652692	8462.264848
596.004141	8577.104853
596.355535	8353.015483
596.706876	8331.550250
597.058162	8267.996423
597.409395	8341.937547
597.760573	8412.327178
598.111698	8315.287487
598.462768	8305.429511
598.813785	8263.575331
599.164748	8232.945280
599.515657	8222.129485
599.866511	8136.916341
600.217312	8254.410513
600.568060	8120.341027
600.918753	8219.250986
601.269392	8193.876338
601.619978	8102.777647
601.970510	8169.094026
602.320988	8166.820465
602.671412	8218.083959
603.021783	8158.003487
603.372100	8131.839899
603.722363	8132.626319
604.072572	8106.253522
604.422728	8118.579144
604.772830	8048.807054
605.122878	8056.174700
605.472872	8045.104326
605.822813	8083.530522
606.172701	8025.486676
606.522534	8101.867719
606.872314	8102.933923
607.222041	8066.713232
607.571714	8123.189279
607.921333	8082.502126
608.270899	8085.569668
608.620411	8176.643154
608.969870	8083.838032
609.319276	8076.437618
609.668627	8093.459074
610.017926	8123.113662
610.367171	8172.582504
610.716362	8153.355543
611.065500	8144.341960
611.414585	8165.146802
611.763616	8158.731934
612.112594	8138.920199
612.461518	8154.560379
612.810389	8210.723874
613.159207	8155.190523
613.507971	8101.935774
613.856682	8226.953869
614.205340	8178.571395
614.553945	8259.255062
614.902496	8152.644741
615.250994	8211.522897
615.599439	8187.776542
615.947830	8201.758182
616.296169	8177.177516
616.644454	8187.761418
616.992686	8189.644289
617.340864	8242.120180
617.688990	8146.363463
618.037063	8246.188392
618.385082	8186.307046
618.733048	8272.820807
619.080961	8213.748567
619.428821	8229.968479
619.776628	8237.867967
620.124382	8183.552055
620.472083	8171.360024
620.819731	8199.555198
621.167326	8088.959844
621.514868	8101.615661
621.862357	7989.190368
622.209793	8002.635126
622.557176	7934.995444
622.904506	7905.726505
623.251783	7841.802153
623.599007	7795.542005
623.946179	7802.455948
624.293297	7753.753360
624.640363	7678.478851
624.987376	7656.128896
625.334336	7603.516893
625.681243	7552.754995
626.028097	7542.929786
626.374899	7513.426433
626.721647	7517.076228
627.068343	7445.648120
627.414987	7416.190137
627.761577	7366.411263
628.108115	7405.636482
628.454600	7299.726880
628.801032	7354.811568
629.147412	7306.235010
629.493739	7304.604197
629.840014	7236.052066
630.186236	7291.812269
630.532405	7172.682242
630.878521	7227.870273
631.224585	7187.364602
631.570597	7108.992304
631.916556	7138.026830
632.262462	7138.130173
632.608316	7097.382527
632.954117	7078.132881
633.299866	7066.812970
633.645562	7055.931639
633.991206	6977.082952
634.336797	6917.771256
634.682336	6876.816923
635.027823	6842.244689
635.373257	6834.020047
635.718639	6766.781137
636.063968	6779.300843
636.409245	6676.035327
636.754470	6673.973495
637.099642	6628.746783
637.444762	6578.030255
637.789829	6582.436223
638.134845	6529.892277
638.479808	6511.144225
638.824719	6512.006263
639.169577	6439.549758
639.514383	6462.532379
639.859137	6386.302571
640.203839	6395.888325
640.548489	6380.911057
640.893086	6366.216093
641.237632	6333.279715
641.582125	6356.073292
641.926566	6323.855278
642.270955	6335.986814
642.615292	6336.259037
642.959576	6348.367888
643.303809	6336.561506
643.647990	6344.024934
643.992118	6335.026475
644.336195	6278.777280
644.680219	6301.311238
645.024192	6300.565147
645.368112	6391.784826
645.711981	6415.117806
646.055797	6491.655125
646.399562	6452.515606
646.743274	6574.239307
647.086935	6627.816690
647.430544	6620.196986
647.774101	6643.650954
648.117606	6650.058261
648.461059	6641.011910
648.804460	6603.278874
649.147810	6512.565831
649.491108	6480.544422
649.834354	6455.399146
650.177548	6372.293204
650.520690	6287.047293
650.863781	6264.253716
651.206820	6287.480832
651.549807	6206.066197
651.892742	6148.823896
652.235626	6155.445451
652.578458	6140.629500
652.921238	6046.778339
653.263967	6090.336429
653.606644	6026.719588
653.949269	6032.597573
654.291843	5970.730013
654.634365	6016.783473
654.976836	5976.507175
655.319255	5978.006918
655.661622	5956.193845
656.003938	5952.639832
656.346203	5913.885962
656.688416	5942.285302
657.030577	5894.613631
657.372687	5865.001893
657.714746	5846.747875
658.056753	5895.606738
658.398708	5834.933931
658.740612	5824.927240
659.082465	5873.075301
659.424266	5867.058684
659.766016	5863.600452
660.107715	5838.082131
660.449362	5855.590059
660.790958	5846.359706
661.132503	5837.187327
661.473996	5872.520774
661.815438	5860.558116
662.156829	5861.021902
662.498168	5848.386250
662.839456	5823.629143
663.180693	5853.868505
663.521879	5857.394792
663.863013	5846.894068
664.204097	5873.090424
664.545129	5908.723820
664.886110	5899.022120
665.227040	5940.513336
665.567918	5904.007821
665.908746	5930.632675
666.249522	5937.160969
666.590248	5922.057672
666.930922	5953.635460
667.271545	5964.973015
667.612118	5968.481658
667.952639	5942.139108
668.293109	5961.572757
668.633528	5921.029277
668.973896	5923.817035
669.314213	5915.262197
669.654480	5897.071193
669.994695	5886.300768
670.334859	5878.497062
670.674973	5868.145052
671.015035	5878.348348
671.355047	5873.367688
671.695008	5858.203897
672.034918	5835.347305
672.374777	5842.951886
672.714585	5829.018137
673.054342	5834.024003
673.394049	5826.986552
673.733705	5862.998034
674.073310	5843.939952
674.412864	5803.335978
674.752368	5793.001613
675.091820	5797.165606
675.431223	5730.932406
675.770574	5737.455659
676.109875	5686.557650
676.449125	5692.513773
676.788324	5661.435059
677.127473	5602.025061
677.466571	5591.209266
677.805619	5586.853709
678.144616	5567.344443
678.483562	5548.377102
678.822458	5514.026680
679.161303	5514.150188
679.500098	5504.173745
679.838842	5481.138192
680.177535	5490.897866
680.516179	5502.164845
680.854771	5516.080950
681.193314	5596.721767
681.531805	5705.764446
681.870247	5861.231110
682.208638	5960.625020
682.546978	5974.621783
682.885268	5952.823834
683.223508	5861.084916
683.561697	5809.203882
683.899836	5778.825888
684.237925	5735.129167
684.575963	5698.608528
684.913951	5661.540924
685.251889	5720.668617
685.589776	5688.012022
685.927614	5659.680738
686.265401	5733.790741
686.603137	5714.742741
686.940824	5787.494153
687.278460	5813.705632
687.616046	5821.819369
687.953582	5892.607251
688.291068	5872.926587
688.628504	5936.941679
688.965889	5904.499333
689.303224	5844.141598
689.640510	5797.248785
689.977745	5722.669955
690.314930	5623.830572
690.652065	5565.935441
690.989150	5474.186441
691.326185	5398.246499
691.663170	5347.935784
692.000105	5270.806130
692.336990	5190.399726
692.673825	5169.277292
693.010610	5095.003452
693.347345	5024.210528
693.684030	5013.125031
694.020665	4971.008711
694.357251	4882.856574
694.693786	4896.838214
695.030272	4858.409499
695.366707	4823.466741
695.703093	4790.389210
696.039429	4808.093742
696.375716	4793.572698
696.711952	4768.986991
697.048139	4756.820166
697.384276	4735.120520
697.720363	4748.235081
698.056400	4758.294704
698.392388	4707.994071
698.728326	4686.833827
699.064214	4665.416485
699.400053	4661.000435
699.735842	4622.939723
700.071581	4599.644551
700.407270	4572.324018
700.742910	4556.424219
701.078501	4504.485211
701.414042	4500.643851
701.749533	4473.797187
702.084974	4405.270262
702.420366	4460.695228
702.755709	4405.892844
703.091002	4345.398998
703.426246	4397.796751
703.761440	4355.440977
704.096584	4314.141324
704.431679	4336.360209
704.766725	4317.818845
705.101721	4309.216116
705.436668	4339.775591
705.771565	4283.544040
706.106413	4311.739214
706.441212	4344.955377
706.775961	4353.974001
707.110661	4336.181248
707.445311	4368.069067
707.779913	4383.114391
708.114465	4399.760281
708.448967	4425.051749
708.783421	4484.741532
709.117825	4525.370711
709.452180	4531.064694
709.786485	4576.735028
710.120742	4662.517822
710.454949	4643.797497
710.789107	4709.647569
711.123216	4787.598931
711.457275	4778.517292
711.791286	4853.703582
712.125247	4866.906363
712.459159	4768.266106
712.793023	4846.361141
713.126837	4804.542249
713.460602	4797.240138
713.794318	4717.347932
714.127985	4725.612903
714.461602	4638.126199
714.795171	4612.086119
715.128691	4545.137075
715.462162	4487.816635
715.795584	4439.449285
716.128957	4422.243827
716.462281	4371.023183
716.795556	4341.212320
717.128782	4300.474756
717.461960	4236.744489
717.795088	4245.344697
718.128167	4204.400446
718.461198	4146.419615
718.794180	4140.939880
719.127113	4120.119915
719.459997	4098.054785
719.792833	4056.966860
720.125619	4045.503276
720.458357	4010.827700
720.791046	4015.150489
721.123686	3989.518742
721.456278	3947.939305
721.788821	3967.100731
722.121315	3938.177111
722.453761	3914.579470
722.786158	3925.876696
723.118506	3950.220427
723.450805	3900.199578
723.783056	3922.103392
724.115259	3939.807924
724.447412	3940.498562
724.779518	3936.775670
725.111574	3938.532512
725.443582	3968.829847
725.775542	3955.362404
726.107453	4004.937111
726.439315	4004.241432
726.771129	4022.926469
727.102895	4058.383424
727.434612	4100.961010
727.766281	4117.009523
728.097901	4118.098412
728.429473	4123.620996
728.760996	4130.837408
729.092471	4127.003611
729.423897	4104.908233
729.755276	4116.896097
730.086606	4114.224286
730.417887	4155.579391
730.749120	4217.366293
731.080305	4279.952218
731.411442	4309.997495
731.742530	4279.687558
732.073570	4281.948515
732.404562	4336.410621
732.735506	4329.448787
733.066401	4290.878919
733.397249	4227.241914
733.728048	4146.235612
734.058798	4066.373653
734.389501	3996.359588
734.720156	3931.550514
735.050762	3889.421592
735.381320	3881.953122
735.711831	3828.877334
736.042293	3802.305412
736.372707	3822.775017
736.703073	3795.313332
737.033391	3786.458545
737.363661	3804.604178
737.693883	3827.972447
738.024056	3837.235567
738.354182	3830.944207
738.684260	3901.064136
739.014290	3914.634922
739.344272	3912.721805
739.674207	3951.102629
740.004093	3962.442705
740.333931	3955.972384
740.663722	3955.160758
740.993464	3951.420222
741.323159	3930.393569
741.652806	3901.553128
741.982405	3871.538098
742.311956	3839.370496
742.641460	3830.472859
742.970915	3807.049138
743.300323	3769.074126
743.629683	3730.862180
743.958996	3721.651992
744.288260	3698.142571
744.617477	3660.490192
744.946647	3648.542658
745.275768	3623.896457
745.604842	3625.149183
745.933869	3574.742686
746.262847	3565.000656
746.591778	3603.472222
746.920662	3577.333839
747.249498	3543.227913
747.578286	3589.974532
747.907027	3610.101339
748.235720	3603.520113
748.564365	3628.446098
748.892963	3632.095893
749.221514	3609.652677
749.550017	3589.412444
749.878473	3588.842793
750.206881	3557.438926
750.535242	3559.939338
750.863555	3554.227711
751.191821	3550.419119
751.520039	3531.431613
751.848210	3505.515041
752.176334	3540.677089
752.504411	3553.620252
752.832440	3508.262470
753.160421	3492.962568
753.488356	3501.822396
753.816243	3515.751104
754.144082	3469.291830
754.471875	3454.178451
754.799620	3473.629743
755.127318	3463.514668
755.454969	3466.004998
755.782572	3469.979948
756.110129	3448.436577
756.437638	3440.156481
756.765100	3450.306845
757.092515	3466.705718
757.419882	3469.687561
757.747203	3441.628498
758.074477	3445.888273
758.401703	3461.707414
758.728882	3484.223728
759.056014	3485.090806
759.383099	3492.095489
759.710138	3487.568533
760.037129	3503.082684
760.364073	3534.524361
760.690970	3518.614479
761.017820	3496.561952
761.344623	3518.556506
761.671379	3562.003690
761.998088	3611.495218
762.324751	3744.806011
762.651366	3989.806088
762.977935	4462.746977
763.304456	4909.766253
763.630931	5007.128578
763.957359	4646.428979
764.283740	4299.096000
764.610074	4105.631639
764.936362	3907.194179
765.262602	3749.537134
765.588796	3640.403715
765.914943	3545.067934
766.241044	3459.534677
766.567097	3429.451591
766.893104	3382.359653
767.219064	3349.957636
767.544978	3325.560972
767.870845	3268.893362
768.196665	3248.698499
768.522438	3257.817947
768.848165	3251.700507
769.173846	3219.628686
769.499479	3202.224102
769.825066	3181.895649
770.150607	3166.653721
770.476101	3181.527645
770.801548	3179.493539
771.126949	3133.724904
771.452303	3115.196143
771.777611	3121.681587
772.102872	3126.473204
772.428087	3104.576952
772.753256	3093.272165
773.078378	3085.029878
773.403453	3049.424208
773.728482	3039.578835
774.053465	3056.562482
774.378401	3046.134856
774.703291	3015.172089
775.028135	3016.661750
775.352932	3010.942561
775.677683	3001.119872
776.002388	2995.168790
776.327046	2999.841940
776.651658	2987.841473
776.976224	2975.359576
777.300743	2978.185143
777.625216	2965.123513
777.949643	2961.498924
778.274024	2965.131075
778.598359	2955.462142
778.922647	2956.021710
779.246889	2957.229066
779.571086	2942.246757
779.895236	2935.854574
780.219339	2946.141048
780.543397	2958.786783
780.867409	2964.354737
781.191374	2953.561627
781.515294	2951.577933
781.839167	2952.097172
782.162995	2944.956377
782.486776	2955.129426
782.810511	2950.110957
783.134201	2937.119904
783.457844	2940.953701
783.781441	2933.941456
784.104993	2915.326996
784.428498	2914.175092
784.751958	2929.260745
785.075372	2924.723706
785.398739	2910.280801
785.722061	2924.708583
786.045337	2934.841302
786.368568	2919.778334
786.691752	2909.983373
787.014891	2960.284006
787.337983	2989.709221
787.661030	3019.348685
787.984031	3085.102975
788.306987	3132.300778
788.629897	3124.618059
788.952760	3108.710698
789.275579	3095.515478
789.598351	3033.794111
789.921078	2987.518839
790.243759	2979.737818
790.566395	2962.171918
790.888984	2939.832044
791.211529	2922.372008
791.534027	2911.271387
791.856480	2902.729152
792.178888	2887.169631
792.501249	2881.153014
792.823566	2874.531458
793.145836	2875.267467
793.468062	2868.633308
793.790241	2868.658514
794.112375	2874.218907
794.434464	2885.753067
794.756507	2891.663819
795.078505	2897.423338
795.400457	2910.517735
795.722364	2944.230451
796.044226	2972.833958
796.366042	2973.887559
796.687812	2963.434727
797.009538	2983.523725
797.331218	2970.446972
797.652852	2954.390897
797.974442	2938.622168
798.295986	2934.251487
798.617484	2930.261414
798.938938	2912.975297
799.260346	2897.503996
799.581709	2893.317318
799.903026	2885.453118
800.224299	2880.429608
800.545526	2868.923174
800.866708	2855.576720
801.187845	2843.714885
801.508936	2844.748321
801.829983	2851.768128
802.150984	2840.468382
802.471940	2827.172338
802.792851	2826.038079
803.113717	2827.164777
803.434538	2835.339007
803.755314	2825.831391
804.076045	2815.446614
804.396731	2816.681697
804.717372	2818.191523
805.037967	2815.761687
805.358518	2821.281750
805.679024	2831.275837
805.999485	2828.351968
806.319901	2828.684684
806.640272	2823.189827
806.960598	2829.148471
807.280879	2839.082064
807.601115	2845.171778
807.921306	2835.807835
808.241453	2830.749037
808.561554	2836.387567
808.881611	2837.602486
809.201623	2831.112000
809.521590	2830.277689
809.841513	2824.881134
810.161390	2831.651403
810.481223	2823.852738
810.801011	2814.188847
811.120755	2812.719350
811.440453	2815.267653
811.760107	2813.515852
812.079716	2813.929227
812.399281	2802.702577
812.718801	2796.028090
813.038276	2789.036009
813.357707	2797.152267
813.677093	2803.899852
813.996434	2798.838533
814.315731	2793.880558
814.634983	2789.096503
814.954191	2792.360650
815.273354	2802.155612
815.592473	2810.738177
815.911547	2813.321768
816.230577	2823.953562
816.549562	2832.543688
816.868502	2828.861125
817.187399	2841.194308
817.506250	2859.229036
817.825058	2851.392562
818.143821	2866.231198
818.462539	2880.182592
818.781213	2908.471026
819.099843	2945.878908
819.418429	3000.683813
819.736970	3063.151270
820.055466	3139.272693
820.373919	3245.993920
820.692327	3383.544324
821.010691	3553.920200
821.329011	4005.776463
821.647286	4913.433693
821.965517	6306.594367
822.283704	7066.182826
822.601847	7046.968468
822.919945	6410.306025
823.237999	5888.753289
823.556010	5302.978774
823.873976	4748.285493
824.191897	4327.094568
824.509775	4029.507695
824.827609	3755.364708
825.145398	3630.923825
825.463144	3617.973101
825.780845	3711.103377
826.098502	3815.626661
826.416116	4104.857822
826.733685	4423.247016
827.051210	4487.231862
827.368692	4370.667782
827.686129	4101.676854
828.003522	3772.071092
828.320872	3510.462933
828.638177	3316.252482
828.955439	3176.791481
829.272656	3090.834767
829.589830	3025.914788
829.906960	2973.983341
830.224046	2928.186979
830.541088	2895.868142
830.858086	2877.024309
831.175041	2857.794827
831.491952	2861.984026
831.808819	2876.149668
832.125642	2898.897875
832.442421	2944.774896
832.759157	3027.364119
833.075849	3208.190308
833.392497	3487.873523
833.709101	3696.234494
834.025662	3647.257164
834.342179	3485.020230
834.658653	3305.887869
834.975083	3154.287770
835.291469	3056.817061
835.607811	2970.502424
835.924110	2910.847930
836.240366	2859.692822
836.556578	2817.775627
836.872746	2794.172945
837.188871	2772.286776
837.504952	2755.308170
837.820990	2746.811305
838.136984	2732.101218
838.452935	2724.973026
838.768842	2721.197202
839.084706	2739.234451
839.400526	2818.166317
839.716303	2954.363170
840.032037	3038.875594
840.347727	3022.328007
840.663373	2958.270065
840.978977	2884.152500
841.294537	2812.374031
841.610054	2762.466608
841.925527	2738.616909
842.240957	2716.398024
842.556344	2697.120651
842.871687	2679.441325
843.186987	2670.647032
843.502244	2665.494973
843.817458	2659.029693
844.132629	2649.864875
844.447756	2642.025881
844.762840	2635.802577
845.077881	2636.410036
845.392879	2633.667648
845.707833	2632.263687
846.022745	2620.059053
846.337613	2625.737913
846.652438	2623.156842
846.967221	2622.625000
847.281960	2624.505351
847.596656	2624.167593
847.911309	2617.493106
848.225919	2615.254833
848.540485	2614.670060
848.855009	2612.157044
849.169490	2614.763321
849.483928	2614.944802
849.798323	2615.211984
850.112675	2610.201077
850.426984	2614.158382
850.741251	2612.361211
851.055474	2612.525049
851.369654	2615.978239
851.683792	2615.842128
851.997887	2610.919441
852.311938	2611.292487
852.625947	2611.791561
852.939914	2615.227107
853.253837	2616.313476
853.567718	2613.775255
853.881555	2612.099071
854.195350	2614.581839
854.509103	2614.254164
854.822812	2610.264091
855.136479	2610.874071
855.450103	2612.159565
855.763685	2617.107457
856.077224	2612.449431
856.390720	2610.070007
856.704173	2610.627054
857.017584	2617.150307
857.330953	2617.205760
857.644278	2621.871348
857.957561	2622.493930
858.270802	2617.316665
858.584000	2613.926489
858.897155	2620.328755
859.210268	2617.994701
859.523339	2614.143259
859.836367	2610.453134
860.149352	2611.171499
860.462295	2610.987497
860.775195	2610.579163
861.088054	2609.530603
861.400869	2608.746704
861.713642	2602.803183
862.026373	2606.410129
862.339062	2609.495315
862.651708	2614.113012
862.964312	2616.290791
863.276873	2614.612086
863.589392	2615.907663
863.901869	2620.474948
864.214303	2624.351596
864.526696	2629.826289
864.839045	2632.571197
865.151353	2631.179838
865.463619	2632.893831
865.775842	2631.147071
866.088023	2635.376599
866.400162	2632.319139
866.712258	2632.480456
867.024313	2628.490383
867.336325	2628.442492
867.648296	2628.477780
867.960224	2637.045221
868.272110	2633.980199
868.583954	2627.744292
868.895755	2628.553397
869.207515	2633.249232
869.519233	2640.523617
869.830909	2638.126548
870.142542	2629.793521
870.454134	2630.343007
870.765684	2637.854326
871.077191	2640.022022
871.388657	2643.686941
871.700081	2646.139462
872.011463	2642.086375
872.322803	2643.870943
872.634101	2649.249854
872.945357	2657.512306
873.256571	2659.485917
873.567744	2659.468273
873.878874	2657.383756
874.189963	2659.122954
874.501010	2664.718635
874.812015	2667.682833
875.122979	2665.406752
875.433900	2660.456339
875.744780	2657.492141
876.055618	2664.325425
876.366415	2667.002278
876.677169	2668.766682
876.987882	2662.568583
877.298554	2659.705207
877.609183	2674.679955
877.919771	2681.208249
878.230317	2683.396110
878.540822	2696.031762
878.851285	2712.758311
879.161707	2736.648339
879.472087	2775.669390
879.782425	2824.654282
880.092722	2941.984617
880.402977	3132.789770
880.713191	3400.008732
881.023363	3701.245401
881.333494	3896.073394
881.643583	4071.629056
881.953631	4071.485383
882.263637	3892.378228
882.573602	3666.705935
882.883526	3532.797766
883.193408	3415.222934
883.503248	3311.637305
883.813048	3194.097762
884.122806	3077.884043
884.432522	2987.009683
884.742197	2919.521236
885.051831	2881.531100
885.361424	2843.596417
885.670975	2806.402784
885.980485	2776.004627
886.289954	2759.847729
886.599382	2748.162334
886.908768	2732.743965
887.218113	2714.500029
887.527417	2699.731969
887.836680	2692.452543
888.145901	2687.693694
888.455082	2676.764472
888.764221	2666.667041
889.073319	2660.917605
889.382376	2658.359219
889.691392	2661.749395
890.000366	2659.899292
890.309300	2657.116575
890.618193	2660.262255
890.927044	2663.231495
891.235855	2662.699653
891.544625	2661.250321
891.853353	2661.915753
892.162041	2669.853050
892.470687	2691.391380
892.779293	2703.117104
893.087858	2714.056408
893.396381	2738.052300
893.704864	2777.169133
894.013306	2851.924404
894.321707	2946.751028
894.630068	3003.280007
894.938387	3021.004704
895.246665	3012.210411
895.554903	2967.066878
895.863100	2921.875454
896.171256	2862.004191
896.479371	2800.953297
896.787446	2760.974427
897.095480	2739.652866
897.403473	2733.742113
897.711425	2717.242417
898.019336	2697.639890
898.327207	2685.422654
898.635038	2683.133970
898.942827	2681.349402
899.250576	2671.549398
899.558284	2659.450629
899.865952	2655.258910
900.173579	2654.046512
900.481165	2649.890081
900.788711	2642.293062
901.096216	2634.496918
901.403681	2632.253604
901.711105	2634.814510
902.018489	2630.746299
902.325832	2633.481125
902.633135	2638.479429
902.940397	2652.997952
903.247619	2690.864579
903.554800	2760.664396
903.861941	2895.343862
904.169041	3025.425796
904.476101	3087.096751
904.783121	3082.615165
905.090100	3023.084180
905.397039	2946.100719
905.703938	2869.497866
906.010796	2804.257773
906.317614	2750.887078
906.624391	2713.489278
906.931129	2684.908456
907.237826	2660.784014
907.544483	2642.925727
907.851099	2632.122534
908.157675	2617.389762
908.464211	2611.199225
908.770707	2601.447113
909.077163	2596.973089
909.383578	2593.255238
909.689954	2593.028386
909.996289	2589.267685
910.302584	2589.567634
910.608839	2584.758373
910.915054	2584.629824
911.221229	2590.066708
911.527363	2591.740371
911.833458	2589.023189
912.139513	2591.395052
912.445527	2593.035948
912.751502	2598.593820
913.057436	2608.862650
913.363331	2610.627054
913.669186	2620.648868
913.975000	2634.907772
914.280775	2652.138436
914.586510	2673.223062
914.892205	2711.162785
915.197859	2780.869340
915.503475	2864.499562
915.809050	2934.369954
916.114585	2955.363839
916.420081	2966.411528
916.725536	2975.004175
917.030952	2947.882767
917.336328	2900.516086
917.641665	2846.674042
917.946961	2795.400466
918.252218	2762.769077
918.557435	2734.556260
918.862612	2711.951726
919.167750	2694.436237
919.472848	2677.949143
919.777906	2658.603715
920.082925	2648.695327
920.387904	2637.698050
920.692843	2628.046761
920.997743	2626.846967
921.302603	2618.329937
921.607423	2611.723505
921.912204	2608.363576
922.216946	2604.068513
922.521647	2599.294540
922.826310	2595.559045
923.130932	2590.669126
923.435516	2586.119485
923.740059	2584.115626
924.044564	2584.067735
924.349028	2582.636047
924.653454	2570.431414
924.957840	2569.972669
925.262186	2568.001578
925.566493	2569.453430
925.870761	2563.673747
926.174989	2566.854715
926.479178	2563.646021
926.783328	2564.901268
927.087438	2563.797256
927.391509	2560.838098
927.695541	2559.257697
927.999533	2555.446584
928.303486	2558.088149
928.607400	2557.349620
928.911275	2555.940617
929.215110	2555.176883
929.518906	2551.968188
929.822663	2554.065308
930.126381	2554.047664
930.430060	2558.254507
930.733699	2553.518343
931.037299	2554.221584
931.340861	2554.632438
931.644383	2556.298539
931.947866	2557.871379
932.251309	2556.928683
932.554714	2555.363405
932.858080	2555.428940
933.161407	2555.320555
933.464694	2553.185627
933.767943	2555.181924
934.071153	2552.910884
934.374323	2553.770401
934.677455	2553.972047
934.980548	2550.695297
935.283602	2552.489947
935.586617	2548.051212
935.889593	2552.328631
936.192530	2550.896943
936.495428	2552.855431
936.798287	2553.082283
937.101108	2555.426420
937.403890	2558.272151
937.706632	2564.039231
938.009336	2561.821123
938.312002	2569.055179
938.614628	2572.788153
938.917216	2574.655901
939.219765	2577.070614
939.522275	2577.398289
939.824747	2574.078689
940.127179	2572.515931
940.429573	2569.713050
940.731929	2567.555436
941.034246	2564.248439
941.336524	2567.525189
941.638763	2564.508058
941.940964	2565.221382
942.243126	2562.763819
942.545250	2564.203068
942.847335	2563.507389
943.149381	2559.741647
943.451389	2559.068653
943.753359	2559.587892
944.055290	2555.449105
944.357182	2556.875751
944.659036	2555.353323
944.960851	2557.352140
945.262628	2557.112686
945.564367	2554.438353
945.866067	2554.156049
946.167729	2556.870710
946.469352	2552.807540
946.770937	2556.543035
947.072484	2555.197047
947.373992	2556.369115
947.675462	2557.740309
947.976893	2555.713765
948.278286	2550.382745
948.579641	2553.006666
948.880958	2551.275029
949.182236	2552.857952
949.483476	2553.465411
949.784678	2552.429454
950.085841	2553.372149
950.386967	2554.224104
950.688054	2553.155380
950.989103	2552.421892
951.290114	2552.830225
951.591087	2556.951369
951.892021	2555.683518
952.192917	2555.192006
952.493776	2559.731565
952.794596	2560.714590
953.095378	2562.012687
953.396122	2560.903633
953.696828	2557.881462
953.997496	2560.954045
954.298126	2557.309291
954.598718	2554.718137
954.899272	2556.336348
955.199788	2551.968188
955.500266	2550.770914
955.800706	2548.081458
956.101108	2545.409647
956.401472	2543.181457
956.701798	2544.371169
957.002087	2540.572660
957.302337	2544.381252
957.602550	2545.936447
957.902724	2541.107022
958.202861	2542.359749
958.502960	2541.270860
958.803022	2541.384286
959.103045	2538.420087
959.403031	2541.906045
959.702979	2539.516538
960.002889	2540.799512
960.302762	2538.488143
960.602596	2539.753472
960.902393	2537.116949
961.202153	2536.247350
961.501875	2539.435880
961.801559	2535.813811
962.101205	2537.253060
962.400814	2540.260108
962.700385	2537.681558
962.999918	2539.423277
963.299414	2537.510159
963.598873	2538.460416
963.898293	2538.084850
964.197677	2537.941177
964.497022	2536.073430
964.796331	2535.186187
965.095601	2535.133255
965.394835	2534.339273
965.694030	2536.559901
965.993189	2537.686599
966.292309	2534.603934
966.591393	2535.624767
966.890439	2536.456558
967.189447	2539.289686
967.488419	2532.869777
967.787353	2537.749614
968.086249	2535.670138
968.385108	2535.350024
968.683930	2537.618544
968.982714	2532.007739
969.281462	2536.519572
969.580172	2536.328008
969.878844	2536.423790
970.177480	2533.822555
970.476078	2536.887576
970.774639	2539.831610
971.073162	2536.912782
971.371649	2533.663758
971.670098	2531.405322
971.968510	2531.959848
972.266885	2534.049407
972.565223	2538.455375
972.863524	2538.006712
973.161788	2539.766075
973.460014	2537.127031
973.758204	2536.433873
974.056356	2538.238606
974.354471	2536.746424
974.652550	2536.149047
974.950591	2536.869932
975.248595	2538.231044
975.546563	2536.045704
975.844493	2537.288348
976.142386	2536.285158
976.440243	2538.160468
976.738062	2535.418080
977.035845	2534.929088
977.333590	2538.241126
977.631299	2535.186187
977.928971	2534.906403
978.226606	2533.187369
978.524204	2535.027391
978.821765	2536.398584
979.119290	2537.023687
979.416777	2532.557225
979.714228	2537.127031
980.011642	2535.939839
980.309020	2539.829090
980.606360	2536.028060
980.903664	2537.905889
981.200931	2538.636857
981.498162	2537.724408
981.795356	2539.786240
982.092513	2542.256405
982.389633	2544.340922
982.686717	2546.463248
982.983764	2548.230173
983.280775	2552.366439
983.577749	2551.292673
983.874686	2549.397200
984.171587	2546.891746
984.468451	2544.787064
984.765279	2541.555685
985.062070	2540.441590
985.358824	2537.918492
985.655543	2539.335057
985.952224	2539.481250
986.248869	2539.030067
986.545478	2531.848943
986.842050	2534.170394
987.138586	2527.780732
987.435086	2530.210568
987.731549	2530.404653
988.027975	2532.577390
988.324366	2531.637215
988.620719	2532.937832
988.917037	2534.724921
989.213318	2533.958666
989.509563	2530.150074
989.805772	2533.573018
990.101944	2531.435568
990.398080	2533.071423
990.694180	2530.417255
990.990244	2529.678726
991.286271	2533.691485
991.582262	2532.320291
991.878217	2535.884387
992.174136	2532.935312
992.470019	2532.995806
992.765865	2534.467823
993.061676	2532.337935
993.357450	2533.303316
993.653188	2532.088398
993.948890	2535.266845
994.244556	2532.927750
994.540186	2533.767102
994.835780	2533.441948
995.131337	2533.303316
995.426859	2533.719211
995.722345	2536.363296
996.017795	2535.392874
996.313208	2538.001671
996.608586	2537.653832
996.903928	2539.070396
997.199234	2537.696682
997.494504	2537.069058
997.789738	2533.446989
998.084936	2535.844058
998.380099	2533.946063
998.675225	2534.692154
998.970316	2534.692154
999.265371	2533.764582
999.560390	2533.091587
999.855373	2533.205013
1000.150320	2534.525796
1000.445232	2532.413552
1000.740108	2531.533871
1001.034948	2531.727955
1001.329752	2531.198634
1001.624521	2530.888603
1001.919254	2527.924405
1002.213951	2528.685619
1002.508613	2528.705784
1002.803239	2529.522451
1003.097829	2527.412728
1003.392384	2530.092101
1003.686903	2528.962883
1003.981386	2533.119314
1004.275834	2530.288706
1004.570246	2532.683254
1004.864623	2530.490352
1005.158964	2530.538243
1005.453270	2526.316277
1005.747540	2531.869108
1006.041775	2531.493542
1006.335974	2531.082688
1006.630138	2528.073119
1006.924266	2531.619571
1007.218359	2528.040351
1007.512416	2530.548325
1007.806438	2530.235774
1008.100425	2533.341125
1008.394376	2530.258459
1008.688292	2530.142512
1008.982172	2527.528674
1009.276017	2531.864067
1009.569827	2528.393232
1009.863602	2530.482790
1010.157341	2528.476411
1010.451045	2531.763243
1010.744714	2528.441123
1011.038347	2529.162008
1011.331945	2528.473891
1011.625508	2529.512368
1011.919036	2531.238963
1012.212528	2529.053623
1012.505986	2527.672347
1012.799408	2533.580579
1013.092795	2530.664272
1013.386147	2528.990609
1013.679464	2528.604961
1013.972745	2529.237625
1014.265992	2529.139323
1014.559204	2531.589324
1014.852380	2530.969262
1015.145521	2531.317101
1015.438628	2526.233098
1015.731699	2530.117307
1016.024736	2528.778880
1016.317737	2530.835671
1016.610703	2530.518078
1016.903635	2527.601771
1017.196531	2525.567665
1017.489393	2526.212933
1017.782219	2526.084384
1018.075011	2530.036648
1018.367768	2528.335259
1018.660490	2528.204189
1018.953177	2528.204189
1019.245829	2528.204189
