Dividing Wavelength (nm)	Counts (n)	Blue Motor Position (mm): 46.000000	Red Motor Position (mm): 0.000000	
326.493990	2154.664771
326.888308	2154.664771
327.282561	2154.664771
327.676750	2127.061933
328.070874	2128.024794
328.464933	2136.622482
328.858929	2141.794705
329.252859	2155.098310
329.646726	2172.200425
330.040528	2183.459842
330.434265	2203.816021
330.827938	2221.208002
331.221547	2241.854048
331.615091	2258.996491
332.008571	2281.747218
332.401986	2302.012657
332.795338	2322.323466
333.188625	2340.020436
333.581847	2360.147243
333.975006	2378.217259
334.368100	2400.055537
334.761129	2419.317786
335.154095	2433.460743
335.546996	2459.314301
335.939833	2486.909577
336.332606	2499.804849
336.725315	2512.110305
337.117960	2522.936183
337.510540	2530.228212
337.903056	2537.784902
338.295508	2547.705893
338.687896	2550.849052
339.080220	2562.821792
339.472480	2567.623491
339.864676	2571.036352
340.256807	2575.112125
340.648875	2574.033318
341.040879	2573.859399
341.432818	2580.254102
341.824694	2580.357446
342.216506	2579.437435
342.608253	2579.555902
342.999937	2577.657908
343.391557	2577.025243
343.783113	2573.723287
344.174605	2575.848134
344.566033	2569.955025
344.957397	2571.308575
345.348697	2569.037535
345.739934	2567.346228
346.131106	2566.648028
346.522215	2566.002760
346.913260	2563.182235
347.304241	2564.825651
347.695159	2560.107131
348.086012	2558.738458
348.476802	2556.543035
348.867528	2555.401214
349.258191	2552.686552
349.648789	2552.310987
350.039324	2552.689073
350.429796	2553.281409
350.820203	2552.137067
351.210548	2550.135729
351.600828	2549.107333
351.991045	2548.885523
352.381198	2548.575492
352.771288	2549.926521
353.161314	2549.056922
353.551276	2549.790410
353.941175	2550.012220
354.331010	2547.917621
354.720782	2547.287477
355.110490	2547.854607
355.500135	2551.000287
355.889717	2548.774617
356.279235	2550.488609
356.668689	2549.591284
357.058080	2550.425595
357.447408	2543.758669
357.836672	2544.933258
358.225873	2548.220090
358.615010	2546.221273
359.004084	2550.173537
359.393095	2551.189330
359.782043	2550.478527
360.170927	2553.898950
360.559748	2552.653785
360.948505	2552.056408
361.337199	2554.214022
361.725830	2553.248641
362.114398	2557.251317
362.502903	2555.996070
362.891344	2555.113868
363.279722	2557.001780
363.668037	2557.780638
364.056289	2556.230484
364.444478	2560.356668
364.832603	2556.991698
365.220665	2561.619477
365.608665	2560.596123
365.996601	2558.390618
366.384474	2561.001936
366.772284	2560.848181
367.160031	2561.201061
367.547715	2561.231308
367.935336	2560.669220
368.322893	2561.468242
368.710388	2564.087122
369.097820	2564.376988
369.485189	2565.987637
369.872495	2563.635939
370.259738	2563.003274
370.646918	2564.261042
371.034035	2565.475960
371.421090	2562.564693
371.808081	2564.008984
372.195010	2564.208110
372.581875	2564.744993
372.968678	2565.985116
373.355418	2565.738100
373.742096	2570.968297
374.128710	2568.435117
374.515262	2566.191804
374.901751	2567.497462
375.288177	2569.692885
375.674540	2568.379664
376.060841	2566.953018
376.447079	2571.994172
376.833254	2568.730025
377.219367	2565.264231
377.605417	2566.247256
377.991404	2567.104252
378.377329	2565.647359
378.763191	2568.354459
379.148991	2573.980386
379.534727	2573.433421
379.920402	2576.448031
380.306013	2578.207394
380.691563	2579.273598
381.077049	2580.402816
381.462474	2581.680749
381.847835	2583.477920
382.233134	2587.687284
382.618371	2589.524784
383.003545	2593.673654
383.388657	2595.153232
383.773706	2600.043152
384.158693	2602.006681
384.543618	2605.081785
384.928480	2610.745521
385.313280	2614.612086
385.698017	2620.961420
386.082692	2626.708335
386.467305	2627.552728
386.851856	2634.028090
387.236344	2642.300624
387.620770	2648.360091
388.005133	2653.141625
388.389435	2662.951711
388.773674	2669.293482
389.157851	2675.736077
389.541965	2686.922397
389.926018	2688.129753
390.310008	2699.830272
390.693936	2707.850747
391.077802	2715.936758
391.461606	2727.831361
391.845348	2737.028946
392.229027	2746.473547
392.612645	2759.724220
392.996200	2770.892897
393.379694	2779.808177
393.763125	2799.350210
394.146494	2812.283290
394.529801	2820.734785
394.913047	2839.621468
395.296230	2845.040708
395.679351	2856.040506
396.062410	2877.659494
396.445408	2874.896942
396.828343	2892.944273
397.211217	2899.538102
397.594028	2900.190931
397.976778	2917.088879
398.359466	2934.816096
398.742092	2935.789039
399.124656	2954.073304
399.507158	2970.802373
399.889598	2979.465596
400.271977	2999.118534
400.654294	3004.469719
401.036549	3022.421268
401.418742	3030.103986
401.800874	3057.437122
402.182944	3063.365519
402.564952	3094.529932
402.946898	3087.910898
403.328783	3099.969337
403.710606	3115.392748
404.092367	3140.837972
404.474067	3169.587672
404.855705	3161.143739
405.237282	3165.277486
405.618797	3198.990202
406.000250	3217.524004
406.381642	3250.765372
406.762972	3255.713265
407.144240	3249.595825
407.525447	3270.929988
407.906593	3271.086264
408.287677	3292.680046
408.668700	3312.348108
409.049661	3312.085968
409.430560	3327.116168
409.811399	3331.272599
410.192176	3353.557020
410.572891	3357.741178
410.953545	3399.270203
411.334138	3369.744165
411.714669	3420.634613
412.095139	3366.928681
412.475547	3418.915580
412.855894	3407.547778
413.236180	3437.222530
413.616405	3417.136052
413.996568	3445.626133
414.376670	3447.438428
414.756711	3439.342335
415.136691	3467.320739
415.516609	3488.891836
415.896466	3494.865603
416.276262	3526.667723
416.655997	3554.147052
417.035670	3561.187023
417.415283	3631.117910
417.794834	3649.109788
418.174324	3632.388280
418.553753	3631.064977
418.933121	3677.788912
419.312428	3666.549659
419.691674	3661.783248
420.070859	3698.301367
420.449983	3681.562216
420.829045	3730.065677
421.208047	3712.018347
421.586988	3761.209926
421.965867	3788.709420
422.344686	3799.822644
422.723444	3837.283458
423.102141	3740.964652
423.480777	3848.197556
423.859352	3812.181032
424.237866	3913.523348
424.616319	3896.955596
424.994712	3958.351809
425.373044	3946.653811
425.751314	4010.714274
426.129524	3944.352524
426.507673	4041.235940
426.885762	4020.680635
427.263789	4044.185015
427.641756	4048.412022
428.019662	4077.948142
428.397508	4080.279676
428.775292	4117.841313
429.153016	4124.515801
429.530679	4136.725476
429.908282	4144.027587
430.285824	4122.206953
430.663305	4199.727296
431.040726	4151.468330
431.418086	4145.154285
431.795385	4221.573136
432.172624	4253.808794
432.549802	4220.171695
432.926920	4240.477463
433.303977	4235.524529
433.680974	4272.952576
434.057910	4300.618428
434.434786	4306.924912
434.811601	4299.549704
435.188355	4405.832350
435.565050	4372.669120
435.941683	4371.373543
436.318257	4459.606338
436.694770	4466.971464
437.071222	4524.584291
437.447614	4453.665339
437.823946	4459.792861
438.200218	4480.146520
438.576429	4459.480310
438.952580	4486.034587
439.328670	4493.009024
439.704700	4534.321280
440.080670	4496.983974
440.456580	4558.458324
440.832429	4594.905867
441.208218	4492.464579
441.583947	4549.913568
441.959616	4564.326227
442.335224	4591.351853
442.710773	4607.697794
443.086261	4664.020086
443.461689	4621.099702
443.837057	4630.458604
444.212365	4704.654306
444.587612	4705.387794
444.962800	4677.537940
445.337927	4720.682655
445.712995	4603.251497
446.088002	4798.462618
446.462949	4817.568591
446.837837	4835.875541
447.212664	4825.606711
447.587431	5054.762441
447.962139	5349.798490
448.336786	5691.089647
448.711374	5666.241800
449.085901	5315.654755
449.460369	5253.066310
449.834776	5191.067679
450.209124	5428.712713
450.583412	5439.737716
450.957640	5561.378238
451.331808	5420.898924
451.705917	5272.048775
452.079965	5260.524697
452.453954	5300.367456
452.827883	5268.293115
453.201752	5270.118013
453.575562	5306.502541
453.949311	5442.699394
454.323001	5442.648982
454.696632	5437.801913
455.070202	5593.497950
455.443713	5623.787722
455.817164	5716.544953
456.190556	5784.782012
456.563888	5766.618734
456.937160	5835.788406
457.310373	5678.406104
457.683526	5732.883333
458.056619	5732.916100
458.429653	5710.281320
458.802628	5757.877374
459.175542	5792.162261
459.548398	5927.297952
459.921194	6115.171673
460.293930	6175.728534
460.666607	6431.995589
461.039224	6643.998794
461.411782	6773.914370
461.784280	6688.885228
462.156719	6691.282296
462.529099	6649.602036
462.901419	6507.643144
463.273680	6382.481376
463.645882	6369.971753
464.018024	6376.558021
464.390106	6440.258041
464.762130	6701.765376
465.134094	7094.017557
465.505999	7741.238696
465.877845	8439.269625
466.249631	8790.302811
466.621358	8709.752735
466.993026	8514.377776
467.364634	8295.120351
467.736184	8010.781630
468.107674	7857.719597
468.479105	7772.214066
468.850477	7707.715023
469.221790	7534.609362
469.593043	7313.789179
469.964238	7211.796554
470.335373	7187.417534
470.706449	7345.377049
471.077467	7539.285032
471.448425	8199.633336
471.819324	8784.339126
472.190164	8813.489598
472.560945	8326.604878
472.931667	7859.698250
473.302330	7666.362438
473.672934	7543.602780
474.043479	7624.598999
474.413965	7523.208792
474.784393	7472.172151
475.154761	7627.941284
475.525070	7641.058366
475.895321	7597.381809
476.265513	7695.359155
476.635645	7851.967640
477.005719	7848.625355
477.375734	7933.352028
477.745691	8048.486941
478.115588	8251.617714
478.485427	8491.417841
478.855207	8968.273186
479.224928	9403.571780
479.594591	9781.645715
479.964194	9793.948651
480.333739	9873.288851
480.703226	9873.669458
481.072653	9971.777874
481.442022	10087.820194
481.811333	10241.088915
482.180584	10084.248537
482.549777	10027.248210
482.918912	9958.665832
483.287988	9940.933574
483.657005	9854.510553
484.025964	9762.000339
484.394864	9834.345937
484.763706	9792.564854
485.132489	9694.726141
485.501213	9692.082055
485.869879	9745.316640
486.238487	9686.806488
486.607036	9766.686091
486.975527	9711.518224
487.343959	9766.726420
487.712333	9808.694026
488.080648	9854.901242
488.448905	9952.460172
488.817104	9964.286719
489.185244	10127.645309
489.553326	10343.893165
489.921350	10822.066772
490.289315	11453.952722
490.657222	11744.499624
491.025070	11912.465829
491.392861	11822.604741
491.760593	11668.872234
492.128267	11411.493603
492.495883	11180.313850
492.863440	10950.051586
493.230939	10711.383198
493.598380	10537.118072
493.965763	10507.889462
494.333088	10376.398525
494.700354	10307.722887
495.067563	10282.096181
495.434713	10288.745463
495.801805	10326.173510
496.168839	10289.355443
496.535815	10249.989072
496.902733	10305.582917
497.269593	10265.470456
497.636395	10264.144632
498.003139	10376.007836
498.369825	10309.421755
498.736453	10397.034489
499.103023	10345.539102
499.469535	10348.921716
499.835989	10394.602132
500.202385	10370.931394
500.568723	10392.149611
500.935003	10446.115163
501.301226	10425.459035
501.667390	10592.522873
502.033497	10689.597852
502.399546	10613.771337
502.765537	10514.826089
503.131470	10624.216607
503.497345	10717.677079
503.863163	10492.365228
504.228923	10621.776689
504.594625	10733.191230
504.960269	10648.734259
505.325856	10793.664912
505.691385	10677.652838
506.056856	10745.567263
506.422270	10847.164157
506.787625	10784.661411
507.152924	10834.503299
507.518164	10890.739891
507.883347	10760.930179
508.248472	10836.237456
508.613540	10945.575042
508.978550	11025.363904
509.343503	10997.551858
509.708398	11048.275948
510.073236	11180.986844
510.438016	11192.505880
510.802738	11109.853643
511.167403	11236.558003
511.532010	11298.448249
511.896561	11399.230997
512.261053	11589.264853
512.625488	11502.675474
512.989866	11497.089875
513.354186	11472.920063
513.718449	11480.668317
514.082655	11622.670059
514.446803	11577.213974
514.810894	11682.551405
515.174927	11686.080212
515.538904	11675.403048
515.902822	11827.814773
516.266684	11699.605628
516.630488	11796.514249
516.994235	11790.048969
517.357925	11906.779407
517.721558	11964.440125
518.085133	12025.120494
518.448651	12062.626678
518.812112	12022.849454
519.175516	12026.068231
519.538863	12119.546346
519.902152	12123.339815
520.265385	12234.252761
520.628560	12253.905699
520.991678	12200.308152
521.354739	12256.885021
521.717743	12328.073675
522.080690	12299.639047
522.443580	12438.409409
522.806413	12449.331069
523.169189	12443.223711
523.531908	12504.292249
523.894569	12457.006226
524.257174	12475.797127
524.619722	12598.481167
524.982213	12566.323647
525.344647	12549.939897
525.707025	12567.349522
526.069345	12671.986232
526.431608	12647.377839
526.793815	12735.469482
527.155964	12627.868574
527.518057	12653.533088
527.880093	12610.602622
528.242072	12733.677352
528.603995	12651.690546
528.965860	12665.475582
529.327669	12696.148482
529.689421	12647.854228
530.051117	12662.299655
530.412755	12694.091691
530.774337	12704.093341
531.135862	12657.508038
531.497331	12714.888972
531.858743	12676.982015
532.220098	12766.472578
532.581396	12688.261597
532.942638	12601.150458
533.303824	12676.568641
533.664953	12659.847133
534.026025	12610.844597
534.387040	12720.461967
534.747999	12691.500538
535.108902	12736.296231
535.469748	12609.312087
535.830537	12634.096919
536.191270	12676.828260
536.551947	12603.401334
536.912567	12676.883713
537.273131	12704.173999
537.633638	12576.670615
537.994089	12640.078248
538.354483	12562.202504
538.714821	12690.721680
539.075103	12760.110642
539.435328	12692.407946
539.795497	12669.150583
540.155609	12668.439780
540.515665	12774.757715
540.875665	12631.309161
541.235609	12729.861198
541.595496	12694.258049
541.955328	12863.139224
542.315102	12714.954507
542.674821	12659.839572
543.034483	12669.551354
543.394090	12666.758555
543.753640	12637.376190
544.113134	12882.923232
544.472571	12640.761325
544.831953	12923.857401
545.191278	12734.476375
545.550548	12673.004545
545.909761	12793.994758
546.268918	12834.175274
546.628019	12896.042835
546.987064	12789.712298
547.346053	12640.584884
547.704986	12833.512363
548.063863	12710.409906
548.422684	12763.931837
548.781449	12709.815050
549.140158	12817.809168
549.498811	12768.438628
549.857408	12641.194864
550.215949	12841.351357
550.574434	12809.448415
550.932864	12752.236360
551.291237	12959.684882
551.649555	12837.822549
552.007817	12896.935119
552.366022	12816.770691
552.724173	12867.008309
553.082267	12947.744909
553.440305	13042.347202
553.798288	12871.661294
554.156215	12938.922890
554.514086	12989.901558
554.871902	12927.955859
555.229661	12948.773304
555.587365	12902.944175
555.945014	12920.966300
556.302606	12901.850244
556.660143	12958.817803
557.017625	12998.698371
557.375050	12956.128348
557.732421	13055.151733
558.089735	13052.863049
558.446994	13031.750697
558.804197	13146.457111
559.161345	13135.026295
559.518437	12952.828912
559.875474	13037.439639
560.232455	13052.336248
560.589381	13115.048202
560.946251	13050.841546
561.303065	13219.437895
561.659825	13175.529445
562.016528	13091.518617
562.373177	13033.073999
562.729770	13155.788287
563.086307	13045.472717
563.442789	13143.712203
563.799216	13184.979088
564.155587	13133.667704
564.511904	13158.669306
564.868164	13161.315912
565.224370	13224.524420
565.580520	13173.147500
565.936615	13237.129825
566.292654	13174.737984
566.648638	13244.729364
567.004567	13258.852157
567.360441	13255.353596
567.716260	13221.502248
568.072023	13301.144917
568.427732	13284.846867
568.783385	13181.319211
569.138982	13293.656283
569.494525	13295.224082
569.850013	13246.050147
570.205445	13225.817476
570.560823	13245.964447
570.916145	13195.129452
571.271412	13196.883773
571.626625	13167.889577
571.981782	13163.339935
572.336884	13109.051750
572.691931	13194.922764
573.046923	13094.487856
573.401860	13070.421388
573.756743	13059.532495
574.111570	13090.601127
574.466342	13066.774113
574.821059	13112.308335
575.175722	12989.725117
575.530330	13002.600224
575.884882	12932.195470
576.239380	12940.876337
576.593823	12919.338007
576.948211	12925.440324
577.302544	12792.585755
577.656823	12818.900578
578.011047	12876.069783
578.365216	12820.075167
578.719330	12750.716452
579.073389	12724.726783
579.427394	12736.941499
579.781344	12733.395047
580.135239	12658.594407
580.489080	12674.733661
580.842866	12555.149930
581.196597	12653.185248
581.550273	12636.952733
581.903895	12599.663318
582.257463	12712.718755
582.610975	12566.482443
582.964434	12629.111218
583.317837	12542.526880
583.671186	12501.564985
584.024481	12551.479970
584.377721	12444.731016
584.730906	12515.486131
585.084037	12538.171323
585.437113	12450.109928
585.790135	12471.126498
586.143103	12385.671378
586.496016	12401.780386
586.848874	12406.075449
587.201679	12413.906881
587.554428	12282.862087
587.907124	12326.848675
588.259765	12261.558171
588.612352	12338.329903
588.964884	12190.331708
589.317362	12251.906882
589.669786	12248.985533
590.022155	12198.884026
590.374470	12294.693675
590.726731	12186.260976
591.078937	12074.937176
591.431090	12095.313520
591.783188	12022.428517
592.135232	11944.220057
592.487222	12005.480158
592.839157	12015.605316
593.191038	11950.236674
593.542866	11894.776420
593.894639	11754.478588
594.246358	11810.546301
594.598022	11820.018629
594.949633	11723.072199
595.301190	11710.749099
595.652692	11673.527739
596.004141	11760.558219
596.355535	11541.328521
596.706876	11513.453461
597.058162	11484.870118
597.409395	11572.830691
597.760573	11610.581372
598.111698	11499.570123
598.462768	11503.103972
598.813785	11508.455157
599.164748	11387.908565
599.515657	11468.821605
599.866511	11332.922180
600.217312	11476.101031
600.568060	11236.396686
600.918753	11395.152703
601.269392	11399.107488
601.619978	11294.301900
601.970510	11337.761687
602.320988	11378.300126
602.671412	11453.551950
603.021783	11377.191072
603.372100	11303.300360
603.722363	11317.405508
604.072572	11316.359469
604.422728	11323.376755
604.772830	11272.219126
605.122878	11279.496031
605.472872	11250.106104
605.822813	11316.891310
606.172701	11275.132912
606.522534	11311.323356
606.872314	11362.145748
607.222041	11298.039916
607.571714	11379.532688
607.921333	11250.703481
608.270899	11294.445573
608.620411	11352.998575
608.969870	11313.130610
609.319276	11290.871395
609.668627	11305.576441
610.017926	11382.060827
610.367171	11414.714901
610.716362	11402.764846
611.065500	11375.018335
611.414585	11386.131558
611.763616	11455.029008
612.112594	11419.254460
612.461518	11445.347472
612.810389	11488.464461
613.159207	11423.262177
613.507971	11425.843248
613.856682	11527.165399
614.205340	11482.354582
614.553945	11629.407561
614.902496	11496.210194
615.250994	11560.815101
615.599439	11553.323946
615.947830	11586.164543
616.296169	11557.165306
616.644454	11568.326420
616.992686	11583.447361
617.340864	11675.518995
617.688990	11559.806870
618.037063	11704.135105
618.385082	11671.894405
618.733048	11709.950076
619.080961	11695.386182
619.428821	11678.768019
619.776628	11682.627022
620.124382	11629.243723
620.472083	11644.800724
620.819731	11671.919611
621.167326	11598.843045
621.514868	11585.851992
621.862357	11476.806793
622.209793	11473.461987
622.557176	11388.463092
622.904506	11330.376397
623.251783	11249.836403
623.599007	11186.975735
623.946179	11139.659465
624.293297	11115.618202
624.640363	10977.460340
624.987376	10964.744029
625.334336	10908.215050
625.681243	10812.410442
626.028097	10794.426126
626.374899	10750.000958
626.721647	10722.728315
627.068343	10687.258757
627.414987	10618.721750
627.761577	10561.219828
628.108115	10604.314132
628.454600	10474.786725
628.801032	10489.796761
629.147412	10475.605913
629.493739	10448.285379
629.840014	10376.254852
630.186236	10422.361246
630.532405	10315.899638
630.878521	10355.946564
631.224585	10306.611312
631.570597	10229.141380
631.916556	10228.735567
632.262462	10215.802487
632.608316	10201.629283
632.954117	10175.488380
633.299866	10157.559516
633.645562	10134.536567
633.991206	10031.142501
634.336797	9935.710938
634.682336	9925.863044
635.027823	9867.093273
635.373257	9830.310494
635.718639	9761.430688
636.063968	9730.213343
636.409245	9617.382238
636.754470	9600.391029
637.099642	9549.190550
637.444762	9448.740518
637.789829	9451.361918
638.134845	9378.502122
638.479808	9354.261733
638.824719	9332.078136
639.169577	9246.494467
639.514383	9238.547088
639.859137	9175.804887
640.203839	9211.571874
640.548489	9127.621539
640.893086	9138.157550
641.237632	9071.077437
641.582125	9077.819980
641.926566	9065.166684
642.270955	9047.086585
642.615292	9041.783292
642.959576	9020.776803
643.303809	9005.048403
643.647990	9024.136733
643.992118	9005.139144
644.336195	8983.195002
644.680219	8986.169282
645.024192	9024.960961
645.368112	9097.253628
645.711981	9065.290192
646.055797	9202.558291
646.399562	9157.734871
646.743274	9318.073810
647.086935	9390.661385
647.430544	9372.606492
647.774101	9389.519563
648.117606	9413.860775
648.461059	9487.935489
648.804460	9413.651567
649.147810	9297.793248
649.491108	9259.999718
649.834354	9196.108134
650.177548	9051.555568
650.520690	8962.922001
650.863781	8950.361967
651.206820	8931.097197
651.549807	8841.009257
651.892742	8744.748425
652.235626	8705.530768
652.578458	8667.170108
652.921238	8557.754384
653.263967	8595.857946
653.606644	8528.984519
653.949269	8513.593877
654.291843	8435.529089
654.634365	8502.941919
654.976836	8428.418541
655.319255	8428.539529
655.661622	8410.978670
656.003938	8372.471816
656.346203	8330.088315
656.688416	8365.094087
657.030577	8322.839136
657.372687	8285.784134
657.714746	8321.006676
658.056753	8330.458840
658.398708	8234.185404
658.740612	8225.827171
659.082465	8278.474461
659.424266	8231.523675
659.766016	8240.517093
660.107715	8211.142290
660.449362	8236.809325
660.790958	8230.371771
661.132503	8219.402221
661.473996	8217.040440
661.815438	8237.588183
662.156829	8267.789736
662.498168	8212.155562
662.839456	8208.619193
663.180693	8221.373312
663.521879	8251.859690
663.863013	8236.804284
664.204097	8227.752892
664.545129	8300.600086
664.886110	8290.341338
665.227040	8297.141854
665.567918	8308.076117
665.908746	8325.236204
666.249522	8345.466355
666.590248	8341.279677
666.930922	8351.417437
667.271545	8350.545317
667.612118	8363.846402
667.952639	8323.396183
668.293109	8329.173346
668.633528	8303.801218
668.973896	8293.567676
669.314213	8302.298954
669.654480	8255.406141
669.994695	8241.353925
670.334859	8227.543684
670.674973	8201.934623
671.015035	8234.427380
671.355047	8218.104123
671.695008	8206.985859
672.034918	8183.610028
672.374777	8190.276954
672.714585	8165.436669
673.054342	8192.172428
673.394049	8161.466760
673.733705	8203.696506
674.073310	8152.551479
674.412864	8164.262080
674.752368	8096.902182
675.091820	8156.029876
675.431223	8083.225532
675.770574	8039.019654
676.109875	8007.761979
676.449125	7963.172973
676.788324	7950.010521
677.127473	7867.007923
677.466571	7846.528235
677.805619	7785.230325
678.144616	7777.950899
678.483562	7768.695340
678.822458	7718.039306
679.161303	7701.244702
679.500098	7678.592277
679.838842	7659.831623
680.177535	7672.026174
680.516179	7710.568316
680.854771	7730.503559
681.193314	7844.108481
681.531805	7997.783015
681.870247	8121.235832
682.208638	8267.701516
682.546978	8343.613731
682.885268	8377.444914
683.223508	8306.929254
683.561697	8257.901513
683.899836	8227.851194
684.237925	8143.467320
684.575963	8114.009338
684.913951	8028.755864
685.251889	8050.878968
685.589776	8044.950571
685.927614	8030.263169
686.265401	8049.177579
686.603137	8048.232362
686.940824	8122.410421
687.278460	8176.239861
687.616046	8186.309566
687.953582	8301.741907
688.291068	8282.696428
688.628504	8342.587856
688.965889	8344.490892
689.303224	8303.987741
689.640510	8260.540557
689.977745	8147.908577
690.314930	8031.004219
690.652065	7960.493600
690.989150	7846.256013
691.326185	7695.409566
691.663170	7576.463541
692.000105	7463.869370
692.336990	7346.876792
692.673825	7262.318998
693.010610	7174.328178
693.347345	7077.220432
693.684030	6964.492670
694.020665	6917.476349
694.357251	6808.340409
694.693786	6796.639891
695.030272	6754.707573
695.366707	6657.032697
695.703093	6605.663339
696.039429	6603.495643
696.375716	6558.949487
696.711952	6546.510440
697.048139	6518.350555
697.384276	6481.787066
697.720363	6511.673547
698.056400	6478.374205
698.392388	6445.967147
698.728326	6445.478155
699.064214	6415.785759
699.400053	6412.055305
699.735842	6354.276121
700.071581	6312.885727
700.407270	6263.474857
700.742910	6235.690538
701.078501	6191.504825
701.414042	6151.417569
701.749533	6097.754487
702.084974	6031.924579
702.420366	6074.902936
702.755709	6006.270147
703.091002	5949.809224
703.426246	5959.437828
703.761440	5942.549963
704.096584	5898.472634
704.431679	5886.172218
704.766725	5868.868458
705.101721	5853.225758
705.436668	5871.406679
705.771565	5812.745292
706.106413	5871.441967
706.441212	5874.423809
706.775961	5885.910078
707.110661	5895.742849
707.445311	5955.856088
707.779913	5921.977014
708.114465	5962.795236
708.448967	6010.285426
708.783421	6122.972859
709.117825	6166.601525
709.452180	6198.932965
709.786485	6258.496718
710.120742	6387.905658
710.454949	6397.153655
710.789107	6473.398586
711.123216	6597.282421
711.457275	6628.000692
711.791286	6726.025929
712.125247	6751.027531
712.459159	6714.542180
712.793023	6850.650813
713.126837	6674.845614
713.460602	6733.214614
713.794318	6692.179622
714.127985	6639.691128
714.461602	6492.852399
714.795171	6498.311968
715.128691	6327.421894
715.462162	6236.945785
715.795584	6170.100085
716.128957	6125.299351
716.462281	6062.715947
716.795556	6020.617271
717.128782	5937.055105
717.461960	5838.364436
717.795088	5828.327499
718.128167	5759.021716
718.461198	5677.097924
718.794180	5648.575076
719.127113	5592.368731
719.459997	5557.247012
719.792833	5491.278473
720.125619	5487.147247
720.458357	5428.944606
720.791046	5404.303446
721.123686	5374.164908
721.456278	5330.760573
721.788821	5321.497453
722.121315	5282.680568
722.453761	5285.443120
722.786158	5273.709835
723.118506	5275.010452
723.450805	5245.459209
723.783056	5279.623108
724.115259	5262.503350
724.447412	5252.405919
724.779518	5294.381086
725.111574	5300.480882
725.443582	5331.514225
725.775542	5318.119880
726.107453	5406.456018
726.439315	5378.162542
726.771129	5451.980158
727.102895	5511.788407
727.434612	5554.058482
727.766281	5580.738789
728.097901	5639.952182
728.429473	5661.281304
728.760996	5671.164486
729.092471	5693.131314
729.423897	5678.040620
729.755276	5647.445857
730.086606	5658.148227
730.417887	5748.863791
730.749120	5842.301577
731.080305	5879.815323
731.411442	5953.396005
731.742530	5976.464325
732.073570	5998.340412
732.404562	6064.107305
732.735506	6056.036418
733.066401	6040.643255
733.397249	5971.125743
733.728048	5874.706114
734.058798	5727.363269
734.389501	5603.517243
734.720156	5516.348131
735.050762	5413.959776
735.381320	5336.694011
735.711831	5283.575373
736.042293	5203.017734
736.372707	5203.000090
736.703073	5156.891177
737.033391	5186.505435
737.363661	5170.038506
737.693883	5181.953273
738.024056	5206.569227
738.354182	5234.398917
738.684260	5286.398419
739.014290	5319.952339
739.344272	5357.403071
739.674207	5413.354838
740.004093	5444.988078
740.333931	5448.088387
740.663722	5469.024299
740.993464	5479.572914
741.323159	5458.029543
741.652806	5417.513789
741.982405	5382.951639
742.311956	5336.878013
742.641460	5326.180685
742.970915	5271.032982
743.300323	5212.079208
743.629683	5175.982026
743.958996	5128.567454
744.288260	5079.282613
744.617477	5014.710474
744.946647	5002.773021
745.275768	4953.160506
745.604842	4917.519548
745.933869	4879.446234
746.262847	4871.909709
746.591778	4860.539386
746.920662	4834.769008
747.249498	4829.465714
747.578286	4851.001523
747.907027	4870.394842
748.235720	4919.039456
748.564365	4930.445067
748.892963	4913.385802
749.221514	4927.478348
749.550017	4907.732148
749.878473	4902.343154
750.206881	4862.087020
750.535242	4856.128377
750.863555	4835.073997
751.191821	4807.897137
751.520039	4817.586235
751.848210	4796.839366
752.176334	4803.208864
752.504411	4786.673879
752.832440	4760.348974
753.160421	4769.360037
753.488356	4750.039814
753.816243	4727.362184
754.144082	4694.083007
754.471875	4684.267880
754.799620	4678.397457
755.127318	4670.366898
755.454969	4660.735774
755.782572	4654.683869
756.110129	4656.654960
756.437638	4641.733145
756.765100	4635.343482
757.092515	4638.630314
757.419882	4643.363958
757.747203	4637.032269
758.074477	4652.112880
758.401703	4644.412518
758.728882	4673.389070
759.056014	4685.991955
759.383099	4708.185635
759.710138	4737.288216
760.037129	4758.544241
760.364073	4769.846508
760.690970	4768.644193
761.017820	4766.519346
761.344623	4799.473369
761.671379	4859.642061
761.998088	4955.101350
762.324751	5181.723901
762.651366	5644.489221
762.977935	6337.123595
763.304456	6900.159985
763.630931	7207.909825
763.957359	7142.853734
764.283740	6849.135947
764.610074	6527.177615
764.936362	6123.126614
765.262602	5801.387573
765.588796	5459.574657
765.914943	5204.003280
766.241044	4981.171677
766.567097	4811.960307
766.893104	4653.874764
767.219064	4558.100402
767.544978	4463.102379
767.870845	4379.537692
768.196665	4335.714942
768.522438	4281.396509
768.848165	4237.412442
769.173846	4200.594374
769.499479	4172.537833
769.825066	4135.021566
770.150607	4093.144701
770.476101	4081.396292
770.801548	4058.423754
771.126949	4026.750184
771.452303	4008.612112
771.777611	3968.562666
772.102872	3970.410249
772.428087	3940.886731
772.753256	3913.157864
773.078378	3899.987850
773.403453	3865.697922
773.728482	3841.260928
774.053465	3826.323989
774.378401	3806.613078
774.703291	3786.818987
775.028135	3757.461828
775.352932	3750.245416
775.677683	3733.274372
776.002388	3711.872153
776.327046	3712.162019
776.651658	3694.964123
776.976224	3672.682223
777.300743	3669.559228
777.625216	3654.612207
777.949643	3650.498626
778.274024	3650.397802
778.598359	3631.949700
778.922647	3630.399545
779.246889	3622.305973
779.571086	3620.503760
779.895236	3620.619707
780.219339	3623.145325
780.543397	3623.258751
780.867409	3633.396511
781.191374	3632.738641
781.515294	3627.889051
781.839167	3645.543171
782.162995	3641.558139
782.486776	3632.688229
782.810511	3627.531129
783.134201	3611.878346
783.457844	3613.042852
783.781441	3601.871656
784.104993	3595.880244
784.428498	3591.333123
784.751958	3587.524532
785.075372	3580.829879
785.398739	3571.415525
785.722061	3577.669076
786.045337	3577.757296
786.368568	3602.264866
786.691752	3596.764967
787.014891	3648.857730
787.337983	3692.148639
787.661030	3776.623254
787.984031	3873.978017
788.306987	3956.841983
788.629897	3998.746574
788.952760	4009.423738
789.275579	3988.810460
789.598351	3943.009057
789.921078	3890.399575
790.243759	3828.602591
790.566395	3779.237092
790.888984	3730.161459
791.211529	3696.569731
791.534027	3649.324037
791.856480	3613.932616
792.178888	3594.556941
792.501249	3572.489290
792.823566	3541.405536
793.145836	3537.642314
793.468062	3529.258876
793.790241	3513.139786
794.112375	3520.545241
794.434464	3543.875701
794.756507	3540.533416
795.078505	3558.300963
795.400457	3598.720934
795.722364	3648.056187
796.044226	3695.997560
796.366042	3740.276534
796.687812	3735.346286
797.009538	3761.651027
797.331218	3751.263729
797.652852	3741.942636
797.974442	3722.483782
798.295986	3709.764951
798.617484	3682.968697
798.938938	3659.151766
799.260346	3644.723984
799.581709	3608.011781
799.903026	3592.795058
800.224299	3575.725711
800.545526	3545.783778
800.866708	3525.067156
801.187845	3515.148686
801.508936	3492.155983
801.829983	3485.912514
802.150984	3456.973771
802.471940	3444.103705
802.792851	3439.493570
803.113717	3431.914195
803.434538	3424.239038
803.755314	3413.458531
804.076045	3407.610792
804.396731	3393.883730
804.717372	3398.561921
805.037967	3396.726941
805.358518	3399.184503
805.679024	3411.971390
805.999485	3410.350659
806.319901	3416.420208
806.640272	3416.268974
806.960598	3429.829678
807.280879	3426.658792
807.601115	3438.273610
807.921306	3427.293977
808.241453	3433.078701
808.561554	3441.706636
808.881611	3435.420317
809.201623	3437.819907
809.521590	3426.058895
809.841513	3426.931014
810.161390	3436.090791
810.481223	3412.919127
810.801011	3411.593304
811.120755	3407.794794
811.440453	3394.735685
811.760107	3392.822567
812.079716	3382.437790
812.399281	3370.795246
812.718801	3370.465050
813.038276	3365.386088
813.357707	3357.398379
813.677093	3366.243084
813.996434	3348.863706
814.315731	3355.250848
814.634983	3355.013913
814.954191	3357.065663
815.273354	3377.137017
815.592473	3383.375445
815.911547	3403.172056
816.230577	3418.701331
816.549562	3444.771658
816.868502	3463.499544
817.187399	3483.613748
817.506250	3513.701875
817.825058	3519.499202
818.143821	3566.843198
818.462539	3609.904734
818.781213	3665.727951
819.099843	3748.435642
819.418429	3903.819127
819.736970	4055.648598
820.055466	4242.430910
820.373919	4480.065861
820.692327	4821.447759
821.010691	5336.840204
821.329011	6419.571666
821.647286	8166.122266
821.965517	10340.218164
822.283704	11981.857311
822.601847	13066.156572
822.919945	12666.811487
823.237999	11979.656848
823.556010	11078.908520
823.873976	10120.323033
824.191897	9143.622161
824.509775	8376.973566
824.827609	7567.772592
825.145398	7016.434199
825.463144	6630.662421
825.780845	6495.078068
826.098502	6558.319343
826.416116	6940.373270
826.733685	7441.627799
827.051210	7738.521514
827.368692	7641.363356
827.686129	7195.972372
828.003522	6644.951572
828.320872	6076.069963
828.638177	5612.150219
828.955439	5245.060957
829.272656	4907.248197
829.589830	4622.024754
829.906960	4352.365873
830.224046	4143.936846
830.541088	3972.530054
830.858086	3857.818598
831.175041	3760.577261
831.491952	3714.828790
831.808819	3697.376315
832.125642	3734.716142
832.442421	3833.363961
832.759157	4050.615006
833.075849	4428.199950
833.392497	4891.807143
833.709101	5286.610147
834.025662	5401.820677
834.342179	5274.324856
834.658653	5000.184389
834.975083	4730.903594
835.291469	4480.385975
835.607811	4253.592025
835.924110	4101.818006
836.240366	3938.487142
836.556578	3774.294241
836.872746	3637.588231
837.188871	3521.775283
837.504952	3430.689194
837.820990	3356.692618
838.136984	3298.210192
838.452935	3270.688012
838.768842	3251.607245
839.084706	3284.210908
839.400526	3423.001435
839.716303	3649.210611
840.032037	3858.542004
840.347727	3927.217642
840.663373	3837.059127
840.978977	3686.915921
841.294537	3555.903894
841.610054	3449.522945
841.925527	3371.468240
842.240957	3303.994916
842.556344	3243.622057
842.871687	3184.965712
843.186987	3124.250055
843.502244	3069.856005
843.817458	3029.178935
844.132629	2998.805983
844.447756	2975.329329
844.762840	2952.994497
845.077881	2936.613268
845.392879	2920.300094
845.707833	2912.448497
846.022745	2898.849984
846.337613	2897.433420
846.652438	2884.727192
846.967221	2882.393137
847.281960	2874.798639
847.596656	2870.725387
847.911309	2866.959645
848.225919	2860.242308
848.540485	2855.196112
848.855009	2854.102182
849.169490	2847.820904
849.483928	2849.305524
849.798323	2844.455934
850.112675	2840.193639
850.426984	2841.726149
850.741251	2838.169615
851.055474	2834.217351
851.369654	2836.324553
851.683792	2833.357834
851.997887	2835.664162
852.311938	2836.400170
852.625947	2834.232474
852.939914	2833.864470
853.253837	2835.896055
853.567718	2834.479491
853.881555	2828.472956
854.195350	2834.424038
854.509103	2834.718946
854.822812	2835.142402
855.136479	2832.309274
855.450103	2831.784994
855.763685	2831.225426
856.077224	2833.320025
856.390720	2831.603512
856.704173	2836.720284
857.017584	2837.312619
857.330953	2839.482836
857.644278	2840.574246
857.957561	2843.374607
858.270802	2841.968125
858.584000	2846.001048
858.897155	2844.435770
859.210268	2841.879905
859.523339	2837.380675
859.836367	2837.448730
860.149352	2837.625171
860.462295	2837.539471
860.775195	2829.682833
861.088054	2829.493790
861.400869	2829.440857
861.713642	2828.556135
862.026373	2831.114521
862.339062	2831.409428
862.651708	2837.862105
862.964312	2840.491067
863.276873	2840.060048
863.589392	2848.781244
863.901869	2855.420444
864.214303	2863.183821
864.526696	2869.472660
864.839045	2879.413816
865.151353	2884.432284
865.463619	2883.013199
865.775842	2889.143243
866.088023	2893.604664
866.400162	2892.336813
866.712258	2893.869324
867.024313	2894.998543
867.336325	2898.318143
867.648296	2901.725963
867.960224	2900.750499
868.272110	2901.952814
868.583954	2900.813514
868.895755	2905.960532
869.207515	2904.221334
869.519233	2912.193918
869.830909	2912.163672
870.142542	2918.893612
870.454134	2920.910073
870.765684	2919.732964
871.077191	2930.004315
871.388657	2934.468257
871.700081	2942.312292
872.011463	2945.858744
872.322803	2952.291256
872.634101	2958.491875
872.945357	2965.153760
873.256571	2974.978969
873.567744	2980.917448
873.878874	2987.939776
874.189963	2994.715086
874.501010	2996.136692
874.812015	2995.196517
875.122979	3006.579442
875.433900	3006.801253
875.744780	3008.890811
876.055618	3015.885412
876.366415	3014.340298
876.677169	3022.693490
876.987882	3026.222298
877.298554	3037.285110
877.609183	3048.942778
877.919771	3068.842733
878.230317	3094.565221
878.540822	3129.286168
878.851285	3182.152748
879.161707	3250.967019
879.472087	3354.834953
879.782425	3519.831918
880.092722	3797.070174
880.402977	4220.562385
880.713191	4767.091517
881.023363	5373.386049
881.333494	5815.485159
881.643583	6109.951558
881.953631	6178.647362
882.263637	6127.177181
882.573602	5987.330532
882.883526	5819.538247
883.193408	5619.054079
883.503248	5393.701899
883.813048	5180.297254
884.122806	4958.884736
884.432522	4714.804670
884.742197	4487.557016
885.051831	4276.771250
885.361424	4076.098039
885.670975	3908.512441
885.980485	3761.129267
886.289954	3633.807365
886.599382	3526.950027
886.908768	3445.401802
887.218113	3364.829040
887.527417	3301.212199
887.836680	3240.652818
888.145901	3194.223791
888.455082	3159.097031
888.764221	3125.321300
889.073319	3094.413986
889.382376	3072.502611
889.691392	3056.161711
890.000366	3048.123591
890.309300	3041.028167
890.618193	3040.105636
890.927044	3033.615150
891.235855	3035.767723
891.544625	3038.293341
891.853353	3044.262067
892.162041	3058.878893
892.470687	3083.540217
892.779293	3117.683952
893.087858	3160.788338
893.396381	3241.298086
893.704864	3349.377903
894.013306	3509.376565
894.321707	3694.449925
894.630068	3845.752596
894.938387	3925.513732
895.246665	3929.009773
895.554903	3875.886093
895.863100	3789.193371
896.171256	3713.447514
896.479371	3641.180053
896.787446	3564.118454
897.095480	3492.196313
897.403473	3436.670523
897.711425	3375.949825
898.019336	3327.577434
898.327207	3273.203548
898.635038	3227.876013
898.942827	3175.137982
899.250576	3135.514513
899.558284	3092.357195
899.865952	3066.833833
900.173579	3036.846530
900.481165	3013.689989
900.788711	2994.447905
901.096216	2981.401399
901.403681	2967.266004
901.711105	2957.055147
902.018489	2954.590022
902.325832	2960.984726
902.633135	2971.979483
902.940397	3006.047600
903.247619	3095.081939
903.554800	3273.042231
903.861941	3552.455745
904.169041	3823.669822
904.476101	3991.300790
904.783121	4015.571425
905.090100	3947.941826
905.397039	3843.350487
905.703938	3732.838312
906.010796	3629.832415
906.317614	3542.093653
906.624391	3456.169707
906.931129	3386.019530
907.237826	3316.040753
907.544483	3252.270157
907.851099	3180.043025
908.157675	3105.895214
908.464211	3033.315201
908.770707	2977.706233
909.077163	2927.766043
909.383578	2892.263717
909.689954	2862.041999
909.996289	2842.084071
910.302584	2830.733913
910.608839	2819.464414
910.915054	2810.075265
911.221229	2807.529482
911.527363	2805.865902
911.833458	2807.169040
912.139513	2810.203814
912.445527	2811.582570
912.751502	2824.157728
913.057436	2837.179029
913.363331	2859.604602
913.669186	2889.375136
913.975000	2928.444078
914.280775	2986.782831
914.586510	3066.690160
914.892205	3179.042356
915.197859	3326.004594
915.503475	3510.039477
915.809050	3684.029860
916.114585	3816.491219
916.420081	3893.842683
916.725536	3923.109102
917.030952	3889.272877
917.336328	3851.260057
917.641665	3809.143737
917.946961	3743.344077
918.252218	3685.801826
918.557435	3611.480095
918.862612	3542.325546
919.167750	3481.370435
919.472848	3408.072058
919.777906	3339.966069
920.082925	3268.270779
920.387904	3196.429296
920.692843	3141.435348
920.997743	3089.682863
921.302603	3040.458516
921.607423	3002.821262
921.912204	2967.598720
922.216946	2942.007302
922.521647	2919.140628
922.826310	2893.987791
923.130932	2877.384751
923.435516	2856.355578
923.740059	2845.572550
924.044564	2828.006649
924.349028	2816.679177
924.653454	2800.721404
924.957840	2785.557613
925.262186	2773.980603
925.566493	2767.212854
925.870761	2754.569641
926.174989	2749.150400
926.479178	2744.018506
926.783328	2730.384705
927.087438	2725.126782
927.391509	2720.367932
927.695541	2712.891901
927.999533	2706.441745
928.303486	2702.146682
928.607400	2702.181970
928.911275	2696.853470
929.215110	2693.672502
929.518906	2689.148067
929.822663	2692.722245
930.126381	2688.112109
930.430060	2690.378108
930.733699	2688.442305
931.037299	2691.182172
931.340861	2688.457428
931.644383	2691.580423
931.947866	2691.260310
932.251309	2687.892819
932.554714	2687.303004
932.858080	2688.434743
933.161407	2687.066070
933.464694	2686.166224
933.767943	2686.030113
934.071153	2685.883919
934.374323	2682.287056
934.677455	2682.244206
934.980548	2680.091634
935.283602	2677.384534
935.586617	2678.032322
935.889593	2678.591890
936.192530	2682.153466
936.495428	2680.152127
936.798287	2685.800740
937.101108	2688.719568
937.403890	2694.133768
937.706632	2705.274718
938.009336	2715.553630
938.312002	2729.812534
938.614628	2739.693196
938.917216	2749.919176
939.219765	2754.025196
939.522275	2764.898965
939.824747	2766.439037
940.127179	2766.592792
940.429573	2765.077926
940.731929	2766.315529
941.034246	2763.497524
941.336524	2765.138420
941.638763	2765.622370
941.940964	2767.142278
942.243126	2758.723551
942.545250	2753.349681
942.847335	2748.295925
943.149381	2739.859554
943.451389	2738.626992
943.753359	2733.623646
944.055290	2726.258521
944.357182	2718.638817
944.659036	2719.868858
944.960851	2714.492467
945.262628	2709.980635
945.564367	2711.495502
945.866067	2707.351673
946.167729	2709.237065
946.469352	2706.686241
946.770937	2704.765561
947.072484	2701.365303
947.373992	2705.403267
947.675462	2700.621733
947.976893	2700.838502
948.278286	2697.881866
948.579641	2699.124510
948.880958	2695.174766
949.182236	2698.154088
949.483476	2693.995136
949.784678	2695.015970
950.085841	2696.535877
950.386967	2695.431865
950.688054	2695.852801
950.989103	2700.566280
951.290114	2702.313040
951.591087	2704.881508
951.892021	2710.298227
952.192917	2714.076572
952.493776	2719.992366
952.794596	2722.149980
953.095378	2724.032851
953.396122	2724.607543
953.696828	2723.057388
953.997496	2726.747512
954.298126	2719.233673
954.598718	2717.587736
954.899272	2718.129660
955.199788	2711.031715
955.500266	2707.752445
955.800706	2697.839016
956.101108	2687.280319
956.401472	2684.588343
956.701798	2677.467713
957.002087	2669.159892
957.302337	2667.294665
957.602550	2662.442554
957.902724	2654.117088
958.202861	2652.060298
958.502960	2646.814977
958.803022	2644.914462
959.103045	2639.016312
959.403031	2636.432721
959.702979	2630.786628
960.002889	2631.348717
960.302762	2625.226236
960.602596	2623.015690
960.902393	2622.660288
961.202153	2619.791872
961.501875	2617.334309
961.801559	2616.182406
962.101205	2612.638475
962.400814	2613.561006
962.700385	2614.763321
962.999918	2613.339195
963.299414	2609.104626
963.598873	2607.977928
963.898293	2609.051694
964.197677	2608.139245
964.497022	2609.326437
964.796331	2606.634460
965.095601	2606.584049
965.394835	2606.354676
965.694030	2606.763010
965.993189	2604.776795
966.292309	2603.687906
966.591393	2602.767895
966.890439	2602.299068
967.189447	2604.660849
967.488419	2605.164964
967.787353	2604.396188
968.086249	2600.650611
968.385108	2607.728391
968.683930	2604.204624
968.982714	2605.658997
969.281462	2606.021960
969.580172	2607.395675
969.878844	2608.701333
970.177480	2608.766868
970.476078	2608.794595
970.774639	2611.773917
971.073162	2615.832046
971.371649	2609.722167
971.670098	2614.299535
971.968510	2613.039246
972.266885	2612.323402
972.565223	2620.550566
972.863524	2618.859258
973.161788	2620.868158
973.460014	2619.486882
973.758204	2622.332613
974.056356	2620.459825
974.354471	2621.606687
974.652550	2621.946965
974.950591	2621.019393
975.248595	2622.882099
975.546563	2626.473921
975.844493	2619.673405
976.142386	2619.091152
976.440243	2619.789351
976.738062	2619.774228
977.035845	2617.329268
977.333590	2618.448404
977.631299	2612.721654
977.928971	2614.972529
978.226606	2613.722323
978.524204	2612.068824
978.821765	2611.700820
979.119290	2611.433639
979.416777	2610.871550
979.714228	2610.959770
980.011642	2613.339195
980.309020	2617.548558
980.606360	2616.641151
980.903664	2621.553755
981.200931	2623.892851
981.498162	2633.770992
981.795356	2642.371200
982.092513	2656.511637
982.389633	2676.202383
982.686717	2693.886751
982.983764	2711.248485
983.280775	2725.036041
983.577749	2729.913357
983.874686	2731.100549
984.171587	2726.598798
984.468451	2722.815412
984.765279	2713.685883
985.062070	2708.382589
985.358824	2701.680375
985.655543	2689.984898
985.952224	2680.867971
986.248869	2670.344563
986.545478	2654.066677
986.842050	2643.901190
987.138586	2629.531381
987.435086	2622.662809
987.731549	2614.924638
988.027975	2611.897425
988.324366	2605.512804
988.620719	2602.130189
988.917037	2600.464088
989.213318	2600.222113
989.509563	2599.657503
989.805772	2598.457709
990.101944	2596.070723
990.398080	2594.515527
990.694180	2595.211206
990.990244	2591.142995
991.286271	2591.458067
991.582262	2593.817327
991.878217	2594.886051
992.174136	2594.795311
992.470019	2596.799169
992.765865	2596.032914
993.061676	2596.048037
993.357450	2597.686412
993.653188	2598.825713
993.948890	2600.774119
994.244556	2604.209665
994.540186	2608.696292
994.835780	2613.107302
995.131337	2623.240021
995.426859	2628.351751
995.722345	2635.956332
996.017795	2648.075266
996.313208	2655.775628
996.608586	2661.666216
996.903928	2666.084788
997.199234	2669.144768
997.494504	2669.863132
997.789738	2665.890703
998.084936	2664.660662
998.380099	2657.880310
998.675225	2652.665236
998.970316	2647.782879
999.265371	2639.364152
999.560390	2636.178142
999.855373	2628.044241
1000.150320	2620.936214
1000.445232	2616.411778
1000.740108	2612.472117
1001.034948	2605.389295
1001.329752	2600.980806
1001.624521	2600.111207
1001.919254	2593.472008
1002.213951	2592.073088
1002.508613	2587.778024
1002.803239	2589.166862
1003.097829	2588.269537
1003.392384	2589.910432
1003.686903	2586.631162
1003.981386	2587.967068
1004.275834	2587.470514
1004.570246	2588.014959
1004.864623	2585.068404
1005.158964	2585.348188
1005.453270	2586.616038
1005.747540	2585.723754
1006.041775	2583.160327
1006.335974	2583.891295
1006.630138	2582.736871
1006.924266	2581.675708
1007.218359	2582.789803
1007.512416	2581.368197
1007.806438	2583.641758
1008.100425	2585.179310
1008.394376	2580.294432
1008.688292	2583.949268
1008.982172	2581.980697
1009.276017	2583.712334
1009.569827	2581.012796
1009.863602	2581.877354
1010.157341	2581.635378
1010.451045	2581.317786
1010.744714	2581.952971
1011.038347	2580.841397
1011.331945	2580.329720
1011.625508	2580.697724
1011.919036	2580.407857
1012.212528	2578.086406
1012.505986	2579.719740
1012.799408	2580.836356
1013.092795	2579.813001
1013.386147	2580.216294
1013.679464	2580.175964
1013.972745	2577.751169
1014.265992	2579.109760
1014.559204	2579.921386
1014.852380	2579.870975
1015.145521	2579.729822
1015.438628	2573.929975
1015.731699	2581.786613
1016.024736	2579.767631
1016.317737	2579.278639
1016.610703	2581.252251
1016.903635	2577.756211
1017.196531	2575.480130
1017.489393	2577.751169
1017.782219	2577.163875
1018.075011	2577.471385
1018.367768	2580.581777
1018.660490	2583.072107
1018.953177	2583.072107
1019.245829	2583.072107
