Dividing Wavelength (nm)	Counts (n)	Blue Motor Position (mm): 4.500000	Red Motor Position (mm): 0.000000	
326.493990	2143.518780
326.888308	2143.518780
327.282561	2143.518780
327.676750	2108.601228
328.070874	2109.884202
328.464933	2111.880498
328.858929	2118.794441
329.252859	2127.805503
329.646726	2140.347894
330.040528	2154.349699
330.434265	2168.434683
330.827938	2188.846315
331.221547	2205.716536
331.615091	2225.472818
332.008571	2244.790520
332.401986	2262.298447
332.795338	2283.302414
333.188625	2303.220013
333.581847	2319.497899
333.975006	2339.193687
334.368100	2355.854701
334.761129	2374.711137
335.154095	2392.634959
335.546996	2408.771692
335.939833	2422.856676
336.332606	2436.921496
336.725315	2451.818105
337.117960	2461.439147
337.510540	2466.787812
337.903056	2480.096458
338.295508	2487.769094
338.687896	2494.856956
339.080220	2502.557319
339.472480	2511.565861
339.864676	2514.701458
340.256807	2519.324196
340.648875	2519.793024
341.040879	2525.925587
341.432818	2525.837367
341.824694	2527.848788
342.216506	2528.373068
342.608253	2528.249559
342.999937	2528.698222
343.391557	2529.346010
343.783113	2525.708818
344.174605	2526.338962
344.566033	2522.137160
344.957397	2522.598426
345.348697	2520.118178
345.739934	2519.465349
346.131106	2514.847652
346.522215	2516.919566
346.913260	2513.529390
347.304241	2511.170130
347.695159	2508.636950
348.086012	2507.638802
348.476802	2506.529748
348.867528	2507.142248
349.258191	2504.283914
349.648789	2503.943636
350.039324	2499.968686
350.429796	2499.373830
350.820203	2496.931391
351.210548	2498.085815
351.600828	2494.531802
351.991045	2497.513644
352.381198	2493.939466
352.771288	2495.386277
353.161314	2491.902840
353.551276	2495.950887
353.941175	2494.988026
354.331010	2494.700680
354.720782	2495.338386
355.110490	2495.161946
355.500135	2494.909888
355.889717	2496.407111
356.279235	2494.453664
356.668689	2494.925012
357.058080	2499.018429
357.447408	2492.354023
357.836672	2493.150526
358.225873	2494.383088
358.615010	2492.855618
359.004084	2495.013232
359.393095	2500.084633
359.782043	2496.487769
360.170927	2498.479025
360.559748	2498.746206
360.948505	2498.852071
361.337199	2502.022956
361.725830	2500.876094
362.114398	2502.776609
362.502903	2501.012205
362.891344	2502.968173
363.279722	2501.932216
363.668037	2504.120076
364.056289	2502.769047
364.444478	2504.692247
364.832603	2504.115035
365.220665	2504.011692
365.608665	2505.700478
365.996601	2503.605879
366.384474	2503.109325
366.772284	2509.453617
367.160031	2506.282731
367.547715	2508.768020
367.935336	2505.307268
368.322893	2507.169974
368.710388	2505.360200
369.097820	2510.764317
369.485189	2507.560664
369.872495	2508.422701
370.259738	2507.961436
370.646918	2509.982938
371.034035	2509.463699
371.421090	2508.694923
371.808081	2510.996210
372.195010	2511.858247
372.581875	2511.616272
372.968678	2511.666684
373.355418	2509.874553
373.742096	2509.877074
374.128710	2509.314985
374.515262	2510.676097
374.901751	2510.040912
375.288177	2512.765655
375.674540	2511.618793
376.060841	2511.732219
376.447079	2513.642816
376.833254	2512.642147
377.219367	2508.271467
377.605417	2509.987979
377.991404	2508.309275
378.377329	2508.878926
378.763191	2508.347084
379.148991	2515.775224
379.534727	2512.009482
379.920402	2515.099709
380.306013	2514.033505
380.691563	2516.428053
381.077049	2514.167096
381.462474	2514.678773
381.847835	2513.587363
382.233134	2513.594925
382.618371	2516.854031
383.003545	2516.947292
383.388657	2513.829339
383.773706	2515.407220
384.158693	2515.707168
384.543618	2516.556603
384.928480	2517.325379
385.313280	2514.406551
385.698017	2517.297652
386.082692	2519.130112
386.467305	2516.400327
386.851856	2519.919053
387.236344	2519.062056
387.620770	2518.429392
388.005133	2519.246058
388.389435	2519.082221
388.773674	2518.159690
389.157851	2517.464011
389.541965	2519.200688
389.926018	2517.673218
390.310008	2520.685308
390.693936	2520.196316
391.077802	2520.423168
391.461606	2519.329237
391.845348	2519.122550
392.229027	2519.281347
392.612645	2521.383508
392.996200	2522.452232
393.379694	2520.720596
393.763125	2522.074146
394.146494	2520.007273
394.529801	2525.587830
394.913047	2521.935514
395.296230	2521.257479
395.679351	2522.323683
396.062410	2521.935514
396.445408	2521.370905
396.828343	2524.362830
397.211217	2517.988291
397.594028	2522.217819
397.976778	2519.510719
398.359466	2525.050947
398.742092	2520.526512
399.124656	2524.244363
399.507158	2524.496420
399.889598	2524.816533
400.271977	2524.534229
400.654294	2525.686133
401.036549	2526.074301
401.418742	2525.585309
401.800874	2528.262162
402.182944	2527.130423
402.564952	2521.963240
402.946898	2526.991791
403.328783	2525.066071
403.710606	2527.921884
404.092367	2525.943231
404.474067	2525.739065
404.855705	2526.326359
405.237282	2528.292409
405.618797	2524.352747
406.000250	2526.772501
406.381642	2524.551873
406.762972	2524.393077
407.144240	2525.343334
407.525447	2527.669827
407.906593	2526.520443
408.287677	2528.264683
408.668700	2527.153108
409.049661	2524.866945
409.430560	2527.253931
409.811399	2527.168232
410.192176	2529.252749
410.572891	2531.186031
410.953545	2528.983047
411.334138	2529.882893
411.714669	2528.216792
412.095139	2533.411701
412.475547	2530.911288
412.855894	2530.959179
413.236180	2527.505989
413.616405	2533.084026
413.996568	2530.054292
414.376670	2531.619571
414.756711	2528.980527
415.136691	2529.409025
415.516609	2532.037986
415.896466	2531.241484
416.276262	2531.506145
416.655997	2527.001874
417.035670	2527.072450
417.415283	2528.552028
417.794834	2526.346524
418.174324	2532.887421
418.553753	2530.704601
418.933121	2532.463964
419.312428	2535.231557
419.691674	2534.062010
420.070859	2531.833820
420.449983	2531.997657
420.829045	2532.650487
421.208047	2532.438758
421.586988	2532.784077
421.965867	2533.336083
422.344686	2531.947246
422.723444	2532.312729
423.102141	2533.008408
423.480777	2530.331556
423.859352	2535.100487
424.237866	2535.183666
424.616319	2535.473533
424.994712	2536.144006
425.373044	2535.382792
425.751314	2534.495549
426.129524	2535.196269
426.507673	2536.413708
426.885762	2532.221988
427.263789	2535.092926
427.641756	2536.693492
428.019662	2536.179294
428.397508	2535.463450
428.775292	2535.067720
429.153016	2533.124355
429.530679	2536.270035
429.908282	2534.218285
430.285824	2535.821372
430.663305	2537.089223
431.040726	2534.185518
431.418086	2532.544622
431.795385	2535.894469
432.172624	2534.939170
432.549802	2536.978317
432.926920	2536.179294
433.303977	2535.927237
433.680974	2538.399923
434.057910	2537.157278
434.434786	2536.335570
434.811601	2538.667104
435.188355	2537.217772
435.565050	2535.803728
435.941683	2535.677699
436.318257	2537.162319
436.694770	2531.589324
437.071222	2536.136444
437.447614	2535.181146
437.823946	2534.097298
438.200218	2539.221631
438.576429	2538.538554
438.952580	2537.321116
439.328670	2539.241795
439.704700	2537.227854
440.080670	2539.319933
440.456580	2537.416897
440.832429	2538.979655
441.208218	2537.326157
441.583947	2542.440407
441.959616	2541.396888
442.335224	2538.815818
442.710773	2539.239275
443.086261	2541.316230
443.461689	2537.303472
443.837057	2538.273894
444.212365	2539.864378
444.587612	2539.813966
444.962800	2540.862526
445.337927	2538.881353
445.712995	2540.277752
446.088002	2539.352701
446.462949	2538.659542
446.837837	2538.160468
447.212664	2540.108874
447.587431	2542.107691
447.962139	2540.015612
448.336786	2540.587783
448.711374	2540.292876
449.085901	2542.291693
449.460369	2540.355890
449.834776	2541.747249
450.209124	2539.967721
450.583412	2539.488812
450.957640	2539.511497
451.331808	2541.316230
451.705917	2541.245654
452.079965	2543.708258
452.453954	2541.134748
452.827883	2543.766231
453.201752	2541.429656
453.575562	2541.749769
453.949311	2539.879501
454.323001	2543.718340
454.696632	2540.217258
455.070202	2542.107691
455.443713	2541.795140
455.817164	2539.324974
456.190556	2538.725077
456.563888	2541.921168
456.937160	2538.105015
457.310373	2539.982845
457.683526	2544.189688
458.056619	2542.710109
458.429653	2542.677342
458.802628	2542.929399
459.175542	2540.577701
459.548398	2542.760521
459.921194	2542.533669
460.293930	2544.368649
460.666607	2543.473844
461.039224	2543.574667
461.411782	2545.671787
461.784280	2541.477547
462.156719	2543.070552
462.529099	2544.804708
462.901419	2543.776313
463.273680	2541.800181
463.645882	2543.642722
464.018024	2544.023330
464.390106	2545.974256
464.762130	2542.490819
465.134094	2546.024668
465.505999	2544.403937
465.877845	2544.426622
466.249631	2542.856302
466.621358	2543.551982
466.993026	2547.743701
467.364634	2550.128167
467.736184	2544.252702
468.107674	2543.325130
468.479105	2543.378062
468.850477	2541.162475
469.221790	2545.049204
469.593043	2545.427291
469.964238	2545.747404
470.335373	2547.259750
470.706449	2542.904193
471.077467	2545.021478
471.448425	2545.838145
471.819324	2543.859492
472.190164	2545.843186
472.560945	2547.829401
472.931667	2544.424101
473.302330	2544.940820
473.672934	2544.696324
474.043479	2546.276725
474.413965	2544.963505
474.784393	2540.025695
475.154761	2547.093392
475.525070	2543.678011
475.895321	2543.932589
476.265513	2542.054759
476.635645	2546.982487
477.005719	2545.742363
477.375734	2546.564071
477.745691	2545.850748
478.115588	2547.731098
478.485427	2543.657846
478.855207	2545.452497
479.224928	2544.517363
479.594591	2543.947712
479.964194	2546.380069
480.333739	2548.036088
480.703226	2547.789072
481.072653	2545.581046
481.442022	2548.293187
481.811333	2548.699000
482.180584	2545.644061
482.549777	2548.467107
482.918912	2545.306303
483.287988	2547.199257
483.657005	2546.468289
484.025964	2546.175902
484.394864	2545.422250
484.763706	2548.164638
485.132489	2546.538865
485.501213	2547.005172
485.869879	2547.090872
486.238487	2543.189019
486.607036	2547.968032
486.975527	2545.586087
487.343959	2546.737991
487.712333	2546.526262
488.080648	2548.520039
488.448905	2547.496685
488.817104	2544.834955
489.185244	2549.550955
489.553326	2548.373845
489.921350	2548.194884
490.289315	2546.465769
490.657222	2548.759494
491.025070	2547.693290
491.392861	2547.937786
491.760593	2549.414844
492.128267	2548.068856
492.495883	2549.757642
492.863440	2548.038609
493.230939	2549.331665
493.598380	2548.862837
493.965763	2546.705223
494.333088	2544.287990
494.700354	2544.587939
495.067563	2547.095913
495.434713	2544.986190
495.801805	2547.587425
496.168839	2547.784030
496.535815	2547.368135
496.902733	2549.515667
497.269593	2552.036244
497.636395	2550.057591
498.003139	2548.522559
498.369825	2548.000800
498.736453	2551.713610
499.103023	2549.913918
499.469535	2550.682694
499.835989	2547.708413
500.202385	2548.910728
500.568723	2548.736808
500.935003	2549.392158
501.301226	2547.731098
501.667390	2548.925852
502.033497	2550.221428
502.399546	2550.155893
502.765537	2549.014072
503.131470	2547.867209
503.497345	2549.021634
503.863163	2550.460883
504.228923	2548.830070
504.594625	2550.876778
504.960269	2547.736139
505.325856	2549.863506
505.691385	2547.398382
506.056856	2550.662529
506.422270	2549.939124
506.787625	2551.229659
507.152924	2550.889381
507.518164	2548.736808
507.883347	2550.997766
508.248472	2548.721685
508.613540	2548.041129
508.978550	2550.647406
509.343503	2550.768393
509.708398	2549.964329
510.073236	2551.416182
510.438016	2551.252344
510.802738	2549.828218
511.167403	2550.833928
511.532010	2551.963147
511.896561	2550.360060
512.261053	2550.596994
512.625488	2547.269833
512.989866	2546.732950
513.354186	2547.355532
513.718449	2547.078269
514.082655	2548.396531
514.446803	2549.230842
514.810894	2550.707900
515.174927	2552.774773
515.538904	2548.235214
515.902822	2551.655637
516.266684	2549.160265
516.630488	2548.857796
516.994235	2551.269988
517.357925	2550.612118
517.721558	2550.407951
518.085133	2550.942313
518.448651	2551.307797
518.812112	2552.507592
519.175516	2551.920297
519.538863	2548.509957
519.902152	2549.555996
520.265385	2549.266130
520.628560	2553.430123
520.991678	2550.004659
521.354739	2549.331665
521.717743	2548.953578
522.080690	2551.075904
522.443580	2548.404092
522.806413	2549.956768
523.169189	2550.508774
523.531908	2550.443239
523.894569	2550.143290
524.257174	2554.156049
524.619722	2550.539021
524.982213	2550.796120
525.344647	2550.299566
525.707025	2551.244782
526.069345	2552.295863
526.431608	2551.237221
526.793815	2549.717313
527.155964	2550.097920
527.518057	2550.627241
527.880093	2553.089845
528.242072	2551.269988
528.603995	2549.951727
528.965860	2551.867365
529.327669	2552.013558
529.689421	2550.486089
530.051117	2553.104968
530.412755	2552.739485
530.774337	2550.304607
531.135862	2551.476676
531.497331	2548.930893
531.858743	2548.746891
532.220098	2552.832746
532.581396	2545.727240
532.942638	2549.187992
533.303824	2549.568599
533.664953	2549.624052
534.026025	2551.259906
534.387040	2551.186809
534.747999	2550.738147
535.108902	2552.074052
535.469748	2553.465411
535.830537	2551.267468
536.191270	2549.893753
536.551947	2553.697304
536.912567	2551.537169
537.273131	2549.268650
537.633638	2553.147818
537.994089	2552.091696
538.354483	2551.902653
538.714821	2551.257385
539.075103	2551.065822
539.435328	2552.560524
539.795497	2553.510781
540.155609	2552.714279
540.515665	2551.627910
540.875665	2553.190668
541.235609	2550.725544
541.595496	2551.025492
541.955328	2548.731767
542.315102	2551.988353
542.674821	2551.060780
543.034483	2552.585729
543.394090	2552.003476
543.753640	2553.808209
544.113134	2553.583878
544.472571	2553.354505
544.831953	2552.268137
545.191278	2554.019938
545.550548	2551.897612
545.909761	2550.012220
546.268918	2550.881819
546.628019	2551.821995
546.987064	2552.041285
547.346053	2549.661860
547.704986	2548.394010
548.063863	2551.796789
548.422684	2551.514484
548.781449	2551.562375
549.140158	2551.784186
549.498811	2554.400545
549.857408	2551.708569
550.215949	2548.709082
550.574434	2547.809236
550.932864	2548.325954
551.291237	2546.695141
551.649555	2552.079093
552.007817	2551.333003
552.366022	2550.894422
552.724173	2551.305276
553.082267	2551.985832
553.440305	2552.563044
553.798288	2551.022972
554.156215	2549.314021
554.514086	2551.267468
554.871902	2550.110523
555.229661	2553.586398
555.587365	2551.403579
555.945014	2553.175544
556.302606	2551.597663
556.660143	2553.846018
557.017625	2552.595812
557.375050	2552.736964
557.732421	2551.716130
558.089735	2551.282591
558.446994	2553.578837
558.804197	2553.001625
559.161345	2552.409289
559.518437	2554.645041
559.875474	2551.073383
560.232455	2552.069011
560.589381	2552.212684
560.946251	2555.781821
561.303065	2553.525905
561.659825	2551.474155
562.016528	2550.808723
562.373177	2550.496171
562.729770	2555.033210
563.086307	2553.765359
563.442789	2553.662016
563.799216	2551.373332
564.155587	2551.960626
564.511904	2552.701676
564.868164	2549.014072
565.224370	2552.784855
565.580520	2552.152190
565.936615	2553.165462
566.292654	2551.837118
566.648638	2553.999773
567.004567	2551.154042
567.360441	2551.814433
567.716260	2550.690256
568.072023	2553.311656
568.427732	2548.814946
568.783385	2550.244113
569.138982	2547.839483
569.494525	2550.281922
569.850013	2547.438711
570.205445	2551.469114
570.560823	2552.623538
570.916145	2553.039433
571.271412	2551.257385
571.626625	2552.477345
571.981782	2551.781665
572.336884	2552.222766
572.691931	2550.057591
573.046923	2550.695297
573.401860	2552.159752
573.756743	2551.365770
574.111570	2552.270657
574.466342	2552.888199
574.821059	2550.596994
575.175722	2551.854762
575.530330	2554.284598
575.884882	2552.860472
576.239380	2552.416851
576.593823	2555.620504
576.948211	2549.757642
577.302544	2552.779814
577.656823	2552.787376
578.011047	2554.735782
578.365216	2552.152190
578.719330	2552.069011
579.073389	2551.595143
579.427394	2552.411810
579.781344	2553.276367
580.135239	2552.555482
580.489080	2554.826522
580.842866	2553.110009
581.196597	2555.464228
581.550273	2552.605894
581.903895	2550.034906
582.257463	2551.038095
582.610975	2550.181099
582.964434	2551.648075
583.317837	2551.171686
583.671186	2552.431974
584.024481	2553.135215
584.377721	2554.100596
584.730906	2551.048177
585.084037	2553.944320
585.437113	2552.119423
585.790135	2550.483568
586.143103	2551.869886
586.496016	2552.661347
586.848874	2548.898125
587.201679	2549.450132
587.554428	2548.361243
587.907124	2550.690256
588.259765	2550.768393
588.612352	2556.142263
588.964884	2554.876934
589.317362	2554.415668
589.669786	2554.947510
590.022155	2553.440205
590.374470	2555.491955
590.726731	2550.506253
591.078937	2552.953734
591.431090	2550.901984
591.783188	2552.316028
592.135232	2551.741336
592.487222	2554.183775
592.839157	2552.999104
593.191038	2552.169834
593.542866	2553.087324
593.894639	2553.417520
594.246358	2553.830894
594.598022	2551.138918
594.949633	2552.411810
595.301190	2552.779814
595.652692	2553.483055
596.004141	2554.375339
596.355535	2552.636141
596.706876	2551.804351
597.058162	2550.065153
597.409395	2551.605225
597.760573	2550.455842
598.111698	2549.344268
598.462768	2553.339382
598.813785	2551.673281
599.164748	2553.871224
599.515657	2551.529608
599.866511	2554.536656
600.217312	2551.247303
600.568060	2552.530277
600.918753	2557.049671
601.269392	2552.424413
601.619978	2550.546583
601.970510	2551.970709
602.320988	2554.108158
602.671412	2553.604042
603.021783	2552.182437
603.372100	2553.485575
603.722363	2555.378529
604.072572	2552.041285
604.422728	2554.161090
604.772830	2551.060780
605.122878	2550.473486
605.472872	2550.745708
605.822813	2547.910059
606.172701	2551.948023
606.522534	2553.241079
606.872314	2553.233518
607.222041	2553.455328
607.571714	2554.377860
607.921333	2553.190668
608.270899	2552.913404
608.620411	2554.486244
608.969870	2553.503219
609.319276	2554.854249
609.668627	2556.159907
610.017926	2561.722821
610.367171	2561.639642
610.716362	2557.508416
611.065500	2556.744681
611.414585	2558.446071
611.763616	2555.103786
612.112594	2555.834753
612.461518	2557.515978
612.810389	2555.804506
613.159207	2553.558672
613.507971	2555.456667
613.856682	2554.450956
614.205340	2554.115720
614.553945	2557.604198
614.902496	2553.218394
615.250994	2554.289639
615.599439	2552.479865
615.947830	2556.865669
616.296169	2554.304763
616.644454	2553.591440
616.992686	2552.154711
617.340864	2553.828374
617.688990	2553.220915
618.037063	2552.810061
618.385082	2551.774104
618.733048	2553.946841
619.080961	2550.120605
619.428821	2552.084135
619.776628	2553.503219
620.124382	2553.604042
620.472083	2553.591440
620.819731	2554.652602
621.167326	2553.064639
621.514868	2553.427602
621.862357	2551.083466
622.209793	2553.404917
622.557176	2553.452808
622.904506	2549.682025
623.251783	2549.233362
623.599007	2549.873589
623.946179	2549.482899
624.293297	2552.822664
624.640363	2553.709907
624.987376	2553.699824
625.334336	2551.910215
625.681243	2551.554813
626.028097	2551.990873
626.374899	2551.882488
626.721647	2552.242931
627.068343	2553.840977
627.414987	2554.035061
627.761577	2554.458518
628.108115	2551.333003
628.454600	2554.771070
628.801032	2552.739485
629.147412	2553.649413
629.493739	2552.028682
629.840014	2551.078424
630.186236	2552.437015
630.532405	2555.839794
630.878521	2553.977088
631.224585	2554.125802
631.570597	2553.518343
631.916556	2550.476007
632.262462	2553.530946
632.608316	2552.384083
632.954117	2551.196892
633.299866	2551.224618
633.645562	2552.537838
633.991206	2553.634289
634.336797	2551.234700
634.682336	2555.607901
635.027823	2552.905843
635.373257	2552.298384
635.718639	2551.824515
636.063968	2552.643703
636.409245	2552.991542
636.754470	2550.886861
637.099642	2550.954916
637.444762	2553.407438
637.789829	2552.263096
638.134845	2550.743188
638.479808	2552.396686
638.824719	2552.391645
639.169577	2553.780483
639.514383	2553.251162
639.859137	2549.432488
640.203839	2552.663867
640.548489	2551.428785
640.893086	2549.676984
641.237632	2548.966181
641.582125	2549.369473
641.926566	2546.841335
642.270955	2553.062118
642.615292	2549.787889
642.959576	2552.184958
643.303809	2550.352498
643.647990	2554.443395
643.992118	2553.311656
644.336195	2550.914587
644.680219	2551.126315
645.024192	2552.374001
645.368112	2553.228477
645.711981	2550.052550
646.055797	2550.428116
646.399562	2551.532128
646.743274	2550.670091
647.086935	2553.074721
647.430544	2552.255534
647.774101	2554.067829
648.117606	2553.523384
648.461059	2551.401058
648.804460	2555.504557
649.147810	2551.688404
649.491108	2551.960626
649.834354	2551.209494
650.177548	2552.321069
650.520690	2552.462221
650.863781	2552.363919
651.206820	2556.134702
651.549807	2552.439536
651.892742	2552.883157
652.235626	2552.971378
652.578458	2548.736808
652.921238	2551.040616
653.263967	2553.425082
653.606644	2551.872406
653.949269	2550.055070
654.291843	2555.837274
654.634365	2550.496171
654.976836	2552.752088
655.319255	2551.176727
655.661622	2551.580019
656.003938	2552.379042
656.346203	2552.870555
656.688416	2552.058929
657.030577	2554.700493
657.372687	2552.089176
657.714746	2551.930379
658.056753	2553.200750
658.398708	2547.834442
658.740612	2547.302600
659.082465	2549.646737
659.424266	2548.857796
659.766016	2544.368649
660.107715	2550.695297
660.449362	2551.370811
660.790958	2553.455328
661.132503	2551.821995
661.473996	2552.600853
661.815438	2552.706717
662.156829	2553.268806
662.498168	2551.257385
662.839456	2552.227807
663.180693	2550.975081
663.521879	2550.874258
663.863013	2551.191850
664.204097	2553.591440
664.545129	2550.075235
664.886110	2551.111192
665.227040	2550.584391
665.567918	2552.439536
665.908746	2550.445760
666.249522	2553.823333
666.590248	2551.378373
666.930922	2551.191850
667.271545	2549.477858
667.612118	2552.250493
667.952639	2549.722354
668.293109	2551.885009
668.633528	2553.039433
668.973896	2550.465924
669.314213	2551.113713
669.654480	2554.014897
669.994695	2550.952396
670.334859	2549.654298
670.674973	2553.092365
671.015035	2552.154711
671.355047	2552.868034
671.695008	2553.324258
672.034918	2550.654967
672.374777	2552.951213
672.714585	2552.374001
673.054342	2552.966337
673.394049	2553.278888
673.733705	2551.774104
674.073310	2553.019269
674.412864	2551.529608
674.752368	2552.033723
675.091820	2552.316028
675.431223	2551.834598
675.770574	2552.374001
676.109875	2547.216901
676.449125	2549.651778
676.788324	2548.293187
677.127473	2549.661860
677.466571	2545.558361
677.805619	2550.559186
678.144616	2551.912735
678.483562	2551.396017
678.822458	2551.950544
679.161303	2552.825184
679.500098	2551.043136
679.838842	2552.328631
680.177535	2549.818136
680.516179	2551.315359
680.854771	2549.770245
681.193314	2550.148332
681.531805	2552.540359
681.870247	2551.695966
682.208638	2550.987684
682.546978	2554.007335
682.885268	2552.313507
683.223508	2552.051367
683.561697	2547.857127
683.899836	2552.482386
684.237925	2550.050029
684.575963	2550.773435
684.913951	2552.028682
685.251889	2552.449618
685.589776	2550.241593
685.927614	2553.490617
686.265401	2549.432488
686.603137	2549.548434
686.940824	2552.119423
687.278460	2550.803682
687.616046	2553.241079
687.953582	2553.757798
688.291068	2551.275029
688.628504	2550.972560
688.965889	2549.966850
689.303224	2551.842159
689.640510	2551.133877
689.977745	2550.859134
690.314930	2551.431305
690.652065	2554.080432
690.989150	2551.549772
691.326185	2548.300749
691.663170	2549.084648
692.000105	2551.784186
692.336990	2551.897612
692.673825	2550.526418
693.010610	2550.392828
693.347345	2547.360573
693.684030	2545.235727
694.020665	2550.680173
694.357251	2548.227652
694.693786	2547.426108
695.030272	2550.937272
695.366707	2552.154711
695.703093	2550.080276
696.039429	2551.726213
696.375716	2549.326623
696.711952	2549.828218
697.048139	2551.141439
697.384276	2549.830739
697.720363	2550.019782
698.056400	2550.327293
698.392388	2553.747715
698.728326	2551.635472
699.064214	2549.477858
699.400053	2552.404248
699.735842	2551.138918
700.071581	2551.937941
700.407270	2551.272509
700.742910	2550.959957
701.078501	2554.788714
701.414042	2550.158414
701.749533	2549.089689
702.084974	2552.560524
702.420366	2549.210677
702.755709	2553.591440
703.091002	2549.949206
703.426246	2553.256203
703.761440	2550.637323
704.096584	2550.985163
704.431679	2551.045657
704.766725	2550.113043
705.101721	2551.716130
705.436668	2548.315872
705.771565	2549.976932
706.106413	2552.500030
706.441212	2550.826367
706.775961	2553.593960
707.110661	2552.394166
707.445311	2550.349978
707.779913	2549.455173
708.114465	2552.893240
708.448967	2550.322251
708.783421	2550.934752
709.117825	2548.162117
709.452180	2549.523228
709.786485	2548.459545
710.120742	2552.684032
710.454949	2551.549772
710.789107	2548.704041
711.123216	2546.866540
711.457275	2549.682025
711.791286	2547.141283
712.125247	2546.377548
712.459159	2550.748229
712.793023	2550.745708
713.126837	2551.020451
713.460602	2551.234700
713.794318	2550.617159
714.127985	2551.980791
714.461602	2548.167158
714.795171	2551.602704
715.128691	2551.816953
715.462162	2551.484237
715.795584	2549.198074
716.128957	2550.584391
716.462281	2547.393341
716.795556	2549.742519
717.128782	2550.964998
717.461960	2550.677653
717.795088	2550.027344
718.128167	2551.481717
718.461198	2548.988866
718.794180	2553.377191
719.127113	2551.685883
719.459997	2549.407282
719.792833	2551.113712
720.125619	2550.476007
720.458357	2551.988353
720.791046	2550.599515
721.123686	2549.823177
721.456278	2550.418033
721.788821	2545.981818
722.121315	2552.505071
722.453761	2553.029351
722.786158	2548.988866
723.118506	2546.816129
723.450805	2549.198074
723.783056	2549.067004
724.115259	2551.262427
724.447412	2548.870399
724.779518	2549.026675
725.111574	2551.834598
725.443582	2549.001469
725.775542	2548.278063
726.107453	2548.895605
726.439315	2552.036244
726.771129	2553.626728
727.102895	2548.252858
727.434612	2550.808723
727.766281	2552.285781
728.097901	2546.705223
728.429473	2547.564740
728.760996	2546.501057
729.092471	2545.122301
729.423897	2551.948023
729.755276	2548.993907
730.086606	2548.341078
730.417887	2553.220915
730.749120	2549.135060
731.080305	2551.007848
731.411442	2551.383414
731.742530	2549.593805
732.073570	2549.452652
732.404562	2550.281922
732.735506	2552.089176
733.066401	2551.920297
733.397249	2551.837118
733.728048	2548.767055
734.058798	2549.613969
734.389501	2551.612787
734.720156	2551.022972
735.050762	2547.511808
735.381320	2547.910059
735.711831	2547.665563
736.042293	2549.883671
736.372707	2548.318393
736.703073	2551.456511
737.033391	2549.576161
737.363661	2549.495502
737.693883	2549.500543
738.024056	2553.354505
738.354182	2548.948537
738.684260	2550.720502
739.014290	2547.980635
739.344272	2549.591284
739.674207	2548.134391
740.004093	2549.997097
740.333931	2551.406099
740.663722	2550.735626
740.993464	2547.360573
741.323159	2550.871737
741.652806	2549.863506
741.982405	2550.599515
742.311956	2547.471479
742.641460	2553.321738
742.970915	2550.455842
743.300323	2551.194371
743.629683	2551.222097
743.958996	2547.784030
744.288260	2547.506767
744.617477	2549.238403
744.946647	2544.799667
745.275768	2545.230686
745.604842	2547.947868
745.933869	2546.317055
746.262847	2544.356046
746.591778	2550.160934
746.920662	2550.728064
747.249498	2550.929710
747.578286	2548.197405
747.907027	2549.245965
748.235720	2547.385779
748.564365	2549.356870
748.892963	2550.244113
749.221514	2548.578012
749.550017	2551.002807
749.878473	2548.877961
750.206881	2550.922149
750.535242	2549.571119
750.863555	2551.088507
751.191821	2550.022303
751.520039	2549.984494
751.848210	2548.210008
752.176334	2548.943496
752.504411	2549.470296
752.832440	2549.205636
753.160421	2549.780327
753.488356	2548.961140
753.816243	2549.230842
754.144082	2547.607590
754.471875	2549.951727
754.799620	2549.465255
755.127318	2546.468289
755.454969	2550.062632
755.782572	2549.145142
756.110129	2549.770245
756.437638	2548.310831
756.765100	2548.825029
757.092515	2548.373845
757.419882	2547.496685
757.747203	2547.295038
758.074477	2549.016592
758.401703	2548.058773
758.728882	2549.896274
759.056014	2550.133208
759.383099	2549.734957
759.710138	2550.470965
760.037129	2548.699000
760.364073	2549.805533
760.690970	2549.124977
761.017820	2551.721172
761.344623	2550.788558
761.671379	2547.489123
761.998088	2544.847558
762.324751	2548.439380
762.651366	2548.101623
762.977935	2547.100954
763.304456	2542.405119
763.630931	2548.693959
763.957359	2549.268650
764.283740	2549.387117
764.610074	2549.792930
764.936362	2550.796120
765.262602	2549.616490
765.588796	2546.546427
765.914943	2548.872920
766.241044	2548.794782
766.567097	2548.210008
766.893104	2551.055739
767.219064	2547.242106
767.544978	2551.126315
767.870845	2547.289997
768.196665	2549.082128
768.522438	2548.797302
768.848165	2548.099102
769.173846	2551.668239
769.499479	2549.301418
769.825066	2548.078938
770.150607	2547.688248
770.476101	2547.915100
770.801548	2549.797971
771.126949	2550.173537
771.452303	2549.256047
771.777611	2552.200081
772.102872	2551.146480
772.428087	2547.277394
772.753256	2549.835780
773.078378	2549.187992
773.403453	2548.867878
773.728482	2548.822508
774.053465	2546.165820
774.378401	2549.659340
774.703291	2550.060111
775.028135	2548.953578
775.352932	2549.387117
775.677683	2548.580533
776.002388	2548.235214
776.327046	2551.186809
776.651658	2549.225800
776.976224	2546.170861
777.300743	2547.877292
777.625216	2547.451314
777.949643	2548.575492
778.274024	2551.030533
778.598359	2544.860161
778.922647	2547.418547
779.246889	2546.876623
779.571086	2543.879657
779.895236	2544.658515
780.219339	2549.026675
780.543397	2551.128836
780.867409	2549.548434
781.191374	2548.976263
781.515294	2548.101623
781.839167	2547.700851
782.162995	2547.365615
782.486776	2549.724875
782.810511	2548.361243
783.134201	2549.797971
783.457844	2548.111705
783.781441	2548.610780
784.104993	2550.634803
784.428498	2548.744370
784.751958	2547.284956
785.075372	2548.842673
785.398739	2549.505584
785.722061	2548.262940
786.045337	2550.493651
786.368568	2546.513660
786.691752	2546.511139
787.014891	2547.650440
787.337983	2548.603218
787.661030	2549.251006
787.984031	2546.921993
788.306987	2548.812426
788.629897	2548.905687
788.952760	2546.884184
789.275579	2548.492312
789.598351	2548.247817
789.921078	2547.032898
790.243759	2546.899308
790.566395	2546.362425
790.888984	2548.986346
791.211529	2547.048022
791.534027	2548.734288
791.856480	2547.920142
792.178888	2549.787889
792.501249	2548.600697
792.823566	2548.898125
793.145836	2548.870399
793.468062	2550.226469
793.790241	2546.697662
794.112375	2547.592467
794.434464	2547.877292
794.756507	2550.181099
795.078505	2548.482230
795.400457	2547.862168
795.722364	2544.207332
796.044226	2546.667415
796.366042	2544.106509
796.687812	2547.161448
797.009538	2547.781510
797.331218	2550.097920
797.652852	2546.533824
797.974442	2545.946530
798.295986	2550.019782
798.617484	2546.944678
798.938938	2547.181612
799.260346	2550.150852
799.581709	2547.005172
799.903026	2550.158414
800.224299	2548.126829
800.545526	2547.554658
800.866708	2547.882333
801.187845	2548.119267
801.508936	2546.695141
801.829983	2547.229503
802.150984	2551.113712
802.471940	2548.187323
802.792851	2548.610780
803.113717	2548.121788
803.434538	2547.511808
803.755314	2547.027857
804.076045	2547.995759
804.396731	2550.397869
804.717372	2549.243444
805.037967	2548.318393
805.358518	2547.973074
805.679024	2547.045501
805.999485	2548.207487
806.319901	2549.377035
806.640272	2548.202446
806.960598	2548.482230
807.280879	2547.957950
807.601115	2548.525080
807.921306	2549.636654
808.241453	2548.885523
808.561554	2545.321427
808.881611	2548.769576
809.201623	2547.048022
809.521590	2548.973743
809.841513	2547.143804
810.161390	2548.935934
810.481223	2545.097095
810.801011	2547.103475
811.120755	2546.281767
811.440453	2550.574309
811.760107	2548.169679
812.079716	2541.008720
812.399281	2543.735984
812.718801	2545.691952
813.038276	2542.168185
813.357707	2548.194884
813.677093	2548.562889
813.996434	2549.495502
814.315731	2547.700851
814.634983	2546.856458
814.954191	2546.710265
815.273354	2546.478372
815.592473	2547.826880
815.911547	2547.864689
816.230577	2547.065666
816.549562	2546.475851
816.868502	2547.922662
817.187399	2548.512477
817.506250	2546.629606
817.825058	2546.972405
818.143821	2546.722867
818.462539	2550.014741
818.781213	2545.976777
819.099843	2548.267981
819.418429	2546.233876
819.736970	2548.976263
820.055466	2547.209339
820.373919	2548.895605
820.692327	2548.794782
821.010691	2548.174720
821.329011	2547.128680
821.647286	2550.533980
821.965517	2548.134391
822.283704	2550.508774
822.601847	2550.206305
822.919945	2545.414688
823.237999	2544.227496
823.556010	2545.848227
823.873976	2550.276881
824.191897	2547.027857
824.509775	2547.327806
824.827609	2549.480379
825.145398	2547.572302
825.463144	2552.384083
825.780845	2549.187992
826.098502	2548.184802
826.416116	2549.276212
826.733685	2548.353681
827.051210	2545.777651
827.368692	2547.935265
827.686129	2546.634647
828.003522	2547.962991
828.320872	2543.254554
828.638177	2545.540717
828.955439	2541.780016
829.272656	2545.578526
829.589830	2543.529297
829.906960	2547.438711
830.224046	2546.337219
830.541088	2548.089020
830.858086	2547.443753
831.175041	2547.226983
831.491952	2547.438711
831.808819	2543.796478
832.125642	2546.891746
832.442421	2548.394010
832.759157	2545.938968
833.075849	2548.547765
833.392497	2545.649102
833.709101	2547.594987
834.025662	2545.139945
834.342179	2549.613969
834.658653	2547.305121
834.975083	2548.109185
835.291469	2550.498692
835.607811	2549.598846
835.924110	2543.239430
836.240366	2546.740512
836.556578	2548.318393
836.872746	2546.702703
837.188871	2550.473486
837.504952	2547.514329
837.820990	2547.738660
838.136984	2546.425439
838.452935	2545.576005
838.768842	2546.964843
839.084706	2546.122970
839.400526	2549.394679
839.716303	2549.966850
840.032037	2547.922662
840.347727	2547.221942
840.663373	2546.243958
840.978977	2547.930224
841.294537	2545.921324
841.610054	2546.087682
841.925527	2545.092054
842.240957	2545.896118
842.556344	2547.693290
842.871687	2546.831252
843.186987	2549.626572
843.502244	2544.517363
843.817458	2546.286808
844.132629	2547.327806
844.447756	2546.062476
844.762840	2542.982331
845.077881	2546.165820
845.392879	2541.152393
845.707833	2545.956612
846.022745	2538.483102
846.337613	2545.139945
846.652438	2546.284287
846.967221	2548.580533
847.281960	2545.313865
847.596656	2547.922662
847.911309	2549.399720
848.225919	2545.742363
848.540485	2546.049873
848.855009	2547.496685
849.169490	2544.799667
849.483928	2548.008362
849.798323	2545.938968
850.112675	2545.601211
850.426984	2546.735470
850.741251	2546.932075
851.055474	2547.537014
851.369654	2549.218239
851.683792	2547.327806
851.997887	2547.327806
852.311938	2544.724050
852.625947	2546.211190
852.939914	2546.226314
853.253837	2547.713454
853.567718	2546.453166
853.881555	2547.078269
854.195350	2548.421736
854.509103	2548.671273
854.822812	2544.797147
855.136479	2546.493495
855.450103	2545.593649
855.763685	2548.371325
856.077224	2546.695141
856.390720	2546.788402
856.704173	2546.085162
857.017584	2547.531973
857.330953	2544.177085
857.644278	2545.228165
857.957561	2549.175389
858.270802	2547.075748
858.584000	2548.462066
858.897155	2546.354863
859.210268	2546.485933
859.523339	2547.942827
859.836367	2546.269164
860.149352	2548.484751
860.462295	2547.214380
860.775195	2544.648433
861.088054	2542.533669
861.400869	2542.949564
861.713642	2540.789429
862.026373	2543.783875
862.339062	2546.364946
862.651708	2548.530121
862.964312	2545.586087
863.276873	2545.394523
863.589392	2544.348484
863.901869	2548.162117
864.214303	2545.913762
864.526696	2545.218083
864.839045	2546.604400
865.151353	2546.402754
865.463619	2547.388300
865.775842	2547.201777
866.088023	2544.880326
866.400162	2545.550799
866.712258	2544.471992
867.024313	2546.838814
867.336325	2546.168341
867.648296	2545.538196
867.960224	2543.133566
868.272110	2544.557692
868.583954	2541.999306
868.895755	2546.916952
869.207515	2547.524411
869.519233	2546.793444
869.830909	2548.053732
870.142542	2545.008875
870.454134	2546.213711
870.765684	2545.051725
871.077191	2543.841848
871.388657	2546.647250
871.700081	2546.811088
872.011463	2546.059956
872.322803	2545.553320
872.634101	2546.808567
872.945357	2542.072403
873.256571	2543.798998
873.567744	2544.474513
873.878874	2546.561551
874.189963	2545.054246
874.501010	2545.397044
874.812015	2544.991231
875.122979	2545.613814
875.433900	2546.029709
875.744780	2546.712785
876.055618	2544.857641
876.366415	2543.700696
876.677169	2544.686241
876.987882	2541.941333
877.298554	2542.677342
877.609183	2543.068031
877.919771	2543.022661
878.230317	2541.931251
878.540822	2548.948537
878.851285	2544.461910
879.161707	2545.258412
879.472087	2547.736139
879.782425	2545.147507
880.092722	2547.300080
880.402977	2544.960984
880.713191	2545.830583
881.023363	2546.765717
881.333494	2547.501726
881.643583	2545.265974
881.953631	2548.459545
882.263637	2545.588608
882.573602	2546.647250
882.883526	2545.107178
883.193408	2546.201108
883.503248	2547.330327
883.813048	2545.790254
884.122806	2546.760676
884.432522	2545.933927
884.742197	2548.946016
885.051831	2545.006355
885.361424	2544.862682
885.670975	2545.790254
885.980485	2545.293700
886.289954	2545.785213
886.599382	2544.451828
886.908768	2543.841848
887.218113	2545.467620
887.527417	2545.639019
887.836680	2543.549461
888.145901	2547.068187
888.455082	2543.927548
888.764221	2544.885367
889.073319	2543.138607
889.382376	2547.042981
889.691392	2543.725902
890.000366	2545.099616
890.309300	2544.766900
890.618193	2545.255892
890.927044	2546.836293
891.235855	2545.833104
891.544625	2543.267157
891.853353	2544.905532
892.162041	2545.497867
892.470687	2543.927548
892.779293	2544.396375
893.087858	2544.098947
893.396381	2543.471323
893.704864	2542.107691
894.013306	2540.403781
894.321707	2546.072559
894.630068	2545.586087
894.938387	2547.589946
895.246665	2546.576674
895.554903	2544.638350
895.863100	2542.347146
896.171256	2543.443597
896.479371	2541.810263
896.787446	2547.436191
897.095480	2543.491488
897.403473	2546.480892
897.711425	2544.610624
898.019336	2546.218752
898.327207	2542.296734
898.635038	2545.066848
898.942827	2542.715150
899.250576	2543.685572
899.558284	2544.935778
899.865952	2545.457538
900.173579	2547.065666
900.481165	2547.088351
900.788711	2544.734132
901.096216	2544.572815
901.403681	2544.749256
901.711105	2547.594987
902.018489	2542.299255
902.325832	2548.182282
902.633135	2545.641540
902.940397	2546.622044
903.247619	2545.233207
903.554800	2545.235727
903.861941	2544.111550
904.169041	2545.689431
904.476101	2546.380069
904.783121	2547.264792
905.090100	2544.769420
905.397039	2547.221942
905.703938	2545.369318
906.010796	2546.899308
906.317614	2547.012734
906.624391	2545.399565
906.931129	2543.849410
907.237826	2547.053063
907.544483	2543.743546
907.851099	2544.691282
908.157675	2547.758825
908.464211	2544.328319
908.770707	2541.417053
909.077163	2539.884542
909.383578	2541.192722
909.689954	2541.283462
909.996289	2538.558719
910.302584	2544.101467
910.608839	2545.555840
910.915054	2545.034081
911.221229	2545.228165
911.527363	2544.449307
911.833458	2544.701365
912.139513	2546.256561
912.445527	2543.761190
912.751502	2545.054246
913.057436	2544.671118
913.363331	2543.877136
913.669186	2545.117260
913.975000	2547.103475
914.280775	2544.434184
914.586510	2545.611293
914.892205	2544.749256
915.197859	2545.510470
915.503475	2543.738504
915.809050	2547.632796
916.114585	2545.192877
916.420081	2544.338402
916.725536	2545.021478
917.030952	2544.295552
917.336328	2546.425439
917.641665	2546.097764
917.946961	2542.155582
918.252218	2546.536345
918.557435	2544.613145
918.862612	2545.631458
919.167750	2543.627599
919.472848	2545.570964
919.777906	2541.984183
920.082925	2544.345963
920.387904	2546.692621
920.692843	2543.919986
920.997743	2544.792106
921.302603	2544.658515
921.607423	2547.612631
921.912204	2544.585418
922.216946	2546.737991
922.521647	2544.955943
922.826310	2544.915614
923.130932	2545.500388
923.435516	2544.749256
923.740059	2545.162630
924.044564	2546.488454
924.349028	2544.832435
924.653454	2542.437887
924.957840	2540.307999
925.262186	2540.008051
925.566493	2542.836138
925.870761	2538.493184
926.174989	2544.340922
926.479178	2542.337064
926.783328	2544.167002
927.087438	2544.257743
927.391509	2542.420243
927.695541	2544.010727
927.999533	2544.630789
928.303486	2543.919986
928.607400	2543.529297
928.911275	2542.377393
929.215110	2544.083823
929.518906	2543.763710
929.822663	2545.059287
930.126381	2545.389482
930.430060	2547.088351
930.733699	2543.196580
931.037299	2544.081303
931.340861	2543.577188
931.644383	2545.581046
931.947866	2542.616848
932.251309	2543.337733
932.554714	2544.406457
932.858080	2542.755479
933.161407	2544.855120
933.464694	2544.242620
933.767943	2543.239430
934.071153	2546.284287
934.374323	2546.251520
934.677455	2545.576005
934.980548	2543.678011
935.283602	2543.824204
935.586617	2541.805222
935.889593	2544.338402
936.192530	2542.558874
936.495428	2544.250182
936.798287	2541.074255
937.101108	2543.925027
937.403890	2545.276056
937.706632	2545.255892
938.009336	2542.740356
938.312002	2543.751107
938.614628	2544.948381
938.917216	2545.457538
939.219765	2541.049049
939.522275	2541.913607
939.824747	2543.443597
940.127179	2542.236241
940.429573	2540.343287
940.731929	2540.849923
941.034246	2538.808256
941.336524	2543.194060
941.638763	2543.836807
941.940964	2544.948381
942.243126	2543.730943
942.545250	2541.931251
942.847335	2543.146169
943.149381	2545.752445
943.451389	2542.790768
943.753359	2541.820345
944.055290	2543.703216
944.357182	2544.424101
944.659036	2543.514173
944.960851	2543.688093
945.262628	2544.890408
945.564367	2544.315717
945.866067	2543.862013
946.167729	2543.408309
946.469352	2538.959491
946.770937	2544.555171
947.072484	2542.286652
947.373992	2543.758669
947.675462	2545.510470
947.976893	2545.114739
948.278286	2544.635830
948.579641	2545.339071
948.880958	2546.531304
949.182236	2543.735984
949.483476	2544.091385
949.784678	2545.606252
950.085841	2542.579039
950.386967	2545.223124
950.688054	2543.057949
950.989103	2541.230530
951.290114	2542.410160
951.591087	2547.688248
951.892021	2543.617517
952.192917	2546.054915
952.493776	2544.716488
952.794596	2543.438556
953.095378	2543.254554
953.396122	2544.126673
953.696828	2544.096426
953.997496	2543.393185
954.298126	2541.711961
954.598718	2544.603062
954.899272	2539.960160
955.199788	2544.456869
955.500266	2543.075593
955.800706	2542.100129
956.101108	2538.762886
956.401472	2541.550644
956.701798	2539.423277
957.002087	2540.335726
957.302337	2541.974101
957.602550	2543.178936
957.902724	2542.677342
958.202861	2545.013916
958.502960	2543.562064
958.803022	2543.917465
959.103045	2542.543751
959.403031	2542.352187
959.702979	2542.669780
960.002889	2544.441745
960.302762	2542.694986
960.602596	2539.750952
960.902393	2541.790098
961.202153	2544.040974
961.501875	2544.456869
961.801559	2543.017619
962.101205	2542.889070
962.400814	2541.127187
962.700385	2543.395706
962.999918	2545.976777
963.299414	2544.966025
963.598873	2543.937630
963.898293	2543.534338
964.197677	2544.043494
964.497022	2541.197763
964.796331	2541.870757
965.095601	2541.895963
965.394835	2543.952753
965.694030	2544.179605
965.993189	2544.855120
966.292309	2543.859492
966.591393	2541.948895
966.890439	2541.976621
967.189447	2544.905532
967.488419	2539.607279
967.787353	2543.015099
968.086249	2542.770603
968.385108	2543.773793
968.683930	2544.933258
968.982714	2544.121632
969.281462	2543.221786
969.580172	2541.843031
969.878844	2542.654656
970.177480	2541.616179
970.476078	2542.659697
970.774639	2545.046684
971.073162	2540.880170
971.371649	2543.176416
971.670098	2537.973945
971.968510	2541.555685
972.266885	2538.856147
972.565223	2543.428473
972.863524	2542.488298
973.161788	2544.535007
973.460014	2542.758000
973.758204	2543.113401
974.056356	2542.205994
974.354471	2542.904193
974.652550	2541.348998
974.950591	2542.468134
975.248595	2542.518545
975.546563	2543.604914
975.844493	2543.335212
976.142386	2544.109029
976.440243	2541.638864
976.738062	2541.167516
977.035845	2543.473844
977.333590	2542.498381
977.631299	2541.941333
977.928971	2543.703216
978.226606	2544.230017
978.524204	2541.679193
978.821765	2539.960160
979.119290	2542.778165
979.416777	2544.330840
979.714228	2543.521735
980.011642	2543.070552
980.309020	2544.643392
980.606360	2542.304296
980.903664	2543.791437
981.200931	2542.606765
981.498162	2543.897301
981.795356	2540.910417
982.092513	2543.839328
982.389633	2541.553164
982.686717	2542.311858
982.983764	2539.788760
983.280775	2543.433515
983.577749	2540.534851
983.874686	2543.410829
984.171587	2542.584080
984.468451	2543.012578
984.765279	2542.992414
985.062070	2542.899152
985.358824	2542.226158
985.655543	2541.694317
985.952224	2541.522917
986.248869	2543.214224
986.545478	2538.866229
986.842050	2541.356559
987.138586	2538.495704
987.435086	2537.515200
987.731549	2537.096784
988.027975	2542.127856
988.324366	2539.267001
988.620719	2542.357228
988.917037	2544.270346
989.213318	2544.436704
989.509563	2543.143648
989.805772	2542.203473
990.101944	2542.916796
990.398080	2544.222455
990.694180	2544.560213
990.990244	2542.261446
991.286271	2541.563247
991.582262	2540.633154
991.878217	2541.875798
992.174136	2543.536858
992.470019	2540.807073
992.765865	2544.199770
993.061676	2542.768082
993.357450	2541.467465
993.653188	2540.827238
993.948890	2540.630633
994.244556	2540.650798
994.540186	2542.190870
994.835780	2542.488298
995.131337	2545.200439
995.426859	2543.120963
995.722345	2540.330684
996.017795	2542.087527
996.313208	2543.332692
996.608586	2542.321940
996.903928	2542.369831
997.199234	2540.663401
997.494504	2539.914789
997.789738	2541.354039
998.084936	2540.096271
998.380099	2542.130376
998.675225	2542.402599
998.970316	2544.645912
999.265371	2542.218597
999.560390	2541.575849
999.855373	2543.418391
1000.150320	2541.991745
1000.445232	2544.340922
1000.740108	2543.735984
1001.034948	2542.241282
1001.329752	2542.624409
1001.624521	2542.568957
1001.919254	2538.808256
1002.213951	2540.686086
1002.508613	2538.485622
1002.803239	2539.682896
1003.097829	2538.286497
1003.392384	2540.963349
1003.686903	2540.885211
1003.981386	2544.716488
1004.275834	2542.029553
1004.570246	2542.533669
1004.864623	2540.365973
1005.158964	2542.778165
1005.453270	2541.878319
1005.747540	2542.095088
1006.041775	2542.203473
1006.335974	2543.501570
1006.630138	2541.285983
1006.924266	2543.899821
1007.218359	2539.188863
1007.512416	2542.548792
1007.806438	2541.263298
1008.100425	2540.925541
1008.394376	2538.856147
1008.688292	2542.770603
1008.982172	2541.316230
1009.276017	2544.222455
1009.569827	2540.454193
1009.863602	2541.066693
1010.157341	2540.280273
1010.451045	2541.958977
1010.744714	2541.943854
1011.038347	2541.149872
1011.331945	2543.287321
1011.625508	2544.550130
1011.919036	2541.326312
1012.212528	2541.603576
1012.505986	2539.319933
1012.799408	2540.464275
1013.092795	2541.263298
1013.386147	2539.695499
1013.679464	2543.168854
1013.972745	2541.303627
1014.265992	2540.892773
1014.559204	2541.888401
1014.852380	2540.270191
1015.145521	2542.137938
1015.438628	2543.738504
1015.731699	2543.551982
1016.024736	2542.684903
1016.317737	2543.501570
1016.610703	2543.836807
1016.903635	2540.335726
1017.196531	2537.157278
1017.489393	2538.394881
1017.782219	2537.109387
1018.075011	2539.284645
1018.367768	2539.209028
1018.660490	2541.487629
1018.953177	2541.487629
1019.245829	2541.487629
