Dividing Wavelength (nm)	Counts (n)	Blue Motor Position (mm): 16.600000	Red Motor Position (mm): 0.000000	
326.493990	2177.135714
326.888308	2177.135714
327.282561	2177.135714
327.676750	2135.939405
328.070874	2131.747686
328.464933	2133.086112
328.858929	2135.573922
329.252859	2143.518780
329.646726	2150.117650
330.040528	2163.408653
330.434265	2175.255364
330.827938	2193.045596
331.221547	2211.148379
331.615091	2227.698488
332.008571	2245.072824
332.401986	2264.398088
332.795338	2283.952723
333.188625	2301.127934
333.581847	2319.545790
333.975006	2336.945333
334.368100	2358.849146
334.761129	2378.116436
335.154095	2392.332490
335.546996	2412.655902
335.939833	2444.793257
336.332606	2456.332458
336.725315	2468.711012
337.117960	2485.117447
337.510540	2493.599188
337.903056	2504.057062
338.295508	2512.967301
338.687896	2525.035824
339.080220	2531.780888
339.472480	2536.922864
339.864676	2542.279090
340.256807	2547.572302
340.648875	2552.232849
341.040879	2552.744526
341.432818	2559.600495
341.824694	2561.352296
342.216506	2562.310115
342.608253	2565.549057
342.999937	2561.531257
343.391557	2560.666699
343.783113	2560.865825
344.174605	2560.384394
344.566033	2559.713921
344.957397	2560.218036
345.348697	2557.268961
345.739934	2557.483210
346.131106	2555.827191
346.522215	2554.788714
346.913260	2549.349309
347.304241	2549.215718
347.695159	2546.107847
348.086012	2544.880326
348.476802	2545.911242
348.867528	2539.821528
349.258191	2536.965714
349.648789	2536.179294
350.039324	2532.065713
350.429796	2537.933616
350.820203	2535.294572
351.210548	2532.262318
351.600828	2530.979344
351.991045	2529.368695
352.381198	2529.343490
352.771288	2528.705784
353.161314	2528.022707
353.551276	2524.985412
353.941175	2526.475073
354.331010	2530.006401
354.720782	2526.379291
355.110490	2529.282996
355.500135	2527.954652
355.889717	2527.400125
356.279235	2526.349044
356.668689	2527.324507
357.058080	2527.637059
357.447408	2528.325177
357.836672	2528.481452
358.225873	2531.654859
358.615010	2529.461957
359.004084	2528.234436
359.393095	2531.710311
359.782043	2530.830630
360.170927	2530.974303
360.559748	2531.024714
360.948505	2532.509334
361.337199	2531.521268
361.725830	2533.300795
362.114398	2533.651156
362.502903	2531.876669
362.891344	2534.553522
363.279722	2534.240971
363.668037	2536.401105
364.056289	2536.411187
364.444478	2534.190559
364.832603	2537.187525
365.220665	2537.782381
365.608665	2540.035777
365.996601	2539.072917
366.384474	2540.219779
366.772284	2539.491332
367.160031	2539.871939
367.547715	2541.280942
367.935336	2541.230530
368.322893	2542.553833
368.710388	2534.518234
369.097820	2538.004192
369.485189	2537.167360
369.872495	2542.079965
370.259738	2539.655170
370.646918	2542.195911
371.034035	2542.478216
371.421090	2541.701878
371.808081	2544.628268
372.195010	2541.994265
372.581875	2542.755479
372.968678	2545.092054
373.355418	2545.344112
373.742096	2545.812939
374.128710	2543.839328
374.515262	2547.330327
374.901751	2544.701365
375.288177	2543.690613
375.674540	2545.427291
376.060841	2543.693134
376.447079	2545.167672
376.833254	2542.929399
377.219367	2545.306303
377.605417	2546.110367
377.991404	2544.701365
378.377329	2544.900490
378.763191	2546.233876
379.148991	2545.966694
379.534727	2543.730943
379.920402	2547.577343
380.306013	2547.675646
380.691563	2546.695141
381.077049	2547.859648
381.462474	2549.104813
381.847835	2550.332334
382.233134	2549.495502
382.618371	2546.632127
383.003545	2547.799154
383.388657	2548.744370
383.773706	2549.803013
384.158693	2548.940975
384.543618	2549.699669
384.928480	2548.827549
385.313280	2549.818136
385.698017	2551.091027
386.082692	2549.377035
386.467305	2553.110009
386.851856	2551.164124
387.236344	2554.944989
387.620770	2547.990718
388.005133	2549.210677
388.389435	2551.038095
388.773674	2547.869730
389.157851	2552.926007
389.541965	2554.806358
389.926018	2552.207643
390.310008	2553.946841
390.693936	2553.367108
391.077802	2556.638817
391.461606	2555.892726
391.845348	2551.423743
392.229027	2555.834753
392.612645	2553.825853
392.996200	2555.454146
393.379694	2556.900957
393.763125	2554.816440
394.146494	2556.348951
394.529801	2556.147305
394.913047	2556.227963
395.296230	2557.389949
395.679351	2555.771739
396.062410	2555.333158
396.445408	2556.805175
396.828343	2556.863148
397.211217	2557.029507
397.594028	2561.012018
397.976778	2557.218550
398.359466	2554.924825
398.742092	2558.680484
399.124656	2558.458674
399.507158	2557.982285
399.889598	2560.003787
400.271977	2559.255176
400.654294	2557.823488
401.036549	2560.911195
401.418742	2557.490772
401.800874	2559.482028
402.182944	2560.631411
402.564952	2559.971020
402.946898	2559.340876
403.328783	2561.480845
403.710606	2561.664848
404.092367	2559.734086
404.474067	2560.782646
404.855705	2559.968499
405.237282	2561.806000
405.618797	2558.735937
406.000250	2562.093346
406.381642	2559.935732
406.762972	2560.076884
407.144240	2559.149312
407.525447	2559.731565
407.906593	2558.085628
408.287677	2562.723490
408.668700	2563.159550
409.049661	2563.726679
409.430560	2560.961607
409.811399	2565.377657
410.192176	2562.176525
410.572891	2563.353634
410.953545	2564.071998
411.334138	2566.441341
411.714669	2566.564849
412.095139	2564.399673
412.475547	2564.893707
412.855894	2563.782132
413.236180	2564.261042
413.616405	2564.913871
413.996568	2564.883624
414.376670	2563.610733
414.756711	2564.031669
415.136691	2564.490414
415.516609	2566.128789
415.896466	2563.393963
416.276262	2563.895558
416.655997	2566.123748
417.035670	2566.557287
417.415283	2566.617781
417.794834	2569.045097
418.174324	2565.140723
418.553753	2567.124417
418.933121	2568.752710
419.312428	2567.318502
419.691674	2567.333625
420.070859	2568.326732
420.449983	2564.440003
420.829045	2569.702967
421.208047	2567.676423
421.586988	2567.547874
421.965867	2568.150292
422.344686	2567.689026
422.723444	2571.472412
423.102141	2568.891342
423.480777	2567.071485
423.859352	2570.955694
424.237866	2569.387895
424.616319	2567.530230
424.994712	2571.694223
425.373044	2569.791188
425.751314	2568.175498
426.129524	2567.452092
426.507673	2569.022412
426.885762	2566.156516
427.263789	2574.340829
427.641756	2568.810683
428.019662	2570.859912
428.397508	2567.835220
428.775292	2571.996692
429.153016	2572.515931
429.530679	2570.131465
429.908282	2569.156002
430.285824	2570.393605
430.663305	2569.135837
431.040726	2572.876374
431.418086	2569.884449
431.795385	2570.249932
432.172624	2570.406208
432.549802	2569.307237
432.926920	2571.769840
433.303977	2571.364027
433.680974	2574.532393
434.057910	2573.186405
434.434786	2575.099522
434.811601	2569.841599
435.188355	2572.684810
435.565050	2571.202711
435.941683	2574.093812
436.318257	2573.135993
436.694770	2572.094995
437.071222	2572.798236
437.447614	2572.533575
437.823946	2572.624316
438.200218	2572.800756
438.576429	2573.413257
438.952580	2572.634398
439.328670	2573.619944
439.704700	2572.878894
440.080670	2575.454924
440.456580	2575.757393
440.832429	2572.276476
441.208218	2571.762279
441.583947	2573.720767
441.959616	2572.246229
442.335224	2574.623133
442.710773	2576.195973
443.086261	2575.049111
443.461689	2573.032649
443.837057	2576.201015
444.212365	2576.924420
444.587612	2572.256312
444.962800	2571.739593
445.337927	2574.996179
445.712995	2568.898903
446.088002	2574.461817
446.462949	2574.479461
446.837837	2574.953329
447.212664	2577.652867
447.587431	2578.502301
447.962139	2577.148752
448.336786	2580.034812
448.711374	2579.250913
449.085901	2580.412899
449.460369	2577.297466
449.834776	2577.239492
450.209124	2579.220666
450.583412	2577.085737
450.957640	2579.649164
451.331808	2578.514904
451.705917	2579.802919
452.079965	2579.225707
452.453954	2577.920048
452.827883	2577.728484
453.201752	2579.835687
453.575562	2581.552199
453.949311	2577.103381
454.323001	2578.928279
454.696632	2579.344174
455.070202	2578.640933
455.443713	2580.319637
455.817164	2581.781572
456.190556	2581.249730
456.563888	2580.901891
456.937160	2581.653022
457.310373	2580.453228
457.683526	2581.030440
458.056619	2581.610173
458.429653	2580.982549
458.802628	2581.252251
459.175542	2580.223855
459.548398	2582.265523
459.921194	2580.511201
460.293930	2584.841552
460.666607	2581.332909
461.039224	2587.712489
461.411782	2583.843404
461.784280	2583.835842
462.156719	2583.767787
462.529099	2586.767273
462.901419	2587.861203
463.273680	2583.243507
463.645882	2579.865933
464.018024	2582.636047
464.390106	2580.085224
464.762130	2585.201995
465.134094	2584.622262
465.505999	2587.820874
465.877845	2587.944382
466.249631	2590.918663
466.621358	2593.502255
466.993026	2591.016966
467.364634	2595.533840
467.736184	2591.997470
468.107674	2589.222315
468.479105	2590.482603
468.850477	2589.852459
469.221790	2588.312387
469.593043	2589.882706
469.964238	2588.640062
470.335373	2587.999835
470.706449	2590.301122
471.077467	2588.151070
471.448425	2592.272213
471.819324	2594.061823
472.190164	2594.810434
472.560945	2594.528129
472.931667	2590.777511
473.302330	2590.482603
473.672934	2592.158787
474.043479	2591.415217
474.413965	2590.139805
474.784393	2591.682398
475.154761	2592.022676
475.525070	2591.402614
475.895321	2591.412696
476.265513	2594.081987
476.635645	2592.065526
477.005719	2591.866400
477.375734	2593.444281
477.745691	2595.942173
478.115588	2594.674323
478.485427	2597.731783
478.855207	2595.730445
479.224928	2598.639190
479.594591	2598.671958
479.964194	2599.324787
480.333739	2597.162132
480.703226	2599.045003
481.072653	2600.471650
481.442022	2602.377206
481.811333	2600.091043
482.180584	2598.913933
482.549777	2597.252873
482.918912	2600.567432
483.287988	2601.555498
483.657005	2603.007350
484.025964	2604.817124
484.394864	2600.975765
484.763706	2601.525251
485.132489	2599.753285
485.501213	2601.142123
485.869879	2605.046497
486.238487	2602.546085
486.607036	2601.968872
486.975527	2600.786722
487.343959	2599.881835
487.712333	2602.795622
488.080648	2604.053390
488.448905	2603.246805
488.817104	2604.759151
489.185244	2604.655808
489.553326	2606.894080
489.921350	2606.027001
490.289315	2609.386930
490.657222	2610.795933
491.025070	2611.859616
491.392861	2612.154524
491.760593	2607.630088
492.128267	2611.640326
492.495883	2610.889194
492.863440	2608.338370
493.230939	2606.742845
493.598380	2612.431787
493.965763	2609.384410
494.333088	2607.224275
494.700354	2608.388782
495.067563	2609.926334
495.434713	2610.014554
495.801805	2608.867692
496.168839	2608.842486
496.535815	2610.327106
496.902733	2610.190994
497.269593	2613.371962
497.636395	2609.434821
498.003139	2612.514966
498.369825	2608.663525
498.736453	2614.468413
499.103023	2611.605038
499.469535	2614.110492
499.835989	2616.449587
500.202385	2613.135028
500.568723	2610.475820
500.935003	2610.967332
501.301226	2611.582353
501.667390	2616.973867
502.033497	2617.198198
502.399546	2616.492437
502.765537	2619.978395
503.131470	2618.539145
503.497345	2621.049640
503.863163	2620.709362
504.228923	2619.751543
504.594625	2622.403190
504.960269	2624.497789
505.325856	2624.407048
505.691385	2621.616770
506.056856	2626.597430
506.422270	2629.077677
506.787625	2629.690177
507.152924	2628.374436
507.518164	2632.029273
507.883347	2632.036835
508.248472	2630.799231
508.613540	2636.805766
508.978550	2638.542444
509.343503	2638.403812
509.708398	2639.321302
510.073236	2643.308855
510.438016	2646.076448
510.802738	2645.728608
511.167403	2648.486120
511.532010	2650.033754
511.896561	2654.827891
512.261053	2657.426606
512.625488	2658.056750
512.989866	2656.458704
513.354186	2660.617656
513.718449	2665.318532
514.082655	2673.699451
514.446803	2668.219716
514.810894	2676.512414
515.174927	2677.066941
515.538904	2680.580626
515.902822	2686.115812
516.266684	2690.110927
516.630488	2691.454394
516.994235	2697.660055
517.357925	2701.521579
517.721558	2707.906200
518.085133	2713.413661
518.448651	2715.856100
518.812112	2717.580174
519.175516	2727.501165
519.538863	2728.262379
519.902152	2739.761251
520.265385	2749.140318
520.628560	2755.890423
520.991678	2763.074067
521.354739	2771.172681
521.717743	2776.155861
522.080690	2785.988632
522.443580	2797.033800
522.806413	2804.194759
523.169189	2812.414360
523.531908	2825.617142
523.894569	2831.888338
524.257174	2847.019361
524.619722	2857.169724
524.982213	2870.916951
525.344647	2880.996738
525.707025	2894.774211
526.069345	2911.185688
526.431608	2924.527101
526.793815	2943.716253
527.155964	2951.542645
527.518057	2969.108545
527.880093	2988.925321
528.242072	3003.053155
528.603995	3018.065711
528.965860	3036.218906
529.327669	3057.028789
529.689421	3072.840368
530.051117	3090.723861
530.412755	3118.276288
530.774337	3139.444093
531.135862	3156.518481
531.497331	3186.745239
531.858743	3202.723176
532.220098	3245.305803
532.581396	3253.550610
532.942638	3291.112247
533.303824	3316.045794
533.664953	3352.707586
534.026025	3379.604662
534.387040	3411.545413
534.747999	3454.780869
535.108902	3488.491064
535.469748	3512.915455
535.830537	3558.152249
536.191270	3597.221191
536.551947	3642.538644
536.912567	3646.858912
537.273131	3715.542113
537.633638	3734.685895
537.994089	3807.412101
538.354483	3821.928103
538.714821	3895.602046
539.075103	3959.682673
539.435328	3993.128208
539.795497	4011.041949
540.155609	4086.387034
540.515665	4153.129390
540.875665	4160.113909
541.235609	4225.916090
541.595496	4293.790186
541.955328	4374.441085
542.315102	4428.915794
542.674821	4455.951502
543.034483	4502.085621
543.394090	4559.085948
543.753640	4608.413638
544.113134	4714.454309
544.472571	4764.197895
544.831953	4873.336355
545.191278	4890.766145
545.550548	4960.767607
545.909761	5015.199466
546.268918	5125.293224
546.628019	5187.843861
546.987064	5267.947796
547.346053	5313.086287
547.704986	5384.287544
548.063863	5491.384337
548.422684	5533.563672
548.781449	5580.118727
549.140158	5710.745106
549.498811	5763.468013
549.857408	5779.508965
550.215949	5925.490698
550.574434	5963.793385
550.932864	6080.264203
551.291237	6170.722668
551.649555	6254.390698
552.007817	6356.012798
552.366022	6422.800525
552.724173	6493.162430
553.082267	6583.386481
553.440305	6760.661176
553.798288	6723.119703
554.156215	6908.455204
554.514086	7025.656990
554.871902	6995.064748
555.229661	7139.009855
555.587365	7234.685913
555.945014	7286.874459
556.302606	7464.509597
556.660143	7516.010024
557.017625	7694.232457
557.375050	7705.663273
557.732421	7870.388016
558.089735	7953.758619
558.446994	8043.362608
558.804197	8180.250099
559.161345	8289.204557
559.518437	8282.842621
559.875474	8472.936971
560.232455	8584.122140
560.589381	8698.463071
560.946251	8753.613294
561.303065	8975.509762
561.659825	9110.070762
562.016528	9108.371893
562.373177	9151.612390
562.729770	9326.759718
563.086307	9457.570099
563.442789	9597.885575
563.799216	9664.620370
564.155587	9751.076158
564.511904	9892.157890
564.868164	9939.489283
565.224370	10095.828067
565.580520	10125.071800
565.936615	10317.827879
566.292654	10288.891656
566.648638	10558.079189
567.004567	10574.614174
567.360441	10679.865905
567.716260	10684.864209
568.072023	10949.391195
568.427732	10973.162756
568.783385	10979.880093
569.138982	11174.950062
569.494525	11333.801861
569.850013	11357.636436
570.205445	11489.520583
570.560823	11490.735501
570.916145	11548.066023
571.271412	11684.693895
571.626625	11745.608678
571.981782	11858.986748
572.336884	11875.904860
572.691931	12050.510265
573.046923	11997.227789
573.401860	12100.183274
573.756743	12217.508568
574.111570	12262.150506
574.466342	12336.068945
574.821059	12507.974812
575.175722	12438.721961
575.530330	12597.667021
575.884882	12685.562059
576.239380	12774.251079
576.593823	12807.931027
576.948211	12884.460784
577.302544	12890.069068
577.656823	12948.795989
578.011047	13113.485444
578.365216	13137.012509
578.719330	13181.709900
579.073389	13206.144373
579.427394	13417.774532
579.781344	13351.518647
580.135239	13428.378599
580.489080	13472.213952
580.842866	13413.857555
581.196597	13670.114529
581.550273	13689.742261
581.903895	13788.674905
582.257463	14033.513665
582.610975	13865.214744
582.964434	14119.772849
583.317837	14057.678436
583.671186	14199.042473
584.024481	14268.562505
584.377721	14188.506461
584.730906	14321.187110
585.084037	14439.298824
585.437113	14455.155773
585.790135	14657.774870
586.143103	14416.215380
586.496016	14474.773423
586.848874	14767.659421
587.201679	14785.754642
587.554428	14624.052071
587.907124	14942.428663
588.259765	14859.284912
588.612352	15022.280540
588.964884	14797.956755
589.317362	14992.938504
589.669786	15092.733185
590.022155	15207.041349
590.374470	15419.931796
590.726731	15364.680750
591.078937	15250.027268
591.431090	15386.017434
591.783188	15270.305309
592.135232	15314.667463
592.487222	15486.326313
592.839157	15568.759261
593.191038	15571.693212
593.542866	15525.115471
593.894639	15417.375931
594.246358	15637.883562
594.598022	15622.921418
594.949633	15517.344532
595.301190	15534.502100
595.652692	15734.492234
596.004141	15984.636809
596.355535	15527.719227
596.706876	15592.956799
597.058162	15581.069758
597.409395	15790.096161
597.760573	15943.596775
598.111698	15835.481669
598.462768	15833.873541
598.813785	15833.326576
599.164748	15759.113230
599.515657	15828.144270
599.866511	15728.024434
600.217312	16060.566668
600.568060	15729.425875
600.918753	16035.388625
601.269392	16018.319278
601.619978	15866.046185
601.970510	16101.974706
602.320988	16097.067143
602.671412	16318.681307
603.021783	16274.863597
603.372100	16101.445385
603.722363	16270.699604
604.072572	16259.503202
604.422728	16403.924698
604.772830	16266.601146
605.122878	16237.622073
605.472872	16286.160823
605.822813	16328.559448
606.172701	16321.385886
606.522534	16539.390584
606.872314	16596.602639
607.222041	16468.832074
607.571714	16709.189248
607.921333	16593.434274
608.270899	16698.300356
608.620411	16919.599448
608.969870	16713.121348
609.319276	16762.426353
609.668627	16818.153789
610.017926	16976.443499
610.367171	17113.134385
610.716362	17187.030139
611.065500	17043.246349
611.414585	17189.588525
611.763616	17204.117130
612.112594	17199.464145
612.461518	17185.293462
612.810389	17402.050474
613.159207	17271.676153
613.507971	17221.299903
613.856682	17528.535545
614.205340	17484.962331
614.553945	17652.079102
614.902496	17400.578457
615.250994	17695.445628
615.599439	17641.727093
615.947830	17643.015107
616.296169	17690.817849
616.644454	17701.905867
616.992686	17673.743461
617.340864	17901.341474
617.688990	17700.481741
618.037063	17883.276500
618.385082	17743.288698
618.733048	18044.258186
619.080961	17917.465605
619.428821	17975.542218
619.776628	17901.235610
620.124382	17830.450248
620.472083	17877.975726
620.819731	17933.468748
621.167326	17647.166497
621.514868	17717.263742
621.862357	17495.480699
622.209793	17527.580246
622.557176	17398.083086
622.904506	17235.357160
623.251783	17170.414496
623.599007	16976.466184
623.946179	16945.032069
624.293297	16903.722334
624.640363	16676.951069
624.987376	16698.000407
625.334336	16502.209554
625.681243	16369.460849
626.028097	16372.087291
626.374899	16332.980540
626.721647	16206.523195
627.068343	16052.089968
627.414987	15986.058414
627.761577	15976.893597
628.108115	16044.566046
628.454600	15764.686225
628.801032	15862.895464
629.147412	15796.032120
629.493739	15828.781976
629.840014	15646.808925
630.186236	15749.351035
630.532405	15516.323699
630.878521	15717.521190
631.224585	15611.737618
631.570597	15446.871722
631.916556	15477.809283
632.262462	15467.580782
632.608316	15387.063473
632.954117	15335.144630
633.299866	15341.118397
633.645562	15268.608961
633.991206	15021.476476
634.336797	14899.641869
634.682336	14874.322674
635.027823	14784.191885
635.373257	14668.870449
635.718639	14559.444643
636.063968	14520.519374
636.409245	14287.918015
636.754470	14308.770748
637.099642	14166.627853
637.444762	13939.937247
637.789829	13994.727028
638.134845	13847.149769
638.479808	13860.970093
638.824719	13828.822655
639.169577	13667.404908
639.514383	13722.076222
639.859137	13536.914641
640.203839	13625.946459
640.548489	13468.859064
640.893086	13447.081280
641.237632	13330.698681
641.582125	13478.086896
641.926566	13310.801247
642.270955	13328.087364
642.615292	13292.154019
642.959576	13306.874188
643.303809	13349.300539
643.647990	13282.235549
643.992118	13335.911234
644.336195	13110.738016
644.680219	13304.625834
645.024192	13243.968150
645.368112	13476.763593
645.711981	13533.663097
646.055797	13712.394686
646.399562	13675.727853
646.743274	13951.859576
647.086935	14221.226070
647.430544	14190.550649
647.774101	14214.899422
648.117606	14367.676630
648.461059	14333.774871
648.804460	14333.681609
649.147810	14066.475250
649.491108	13962.204024
649.834354	13983.152538
650.177548	13692.882900
650.520690	13503.532120
650.863781	13424.113783
651.206820	13458.396149
651.549807	13294.798104
651.892742	13104.131583
652.235626	13052.608471
652.578458	13048.701576
652.921238	12726.208882
653.263967	12914.087645
653.606644	12748.697470
653.949269	12717.903582
654.291843	12540.089483
654.634365	12685.430989
654.976836	12537.838607
655.319255	12559.840723
655.661622	12508.347857
656.003938	12427.195363
656.346203	12354.151564
656.688416	12419.595823
657.030577	12390.120197
657.372687	12314.936428
657.714746	12287.840226
658.056753	12472.316210
658.398708	12294.239971
658.740612	12299.283646
659.082465	12387.617264
659.424266	12354.058303
659.766016	12372.710572
660.107715	12282.884772
660.449362	12356.339425
660.790958	12320.882469
661.132503	12269.397165
661.473996	12325.507728
661.815438	12346.325173
662.156829	12356.770443
662.498168	12343.769308
662.839456	12327.914879
663.180693	12361.733459
663.521879	12453.827778
663.863013	12428.339705
664.204097	12409.039647
664.545129	12520.892769
664.886110	12482.305257
665.227040	12568.241806
665.567918	12580.592633
665.908746	12623.616361
666.249522	12596.154675
666.590248	12640.000111
666.930922	12763.883946
667.271545	12753.345414
667.612118	12826.346362
667.952639	12720.930794
668.293109	12735.925707
668.633528	12692.896938
668.973896	12676.268692
669.314213	12759.155343
669.654480	12511.402797
669.994695	12553.256976
670.334859	12583.088004
670.674973	12532.346270
671.015035	12565.817011
671.355047	12508.030265
671.695008	12480.682005
672.034918	12484.031852
672.374777	12530.634798
672.714585	12442.578444
673.054342	12472.084317
673.394049	12420.367120
673.733705	12514.281295
674.073310	12438.873196
674.412864	12443.884102
674.752368	12330.125425
675.091820	12332.154489
675.431223	12324.302892
675.770574	12202.589274
676.109875	12117.270265
676.449125	12090.393354
676.788324	12020.495235
677.127473	11859.669824
677.466571	11849.597599
677.805619	11758.708116
678.144616	11671.907008
678.483562	11637.798561
678.822458	11504.497851
679.161303	11483.040179
679.500098	11477.499951
679.838842	11432.353898
680.177535	11448.835951
680.516179	11504.361740
680.854771	11458.635954
681.193314	11673.636124
681.531805	11816.605768
681.870247	12215.597971
682.208638	12626.414201
682.546978	12937.433229
682.885268	13014.383922
683.223508	12701.020757
683.561697	12531.028008
683.899836	12433.632916
684.237925	12239.183009
684.575963	12166.474448
684.913951	12088.268507
685.251889	12039.490303
685.589776	12125.986420
685.927614	12058.208107
686.265401	12022.713343
686.603137	12059.549054
686.940824	12224.228427
687.278460	12330.899242
687.616046	12389.114487
687.953582	12560.869119
688.291068	12486.375988
688.628504	12703.087630
688.965889	12712.171790
689.303224	12687.034076
689.640510	12582.992222
689.977745	12291.495063
690.314930	12059.453272
690.652065	11971.598563
690.989150	11693.200842
691.326185	11466.174999
691.663170	11262.782086
692.000105	11014.560711
692.336990	10911.380895
692.673825	10668.626652
693.010610	10528.527946
693.347345	10336.139871
693.684030	10134.735692
694.020665	10074.246887
694.357251	9886.368125
694.693786	9840.876752
695.030272	9667.960134
695.366707	9547.085868
695.703093	9474.795722
696.039429	9472.988468
696.375716	9405.817614
696.711952	9276.524620
697.048139	9313.481319
697.384276	9266.016335
697.720363	9280.539899
698.056400	9219.673008
698.392388	9178.514507
698.728326	9138.885997
699.064214	9068.829082
699.400053	9110.635371
699.735842	8927.288605
700.071581	8892.771825
700.407270	8819.387748
700.742910	8739.062003
701.078501	8646.508939
701.414042	8530.033079
701.749533	8457.942059
702.084974	8325.692429
702.420366	8433.013553
702.755709	8317.855955
703.091002	8191.388529
703.426246	8209.554327
703.761440	8171.957401
704.096584	8121.296326
704.431679	8057.563538
704.766725	8040.408492
705.101721	7990.962334
705.436668	8031.679734
705.771565	7931.900176
706.106413	8006.257195
706.441212	8059.758961
706.775961	8004.535641
707.110661	8035.412708
707.445311	8194.012449
707.779913	8090.446985
708.114465	8219.414823
708.448967	8258.985361
708.783421	8391.073674
709.117825	8569.976662
709.452180	8607.898742
709.786485	8694.344448
710.120742	8971.749062
710.454949	8967.822003
710.789107	9068.481242
711.123216	9277.938664
711.457275	9435.371378
711.791286	9602.964538
712.125247	9596.259803
712.459159	9592.141180
712.793023	9847.357156
713.126837	9419.267412
713.460602	9563.199916
713.794318	9389.930417
714.127985	9419.726157
714.461602	9113.455896
714.795171	9061.547135
715.128691	8822.251124
715.462162	8564.275117
715.795584	8511.048094
716.128957	8375.183957
716.462281	8208.036939
716.795556	8255.025534
717.128782	8051.105820
717.461960	7779.843852
717.795088	7852.312959
718.128167	7759.412056
718.461198	7587.082732
718.794180	7532.252622
719.127113	7528.136520
719.459997	7390.066878
719.792833	7149.984447
720.125619	7213.480300
720.458357	7076.517191
720.791046	7056.355096
721.123686	7056.155971
721.456278	6906.617703
721.788821	6924.964983
722.121315	6815.657644
722.453761	6874.160234
722.786158	6830.670200
723.118506	6837.916859
723.450805	6813.772253
723.783056	6877.444546
724.115259	6775.368743
724.447412	6766.975221
724.779518	6821.792728
725.111574	6824.961093
725.443582	6903.600573
725.775542	6881.616101
726.107453	7064.932619
726.439315	6981.753581
726.771129	7034.418515
727.102895	7199.158382
727.434612	7316.460991
727.766281	7340.580391
728.097901	7430.333094
728.429473	7412.159735
728.760996	7383.820888
729.092471	7366.212138
729.423897	7316.650034
729.755276	7336.076120
730.086606	7268.310410
730.417887	7365.748352
730.749120	7535.970473
731.080305	7732.668734
731.411442	7867.413736
731.742530	7866.942388
732.073570	7963.346893
732.404562	8049.525418
732.735506	7897.718632
733.066401	8041.431846
733.397249	7975.077658
733.728048	7745.884119
734.058798	7415.330620
734.389501	7197.850202
734.720156	7012.673498
735.050762	6779.512571
735.381320	6675.785789
735.711831	6635.038143
736.042293	6521.309712
736.372707	6542.699328
736.703073	6412.362816
737.033391	6446.501510
737.363661	6456.893848
737.693883	6474.048895
738.024056	6562.939561
738.354182	6612.816737
738.684260	6646.907540
739.014290	6752.928046
739.344272	6860.329829
739.674207	6887.582307
740.004093	6952.824920
740.333931	6974.227138
740.663722	6981.619990
740.993464	7059.289048
741.323159	7056.849129
741.652806	6805.429143
741.982405	6808.617673
742.311956	6866.900973
742.641460	6716.684671
742.970915	6528.019488
743.300323	6519.326018
743.629683	6460.304189
743.958996	6327.452141
744.288260	6245.114975
744.617477	6186.690523
744.946647	6197.864240
745.275768	6037.918511
745.604842	5985.956818
745.933869	5968.159024
746.262847	5925.334422
746.591778	5913.084418
746.920662	5879.598554
747.249498	5856.782292
747.578286	5903.859107
747.907027	5984.550336
748.235720	6038.727616
748.564365	6018.459657
748.892963	6031.213776
749.221514	6191.782088
749.550017	6044.598040
749.878473	5912.371095
750.206881	5962.623837
750.535242	5903.435650
750.863555	5837.940979
751.191821	5858.466037
751.520039	5859.370924
751.848210	5769.766935
752.176334	5781.522906
752.504411	5836.547100
752.832440	5765.315596
753.160421	5685.680489
753.488356	5736.772583
753.816243	5775.415548
754.144082	5623.802846
754.471875	5592.467034
754.799620	5638.686853
755.127318	5649.525333
755.454969	5601.578919
755.782572	5567.783024
756.110129	5605.760556
756.437638	5603.998673
756.765100	5540.757398
757.092515	5533.097365
757.419882	5574.046657
757.747203	5562.933434
758.074477	5628.904494
758.401703	5622.280417
758.728882	5571.931893
759.056014	5614.713646
759.383099	5754.613227
759.710138	5761.154124
760.037129	5746.315487
760.364073	5750.267752
760.690970	5835.201112
761.017820	5820.624616
761.344623	5768.786431
761.671379	5861.679773
761.998088	5973.069108
762.324751	6199.119488
762.651366	6771.804647
762.977935	8037.928244
763.304456	9642.651021
763.630931	10572.569986
763.957359	10224.483354
764.283740	9296.689236
764.610074	8489.083787
764.936362	7515.054726
765.262602	6912.455360
765.588796	6375.844697
765.914943	6030.313930
766.241044	5874.088573
766.567097	5686.676117
766.893104	5430.474596
767.219064	5246.709415
767.544978	5186.853275
767.870845	5114.943736
768.196665	5007.794011
768.522438	4934.107465
768.848165	4904.500768
769.173846	4842.406356
769.499479	4797.948420
769.825066	4743.035131
770.150607	4685.472716
770.476101	4654.300741
770.801548	4653.940299
771.126949	4588.312037
771.452303	4534.827916
771.777611	4483.589628
772.102872	4504.427237
772.428087	4465.761587
772.753256	4428.177265
773.078378	4385.576994
773.403453	4318.065862
773.728482	4308.177639
774.053465	4259.233076
774.378401	4245.627002
774.703291	4249.760748
775.028135	4180.880942
775.352932	4128.750370
775.677683	4115.918113
776.002388	4133.978047
776.327046	4151.014626
776.651658	4076.597113
776.976224	4011.339377
777.300743	4015.614275
777.625216	4035.075650
777.949643	4033.853170
778.274024	3992.566120
778.598359	3939.825568
778.922647	3959.317190
779.246889	3954.830563
779.571086	3958.029175
779.895236	3942.202472
780.219339	3928.051953
780.543397	3916.437135
780.867409	3962.896409
781.191374	3981.415087
781.515294	3926.481634
781.839167	3915.544851
782.162995	3933.423303
782.486776	3918.219183
782.810511	3930.108744
783.134201	3931.646296
783.457844	3890.472672
783.781441	3832.839681
784.104993	3834.556194
784.428498	3853.195860
784.751958	3855.078731
785.075372	3834.573838
785.398739	3795.827529
785.722061	3803.517809
786.045337	3842.576669
786.368568	3883.228534
786.691752	3798.080925
787.014891	3839.070547
787.337983	3960.884988
787.661030	4113.684882
787.984031	4276.914923
788.306987	4450.877581
788.629897	4526.822563
788.952760	4485.225482
789.275579	4414.654370
789.598351	4356.620607
789.921078	4224.930545
790.243759	4027.521481
790.566395	3996.551152
790.888984	3999.006194
791.211529	3895.448291
791.534027	3833.230370
791.856480	3828.894978
792.178888	3766.223353
792.501249	3716.757031
792.823566	3720.865572
793.145836	3755.606683
793.468062	3705.961400
793.790241	3655.806961
794.112375	3684.894418
794.434464	3748.528903
794.756507	3773.049076
795.078505	3757.877723
795.400457	3784.069038
795.722364	3915.459151
796.044226	4021.756921
796.366042	4095.057819
796.687812	4082.671704
797.009538	4092.075976
797.331218	4043.375909
797.652852	4018.036550
797.974442	3994.534690
798.295986	3998.315556
798.617484	3920.512908
798.938938	3828.229546
799.260346	3871.979199
799.581709	3866.522150
799.903026	3798.567396
800.224299	3762.218157
800.545526	3754.825304
800.866708	3719.673339
801.187845	3656.933658
801.508936	3688.894574
801.829983	3696.622663
802.150984	3615.689458
802.471940	3601.591872
802.792851	3611.787605
803.113717	3613.186525
803.434538	3619.397227
803.755314	3562.061664
804.076045	3528.091848
804.396731	3547.606155
804.717372	3575.360227
805.037967	3566.888568
805.358518	3558.058988
805.679024	3578.319385
805.999485	3594.254472
806.319901	3595.406376
806.640272	3611.371710
806.960598	3622.981487
807.280879	3595.476952
807.601115	3611.341463
807.921306	3627.251345
808.241453	3667.550328
808.561554	3645.462513
808.881611	3582.291814
809.201623	3612.906741
809.521590	3628.950213
809.841513	3600.697067
810.161390	3626.250676
810.481223	3613.196608
810.801011	3555.359450
811.120755	3541.949980
811.440453	3577.752255
811.760107	3586.125612
812.079716	3544.934343
812.399281	3510.162985
812.718801	3530.042775
813.038276	3504.668127
813.357707	3499.949607
813.677093	3521.550951
813.996434	3472.399701
814.315731	3477.881956
814.634983	3478.164261
814.954191	3491.356960
815.273354	3523.902650
815.592473	3522.317207
815.911547	3523.365767
816.230577	3559.087383
816.549562	3608.596555
816.868502	3655.698576
817.187399	3680.732946
817.506250	3672.848581
817.825058	3646.863954
818.143821	3731.953589
818.462539	3833.142150
818.781213	3883.306672
819.099843	3934.983540
819.418429	4165.880989
819.736970	4401.063419
820.055466	4638.095952
820.373919	4990.701978
820.692327	5398.780862
821.010691	5804.777748
821.329011	7084.799807
821.647286	9697.841574
821.965517	14093.495834
822.283704	18095.246937
822.601847	20369.238340
822.919945	18642.007962
823.237999	16143.677651
823.556010	13708.202967
823.873976	11671.589416
824.191897	9617.067166
824.509775	8264.061803
824.827609	7145.555793
825.145398	6593.806546
825.463144	6477.736499
825.780845	6594.260249
826.098502	6759.922647
826.416116	7568.564053
826.733685	8858.678502
827.051210	9973.002874
827.368692	10085.042518
827.686129	8888.141525
828.003522	7390.964203
828.320872	6385.183435
828.638177	5701.711358
828.955439	5150.715763
829.272656	4660.362729
829.589830	4371.431517
829.906960	4202.013459
830.224046	4020.685676
830.541088	3894.334196
830.858086	3850.201415
831.175041	3778.944705
831.491952	3758.097013
831.808819	3767.173611
832.125642	3834.362109
832.442421	3973.243377
832.759157	4229.467583
833.075849	4754.806225
833.392497	5590.909317
833.709101	6350.308732
834.025662	6709.715275
834.342179	6385.559001
834.658653	5737.616976
834.975083	5109.995843
835.291469	4538.853277
835.607811	4126.262561
835.924110	3994.328003
836.240366	3800.329280
836.556578	3596.591047
836.872746	3487.351764
837.188871	3453.316413
837.504952	3390.440622
837.820990	3308.776450
838.136984	3258.034716
838.452935	3282.401133
838.768842	3279.981380
839.084706	3302.777477
839.400526	3445.900876
839.716303	3763.831326
840.032037	4263.409672
840.347727	4549.817787
840.663373	4293.901091
840.978977	3922.441149
841.294537	3622.898308
841.610054	3395.464132
841.925527	3285.037657
842.240957	3218.444015
842.556344	3165.708504
842.871687	3108.758589
843.186987	3062.057340
843.502244	3026.822195
843.817458	2991.760970
844.132629	2956.672019
844.447756	2968.536374
844.762840	2957.758388
845.077881	2923.196237
845.392879	2905.032959
845.707833	2901.894841
846.022745	2898.398801
846.337613	2899.747310
846.652438	2888.823129
846.967221	2889.196175
847.281960	2875.171685
847.596656	2868.550129
847.911309	2871.244626
848.225919	2864.965869
848.540485	2855.347347
848.855009	2859.609643
849.169490	2848.940041
849.483928	2841.758917
849.798323	2838.220027
850.112675	2833.940087
850.426984	2846.172447
850.741251	2844.438290
851.055474	2835.114676
851.369654	2829.665189
851.683792	2834.015705
851.997887	2843.581294
852.311938	2845.716223
852.625947	2833.493945
852.939914	2836.087619
853.253837	2843.082220
853.567718	2825.208809
853.881555	2825.604539
854.195350	2839.813032
854.509103	2835.742300
854.822812	2828.299036
855.136479	2825.791062
855.450103	2827.573110
855.763685	2821.609425
856.077224	2814.708085
856.390720	2828.846001
856.704173	2842.232785
857.017584	2832.949501
857.330953	2829.672751
857.644278	2836.992506
857.957561	2847.697396
858.270802	2847.861234
858.584000	2850.175123
858.897155	2838.514934
859.210268	2836.440500
859.523339	2834.305571
859.836367	2835.575942
860.149352	2827.807524
860.462295	2824.208140
860.775195	2832.616784
861.088054	2832.173163
861.400869	2816.243117
861.713642	2811.065852
862.026373	2827.066474
862.339062	2829.037565
862.651708	2832.251301
862.964312	2838.630881
863.276873	2828.341886
863.589392	2839.802949
863.901869	2850.684280
864.214303	2873.044318
864.526696	2890.222049
864.839045	2885.231307
865.151353	2887.703993
865.463619	2882.652757
865.775842	2881.989845
866.088023	2900.248904
866.400162	2907.455234
866.712258	2880.908518
867.024313	2870.536344
867.336325	2878.236706
867.648296	2896.218502
867.960224	2890.642986
868.272110	2878.579505
868.583954	2884.578478
868.895755	2896.339490
869.207515	2884.805330
869.519233	2887.837584
869.830909	2896.309243
870.142542	2908.045049
870.454134	2905.988258
870.765684	2910.021181
871.077191	2908.511356
871.388657	2916.093251
871.700081	2931.420879
872.011463	2941.583845
872.322803	2943.617951
872.634101	2940.560491
872.945357	2957.788634
873.256571	2982.402068
873.567744	2976.466109
873.878874	2964.319449
874.189963	2989.106803
874.501010	2993.936228
874.812015	2980.186481
875.122979	2981.187150
875.433900	2978.792602
875.744780	2979.815956
876.055618	2990.840960
876.366415	2983.856441
876.677169	3000.509893
876.987882	2994.752895
877.298554	2989.704179
877.609183	3008.525327
877.919771	3032.695139
878.230317	3054.664488
878.540822	3108.083075
878.851285	3143.671100
879.161707	3181.320958
879.472087	3276.608848
879.782425	3485.168944
880.092722	3896.522057
880.402977	4405.209768
880.713191	5004.653372
881.023363	6102.750270
881.333494	7349.556166
881.643583	7922.639576
881.953631	7641.476782
882.263637	7051.833181
882.573602	6494.697461
882.883526	5927.918013
883.193408	5368.297004
883.503248	4904.407507
883.813048	4608.562352
884.122806	4329.075742
884.432522	4021.303217
884.742197	3797.569248
885.051831	3605.665124
885.361424	3471.136892
885.670975	3398.740882
885.980485	3321.366732
886.289954	3246.654312
886.599382	3204.409442
886.908768	3165.988288
887.218113	3125.104531
887.527417	3068.857857
887.836680	3022.033099
888.145901	3014.872140
888.455082	3008.096829
888.764221	2957.791155
889.073319	2929.548091
889.382376	2927.453491
889.691392	2933.311312
890.000366	2928.050868
890.309300	2918.523087
890.618193	2933.084460
890.927044	2948.391924
891.235855	2950.027778
891.544625	2932.421548
891.853353	2943.438990
892.162041	2958.718727
892.470687	2998.465705
892.779293	3049.341029
893.087858	3090.973398
893.396381	3157.350271
893.704864	3271.426542
894.013306	3495.493227
894.321707	3785.180612
894.630068	3995.134588
894.938387	3995.842870
895.246665	3949.250005
895.554903	3840.802183
895.863100	3645.265908
896.171256	3482.842452
896.479371	3349.246833
896.787446	3234.742065
897.095480	3134.183649
897.403473	3067.027918
897.711425	3031.931405
898.019336	3022.542256
898.327207	2999.610047
898.635038	2963.822896
898.942827	2949.750515
899.250576	2936.517486
899.558284	2907.447672
899.865952	2887.204919
900.173579	2868.005684
900.481165	2863.564428
900.788711	2849.116481
901.096216	2826.670743
901.403681	2812.903352
901.711105	2820.303766
902.018489	2820.853252
902.325832	2818.068014
902.633135	2826.292657
902.940397	2859.120651
903.247619	2932.532454
903.554800	3108.826645
903.861941	3430.553083
904.169041	3842.306968
904.476101	4145.814676
904.783121	4121.470944
905.090100	3888.148700
905.397039	3622.958802
905.703938	3377.948643
906.010796	3196.608257
906.317614	3088.543562
906.624391	3001.240860
906.931129	2929.346444
907.237826	2871.209338
907.544483	2825.922132
907.851099	2795.730662
908.157675	2776.130656
908.464211	2756.681884
908.770707	2741.389544
909.077163	2730.730024
909.383578	2717.262582
909.689954	2706.908052
909.996289	2708.042311
910.302584	2705.761189
910.608839	2706.774461
910.915054	2701.304809
911.221229	2692.876000
911.527363	2696.732482
911.833458	2704.314378
912.139513	2707.878474
912.445527	2708.548947
912.751502	2720.095710
913.057436	2726.903788
913.363331	2737.444841
913.669186	2758.171545
913.975000	2793.036165
914.280775	2845.673373
914.586510	2912.758528
914.892205	2985.620845
915.197859	3106.016202
915.503475	3286.900363
915.809050	3488.826301
916.114585	3635.778456
916.420081	3661.253927
916.725536	3607.628653
917.030952	3493.270078
917.336328	3370.775081
917.641665	3247.100454
917.946961	3146.592449
918.252218	3083.204980
918.557435	3009.422653
918.862612	2951.454425
919.167750	2902.842578
919.472848	2866.200951
919.777906	2839.853361
920.082925	2813.669608
920.387904	2789.169600
920.692843	2772.299379
920.997743	2760.576175
921.302603	2745.608990
921.607423	2739.441138
921.912204	2725.643500
922.216946	2715.329299
922.521647	2706.466951
922.826310	2700.462936
923.130932	2693.314580
923.435516	2683.897705
923.740059	2679.801767
924.044564	2672.650891
924.349028	2665.731907
924.653454	2659.780825
924.957840	2654.805206
925.262186	2649.506953
925.566493	2645.027888
925.870761	2639.719553
926.174989	2635.568163
926.479178	2632.656897
926.783328	2625.644652
927.087438	2625.490896
927.391509	2624.190279
927.695541	2622.201543
927.999533	2619.751543
928.303486	2618.203908
928.607400	2612.293156
928.911275	2613.447580
929.215110	2612.668722
929.518906	2611.413474
929.822663	2612.567898
930.126381	2611.826849
930.430060	2613.281222
930.733699	2611.710902
931.037299	2615.055708
931.340861	2613.523197
931.644383	2617.362036
931.947866	2615.317848
932.251309	2613.618979
932.554714	2612.565378
932.858080	2609.497836
933.161407	2609.356683
933.464694	2610.773248
933.767943	2605.858123
934.071153	2607.176384
934.374323	2608.323247
934.677455	2604.852413
934.980548	2605.890890
935.283602	2607.095726
935.586617	2605.462392
935.889593	2607.123452
936.192530	2605.069182
936.495428	2605.860643
936.798287	2604.416353
937.101108	2609.565891
937.403890	2613.137549
937.706632	2616.875564
938.009336	2622.604836
938.312002	2632.621608
938.614628	2641.524286
938.917216	2647.266160
939.219765	2648.488640
939.522275	2649.335554
939.824747	2643.381951
940.127179	2642.958494
940.429573	2640.384985
940.731929	2636.465488
941.034246	2634.648152
941.336524	2629.624642
941.638763	2629.748151
941.940964	2626.010135
942.243126	2627.398973
942.545250	2626.962913
942.847335	2622.463683
943.149381	2617.760287
943.451389	2617.094855
943.753359	2610.833742
944.055290	2613.659308
944.357182	2609.611262
944.659036	2608.361056
944.960851	2610.248968
945.262628	2607.282249
945.564367	2607.728391
945.866067	2609.243258
946.167729	2608.497167
946.469352	2605.830396
946.770937	2607.798967
947.072484	2606.818462
947.373992	2607.607403
947.675462	2603.763523
947.976893	2598.924016
948.278286	2598.510641
948.579641	2599.029880
948.880958	2596.489138
949.182236	2601.127000
949.483476	2597.835126
949.784678	2595.916967
950.085841	2598.354365
950.386967	2600.222113
950.688054	2599.891917
950.989103	2599.947370
951.290114	2600.033069
951.591087	2604.091198
951.892021	2606.901642
952.192917	2606.420211
952.493776	2611.118567
952.794596	2610.531272
953.095378	2609.707044
953.396122	2608.638319
953.696828	2610.707713
953.997496	2605.472474
954.298126	2604.197062
954.598718	2599.682709
954.899272	2599.090374
955.199788	2598.598861
955.500266	2596.617688
955.800706	2590.966554
956.101108	2591.299270
956.401472	2588.377922
956.701798	2586.525298
957.002087	2582.883064
957.302337	2585.050760
957.602550	2582.038671
957.902724	2581.053125
958.202861	2583.082190
958.502960	2581.799216
958.803022	2579.770152
959.103045	2581.020358
959.403031	2577.950295
959.702979	2574.517269
960.002889	2574.925603
960.302762	2579.760069
960.602596	2575.167578
960.902393	2576.044739
961.202153	2576.503484
961.501875	2575.812846
961.801559	2575.094481
962.101205	2574.018195
962.400814	2574.565160
962.700385	2573.680438
962.999918	2568.178018
963.299414	2571.784964
963.598873	2569.695406
963.898293	2568.351938
964.197677	2573.514080
964.497022	2572.757907
964.796331	2573.788822
965.095601	2570.471743
965.394835	2573.319995
965.694030	2571.003585
965.993189	2570.829665
966.292309	2571.043914
966.591393	2572.712536
966.890439	2572.072310
967.189447	2572.964594
967.488419	2572.677248
967.787353	2572.793195
968.086249	2568.835889
968.385108	2570.875036
968.683930	2572.631878
968.982714	2570.542319
969.281462	2571.706826
969.580172	2571.842937
969.878844	2571.535427
970.177480	2569.599624
970.476078	2571.842937
970.774639	2572.152968
971.073162	2571.802608
971.371649	2573.738411
971.670098	2574.650860
971.968510	2572.573904
972.266885	2572.442834
972.565223	2573.428380
972.863524	2571.611044
973.161788	2571.195149
973.460014	2573.083061
973.758204	2570.832186
974.056356	2571.301013
974.354471	2574.078689
974.652550	2572.037022
974.950591	2572.105077
975.248595	2571.043914
975.546563	2571.797567
975.844493	2570.413770
976.142386	2572.024419
976.440243	2569.219017
976.738062	2571.507700
977.035845	2571.744635
977.333590	2567.956207
977.631299	2569.581980
977.928971	2568.377144
978.226606	2563.343552
978.524204	2567.832699
978.821765	2565.165929
979.119290	2570.718760
979.416777	2570.812021
979.714228	2569.241702
980.011642	2568.344376
980.309020	2569.937381
980.606360	2570.302865
980.903664	2569.095508
981.200931	2572.747824
981.498162	2571.666497
981.795356	2572.278997
982.092513	2572.624316
982.389633	2573.677917
982.686717	2578.845100
982.983764	2582.257961
983.280775	2584.710482
983.577749	2587.218456
983.874686	2589.245000
984.171587	2583.792992
984.468451	2579.200501
984.765279	2577.461303
985.062070	2578.338464
985.358824	2578.293093
985.655543	2576.417784
985.952224	2573.095664
986.248869	2573.360324
986.545478	2570.212124
986.842050	2572.619275
987.138586	2566.428738
987.435086	2571.094326
987.731549	2568.072154
988.027975	2566.569890
988.324366	2569.599624
988.620719	2568.299006
988.917037	2566.829510
989.213318	2570.537278
989.509563	2566.592575
989.805772	2568.611557
990.101944	2569.914696
990.398080	2566.587534
990.694180	2565.387740
990.990244	2565.743141
991.286271	2567.089129
991.582262	2565.644838
991.878217	2567.908317
992.174136	2566.148954
992.470019	2567.076526
992.765865	2566.645508
993.061676	2560.548232
993.357450	2563.399004
993.653188	2560.407080
993.948890	2565.362534
994.244556	2564.157698
994.540186	2567.741958
994.835780	2567.865467
995.131337	2568.477967
995.426859	2567.628532
995.722345	2567.767164
996.017795	2571.031311
996.313208	2569.791187
996.608586	2570.754048
996.903928	2571.154820
997.199234	2571.384192
997.494504	2571.182546
997.789738	2570.532237
998.084936	2572.016857
998.380099	2568.546022
998.675225	2569.932340
998.970316	2568.306568
999.265371	2569.236661
999.560390	2569.844120
999.855373	2571.207752
1000.150320	2565.677606
1000.445232	2570.186918
1000.740108	2564.351782
1001.034948	2566.602658
1001.329752	2564.992009
1001.624521	2565.412945
1001.919254	2565.057544
1002.213951	2565.299519
1002.508613	2564.886145
1002.803239	2567.031156
1003.097829	2563.091494
1003.392384	2565.516289
1003.686903	2562.907492
1003.981386	2564.177863
1004.275834	2564.412276
1004.570246	2563.877914
1004.864623	2565.302040
1005.158964	2566.179201
1005.453270	2563.774570
1005.747540	2566.572411
1006.041775	2561.745506
1006.335974	2564.976886
1006.630138	2564.676937
1006.924266	2563.724159
1007.218359	2565.100394
1007.512416	2561.730383
1007.806438	2557.742830
1008.100425	2563.000753
1008.394376	2562.113510
1008.688292	2563.512430
1008.982172	2561.921946
1009.276017	2564.135013
1009.569827	2563.557801
1009.863602	2563.083932
1010.157341	2566.340518
1010.451045	2561.679971
1010.744714	2563.890517
1011.038347	2564.472770
1011.331945	2562.726010
1011.625508	2565.012174
1011.919036	2567.376475
1012.212528	2564.631567
1012.505986	2564.281206
1012.799408	2564.901268
1013.092795	2564.016546
1013.386147	2561.831206
1013.679464	2563.812379
1013.972745	2563.464539
1014.265992	2566.267421
1014.559204	2564.225754
1014.852380	2564.066957
1015.145521	2565.763306
1015.438628	2561.707697
1015.731699	2564.313974
1016.024736	2563.441854
1016.317737	2564.704663
1016.610703	2562.582338
1016.903635	2562.733572
1017.196531	2560.845660
1017.489393	2566.378326
1017.782219	2562.254662
1018.075011	2563.983778
1018.367768	2564.535785
1018.660490	2563.320867
1018.953177	2563.320867
1019.245829	2563.320867
