Dividing Wavelength (nm)	Counts (n)	Blue Motor Position (mm): 1.700000	Red Motor Position (mm): 0.000000	
326.493990	2147.521456
326.888308	2147.521456
327.282561	2147.521456
327.676750	2113.367639
328.070874	2110.151383
328.464933	2115.127002
328.858929	2121.047837
329.252859	2128.722993
329.646726	2139.659777
330.040528	2154.531181
330.434265	2172.729746
330.827938	2190.577951
331.221547	2203.647143
331.615091	2225.848384
332.008571	2245.082907
332.401986	2265.693664
332.795338	2286.213681
333.188625	2303.451906
333.581847	2321.058136
333.975006	2343.536641
334.368100	2357.994670
334.761129	2376.082330
335.154095	2393.050854
335.546996	2412.880233
335.939833	2425.099990
336.332606	2440.745211
336.725315	2451.429936
337.117960	2461.393777
337.510540	2469.764613
337.903056	2481.386993
338.295508	2489.425113
338.687896	2497.317039
339.080220	2503.580673
339.472480	2512.468227
339.864676	2518.459638
340.256807	2519.336799
340.648875	2523.737727
341.040879	2525.003056
341.432818	2527.077491
341.824694	2528.882224
342.216506	2531.241484
342.608253	2528.914992
342.999937	2531.417924
343.391557	2531.067564
343.783113	2530.472708
344.174605	2526.598581
344.566033	2526.205371
344.957397	2525.098838
345.348697	2522.124557
345.739934	2522.016173
346.131106	2518.537776
346.522215	2516.833866
346.913260	2514.222549
347.304241	2515.417302
347.695159	2512.548886
348.086012	2511.986797
348.476802	2509.768689
348.867528	2505.743328
349.258191	2504.664521
349.648789	2504.662000
350.039324	2500.651763
350.429796	2504.538492
350.820203	2499.467091
351.210548	2500.939108
351.600828	2496.480208
351.991045	2497.208654
352.381198	2500.795435
352.771288	2494.413335
353.161314	2499.048676
353.551276	2497.080105
353.941175	2494.667913
354.331010	2495.572800
354.720782	2498.262256
355.110490	2496.664210
355.500135	2497.478356
355.889717	2494.236894
356.279235	2495.512306
356.668689	2496.790239
357.058080	2499.638491
357.447408	2496.616319
357.836672	2495.489621
358.225873	2495.461895
358.615010	2494.720845
359.004084	2498.466422
359.393095	2501.811228
359.782043	2500.427431
360.170927	2502.456496
360.559748	2501.551608
360.948505	2501.397853
361.337199	2504.853564
361.725830	2501.939777
362.114398	2503.053872
362.502903	2504.029336
362.891344	2503.948677
363.279722	2501.186125
363.668037	2505.715602
364.056289	2504.369613
364.444478	2506.504542
364.832603	2505.607217
365.220665	2505.491270
365.608665	2505.914727
365.996601	2507.147289
366.384474	2506.542351
366.772284	2508.198370
367.160031	2507.081754
367.547715	2507.573267
367.935336	2508.460510
368.322893	2508.967146
368.710388	2505.531599
369.097820	2514.862775
369.485189	2509.882115
369.872495	2509.897239
370.259738	2508.120232
370.646918	2509.811539
371.034035	2509.952691
371.421090	2510.023268
371.808081	2511.374297
372.195010	2510.114008
372.581875	2513.854544
372.968678	2512.712723
373.355418	2513.093330
373.742096	2515.503002
374.128710	2514.285563
374.515262	2512.841272
374.901751	2513.627693
375.288177	2512.879081
375.674540	2513.957888
376.060841	2516.228928
376.447079	2513.191633
376.833254	2514.361180
377.219367	2508.452948
377.605417	2510.817249
377.991404	2509.004954
378.377329	2511.729698
378.763191	2511.903618
379.148991	2518.000893
379.534727	2513.282373
379.920402	2516.077693
380.306013	2516.276819
380.691563	2517.320338
381.077049	2518.237828
381.462474	2519.178003
381.847835	2518.162210
382.233134	2517.673218
382.618371	2516.574247
383.003545	2518.832684
383.388657	2518.126922
383.773706	2517.864782
384.158693	2517.781603
384.543618	2518.046264
384.928480	2519.891326
385.313280	2519.256141
385.698017	2519.611542
386.082692	2524.609846
386.467305	2516.854031
386.851856	2520.284536
387.236344	2517.327899
387.620770	2520.312262
388.005133	2518.565503
388.389435	2520.713034
388.773674	2520.753363
389.157851	2519.306552
389.541965	2519.666995
389.926018	2519.999711
390.310008	2522.240504
390.693936	2521.585154
391.077802	2522.116996
391.461606	2520.748322
391.845348	2524.761081
392.229027	2521.307890
392.612645	2522.232942
392.996200	2523.314270
393.379694	2524.609846
393.763125	2523.901564
394.146494	2522.878210
394.529801	2525.920546
394.913047	2524.289733
395.296230	2526.744775
395.679351	2522.248066
396.062410	2527.468180
396.445408	2525.481966
396.828343	2524.950124
397.211217	2521.733868
397.594028	2522.230422
397.976778	2520.413086
398.359466	2523.215967
398.742092	2521.222191
399.124656	2527.390043
399.507158	2525.965917
399.889598	2526.192768
400.271977	2529.005732
400.654294	2524.904754
401.036549	2525.686133
401.418742	2528.108407
401.800874	2527.387522
402.182944	2529.363654
402.564952	2528.201668
402.946898	2528.506658
403.328783	2528.063037
403.710606	2527.014477
404.092367	2528.216792
404.474067	2527.430372
404.855705	2529.169570
405.237282	2529.076308
405.618797	2527.450536
406.000250	2529.293078
406.381642	2530.266021
406.762972	2529.071267
407.144240	2528.995650
407.525447	2530.230733
407.906593	2529.401463
408.287677	2528.708304
408.668700	2528.756195
409.049661	2528.756195
409.430560	2531.075126
409.811399	2531.551515
410.192176	2531.821217
410.572891	2533.610826
410.953545	2531.322142
411.334138	2532.942873
411.714669	2530.321473
412.095139	2530.702081
412.475547	2530.752492
412.855894	2529.855167
413.236180	2533.489839
413.616405	2532.814324
413.996568	2535.534027
414.376670	2532.819365
414.756711	2533.613347
415.136691	2532.486649
415.516609	2534.379602
415.896466	2533.774664
416.276262	2534.301464
416.655997	2530.089580
417.035670	2529.315763
417.415283	2532.045548
417.794834	2530.192924
418.174324	2532.789118
418.553753	2532.146371
418.933121	2534.087215
419.312428	2534.911444
419.691674	2533.036135
420.070859	2533.116793
420.449983	2534.853471
420.829045	2536.121321
421.208047	2534.785415
421.586988	2533.215096
421.965867	2535.695343
422.344686	2533.041176
422.723444	2535.418080
423.102141	2534.835827
423.480777	2533.595703
423.859352	2535.415559
424.237866	2536.028060
424.616319	2537.308513
424.994712	2536.305323
425.373044	2534.498069
425.751314	2537.643749
426.129524	2539.080478
426.507673	2536.723739
426.885762	2535.660055
427.263789	2538.268852
427.641756	2535.443286
428.019662	2537.195087
428.397508	2535.934798
428.775292	2539.050231
429.153016	2538.170550
429.530679	2539.738349
429.908282	2536.325488
430.285824	2534.982020
430.663305	2538.498225
431.040726	2539.209028
431.418086	2537.542926
431.795385	2538.911600
432.172624	2538.778009
432.549802	2538.783050
432.926920	2539.030067
433.303977	2542.241282
433.680974	2540.103833
434.057910	2539.574511
434.434786	2539.569470
434.811601	2538.591486
435.188355	2537.311033
435.565050	2538.311702
435.941683	2537.197607
436.318257	2539.483771
436.694770	2535.614685
437.071222	2536.363296
437.447614	2536.005374
437.823946	2538.289017
438.200218	2540.492001
438.576429	2540.204656
438.952580	2536.708615
439.328670	2541.704399
439.704700	2539.526620
440.080670	2540.640715
440.456580	2539.226672
440.832429	2541.049049
441.208218	2539.236754
441.583947	2542.455531
441.959616	2541.099460
442.335224	2543.917465
442.710773	2542.420243
443.086261	2541.648946
443.461689	2542.047197
443.837057	2542.634492
444.212365	2542.316899
444.587612	2544.628268
444.962800	2541.729605
445.337927	2541.641384
445.712995	2542.389996
446.088002	2540.970911
446.462949	2542.364790
446.837837	2542.294214
447.212664	2547.403423
447.587431	2541.212886
447.962139	2542.412681
448.336786	2544.053577
448.711374	2543.930068
449.085901	2540.948226
449.460369	2542.901673
449.834776	2542.160623
450.209124	2541.966539
450.583412	2543.138607
450.957640	2544.003165
451.331808	2541.487629
451.705917	2543.136087
452.079965	2545.306303
452.453954	2543.430994
452.827883	2544.693803
453.201752	2543.607434
453.575562	2543.524255
453.949311	2543.725902
454.323001	2542.382434
454.696632	2545.336550
455.070202	2544.905532
455.443713	2543.650284
455.817164	2543.768751
456.190556	2540.381096
456.563888	2540.607948
456.937160	2537.288348
457.310373	2544.469472
457.683526	2545.260933
458.056619	2543.680531
458.429653	2544.068700
458.802628	2544.562733
459.175542	2546.354863
459.548398	2546.538865
459.921194	2544.615665
460.293930	2543.718340
460.666607	2542.236241
461.039224	2545.455017
461.411782	2545.727240
461.784280	2544.575336
462.156719	2544.356046
462.529099	2545.586087
462.901419	2545.941489
463.273680	2546.528783
463.645882	2544.726571
464.018024	2546.438042
464.390106	2545.386962
464.762130	2544.610624
465.134094	2546.622044
465.505999	2547.925183
465.877845	2544.905532
466.249631	2546.266643
466.621358	2550.176058
466.993026	2545.210521
467.364634	2552.600853
467.736184	2544.376210
468.107674	2547.484082
468.479105	2546.493495
468.850477	2546.969884
469.221790	2549.848383
469.593043	2545.518032
469.964238	2548.585574
470.335373	2547.965512
470.706449	2544.068700
471.077467	2548.031047
471.448425	2548.837632
471.819324	2549.409802
472.190164	2546.884184
472.560945	2546.667415
472.931667	2545.334030
473.302330	2547.897456
473.672934	2549.162786
474.043479	2544.237579
474.413965	2545.971736
474.784393	2544.726571
475.154761	2543.703216
475.525070	2543.178936
475.895321	2543.133566
476.265513	2543.085675
476.635645	2547.721016
477.005719	2546.606921
477.375734	2548.162117
477.745691	2547.095913
478.115588	2549.787889
478.485427	2550.135729
478.855207	2546.238917
479.224928	2547.703372
479.594591	2547.405944
479.964194	2550.453321
480.333739	2547.569781
480.703226	2547.448794
481.072653	2548.411654
481.442022	2548.358722
481.811333	2550.662529
482.180584	2548.814946
482.549777	2547.607590
482.918912	2546.533824
483.287988	2548.363763
483.657005	2549.326623
484.025964	2549.397200
484.394864	2546.974925
484.763706	2549.543393
485.132489	2549.200595
485.501213	2550.501212
485.869879	2548.973743
486.238487	2551.196892
486.607036	2548.905687
486.975527	2548.998948
487.343959	2547.453835
487.712333	2549.344267
488.080648	2549.689587
488.448905	2549.213198
488.817104	2551.078424
489.185244	2552.522715
489.553326	2547.363094
489.921350	2548.895605
490.289315	2549.104813
490.657222	2547.673125
491.025070	2547.446273
491.392861	2550.796120
491.760593	2551.721172
492.128267	2551.847200
492.495883	2549.500543
492.863440	2551.317879
493.230939	2551.141439
493.598380	2549.621531
493.965763	2547.542055
494.333088	2547.395862
494.700354	2546.601880
495.067563	2547.345450
495.434713	2546.001982
495.801805	2548.625903
496.168839	2550.566747
496.535815	2551.554813
496.902733	2551.595143
497.269593	2550.415513
497.636395	2548.610780
498.003139	2550.798640
498.369825	2549.649257
498.736453	2551.063301
499.103023	2549.813095
499.469535	2551.325441
499.835989	2551.131357
500.202385	2551.005328
500.568723	2549.296377
500.935003	2550.808723
501.301226	2551.378373
501.667390	2551.726213
502.033497	2551.922818
502.399546	2551.085986
502.765537	2550.939793
503.131470	2551.766542
503.497345	2554.889537
503.863163	2552.999104
504.228923	2548.303269
504.594625	2551.617828
504.960269	2549.301418
505.325856	2551.116233
505.691385	2551.716130
506.056856	2550.617159
506.422270	2548.328475
506.787625	2552.197561
507.152924	2550.352498
507.518164	2553.518343
507.883347	2548.542724
508.248472	2552.303425
508.613540	2552.081614
508.978550	2551.287632
509.343503	2551.403579
509.708398	2552.542880
510.073236	2552.331151
510.438016	2548.464586
510.802738	2552.855431
511.167403	2550.919628
511.532010	2550.972560
511.896561	2552.338713
512.261053	2552.442057
512.625488	2548.580533
512.989866	2547.100954
513.354186	2548.202446
513.718449	2550.216387
514.082655	2549.069525
514.446803	2553.036913
514.810894	2553.190668
515.174927	2551.859803
515.538904	2552.505071
515.902822	2551.146480
516.266684	2553.757798
516.630488	2552.250493
516.994235	2551.925338
517.357925	2552.651264
517.721558	2552.444577
518.085133	2553.132695
518.448651	2554.009855
518.812112	2551.771583
519.175516	2552.341233
519.538863	2553.982129
519.902152	2552.500030
520.265385	2552.779814
520.628560	2555.721327
520.991678	2550.803682
521.354739	2553.349464
521.717743	2552.671429
522.080690	2553.926676
522.443580	2556.737120
522.806413	2550.949875
523.169189	2552.540359
523.531908	2554.007335
523.894569	2551.249824
524.257174	2551.975750
524.619722	2552.968857
524.982213	2555.207129
525.344647	2550.811243
525.707025	2554.087993
526.069345	2553.220915
526.431608	2553.588919
526.793815	2551.612787
527.155964	2554.866852
527.518057	2553.064639
527.880093	2553.110009
528.242072	2551.756460
528.603995	2551.453990
528.965860	2553.528425
529.327669	2551.327962
529.689421	2552.689073
530.051117	2552.691594
530.412755	2552.482386
530.774337	2554.667726
531.135862	2553.682180
531.497331	2551.511964
531.858743	2549.485420
532.220098	2553.687222
532.581396	2549.941644
532.942638	2549.286294
533.303824	2553.505740
533.664953	2553.218394
534.026025	2552.452139
534.387040	2554.755946
534.747999	2552.442057
535.108902	2553.488096
535.469748	2551.232180
535.830537	2555.038251
536.191270	2551.731254
536.551947	2551.985832
536.912567	2553.651933
537.273131	2553.072201
537.633638	2553.702345
537.994089	2552.336192
538.354483	2554.685370
538.714821	2549.732436
539.075103	2552.343754
539.435328	2556.180072
539.795497	2554.876934
540.155609	2553.359547
540.515665	2550.276881
540.875665	2555.504557
541.235609	2551.852242
541.595496	2557.105124
541.955328	2553.546069
542.315102	2552.578168
542.674821	2552.497509
543.034483	2554.017417
543.394090	2552.815102
543.753640	2552.885678
544.113134	2552.540359
544.472571	2553.936759
544.831953	2553.571275
545.191278	2553.374670
545.550548	2553.987170
545.909761	2553.757798
546.268918	2554.019938
546.628019	2553.110009
546.987064	2553.135215
547.346053	2554.990360
547.704986	2554.944989
548.063863	2553.820812
548.422684	2556.011193
548.781449	2554.592109
549.140158	2554.266954
549.498811	2553.367108
549.857408	2552.394166
550.215949	2552.684032
550.574434	2550.702858
550.932864	2551.360729
551.291237	2547.718495
551.649555	2553.984650
552.007817	2552.729402
552.366022	2553.493137
552.724173	2553.762839
553.082267	2554.355174
553.440305	2554.609753
553.798288	2553.409958
554.156215	2553.924156
554.514086	2552.820143
554.871902	2554.692932
555.229661	2554.254351
555.587365	2554.997922
555.945014	2554.382901
556.302606	2555.580175
556.660143	2556.979095
557.017625	2553.140256
557.375050	2552.747046
557.732421	2551.363250
558.089735	2553.505740
558.446994	2554.874413
558.804197	2555.386090
559.161345	2555.466749
559.518437	2552.179917
559.875474	2553.140256
560.232455	2554.219063
560.589381	2554.589588
560.946251	2557.596636
561.303065	2553.629248
561.659825	2555.502037
562.016528	2553.866182
562.373177	2556.530432
562.729770	2554.082952
563.086307	2555.796944
563.442789	2554.544218
563.799216	2554.274516
564.155587	2552.668908
564.511904	2553.218394
564.868164	2554.254351
565.224370	2554.539177
565.580520	2554.226625
565.936615	2555.076059
566.292654	2553.979608
566.648638	2555.441543
567.004567	2554.513971
567.360441	2550.458363
567.716260	2554.587068
568.072023	2553.029351
568.427732	2549.145142
568.783385	2553.959444
569.138982	2549.457693
569.494525	2550.324772
569.850013	2550.153373
570.205445	2553.679660
570.560823	2554.259392
570.916145	2553.621687
571.271412	2554.408107
571.626625	2555.547407
571.981782	2553.714948
572.336884	2553.470452
572.691931	2554.433312
573.046923	2553.662016
573.401860	2555.466749
573.756743	2552.447098
574.111570	2552.381563
574.466342	2554.433312
574.821059	2552.817622
575.175722	2554.380380
575.530330	2553.538508
575.884882	2556.658982
576.239380	2552.913404
576.593823	2556.608570
576.948211	2553.508261
577.302544	2555.139074
577.656823	2556.979095
578.011047	2556.336348
578.365216	2552.777293
578.719330	2553.304094
579.073389	2555.030689
579.427394	2553.377191
579.781344	2551.869886
580.135239	2553.868703
580.489080	2553.480534
580.842866	2553.941800
581.196597	2558.052861
581.550273	2554.720658
581.903895	2554.660164
582.257463	2554.962633
582.610975	2553.830894
582.964434	2555.307952
583.317837	2552.570606
583.671186	2554.841646
584.024481	2554.251831
584.377721	2555.249979
584.730906	2552.956254
585.084037	2557.032027
585.437113	2554.430792
585.790135	2557.261400
586.143103	2553.886347
586.496016	2553.903991
586.848874	2549.976932
587.201679	2554.130843
587.554428	2554.556821
587.907124	2554.929866
588.259765	2549.112374
588.612352	2557.891544
588.964884	2552.860472
589.317362	2555.638148
589.669786	2554.108158
590.022155	2553.808209
590.374470	2553.256203
590.726731	2554.965154
591.078937	2553.856100
591.431090	2552.222766
591.783188	2555.101265
592.135232	2557.319373
592.487222	2554.342572
592.839157	2557.682336
593.191038	2555.726368
593.542866	2557.659651
593.894639	2556.777449
594.246358	2554.077911
594.598022	2553.001625
594.949633	2554.768549
595.301190	2555.045813
595.652692	2557.163097
596.004141	2552.681511
596.355535	2558.791390
596.706876	2554.849208
597.058162	2555.938097
597.409395	2553.402396
597.760573	2554.972716
598.111698	2553.225956
598.462768	2554.927345
598.813785	2554.692932
599.164748	2555.975905
599.515657	2556.026317
599.866511	2556.918601
600.217312	2556.890875
600.568060	2553.142777
600.918753	2555.224773
601.269392	2554.781152
601.619978	2556.971533
601.970510	2554.670247
602.320988	2554.166131
602.671412	2555.902809
603.021783	2553.732592
603.372100	2554.642520
603.722363	2555.118909
604.072572	2556.212840
604.422728	2556.243087
604.772830	2550.980122
605.122878	2553.450287
605.472872	2553.029351
605.822813	2549.140101
606.172701	2553.825853
606.522534	2554.299722
606.872314	2555.554969
607.222041	2553.964485
607.571714	2553.805689
607.921333	2555.711245
608.270899	2556.308622
608.620411	2556.858107
608.969870	2555.963303
609.319276	2558.297357
609.668627	2557.967161
610.017926	2563.719118
610.367171	2558.385577
610.716362	2561.001936
611.065500	2557.909188
611.414585	2561.190979
611.763616	2555.315514
612.112594	2556.537994
612.461518	2557.261400
612.810389	2553.712427
613.159207	2558.342727
613.507971	2556.888354
613.856682	2557.198385
614.205340	2555.693601
614.553945	2556.905998
614.902496	2553.820812
615.250994	2556.258210
615.599439	2556.243087
615.947830	2555.496996
616.296169	2554.773590
616.644454	2555.577654
616.992686	2554.818961
617.340864	2553.969526
617.688990	2559.381205
618.037063	2554.309804
618.385082	2553.198230
618.733048	2554.975236
619.080961	2554.627397
619.428821	2554.609753
619.776628	2555.925494
620.124382	2556.810216
620.472083	2555.552448
620.819731	2554.443395
621.167326	2553.142777
621.514868	2555.837274
621.862357	2555.660833
622.209793	2556.134702
622.557176	2555.275185
622.904506	2551.277550
623.251783	2549.334185
623.599007	2552.313507
623.946179	2551.017931
624.293297	2552.144628
624.640363	2557.647048
624.987376	2556.432130
625.334336	2551.627910
625.681243	2555.733930
626.028097	2557.049671
626.374899	2554.902140
626.721647	2553.359547
627.068343	2555.859959
627.414987	2556.522871
627.761577	2555.693601
628.108115	2555.481872
628.454600	2554.922304
628.801032	2553.472972
629.147412	2555.151677
629.493739	2554.924825
629.840014	2556.185113
630.186236	2553.266285
630.532405	2557.142932
630.878521	2554.186296
631.224585	2551.668239
631.570597	2553.709907
631.916556	2556.633776
632.262462	2554.287119
632.608316	2556.500185
632.954117	2551.154042
633.299866	2553.437684
633.645562	2554.148487
633.991206	2552.908363
634.336797	2552.618497
634.682336	2554.448436
635.027823	2557.011862
635.373257	2555.456667
635.718639	2554.009855
636.063968	2553.538508
636.409245	2554.526574
636.754470	2553.659495
637.099642	2553.291491
637.444762	2552.104299
637.789829	2554.841646
638.134845	2553.278888
638.479808	2554.834084
638.824719	2555.930535
639.169577	2555.708724
639.514383	2551.128836
639.859137	2555.776780
640.203839	2552.489947
640.548489	2554.831563
640.893086	2551.562375
641.237632	2548.083979
641.582125	2551.363250
641.926566	2549.424926
642.270955	2552.121943
642.615292	2551.922818
642.959576	2556.490103
643.303809	2555.249979
643.647990	2556.263251
643.992118	2554.667726
644.336195	2552.918446
644.680219	2554.493806
645.024192	2554.249310
645.368112	2556.477500
645.711981	2550.962478
646.055797	2552.459701
646.399562	2553.475493
646.743274	2552.512633
647.086935	2555.527243
647.430544	2555.423899
647.774101	2552.268137
648.117606	2553.609084
648.461059	2557.115206
648.804460	2557.059753
649.147810	2556.187634
649.491108	2554.216543
649.834354	2554.398024
650.177548	2555.663354
650.520690	2555.086142
650.863781	2553.886347
651.206820	2553.656975
651.549807	2554.718138
651.892742	2553.135215
652.235626	2554.685370
652.578458	2554.524053
652.921238	2552.714279
653.263967	2556.628735
653.606644	2554.655123
653.949269	2554.229146
654.291843	2552.686553
654.634365	2549.994576
654.976836	2552.242931
655.319255	2553.896429
655.661622	2553.578837
656.003938	2552.994063
656.346203	2552.379042
656.688416	2552.424412
657.030577	2554.120761
657.372687	2552.477345
657.714746	2553.354505
658.056753	2552.595812
658.398708	2550.493651
658.740612	2550.778476
659.082465	2550.783517
659.424266	2552.003476
659.766016	2549.624052
660.107715	2553.251162
660.449362	2552.928528
660.790958	2555.801986
661.132503	2551.373332
661.473996	2554.309804
661.815438	2553.525905
662.156829	2553.326779
662.498168	2554.266954
662.839456	2551.751418
663.180693	2554.876934
663.521879	2554.352654
663.863013	2553.137736
664.204097	2554.569423
664.545129	2553.135215
664.886110	2556.079249
665.227040	2553.417520
665.567918	2555.691080
665.908746	2553.150339
666.249522	2553.818292
666.590248	2552.278219
666.930922	2553.205791
667.271545	2553.062118
667.612118	2556.825340
667.952639	2552.424412
668.293109	2554.571944
668.633528	2554.939948
668.973896	2553.868703
669.314213	2551.995914
669.654480	2552.066491
669.994695	2551.930379
670.334859	2555.542366
670.674973	2554.002294
671.015035	2551.660678
671.355047	2552.275698
671.695008	2554.080432
672.034918	2554.370298
672.374777	2553.719989
672.714585	2552.323589
673.054342	2552.174875
673.394049	2552.200081
673.733705	2553.659495
674.073310	2552.230328
674.412864	2553.692263
674.752368	2554.982798
675.091820	2552.910884
675.431223	2551.065822
675.770574	2553.679660
676.109875	2550.874258
676.449125	2548.255378
676.788324	2549.548434
677.127473	2551.680842
677.466571	2548.099103
677.805619	2553.336861
678.144616	2552.558003
678.483562	2553.941800
678.822458	2553.863662
679.161303	2556.376677
679.500098	2554.471121
679.838842	2554.269475
680.177535	2553.951882
680.516179	2550.811243
680.854771	2554.052705
681.193314	2554.705535
681.531805	2551.206974
681.870247	2553.218394
682.208638	2551.980791
682.546978	2552.583209
682.885268	2556.046482
683.223508	2557.107644
683.561697	2551.514484
683.899836	2556.351471
684.237925	2551.869886
684.575963	2554.478683
684.913951	2553.198230
685.251889	2557.163097
685.589776	2551.973229
685.927614	2552.689073
686.265401	2551.501881
686.603137	2552.585729
686.940824	2552.920966
687.278460	2555.010524
687.616046	2552.174875
687.953582	2552.769732
688.291068	2551.585060
688.628504	2554.420709
688.965889	2553.553631
689.303224	2555.106306
689.640510	2553.679660
689.977745	2554.050185
690.314930	2552.724361
690.652065	2554.982798
690.989150	2552.558003
691.326185	2554.723179
691.663170	2554.151008
692.000105	2553.994732
692.336990	2553.281409
692.673825	2553.263765
693.010610	2556.152346
693.347345	2551.413661
693.684030	2551.670760
694.020665	2550.604556
694.357251	2548.787220
694.693786	2550.410472
695.030272	2552.207643
695.366707	2553.157900
695.703093	2549.495502
696.039429	2553.059598
696.375716	2553.911553
696.711952	2553.422561
697.048139	2554.413148
697.384276	2550.861655
697.720363	2553.972047
698.056400	2552.676470
698.392388	2552.648744
698.728326	2552.837787
699.064214	2551.635472
699.400053	2555.128992
699.735842	2550.400389
700.071581	2551.504402
700.407270	2551.126315
700.742910	2553.099927
701.078501	2555.527243
701.414042	2556.336348
701.749533	2552.275698
702.084974	2551.721172
702.420366	2553.813250
702.755709	2550.496171
703.091002	2556.719476
703.426246	2553.606563
703.761440	2552.787376
704.096584	2552.346275
704.431679	2553.145297
704.766725	2551.418702
705.101721	2551.212015
705.436668	2552.752088
705.771565	2553.578837
706.106413	2554.695452
706.441212	2551.663198
706.775961	2552.487427
707.110661	2552.671429
707.445311	2552.442057
707.779913	2555.854918
708.114465	2556.900957
708.448967	2555.789383
708.783421	2554.284598
709.117825	2552.812581
709.452180	2551.887530
709.786485	2553.982129
710.120742	2550.899463
710.454949	2553.593960
710.789107	2548.726726
711.123216	2545.729760
711.457275	2550.871737
711.791286	2548.462066
712.125247	2549.248486
712.459159	2554.892057
712.793023	2554.226625
713.126837	2555.055895
713.460602	2552.663867
713.794318	2552.734443
714.127985	2550.851572
714.461602	2552.540359
714.795171	2551.879968
715.128691	2551.499361
715.462162	2552.497509
715.795584	2555.688560
716.128957	2551.658157
716.462281	2551.842159
716.795556	2554.216543
717.128782	2553.208312
717.461960	2554.017417
717.795088	2552.061449
718.128167	2552.575647
718.461198	2552.797458
718.794180	2551.635472
719.127113	2550.362581
719.459997	2552.724361
719.792833	2551.839639
720.125619	2554.118240
720.458357	2553.772921
720.791046	2554.367777
721.123686	2552.774773
721.456278	2551.585060
721.788821	2549.626572
722.121315	2553.417520
722.453761	2551.204453
722.786158	2554.143446
723.118506	2548.089020
723.450805	2553.084804
723.783056	2552.109340
724.115259	2552.966337
724.447412	2553.629248
724.779518	2553.155380
725.111574	2553.714948
725.443582	2554.425751
725.775542	2552.810061
726.107453	2554.229146
726.439315	2552.215205
726.771129	2555.272664
727.102895	2553.926676
727.434612	2553.777962
727.766281	2551.605225
728.097901	2548.744370
728.429473	2548.633465
728.760996	2550.884340
729.092471	2545.593649
729.423897	2550.589432
729.755276	2550.831408
730.086606	2552.159752
730.417887	2550.879299
730.749120	2552.956254
731.080305	2552.555482
731.411442	2553.503219
731.742530	2554.261913
732.073570	2552.676470
732.404562	2553.664536
732.735506	2552.300904
733.066401	2550.599515
733.397249	2551.297715
733.728048	2551.900132
734.058798	2554.854249
734.389501	2552.164793
734.720156	2551.640513
735.050762	2550.685214
735.381320	2552.492468
735.711831	2552.827705
736.042293	2555.209650
736.372707	2550.879299
736.703073	2552.250493
737.033391	2552.968857
737.363661	2553.261244
737.693883	2552.832746
738.024056	2554.289639
738.354182	2552.847869
738.684260	2552.757129
739.014290	2552.850390
739.344272	2551.524567
739.674207	2551.156562
740.004093	2553.072201
740.333931	2552.038764
740.663722	2550.700338
740.993464	2553.084804
741.323159	2553.324258
741.652806	2550.395348
741.982405	2550.100441
742.311956	2553.102448
742.641460	2551.842159
742.970915	2553.351985
743.300323	2548.789741
743.629683	2553.092365
743.958996	2549.918959
744.288260	2552.862993
744.617477	2550.947354
744.946647	2547.640357
745.275768	2550.032385
745.604842	2549.225800
745.933869	2546.927034
746.262847	2549.480379
746.591778	2552.792417
746.920662	2549.429967
747.249498	2552.210163
747.578286	2549.987015
747.907027	2552.701676
748.235720	2551.688404
748.564365	2551.297715
748.892963	2549.813095
749.221514	2552.280740
749.550017	2548.998948
749.878473	2555.522202
750.206881	2550.118085
750.535242	2551.819474
750.863555	2552.285781
751.191821	2550.329813
751.520039	2549.684545
751.848210	2553.533466
752.176334	2550.949875
752.504411	2552.933569
752.832440	2551.885009
753.160421	2552.046326
753.488356	2550.871737
753.816243	2553.185627
754.144082	2552.021120
754.471875	2553.609084
754.799620	2550.564227
755.127318	2548.837632
755.454969	2551.380894
755.782572	2551.333003
756.110129	2554.014897
756.437638	2551.869886
756.765100	2552.573127
757.092515	2550.412992
757.419882	2550.405430
757.747203	2552.051367
758.074477	2548.998948
758.401703	2549.245965
758.728882	2552.162272
759.056014	2552.520194
759.383099	2549.987015
759.710138	2553.175544
760.037129	2551.695966
760.364073	2549.969371
760.690970	2548.736808
761.017820	2553.667057
761.344623	2552.457180
761.671379	2552.663867
761.998088	2546.891746
762.324751	2546.148176
762.651366	2544.925696
762.977935	2548.825029
763.304456	2545.147507
763.630931	2552.789896
763.957359	2551.333003
764.283740	2551.814433
764.610074	2551.517005
764.936362	2553.977088
765.262602	2551.310318
765.588796	2552.084135
765.914943	2551.307797
766.241044	2550.670091
766.567097	2552.255534
766.893104	2553.359547
767.219064	2550.806202
767.544978	2550.544062
767.870845	2549.883671
768.196665	2548.777138
768.522438	2548.799823
768.848165	2550.037426
769.173846	2551.499361
769.499479	2550.584391
769.825066	2549.316541
770.150607	2550.705379
770.476101	2550.670091
770.801548	2552.598332
771.126949	2549.334185
771.452303	2552.434495
771.777611	2554.012376
772.102872	2551.028013
772.428087	2550.309648
772.753256	2553.346944
773.078378	2550.100441
773.403453	2552.089176
773.728482	2549.518187
774.053465	2552.275698
774.378401	2550.884340
774.703291	2550.670091
775.028135	2550.765873
775.352932	2550.816284
775.677683	2551.524567
776.002388	2549.223280
776.327046	2550.375183
776.651658	2550.027344
776.976224	2551.564896
777.300743	2551.028013
777.625216	2549.548434
777.949643	2550.702858
778.274024	2551.635472
778.598359	2547.007693
778.922647	2546.218752
779.246889	2548.973743
779.571086	2545.734801
779.895236	2548.504915
780.219339	2551.206974
780.543397	2549.780327
780.867409	2552.046326
781.191374	2550.574309
781.515294	2550.228990
781.839167	2549.782848
782.162995	2550.226469
782.486776	2552.500030
782.810511	2550.418033
783.134201	2553.818292
783.457844	2549.732436
783.781441	2553.541028
784.104993	2548.956099
784.428498	2548.809905
784.751958	2549.321582
785.075372	2549.906356
785.398739	2552.484906
785.722061	2551.650595
786.045337	2551.355688
786.368568	2551.378373
786.691752	2550.765873
787.014891	2551.285112
787.337983	2549.079607
787.661030	2550.680173
787.984031	2549.127498
788.306987	2550.428116
788.629897	2551.509443
788.952760	2549.356870
789.275579	2549.563558
789.598351	2549.611449
789.921078	2550.012220
790.243759	2548.613300
790.566395	2549.634134
790.888984	2550.332334
791.211529	2550.962478
791.534027	2550.511295
791.856480	2548.399051
792.178888	2550.533980
792.501249	2548.827549
792.823566	2550.415513
793.145836	2549.838301
793.468062	2552.192519
793.790241	2549.394679
794.112375	2550.798640
794.434464	2550.440718
794.756507	2549.397200
795.078505	2552.270657
795.400457	2549.888712
795.722364	2546.163299
796.044226	2544.484595
796.366042	2546.415357
796.687812	2550.453321
797.009538	2548.494833
797.331218	2549.863506
797.652852	2551.849721
797.974442	2551.612787
798.295986	2549.956768
798.617484	2548.464586
798.938938	2549.727395
799.260346	2549.840821
799.581709	2551.091027
799.903026	2551.232180
800.224299	2549.608928
800.545526	2550.327293
800.866708	2551.390976
801.187845	2551.693445
801.508936	2547.095913
801.829983	2549.223280
802.150984	2549.790410
802.471940	2549.682025
802.792851	2552.661347
803.113717	2551.058260
803.434538	2550.355019
803.755314	2551.181768
804.076045	2548.789741
804.396731	2549.603887
804.717372	2548.394010
805.037967	2549.495502
805.358518	2550.181099
805.679024	2548.406613
805.999485	2548.701520
806.319901	2549.669422
806.640272	2550.975081
806.960598	2550.599515
807.280879	2550.299566
807.601115	2550.337375
807.921306	2549.722354
808.241453	2549.238403
808.561554	2549.987015
808.881611	2550.173537
809.201623	2550.856614
809.521590	2550.702858
809.841513	2549.845862
810.161390	2550.866696
810.481223	2547.847045
810.801011	2549.646737
811.120755	2551.106151
811.440453	2552.598332
811.760107	2549.654298
812.079716	2548.933413
812.399281	2545.467620
812.718801	2545.593649
813.038276	2543.052907
813.357707	2548.230173
813.677093	2550.549103
813.996434	2550.014741
814.315731	2548.494833
814.634983	2549.041798
814.954191	2550.425595
815.273354	2548.260419
815.592473	2550.912066
815.911547	2548.593136
816.230577	2550.304607
816.549562	2549.684545
816.868502	2549.185471
817.187399	2549.704710
817.506250	2549.858465
817.825058	2550.044988
818.143821	2548.875440
818.462539	2551.234700
818.781213	2550.034906
819.099843	2549.039278
819.418429	2549.238403
819.736970	2548.779658
820.055466	2549.112374
820.373919	2550.138249
820.692327	2551.000287
821.010691	2549.377035
821.329011	2549.389638
821.647286	2549.624052
821.965517	2549.329144
822.283704	2551.476676
822.601847	2549.624052
822.919945	2547.332847
823.237999	2547.353012
823.556010	2549.929041
823.873976	2546.944678
824.191897	2550.360060
824.509775	2550.165976
824.827609	2551.532128
825.145398	2548.557847
825.463144	2549.029195
825.780845	2550.531459
826.098502	2548.890564
826.416116	2548.469627
826.733685	2551.091027
827.051210	2549.913918
827.368692	2547.438711
827.686129	2546.712785
828.003522	2552.116902
828.320872	2543.375541
828.638177	2548.993907
828.955439	2546.349822
829.272656	2546.422919
829.589830	2545.641540
829.906960	2551.327962
830.224046	2548.615821
830.541088	2549.823177
830.858086	2548.167158
831.175041	2548.895605
831.491952	2548.222611
831.808819	2549.719833
832.125642	2551.552293
832.442421	2547.368135
832.759157	2548.542724
833.075849	2550.108002
833.392497	2549.966850
833.709101	2550.415513
834.025662	2548.847714
834.342179	2549.697148
834.658653	2547.408464
834.975083	2552.613456
835.291469	2552.845349
835.607811	2547.635316
835.924110	2548.762014
836.240366	2550.110523
836.556578	2548.772097
836.872746	2549.056922
837.188871	2544.643392
837.504952	2552.308466
837.820990	2548.091541
838.136984	2546.314534
838.452935	2548.240255
838.768842	2547.421067
839.084706	2547.652960
839.400526	2548.300749
839.716303	2543.985521
840.032037	2548.290666
840.347727	2548.749411
840.663373	2547.872251
840.978977	2548.953578
841.294537	2548.109185
841.610054	2548.159596
841.925527	2548.585574
842.240957	2547.937786
842.556344	2546.730429
842.871687	2552.593291
843.186987	2548.789741
843.502244	2548.734288
843.817458	2548.557847
844.132629	2544.666077
844.447756	2549.808054
844.762840	2544.812270
845.077881	2545.533155
845.392879	2544.698844
845.707833	2545.752445
846.022745	2544.731612
846.337613	2547.153886
846.652438	2547.312682
846.967221	2546.682538
847.281960	2547.708413
847.596656	2548.575492
847.911309	2548.376366
848.225919	2549.976932
848.540485	2550.203784
848.855009	2546.967363
849.169490	2548.343598
849.483928	2547.549617
849.798323	2547.123639
850.112675	2548.777138
850.426984	2548.295707
850.741251	2545.820501
851.055474	2549.669422
851.369654	2548.146993
851.683792	2547.350491
851.997887	2550.097920
852.311938	2548.925852
852.625947	2550.564227
852.939914	2545.873433
853.253837	2551.055739
853.567718	2551.154042
853.881555	2547.133722
854.195350	2549.240924
854.509103	2548.593136
854.822812	2550.334854
855.136479	2548.605738
855.450103	2546.236396
855.763685	2547.771428
856.077224	2547.809236
856.390720	2547.252189
856.704173	2545.707075
857.017584	2548.656150
857.330953	2549.508105
857.644278	2549.762683
857.957561	2551.363250
858.270802	2549.147662
858.584000	2550.927190
858.897155	2548.146993
859.210268	2547.035419
859.523339	2547.786551
859.836367	2546.735470
860.149352	2548.280584
860.462295	2548.792261
860.775195	2544.507280
861.088054	2543.942671
861.400869	2545.520552
861.713642	2544.950902
862.026373	2546.977446
862.339062	2545.366797
862.651708	2549.984494
862.964312	2547.869730
863.276873	2546.455686
863.589392	2550.715461
863.901869	2548.257899
864.214303	2547.569781
864.526696	2548.497354
864.839045	2547.123639
865.151353	2547.418547
865.463619	2548.736808
865.775842	2547.990718
866.088023	2545.102137
866.400162	2547.889895
866.712258	2546.357384
867.024313	2549.200595
867.336325	2547.000131
867.648296	2550.944834
867.960224	2547.539534
868.272110	2547.864689
868.583954	2546.599359
868.895755	2546.407795
869.207515	2548.199926
869.519233	2546.909390
869.830909	2546.816129
870.142542	2550.067673
870.454134	2546.901828
870.765684	2548.383928
871.077191	2549.054401
871.388657	2551.701007
871.700081	2548.832590
872.011463	2545.918803
872.322803	2549.954247
872.634101	2547.123639
872.945357	2548.502395
873.256571	2547.915100
873.567744	2549.331665
873.878874	2549.992056
874.189963	2546.737991
874.501010	2549.432488
874.812015	2546.143135
875.122979	2548.633465
875.433900	2548.404092
875.744780	2548.013403
876.055618	2546.299411
876.366415	2548.023485
876.677169	2547.133722
876.987882	2544.842517
877.298554	2544.222455
877.609183	2544.703885
877.919771	2541.739687
878.230317	2544.431663
878.540822	2548.988866
878.851285	2547.128680
879.161707	2545.427291
879.472087	2546.019627
879.782425	2546.112888
880.092722	2548.880481
880.402977	2543.836807
880.713191	2549.051881
881.023363	2548.043650
881.333494	2548.802343
881.643583	2548.336037
881.953631	2548.031047
882.263637	2545.208001
882.573602	2547.698331
882.883526	2550.329813
883.193408	2547.252189
883.503248	2547.453835
883.813048	2549.921480
884.122806	2547.562220
884.432522	2549.987015
884.742197	2546.853938
885.051831	2549.959288
885.361424	2548.353681
885.670975	2550.319731
885.980485	2546.400234
886.289954	2549.518187
886.599382	2548.089020
886.908768	2549.150183
887.218113	2546.634647
887.527417	2548.651109
887.836680	2549.024154
888.145901	2546.286808
888.455082	2546.861499
888.764221	2547.181613
889.073319	2546.443083
889.382376	2548.154555
889.691392	2549.029195
890.000366	2549.510626
890.309300	2549.334185
890.618193	2546.584236
890.927044	2548.744370
891.235855	2545.593649
891.544625	2546.359904
891.853353	2547.655481
892.162041	2549.109854
892.470687	2552.263096
892.779293	2546.745553
893.087858	2544.966025
893.396381	2543.516694
893.704864	2547.292518
894.013306	2542.667259
894.321707	2545.674307
894.630068	2545.979297
894.938387	2546.559030
895.246665	2547.305121
895.554903	2546.924514
895.863100	2548.157076
896.171256	2547.312683
896.479371	2550.004659
896.787446	2549.737478
897.095480	2545.893598
897.403473	2547.869730
897.711425	2548.111705
898.019336	2545.933927
898.327207	2547.781510
898.635038	2548.852755
898.942827	2548.799823
899.250576	2546.634647
899.558284	2546.178423
899.865952	2548.746891
900.173579	2547.259750
900.481165	2546.243958
900.788711	2547.521890
901.096216	2546.468289
901.403681	2547.045501
901.711105	2546.059956
902.018489	2544.182126
902.325832	2549.803013
902.633135	2548.187323
902.940397	2547.625234
903.247619	2547.804195
903.554800	2547.600028
903.861941	2546.097764
904.169041	2548.003321
904.476101	2550.241593
904.783121	2547.400903
905.090100	2549.067004
905.397039	2548.121788
905.703938	2550.181099
906.010796	2547.529452
906.317614	2548.769576
906.624391	2547.559699
906.931129	2547.905018
907.237826	2545.848227
907.544483	2546.725388
907.851099	2545.298742
908.157675	2542.919317
908.464211	2547.128680
908.770707	2541.011240
909.077163	2544.613145
909.383578	2541.704399
909.689954	2544.159441
909.996289	2540.834800
910.302584	2548.593136
910.608839	2546.362425
910.915054	2544.303114
911.221229	2543.448638
911.527363	2549.061963
911.833458	2543.408309
912.139513	2549.228321
912.445527	2546.843855
912.751502	2548.585574
913.057436	2547.443752
913.363331	2544.905532
913.669186	2544.414019
913.975000	2544.751776
914.280775	2546.107847
914.586510	2545.364277
914.892205	2547.516849
915.197859	2547.723537
915.503475	2546.722868
915.809050	2546.075079
916.114585	2543.413350
916.420081	2544.696324
916.725536	2548.547765
917.030952	2548.094061
917.336328	2547.229503
917.641665	2545.944009
917.946961	2545.568443
918.252218	2543.617517
918.557435	2546.662374
918.862612	2547.242106
919.167750	2547.899977
919.472848	2546.170861
919.777906	2545.147507
920.082925	2546.087682
920.387904	2547.600028
920.692843	2545.374359
920.997743	2545.543237
921.302603	2545.260933
921.607423	2545.099616
921.912204	2548.643547
922.216946	2544.655994
922.521647	2547.289997
922.826310	2546.004503
923.130932	2547.274874
923.435516	2543.617517
923.740059	2545.936447
924.044564	2546.274205
924.349028	2544.625748
924.653454	2539.748431
924.957840	2545.215562
925.262186	2544.187167
925.566493	2543.620037
925.870761	2541.686755
926.174989	2543.798998
926.479178	2544.887888
926.783328	2548.386448
927.087438	2542.563916
927.391509	2549.508105
927.695541	2544.678680
927.999533	2546.256561
928.303486	2545.548279
928.607400	2544.149358
928.911275	2544.280428
929.215110	2547.176571
929.518906	2545.271015
929.822663	2546.047353
930.126381	2544.403937
930.430060	2546.511139
930.733699	2545.790254
931.037299	2545.344112
931.340861	2545.543237
931.644383	2544.991231
931.947866	2547.743701
932.251309	2545.737322
932.554714	2545.742363
932.858080	2548.010882
933.161407	2545.865871
933.464694	2543.887218
933.767943	2543.609955
934.071153	2546.359904
934.374323	2543.849410
934.677455	2546.763197
934.980548	2546.934596
935.283602	2547.078269
935.586617	2545.298742
935.889593	2546.029709
936.192530	2546.627086
936.495428	2546.929555
936.798287	2546.927034
937.101108	2544.285470
937.403890	2544.996272
937.706632	2545.573484
938.009336	2545.228165
938.312002	2548.094061
938.614628	2547.879812
938.917216	2546.506098
939.219765	2545.742363
939.522275	2545.974256
939.824747	2545.835624
940.127179	2542.763041
940.429573	2540.696168
940.731929	2544.860161
941.034246	2542.044677
941.336524	2544.736653
941.638763	2544.235058
941.940964	2548.986346
942.243126	2548.023485
942.545250	2544.398896
942.847335	2545.502908
943.149381	2544.726571
943.451389	2544.592980
943.753359	2546.722868
944.055290	2546.001982
944.357182	2546.601880
944.659036	2546.276725
944.960851	2544.303114
945.262628	2547.539534
945.564367	2545.301262
945.866067	2547.584905
946.167729	2547.058104
946.469352	2546.836293
946.770937	2542.505942
947.072484	2545.550799
947.373992	2546.148176
947.675462	2545.679349
947.976893	2543.446117
948.278286	2545.097095
948.579641	2545.021478
948.880958	2545.933927
949.182236	2546.702703
949.483476	2546.927034
949.784678	2545.213042
950.085841	2545.150027
950.386967	2545.596170
950.688054	2543.524255
950.989103	2543.844369
951.290114	2544.071221
951.591087	2546.397713
951.892021	2543.297403
952.192917	2546.672456
952.493776	2543.292362
952.794596	2544.086344
953.095378	2542.573998
953.396122	2547.947868
953.696828	2547.239586
953.997496	2544.771941
954.298126	2544.605583
954.598718	2546.203629
954.899272	2545.079451
955.199788	2546.823691
955.500266	2545.563402
955.800706	2541.464944
956.101108	2539.808925
956.401472	2541.568288
956.701798	2542.173226
957.002087	2545.379400
957.302337	2545.359235
957.602550	2545.570964
957.902724	2546.501057
958.202861	2547.279915
958.502960	2545.104657
958.803022	2546.463248
959.103045	2546.548948
959.403031	2548.194884
959.702979	2545.661705
960.002889	2546.576674
960.302762	2543.819163
960.602596	2546.251520
960.902393	2544.850079
961.202153	2544.973587
961.501875	2543.741025
961.801559	2546.569112
962.101205	2544.078782
962.400814	2544.618186
962.700385	2545.825542
962.999918	2543.894780
963.299414	2543.073072
963.598873	2545.046684
963.898293	2545.087013
964.197677	2546.130532
964.497022	2544.313196
964.796331	2542.339584
965.095601	2542.725232
965.394835	2543.214224
965.694030	2543.791437
965.993189	2542.999975
966.292309	2545.384441
966.591393	2547.867209
966.890439	2542.233720
967.189447	2544.794626
967.488419	2542.659697
967.787353	2542.526107
968.086249	2545.182795
968.385108	2543.423432
968.683930	2541.263298
968.982714	2544.235058
969.281462	2544.237579
969.580172	2545.936447
969.878844	2546.828732
970.177480	2543.098278
970.476078	2543.778834
970.774639	2544.575336
971.073162	2544.408978
971.371649	2542.279090
971.670098	2541.454862
971.968510	2543.947712
972.266885	2539.007382
972.565223	2543.451159
972.863524	2542.725232
973.161788	2544.983669
973.460014	2541.527958
973.758204	2545.515511
974.056356	2543.095757
974.354471	2545.389482
974.652550	2544.986190
974.950591	2545.865871
975.248595	2546.072559
975.546563	2546.090203
975.844493	2543.017619
976.142386	2545.359235
976.440243	2543.592311
976.738062	2545.167672
977.035845	2543.010058
977.333590	2548.192364
977.631299	2543.534338
977.928971	2545.119781
978.226606	2546.039791
978.524204	2545.422250
978.821765	2544.749256
979.119290	2545.888557
979.416777	2545.069369
979.714228	2542.659698
980.011642	2547.312682
980.309020	2545.860830
980.606360	2547.121119
980.903664	2544.713968
981.200931	2543.594832
981.498162	2543.400747
981.795356	2545.205480
982.092513	2546.115408
982.389633	2542.369831
982.686717	2547.589946
982.983764	2542.044677
983.280775	2542.256405
983.577749	2545.349153
983.874686	2544.701365
984.171587	2542.334543
984.468451	2544.212373
984.765279	2544.265305
985.062070	2543.874616
985.358824	2546.768238
985.655543	2544.351005
985.952224	2543.388144
986.248869	2542.301776
986.545478	2540.144162
986.842050	2539.082999
987.138586	2541.422094
987.435086	2542.442928
987.731549	2540.824718
988.027975	2544.109029
988.324366	2542.871426
988.620719	2544.703885
988.917037	2544.293031
989.213318	2547.582384
989.509563	2542.846220
989.805772	2541.676672
990.101944	2543.511652
990.398080	2543.322609
990.694180	2545.487785
990.990244	2543.844369
991.286271	2543.481406
991.582262	2544.565254
991.878217	2544.063659
992.174136	2544.950902
992.470019	2544.081303
992.765865	2543.725902
993.061676	2543.506611
993.357450	2542.954605
993.653188	2545.452497
993.948890	2545.742363
994.244556	2545.316386
994.540186	2544.411498
994.835780	2543.609955
995.131337	2545.094575
995.426859	2544.711447
995.722345	2543.093237
996.017795	2543.899821
996.313208	2541.049049
996.608586	2544.761859
996.903928	2544.741694
997.199234	2544.255223
997.494504	2546.412837
997.789738	2543.244471
998.084936	2544.658515
998.380099	2543.385624
998.675225	2542.760521
998.970316	2544.542568
999.265371	2545.596170
999.560390	2544.610624
999.855373	2546.964843
1000.150320	2543.214224
1000.445232	2544.978628
1000.740108	2543.889739
1001.034948	2545.749925
1001.329752	2546.170861
1001.624521	2544.159441
1001.919254	2540.013092
1002.213951	2542.710109
1002.508613	2540.318082
1002.803239	2544.650953
1003.097829	2540.595345
1003.392384	2544.270346
1003.686903	2544.371169
1003.981386	2543.521735
1004.275834	2542.667259
1004.570246	2546.644730
1004.864623	2542.700027
1005.158964	2544.648433
1005.453270	2540.192053
1005.747540	2544.368649
1006.041775	2545.197918
1006.335974	2543.733463
1006.630138	2543.340253
1006.924266	2545.460058
1007.218359	2544.769420
1007.512416	2543.998124
1007.806438	2542.775644
1008.100425	2542.705068
1008.394376	2545.081972
1008.688292	2541.560726
1008.982172	2541.487629
1009.276017	2542.309337
1009.569827	2546.233876
1009.863602	2546.715306
1010.157341	2542.982331
1010.451045	2545.618855
1010.744714	2542.747918
1011.038347	2545.570964
1011.331945	2542.299255
1011.625508	2544.406457
1011.919036	2544.608103
1012.212528	2542.914276
1012.505986	2542.914276
1012.799408	2542.150541
1013.092795	2543.791437
1013.386147	2545.056766
1013.679464	2542.241282
1013.972745	2544.459389
1014.265992	2544.182126
1014.559204	2545.422250
1014.852380	2543.483926
1015.145521	2544.653474
1015.438628	2545.351674
1015.731699	2542.505942
1016.024736	2543.932589
1016.317737	2544.471992
1016.610703	2543.889739
1016.903635	2540.923020
1017.196531	2540.242464
1017.489393	2543.052907
1017.782219	2539.251878
1018.075011	2543.035263
1018.367768	2541.911086
1018.660490	2545.323947
1018.953177	2545.323947
1019.245829	2545.323947
