Dividing Wavelength (nm)	Counts (n)	Blue Motor Position (mm): 3.200000	Red Motor Position (mm): 0.000000	
326.493990	2161.682057
326.888308	2161.682057
327.282561	2161.682057
327.676750	2121.723351
328.070874	2114.448966
328.464933	2117.403083
328.858929	2121.511623
329.252859	2127.336676
329.646726	2133.628036
330.040528	2147.685294
330.434265	2158.506130
330.827938	2179.787361
331.221547	2196.788653
331.615091	2211.569316
332.008571	2230.319888
332.401986	2249.882085
332.795338	2266.845568
333.188625	2286.894237
333.581847	2306.312761
333.975006	2323.858497
334.368100	2342.596466
334.761129	2359.655731
335.154095	2377.834131
335.546996	2396.007491
335.939833	2408.829666
336.332606	2422.332396
336.725315	2435.336053
337.117960	2452.695266
337.510540	2460.975361
337.903056	2473.207721
338.295508	2481.944041
338.687896	2491.897799
339.080220	2497.165805
339.472480	2503.852895
339.864676	2511.596107
340.256807	2512.677435
340.648875	2519.145235
341.040879	2520.864269
341.432818	2527.619415
341.824694	2526.074301
342.216506	2528.204189
342.608253	2531.060003
342.999937	2531.186031
343.391557	2527.747964
343.783113	2530.124868
344.174605	2527.599250
344.566033	2525.030783
344.957397	2527.695032
345.348697	2527.148067
345.739934	2524.687984
346.131106	2521.628004
346.522215	2518.230266
346.913260	2519.432581
347.304241	2514.547703
347.695159	2511.878412
348.086012	2517.169103
348.476802	2510.270284
348.867528	2507.686693
349.258191	2504.477998
349.648789	2500.409787
350.039324	2499.923316
350.429796	2499.794766
350.820203	2496.974241
351.210548	2500.288799
351.600828	2498.955414
351.991045	2500.122441
352.381198	2495.736638
352.771288	2494.173880
353.161314	2496.112203
353.551276	2495.582882
353.941175	2495.691267
354.331010	2495.870228
354.720782	2493.382419
355.110490	2495.063643
355.500135	2494.315032
355.889717	2494.708242
356.279235	2495.371154
356.668689	2492.563231
357.058080	2497.541371
357.447408	2495.429127
357.836672	2494.683036
358.225873	2496.021463
358.615010	2497.674961
359.004084	2496.056751
359.393095	2498.821824
359.782043	2497.228819
360.170927	2498.206803
360.559748	2498.060609
360.948505	2498.683192
361.337199	2500.883656
361.725830	2499.840137
362.114398	2501.821310
362.502903	2498.269817
362.891344	2503.925992
363.279722	2504.230982
363.668037	2501.382730
364.056289	2502.824500
364.444478	2503.910868
364.832603	2504.747700
365.220665	2503.913389
365.608665	2504.515807
365.996601	2504.160406
366.384474	2505.002278
366.772284	2504.775426
367.160031	2505.319871
367.547715	2508.314316
367.935336	2505.894563
368.322893	2505.597134
368.710388	2505.854233
369.097820	2506.355828
369.485189	2503.373986
369.872495	2507.560664
370.259738	2508.155520
370.646918	2506.474295
371.034035	2507.028822
371.421090	2509.766169
371.808081	2512.763135
372.195010	2509.665346
372.581875	2510.199708
372.968678	2512.004441
373.355418	2507.885818
373.742096	2510.202228
374.128710	2510.781961
374.515262	2509.660304
374.901751	2511.986797
375.288177	2512.407733
375.674540	2512.763135
376.060841	2511.815398
376.447079	2515.198012
376.833254	2511.759945
377.219367	2512.218690
377.605417	2513.390758
377.991404	2514.688855
378.377329	2512.947137
378.763191	2513.473937
379.148991	2512.253978
379.534727	2511.676766
379.920402	2514.020902
380.306013	2515.180368
380.691563	2515.439987
381.077049	2511.916221
381.462474	2515.613907
381.847835	2515.021572
382.233134	2513.466376
382.618371	2515.245903
383.003545	2514.779596
383.388657	2516.382683
383.773706	2516.032323
384.158693	2514.862775
384.543618	2515.313958
384.928480	2520.322345
385.313280	2516.670029
385.698017	2518.434433
386.082692	2517.307735
386.467305	2516.533918
386.851856	2518.406706
387.236344	2518.361336
387.620770	2516.065090
388.005133	2511.139883
388.389435	2518.492406
388.773674	2515.185409
389.157851	2519.203209
389.541965	2519.147756
389.926018	2519.241017
390.310008	2520.763446
390.693936	2520.302180
391.077802	2519.477952
391.461606	2517.869823
391.845348	2519.954341
392.229027	2522.754702
392.612645	2522.792510
392.996200	2520.133302
393.379694	2522.890813
393.763125	2520.115658
394.146494	2520.208919
394.529801	2523.026924
394.913047	2523.994825
395.296230	2519.959382
395.679351	2520.828981
396.062410	2522.875689
396.445408	2523.599095
396.828343	2524.009949
397.211217	2522.258148
397.594028	2526.361647
397.976778	2522.295957
398.359466	2522.071625
398.742092	2524.002387
399.124656	2521.731347
399.507158	2524.231760
399.889598	2525.492048
400.271977	2523.052130
400.654294	2528.143695
401.036549	2525.550021
401.418742	2526.230577
401.800874	2523.329393
402.182944	2524.725793
402.564952	2524.871986
402.946898	2524.241842
403.328783	2524.607326
403.710606	2527.183355
404.092367	2523.894002
404.474067	2526.994312
404.855705	2527.059847
405.237282	2528.305012
405.618797	2525.686132
406.000250	2526.026410
406.381642	2529.514889
406.762972	2523.843591
407.144240	2523.894002
407.525447	2526.510361
407.906593	2526.769981
408.287677	2527.536236
408.668700	2527.135464
409.049661	2529.141843
409.430560	2525.817203
409.811399	2529.023376
410.192176	2526.248221
410.572891	2528.080681
410.953545	2528.927594
411.334138	2529.782070
411.714669	2529.401463
412.095139	2530.001360
412.475547	2525.587830
412.855894	2530.490352
413.236180	2529.789632
413.616405	2533.179808
413.996568	2530.550846
414.376670	2528.405835
414.756711	2530.099663
415.136691	2527.798376
415.516609	2530.755013
415.896466	2529.247708
416.276262	2529.456916
416.655997	2530.132430
417.035670	2530.820548
417.415283	2531.155784
417.794834	2528.602440
418.174324	2529.769467
418.553753	2529.701412
418.933121	2532.937832
419.312428	2532.862215
419.691674	2534.147709
420.070859	2532.060672
420.449983	2531.667462
420.829045	2530.835671
421.208047	2532.791639
421.586988	2533.124355
421.965867	2535.029911
422.344686	2533.714170
422.723444	2534.417411
423.102141	2531.571680
423.480777	2533.820034
423.859352	2535.029911
424.237866	2532.716022
424.616319	2535.186187
424.994712	2532.713501
425.373044	2533.643594
425.751314	2531.717873
426.129524	2530.863397
426.507673	2532.405991
426.885762	2529.098994
427.263789	2534.576207
427.641756	2534.805580
428.019662	2537.580735
428.397508	2538.105015
428.775292	2536.310364
429.153016	2534.813142
429.530679	2535.014788
429.908282	2535.050076
430.285824	2536.552340
430.663305	2537.182484
431.040726	2535.909593
431.418086	2535.413039
431.795385	2535.428162
432.172624	2536.791794
432.549802	2540.766744
432.926920	2539.375386
433.303977	2538.107536
433.680974	2536.789274
434.057910	2536.406146
434.434786	2538.155427
434.811601	2539.806404
435.188355	2536.746424
435.565050	2538.067206
435.941683	2535.735673
436.318257	2538.324305
436.694770	2537.132072
437.071222	2535.773481
437.447614	2542.475695
437.823946	2536.864891
438.200218	2537.716846
438.576429	2535.433203
438.952580	2538.331867
439.328670	2536.620395
439.704700	2536.335570
440.080670	2537.263142
440.456580	2538.150385
440.832429	2536.668286
441.208218	2540.872608
441.583947	2537.999151
441.959616	2538.851106
442.335224	2538.558719
442.710773	2538.530993
443.086261	2538.626774
443.461689	2537.840354
443.837057	2540.809594
444.212365	2540.960829
444.587612	2537.782381
444.962800	2533.540250
445.337927	2538.984696
445.712995	2536.045704
446.088002	2538.926723
446.462949	2541.404450
446.837837	2539.193904
447.212664	2540.766744
447.587431	2539.781199
447.962139	2538.180632
448.336786	2540.071065
448.711374	2541.843031
449.085901	2540.373534
449.460369	2541.553164
449.834776	2542.233720
450.209124	2538.130221
450.583412	2539.521579
450.957640	2537.729449
451.331808	2541.469985
451.705917	2541.268339
452.079965	2541.175078
452.453954	2540.081147
452.827883	2543.985521
453.201752	2541.563247
453.575562	2541.285983
453.949311	2539.856816
454.323001	2539.927392
454.696632	2541.361600
455.070202	2539.584594
455.443713	2538.704912
455.817164	2541.724563
456.190556	2541.054090
456.563888	2543.297403
456.937160	2538.906558
457.310373	2543.176416
457.683526	2542.969728
458.056619	2544.222455
458.429653	2542.989893
458.802628	2539.945036
459.175542	2546.228834
459.548398	2542.397557
459.921194	2543.083154
460.293930	2541.953936
460.666607	2542.584080
461.039224	2541.674152
461.411782	2544.446787
461.784280	2543.483926
462.156719	2543.403268
462.529099	2543.123484
462.901419	2543.403268
463.273680	2543.655325
463.645882	2538.601569
464.018024	2540.040818
464.390106	2538.173071
464.762130	2545.626417
465.134094	2542.389996
465.505999	2544.542568
465.877845	2543.070552
466.249631	2543.592311
466.621358	2544.154400
466.993026	2546.367466
467.364634	2548.630944
467.736184	2545.482744
468.107674	2545.649102
468.479105	2544.295552
468.850477	2546.332178
469.221790	2546.803526
469.593043	2544.887887
469.964238	2546.949719
470.335373	2546.866540
470.706449	2544.550130
471.077467	2545.122301
471.448425	2540.681045
471.819324	2545.823022
472.190164	2544.971067
472.560945	2544.822352
472.931667	2543.930068
473.302330	2546.639688
473.672934	2543.758669
474.043479	2546.589277
474.413965	2543.788916
474.784393	2542.657177
475.154761	2546.296890
475.525070	2546.112888
475.895321	2544.298072
476.265513	2545.644061
476.635645	2545.661705
477.005719	2546.707744
477.375734	2544.275387
477.745691	2548.063814
478.115588	2543.420912
478.485427	2548.633465
478.855207	2549.341747
479.224928	2545.034081
479.594591	2547.184133
479.964194	2546.521221
480.333739	2545.147507
480.703226	2545.200439
481.072653	2546.879143
481.442022	2545.656663
481.811333	2543.816642
482.180584	2541.938812
482.549777	2546.193546
482.918912	2541.807742
483.287988	2546.518701
483.657005	2546.473330
484.025964	2547.433670
484.394864	2547.211859
484.763706	2546.737991
485.132489	2544.713968
485.501213	2546.304452
485.869879	2546.813608
486.238487	2546.039791
486.607036	2546.395192
486.975527	2548.588094
487.343959	2545.999462
487.712333	2546.858979
488.080648	2545.225645
488.448905	2548.946016
488.817104	2547.902498
489.185244	2545.409647
489.553326	2547.274874
489.921350	2546.803526
490.289315	2547.531973
490.657222	2549.092210
491.025070	2549.707231
491.392861	2547.811757
491.760593	2548.058773
492.128267	2548.313352
492.495883	2547.272353
492.863440	2548.063814
493.230939	2546.304452
493.598380	2552.200081
493.965763	2547.673125
494.333088	2547.017775
494.700354	2549.160265
495.067563	2547.577343
495.434713	2548.086500
495.801805	2547.778989
496.168839	2547.794113
496.535815	2550.004659
496.902733	2548.015923
497.269593	2544.686241
497.636395	2547.625234
498.003139	2547.526932
498.369825	2548.187323
498.736453	2548.351160
499.103023	2548.656150
499.469535	2552.066491
499.835989	2548.883002
500.202385	2545.160110
500.568723	2542.450490
500.935003	2544.764379
501.301226	2543.037784
501.667390	2548.799823
502.033497	2551.461552
502.399546	2548.880481
502.765537	2548.777138
503.131470	2545.787733
503.497345	2550.849052
503.863163	2547.910059
504.228923	2549.936603
504.594625	2549.818136
504.960269	2550.264278
505.325856	2549.566078
505.691385	2548.394010
506.056856	2549.936603
506.422270	2548.850234
506.787625	2544.552651
507.152924	2546.669935
507.518164	2548.441901
507.883347	2548.250337
508.248472	2548.598177
508.613540	2549.596325
508.978550	2548.520039
509.343503	2551.660678
509.708398	2548.532642
510.073236	2549.435008
510.438016	2551.282591
510.802738	2548.860317
511.167403	2551.663198
511.532010	2549.929041
511.896561	2549.916438
512.261053	2549.805533
512.625488	2548.673794
512.989866	2549.049360
513.354186	2550.549103
513.718449	2549.500543
514.082655	2547.940306
514.446803	2550.687735
514.810894	2548.857796
515.174927	2552.416851
515.538904	2550.647406
515.902822	2549.329144
516.266684	2552.096738
516.630488	2550.773435
516.994235	2549.939124
517.357925	2549.505584
517.721558	2551.741336
518.085133	2550.171017
518.448651	2548.807385
518.812112	2546.846376
519.175516	2545.449976
519.538863	2546.183464
519.902152	2549.636654
520.265385	2549.661860
520.628560	2551.101110
520.991678	2549.866027
521.354739	2548.497354
521.717743	2550.884340
522.080690	2550.223949
522.443580	2547.952909
522.806413	2550.297046
523.169189	2552.487427
523.531908	2549.825698
523.894569	2550.932231
524.257174	2550.675132
524.619722	2549.044319
524.982213	2550.057591
525.344647	2551.126315
525.707025	2549.835780
526.069345	2549.578681
526.431608	2551.688404
526.793815	2551.811912
527.155964	2552.444577
527.518057	2551.038095
527.880093	2550.695297
528.242072	2550.150852
528.603995	2550.503733
528.965860	2550.881819
529.327669	2552.386604
529.689421	2552.169834
530.051117	2550.990204
530.412755	2548.353681
530.774337	2551.895091
531.135862	2549.987015
531.497331	2550.044988
531.858743	2550.017262
532.220098	2549.061963
532.581396	2552.724361
532.942638	2550.513815
533.303824	2550.755791
533.664953	2549.170348
534.026025	2550.329813
534.387040	2549.833259
534.747999	2552.129505
535.108902	2552.636141
535.469748	2550.319731
535.830537	2549.737478
536.191270	2551.327962
536.551947	2549.185471
536.912567	2547.254709
537.273131	2550.382745
537.633638	2543.536858
537.994089	2551.098589
538.354483	2551.343085
538.714821	2552.903322
539.075103	2552.406768
539.435328	2551.451470
539.795497	2551.758980
540.155609	2551.169165
540.515665	2552.147149
540.875665	2553.346944
541.235609	2551.736295
541.595496	2552.154711
541.955328	2551.214536
542.315102	2553.621687
542.674821	2552.764690
543.034483	2551.143959
543.394090	2552.051367
543.753640	2551.254865
544.113134	2551.627910
544.472571	2553.077242
544.831953	2554.163611
545.191278	2551.335523
545.550548	2553.059598
545.909761	2553.382232
546.268918	2552.177396
546.628019	2552.250493
546.987064	2549.107333
547.346053	2550.019782
547.704986	2553.919115
548.063863	2553.639331
548.422684	2550.153373
548.781449	2553.107489
549.140158	2550.639844
549.498811	2552.847869
549.857408	2552.023641
550.215949	2548.973743
550.574434	2549.987015
550.932864	2552.623538
551.291237	2550.372663
551.649555	2551.436346
552.007817	2552.971378
552.366022	2553.351985
552.724173	2548.545245
553.082267	2553.273847
553.440305	2552.182437
553.798288	2552.028682
554.156215	2552.991542
554.514086	2547.826880
554.871902	2549.543393
555.229661	2550.753270
555.587365	2547.295038
555.945014	2551.398538
556.302606	2550.917107
556.660143	2552.028682
557.017625	2551.867365
557.375050	2550.458363
557.732421	2553.702345
558.089735	2548.371325
558.446994	2550.292004
558.804197	2553.475493
559.161345	2551.784186
559.518437	2550.554144
559.875474	2552.366439
560.232455	2551.685883
560.589381	2551.441387
560.946251	2551.942982
561.303065	2551.534649
561.659825	2551.645554
562.016528	2551.590102
562.373177	2553.939279
562.729770	2552.215205
563.086307	2549.866027
563.442789	2554.219063
563.799216	2549.442570
564.155587	2552.202602
564.511904	2550.929710
564.868164	2551.685883
565.224370	2553.757798
565.580520	2553.450287
565.936615	2553.407438
566.292654	2550.355019
566.648638	2550.506253
567.004567	2552.603373
567.360441	2551.020451
567.716260	2552.784855
568.072023	2550.891902
568.427732	2553.122612
568.783385	2554.508930
569.138982	2552.421892
569.494525	2552.116902
569.850013	2555.073539
570.205445	2550.077755
570.560823	2551.771583
570.916145	2551.297715
571.271412	2551.723692
571.626625	2552.789896
571.981782	2552.621018
572.336884	2546.969884
572.691931	2547.572302
573.046923	2548.749411
573.401860	2545.041643
573.756743	2548.215049
574.111570	2551.549772
574.466342	2552.689073
574.821059	2550.831408
575.175722	2553.944320
575.530330	2553.349464
575.884882	2552.610935
576.239380	2553.152859
576.593823	2554.423230
576.948211	2551.360729
577.302544	2552.298384
577.656823	2554.791234
578.011047	2554.917263
578.365216	2552.747046
578.719330	2553.510781
579.073389	2552.081614
579.427394	2554.181255
579.781344	2552.096738
580.135239	2556.696790
580.489080	2554.004814
580.842866	2552.734443
581.196597	2555.978426
581.550273	2554.657644
581.903895	2553.397355
582.257463	2553.707386
582.610975	2553.813250
582.964434	2551.776624
583.317837	2553.979608
583.671186	2551.474155
584.024481	2554.987839
584.377721	2553.888868
584.730906	2552.815102
585.084037	2553.992211
585.437113	2552.321069
585.790135	2552.086655
586.143103	2551.247303
586.496016	2553.344423
586.848874	2553.669577
587.201679	2554.718137
587.554428	2554.087993
587.907124	2551.708569
588.259765	2553.364588
588.612352	2553.760318
588.964884	2553.609084
589.317362	2554.576985
589.669786	2554.208981
590.022155	2550.937272
590.374470	2550.846531
590.726731	2551.224618
591.078937	2547.511808
591.431090	2552.926007
591.783188	2553.520863
592.135232	2556.323745
592.487222	2554.952551
592.839157	2550.670091
593.191038	2551.333003
593.542866	2554.854249
593.894639	2553.820812
594.246358	2553.046995
594.598022	2554.846687
594.949633	2551.809392
595.301190	2555.025648
595.652692	2552.966337
596.004141	2551.002807
596.355535	2553.263765
596.706876	2554.231666
597.058162	2550.639844
597.409395	2551.333003
597.760573	2554.861810
598.111698	2552.189999
598.462768	2553.732592
598.813785	2550.816284
599.164748	2552.005997
599.515657	2552.217725
599.866511	2552.537838
600.217312	2553.888868
600.568060	2552.580688
600.918753	2555.416337
601.269392	2552.021120
601.619978	2552.270657
601.970510	2552.678991
602.320988	2553.704866
602.671412	2555.839794
603.021783	2550.735626
603.372100	2555.602860
603.722363	2552.416851
604.072572	2554.748384
604.422728	2553.117571
604.772830	2551.721172
605.122878	2557.069836
605.472872	2553.656975
605.822813	2555.015566
606.172701	2552.159752
606.522534	2554.864331
606.872314	2552.384083
607.222041	2554.093034
607.571714	2552.005997
607.921333	2549.545914
608.270899	2551.771583
608.620411	2550.657488
608.969870	2555.565051
609.319276	2557.218550
609.668627	2561.077553
610.017926	2565.357493
610.367171	2567.036197
610.716362	2567.472257
611.065500	2565.526371
611.414585	2560.830537
611.763616	2560.432285
612.112594	2558.309960
612.461518	2559.645865
612.810389	2558.927501
613.159207	2556.938766
613.507971	2557.878941
613.856682	2556.691749
614.205340	2554.672767
614.553945	2557.150494
614.902496	2555.176883
615.250994	2553.228477
615.599439	2555.285267
615.947830	2552.217725
616.296169	2554.360216
616.644454	2554.019938
616.992686	2553.528425
617.340864	2552.744526
617.688990	2554.269475
618.037063	2552.560524
618.385082	2554.002294
618.733048	2553.044474
619.080961	2554.584547
619.428821	2554.667726
619.776628	2552.298384
620.124382	2554.216543
620.472083	2555.610422
620.819731	2553.999773
621.167326	2552.348795
621.514868	2552.091696
621.862357	2554.839125
622.209793	2551.738816
622.557176	2552.832746
622.904506	2552.605894
623.251783	2556.147305
623.599007	2553.490617
623.946179	2553.407437
624.293297	2556.656461
624.640363	2551.892571
624.987376	2548.799823
625.334336	2550.866696
625.681243	2552.931048
626.028097	2549.233362
626.374899	2554.287119
626.721647	2554.294681
627.068343	2552.487427
627.414987	2554.115720
627.761577	2553.011707
628.108115	2553.596481
628.454600	2552.857952
628.801032	2553.785524
629.147412	2555.451625
629.493739	2555.544887
629.840014	2555.809547
630.186236	2553.510781
630.532405	2556.807696
630.878521	2554.425751
631.224585	2553.059598
631.570597	2553.102448
631.916556	2553.178065
632.262462	2551.111192
632.608316	2552.966337
632.954117	2553.528425
633.299866	2554.332489
633.645562	2553.974567
633.991206	2552.560524
634.336797	2552.742005
634.682336	2554.203940
635.027823	2554.650082
635.373257	2555.701163
635.718639	2553.535987
636.063968	2552.263096
636.409245	2551.244783
636.754470	2552.331151
637.099642	2548.575492
637.444762	2551.350647
637.789829	2552.754608
638.134845	2551.723692
638.479808	2549.339226
638.824719	2554.198899
639.169577	2552.704197
639.514383	2550.856614
639.859137	2553.835936
640.203839	2552.931048
640.548489	2553.069680
640.893086	2552.477345
641.237632	2553.813250
641.582125	2554.443395
641.926566	2551.632951
642.270955	2549.671942
642.615292	2550.044988
642.959576	2548.817467
643.303809	2549.228321
643.647990	2553.543549
643.992118	2551.827036
644.336195	2549.377035
644.680219	2553.624207
645.024192	2551.428785
645.368112	2552.789896
645.711981	2550.962478
646.055797	2553.500699
646.399562	2554.481203
646.743274	2555.388611
647.086935	2551.252344
647.430544	2551.438867
647.774101	2551.857283
648.117606	2552.401727
648.461059	2552.449618
648.804460	2557.458005
649.147810	2551.587581
649.491108	2552.792417
649.834354	2552.217725
650.177548	2550.816284
650.520690	2553.462890
650.863781	2554.070349
651.206820	2552.033723
651.549807	2549.200595
651.892742	2554.178734
652.235626	2552.008517
652.578458	2552.069011
652.921238	2549.790410
653.263967	2553.888868
653.606644	2553.288970
653.949269	2551.980791
654.291843	2549.760163
654.634365	2551.857283
654.976836	2551.713610
655.319255	2551.259906
655.661622	2551.484237
656.003938	2551.718651
656.346203	2551.912735
656.688416	2553.442726
657.030577	2547.582384
657.372687	2551.950544
657.714746	2551.383414
658.056753	2549.871068
658.398708	2551.668239
658.740612	2552.878116
659.082465	2554.193857
659.424266	2550.150852
659.766016	2545.878474
660.107715	2549.402241
660.449362	2546.122970
660.790958	2550.909546
661.132503	2550.370142
661.473996	2553.351985
661.815438	2550.909546
662.156829	2552.628579
662.498168	2551.479196
662.839456	2554.229146
663.180693	2552.532797
663.521879	2555.290308
663.863013	2553.225956
664.204097	2553.246121
664.545129	2551.511964
664.886110	2553.346944
665.227040	2552.313507
665.567918	2552.119423
665.908746	2550.894422
666.249522	2552.681511
666.590248	2553.714948
666.930922	2552.709238
667.271545	2553.467931
667.612118	2555.081101
667.952639	2550.894422
668.293109	2552.931048
668.633528	2551.650595
668.973896	2551.106151
669.314213	2552.174875
669.654480	2551.897612
669.994695	2551.774104
670.334859	2553.039433
670.674973	2548.772097
671.015035	2551.070863
671.355047	2548.772097
671.695008	2553.609084
672.034918	2553.306614
672.374777	2551.756460
672.714585	2551.156562
673.054342	2552.111861
673.394049	2551.698486
673.733705	2551.927859
674.073310	2551.446429
674.412864	2555.083621
674.752368	2551.111192
675.091820	2552.941131
675.431223	2552.603373
675.770574	2555.302911
676.109875	2550.851572
676.449125	2549.704710
676.788324	2549.366953
677.127473	2551.418702
677.466571	2547.015254
677.805619	2554.279557
678.144616	2552.094217
678.483562	2552.943651
678.822458	2551.758980
679.161303	2551.239741
679.500098	2549.465255
679.838842	2552.583209
680.177535	2551.496840
680.516179	2551.771583
680.854771	2550.786037
681.193314	2551.605225
681.531805	2551.227138
681.870247	2550.962478
682.208638	2551.156562
682.546978	2550.559186
682.885268	2552.421892
683.223508	2551.784186
683.561697	2552.414330
683.899836	2552.447098
684.237925	2550.967519
684.575963	2550.463404
684.913951	2549.707231
685.251889	2551.955585
685.589776	2548.842673
685.927614	2551.867365
686.265401	2547.053063
686.603137	2549.964329
686.940824	2550.919628
687.278460	2549.455173
687.616046	2550.909546
687.953582	2552.368960
688.291068	2550.286963
688.628504	2551.481717
688.965889	2553.097407
689.303224	2549.931562
689.640510	2551.448949
689.977745	2553.735112
690.314930	2553.336861
690.652065	2553.150339
690.989150	2553.304094
691.326185	2552.119423
691.663170	2551.942982
692.000105	2547.557178
692.336990	2550.186140
692.673825	2551.378373
693.010610	2551.935421
693.347345	2550.135729
693.684030	2547.065666
694.020665	2548.023485
694.357251	2542.606765
694.693786	2549.460214
695.030272	2551.239741
695.366707	2549.566078
695.703093	2550.133208
696.039429	2549.268650
696.375716	2553.326779
696.711952	2549.016592
697.048139	2552.731923
697.384276	2552.439536
697.720363	2552.868034
698.056400	2549.611449
698.392388	2553.069680
698.728326	2550.372663
699.064214	2549.555996
699.400053	2549.855945
699.735842	2549.737477
700.071581	2551.539690
700.407270	2549.934083
700.742910	2550.365101
701.078501	2549.500543
701.414042	2551.746377
701.749533	2550.886861
702.084974	2552.275698
702.420366	2551.201933
702.755709	2551.829556
703.091002	2552.353836
703.426246	2551.317879
703.761440	2548.257899
704.096584	2551.794268
704.431679	2549.104813
704.766725	2553.556152
705.101721	2548.898125
705.436668	2550.793599
705.771565	2552.280740
706.106413	2550.970040
706.441212	2549.981973
706.775961	2549.561037
707.110661	2551.277550
707.445311	2553.165462
707.779913	2550.871737
708.114465	2550.624721
708.448967	2552.772252
708.783421	2552.253013
709.117825	2552.026161
709.452180	2551.824515
709.786485	2550.717982
710.120742	2550.481048
710.454949	2545.790254
710.789107	2548.817467
711.123216	2546.022147
711.457275	2553.873744
711.791286	2550.521377
712.125247	2552.023641
712.459159	2549.445091
712.793023	2553.420040
713.126837	2550.395348
713.460602	2554.221584
713.794318	2552.426933
714.127985	2549.036757
714.461602	2548.525080
714.795171	2550.997766
715.128691	2552.734443
715.462162	2551.532128
715.795584	2549.976932
716.128957	2550.833928
716.462281	2552.830225
716.795556	2551.544731
717.128782	2552.812581
717.461960	2551.693445
717.795088	2549.371994
718.128167	2553.339382
718.461198	2549.349309
718.794180	2550.775955
719.127113	2550.884340
719.459997	2550.740667
719.792833	2550.438198
720.125619	2550.985163
720.458357	2550.702858
720.791046	2549.828218
721.123686	2550.450801
721.456278	2550.720502
721.788821	2548.278063
722.121315	2550.796120
722.453761	2549.127498
722.786158	2549.177909
723.118506	2547.428629
723.450805	2548.595656
723.783056	2552.510112
724.115259	2549.109854
724.447412	2548.845193
724.779518	2548.502395
725.111574	2551.625390
725.443582	2550.241593
725.775542	2549.114895
726.107453	2552.696635
726.439315	2550.203784
726.771129	2550.707900
727.102895	2547.985677
727.434612	2547.174051
727.766281	2547.670604
728.097901	2550.581871
728.429473	2551.222097
728.760996	2550.014741
729.092471	2548.875440
729.423897	2551.007848
729.755276	2548.893084
730.086606	2549.818136
730.417887	2548.605738
730.749120	2553.467931
731.080305	2549.654298
731.411442	2549.374514
731.742530	2550.821326
732.073570	2549.578681
732.404562	2549.417364
732.735506	2552.517674
733.066401	2546.773279
733.397249	2553.225956
733.728048	2552.338713
734.058798	2549.704710
734.389501	2549.818136
734.720156	2549.402241
735.050762	2550.780996
735.381320	2551.811912
735.711831	2548.318393
736.042293	2548.978784
736.372707	2548.310831
736.703073	2548.018444
737.033391	2547.559699
737.363661	2550.788558
737.693883	2551.582540
738.024056	2549.712272
738.354182	2548.724206
738.684260	2549.944165
739.014290	2550.773435
739.344272	2550.571788
739.674207	2549.253527
740.004093	2549.571119
740.333931	2547.408464
740.663722	2549.314021
740.993464	2548.275543
741.323159	2548.426778
741.652806	2549.866027
741.982405	2550.004659
742.311956	2551.411141
742.641460	2550.841490
742.970915	2552.316028
743.300323	2546.974925
743.629683	2546.012065
743.958996	2548.446942
744.288260	2542.765562
744.617477	2550.891902
744.946647	2549.785368
745.275768	2548.565409
745.604842	2549.621531
745.933869	2551.020451
746.262847	2549.636654
746.591778	2548.814946
746.920662	2548.096582
747.249498	2550.448280
747.578286	2552.242931
747.907027	2549.613969
748.235720	2550.627241
748.564365	2549.971891
748.892963	2547.277394
749.221514	2549.024154
749.550017	2546.740512
749.878473	2552.822664
750.206881	2549.913918
750.535242	2550.733105
750.863555	2548.499874
751.191821	2552.031203
751.520039	2550.773435
751.848210	2549.901315
752.176334	2550.871737
752.504411	2547.252189
752.832440	2550.244113
753.160421	2550.869217
753.488356	2548.391489
753.816243	2550.032385
754.144082	2547.718495
754.471875	2549.815615
754.799620	2550.667570
755.127318	2552.058929
755.454969	2548.709082
755.782572	2551.264947
756.110129	2549.797971
756.437638	2548.116747
756.765100	2547.899977
757.092515	2550.657488
757.419882	2546.158258
757.747203	2550.707900
758.074477	2549.913918
758.401703	2549.245965
758.728882	2548.101623
759.056014	2550.259237
759.383099	2549.472817
759.710138	2546.858979
760.037129	2545.384441
760.364073	2547.882333
760.690970	2545.258412
761.017820	2548.585574
761.344623	2548.217570
761.671379	2549.863506
761.998088	2549.916438
762.324751	2548.424257
762.651366	2552.081614
762.977935	2546.969884
763.304456	2548.467107
763.630931	2551.380894
763.957359	2547.055584
764.283740	2550.755791
764.610074	2547.383259
764.936362	2549.074566
765.262602	2548.482230
765.588796	2547.645399
765.914943	2549.215718
766.241044	2551.063301
766.567097	2548.414175
766.893104	2548.320913
767.219064	2549.104813
767.544978	2549.903836
767.870845	2549.571119
768.196665	2548.797302
768.522438	2549.510626
768.848165	2549.969371
769.173846	2550.173537
769.499479	2546.886705
769.825066	2548.514998
770.150607	2550.680173
770.476101	2547.776469
770.801548	2548.378887
771.126949	2546.997610
771.452303	2548.338557
771.777611	2549.150183
772.102872	2549.440049
772.428087	2549.674463
772.753256	2548.812426
773.078378	2548.414175
773.403453	2550.460883
773.728482	2549.606408
774.053465	2550.060111
774.378401	2551.345606
774.703291	2546.430481
775.028135	2548.726726
775.352932	2550.632282
775.677683	2548.288146
776.002388	2547.894936
776.327046	2545.177754
776.651658	2546.561551
776.976224	2544.343443
777.300743	2545.835624
777.625216	2547.484082
777.949643	2549.079607
778.274024	2548.078938
778.598359	2549.576161
778.922647	2548.686397
779.246889	2547.186654
779.571086	2549.926521
779.895236	2550.284443
780.219339	2549.394679
780.543397	2549.195553
780.867409	2548.784699
781.191374	2546.939637
781.515294	2547.272353
781.839167	2549.059442
782.162995	2549.727395
782.486776	2549.233362
782.810511	2546.889226
783.134201	2547.920142
783.457844	2547.879812
783.781441	2547.872251
784.104993	2545.260933
784.428498	2547.947868
784.751958	2545.308824
785.075372	2550.528939
785.398739	2548.484751
785.722061	2547.809236
786.045337	2550.072714
786.368568	2547.244627
786.691752	2544.570295
787.014891	2549.009031
787.337983	2547.148845
787.661030	2549.719833
787.984031	2546.954761
788.306987	2548.666232
788.629897	2547.423588
788.952760	2548.971222
789.275579	2547.289997
789.598351	2547.733619
789.921078	2547.907539
790.243759	2546.924514
790.566395	2548.421736
790.888984	2545.404606
791.211529	2545.185316
791.534027	2548.966181
791.856480	2547.897456
792.178888	2547.531973
792.501249	2543.395706
792.823566	2544.865202
793.145836	2542.543751
793.468062	2547.501726
793.790241	2547.388300
794.112375	2549.150183
794.434464	2549.185471
794.756507	2549.399720
795.078505	2549.308979
795.400457	2551.615307
795.722364	2546.828732
796.044226	2548.434339
796.366042	2545.344112
796.687812	2548.240255
797.009538	2547.884853
797.331218	2548.603218
797.652852	2550.216387
797.974442	2549.384597
798.295986	2547.663043
798.617484	2546.029709
798.938938	2547.715975
799.260346	2548.124308
799.581709	2548.202446
799.903026	2549.051881
800.224299	2548.638506
800.545526	2546.460728
800.866708	2547.040460
801.187845	2548.976263
801.508936	2547.042981
801.829983	2549.356870
802.150984	2548.673794
802.471940	2548.888043
802.792851	2550.415513
803.113717	2545.785213
803.434538	2548.197405
803.755314	2548.031047
804.076045	2547.884853
804.396731	2549.918959
804.717372	2547.315203
805.037967	2548.729247
805.358518	2548.996428
805.679024	2547.302600
805.999485	2548.988866
806.319901	2548.124308
806.640272	2548.177240
806.960598	2549.765204
807.280879	2545.197918
807.601115	2547.983156
807.921306	2548.555327
808.241453	2546.145655
808.561554	2545.023999
808.881611	2542.286652
809.201623	2544.290511
809.521590	2548.126829
809.841513	2547.637837
810.161390	2547.652960
810.481223	2547.728578
810.801011	2549.492982
811.120755	2547.181613
811.440453	2547.206818
811.760107	2545.419729
812.079716	2548.930893
812.399281	2545.601211
812.718801	2549.314021
813.038276	2546.606921
813.357707	2546.170861
813.677093	2547.786551
813.996434	2548.076417
814.315731	2546.339740
814.634983	2550.130687
814.954191	2546.710265
815.273354	2549.593805
815.592473	2545.878474
815.911547	2549.193033
816.230577	2549.608928
816.549562	2545.709596
816.868502	2548.915769
817.187399	2547.204298
817.506250	2547.995759
817.825058	2543.967877
818.143821	2549.369473
818.462539	2545.729760
818.781213	2547.516849
819.099843	2545.243289
819.418429	2544.731612
819.736970	2547.554658
820.055466	2549.860986
820.373919	2547.733619
820.692327	2547.184133
821.010691	2547.726057
821.329011	2548.653629
821.647286	2547.592467
821.965517	2547.103475
822.283704	2547.504246
822.601847	2549.354350
822.919945	2547.337888
823.237999	2546.876623
823.556010	2550.070194
823.873976	2548.111705
824.191897	2544.608103
824.509775	2545.074410
824.827609	2545.255892
825.145398	2541.192722
825.463144	2546.652291
825.780845	2547.370656
826.098502	2546.274205
826.416116	2546.992569
826.733685	2548.562889
827.051210	2547.264792
827.368692	2544.797147
827.686129	2545.603731
828.003522	2548.179761
828.320872	2548.003321
828.638177	2544.315717
828.955439	2545.830583
829.272656	2547.809236
829.589830	2548.673794
829.906960	2549.999618
830.224046	2545.966694
830.541088	2548.746891
830.858086	2547.756304
831.175041	2546.876623
831.491952	2547.426108
831.808819	2548.920811
832.125642	2548.704041
832.442421	2548.363763
832.759157	2549.132539
833.075849	2548.141952
833.392497	2546.541386
833.709101	2546.954761
834.025662	2547.473999
834.342179	2547.312682
834.658653	2549.326623
834.975083	2547.766386
835.291469	2554.534135
835.607811	2546.460727
835.924110	2546.710265
836.240366	2552.187478
836.556578	2546.949719
836.872746	2547.375697
837.188871	2545.911242
837.504952	2546.763197
837.820990	2546.397713
838.136984	2545.528114
838.452935	2549.306459
838.768842	2544.411498
839.084706	2545.013916
839.400526	2547.834442
839.716303	2547.920142
840.032037	2546.168341
840.347727	2544.706406
840.663373	2542.707588
840.978977	2542.347146
841.294537	2545.974256
841.610054	2547.499205
841.925527	2548.126829
842.240957	2546.037271
842.556344	2547.620193
842.871687	2547.847045
843.186987	2544.630789
843.502244	2545.606252
843.817458	2546.362425
844.132629	2545.757487
844.447756	2545.949050
844.762840	2546.523742
845.077881	2548.479710
845.392879	2544.373690
845.707833	2547.975594
846.022745	2547.506767
846.337613	2544.966025
846.652438	2547.728578
846.967221	2545.828063
847.281960	2546.193546
847.596656	2548.399051
847.911309	2548.802343
848.225919	2547.075748
848.540485	2546.864020
848.855009	2547.715975
849.169490	2547.635316
849.483928	2546.417878
849.798323	2547.020296
850.112675	2549.119936
850.426984	2546.596839
850.741251	2546.919472
851.055474	2546.359904
851.369654	2547.602549
851.683792	2545.258412
851.997887	2548.671273
852.311938	2547.615152
852.625947	2545.984338
852.939914	2548.676315
853.253837	2546.561551
853.567718	2546.095244
853.881555	2547.597508
854.195350	2547.267312
854.509103	2546.599359
854.822812	2546.806047
855.136479	2551.418702
855.450103	2544.111550
855.763685	2543.617517
856.077224	2542.223638
856.390720	2545.512991
856.704173	2542.924358
857.017584	2545.684390
857.330953	2547.116078
857.644278	2545.238248
857.957561	2546.122970
858.270802	2545.956612
858.584000	2547.544576
858.897155	2544.247661
859.210268	2544.156920
859.523339	2544.905532
859.836367	2546.644730
860.149352	2545.092054
860.462295	2548.792261
860.775195	2547.048022
861.088054	2547.017775
861.400869	2548.762014
861.713642	2543.161292
862.026373	2547.791592
862.339062	2543.380582
862.651708	2547.327806
862.964312	2543.614996
863.276873	2545.732281
863.589392	2548.094061
863.901869	2546.455686
864.214303	2547.416026
864.526696	2546.876623
864.839045	2544.809750
865.151353	2547.118598
865.463619	2545.896118
865.775842	2546.508618
866.088023	2546.049873
866.400162	2548.285625
866.712258	2544.817311
867.024313	2545.916283
867.336325	2547.521890
867.648296	2547.597508
867.960224	2547.068187
868.272110	2549.956768
868.583954	2547.819318
868.895755	2546.218752
869.207515	2547.453835
869.519233	2548.799823
869.830909	2544.025850
870.142542	2545.039122
870.454134	2546.150697
870.765684	2545.639019
871.077191	2545.732281
871.388657	2541.762372
871.700081	2545.180274
872.011463	2542.294214
872.322803	2540.053421
872.634101	2547.441232
872.945357	2546.286808
873.256571	2548.167158
873.567744	2545.381921
873.878874	2548.633465
874.189963	2543.622558
874.501010	2548.285625
874.812015	2547.705893
875.122979	2546.942158
875.433900	2547.184133
875.744780	2547.882333
876.055618	2547.267312
876.366415	2548.320913
876.677169	2547.516849
876.987882	2544.955943
877.298554	2545.346633
877.609183	2546.518701
877.919771	2544.580377
878.230317	2544.862682
878.540822	2545.802857
878.851285	2546.614483
879.161707	2544.945861
879.472087	2546.596839
879.782425	2544.386293
880.092722	2546.112888
880.402977	2545.986859
880.713191	2546.092723
881.023363	2545.497867
881.333494	2544.502239
881.643583	2545.061807
881.953631	2544.524924
882.263637	2545.971736
882.573602	2544.109029
882.883526	2544.650953
883.193408	2547.121119
883.503248	2544.882846
883.813048	2548.517518
884.122806	2544.567774
884.432522	2544.083823
884.742197	2543.798998
885.051831	2545.525593
885.361424	2546.473330
885.670975	2545.865871
885.980485	2544.605583
886.289954	2548.542724
886.599382	2543.110881
886.908768	2544.983669
887.218113	2542.924358
887.527417	2543.052908
887.836680	2540.499563
888.145901	2546.168341
888.455082	2545.245809
888.764221	2543.927548
889.073319	2545.810419
889.382376	2543.625078
889.691392	2545.686910
890.000366	2545.515511
890.309300	2546.238917
890.618193	2547.224462
890.927044	2544.711447
891.235855	2544.464431
891.544625	2545.490305
891.853353	2545.081972
892.162041	2544.870243
892.470687	2545.404606
892.779293	2541.787578
893.087858	2544.454348
893.396381	2545.825542
893.704864	2546.750594
894.013306	2547.927703
894.321707	2546.254040
894.630068	2546.995090
894.938387	2546.364946
895.246665	2544.265305
895.554903	2542.400078
895.863100	2546.806047
896.171256	2542.246323
896.479371	2545.273536
896.787446	2545.351674
897.095480	2545.659184
897.403473	2544.098947
897.711425	2545.230686
898.019336	2546.150697
898.327207	2544.088865
898.635038	2543.693134
898.942827	2543.143648
899.250576	2544.512322
899.558284	2545.336550
899.865952	2545.739842
900.173579	2544.131714
900.481165	2546.183464
900.788711	2544.719009
901.096216	2543.221786
901.403681	2545.235727
901.711105	2547.592467
902.018489	2545.986859
902.325832	2541.419574
902.633135	2540.794471
902.940397	2543.360418
903.247619	2537.132072
903.554800	2542.881508
903.861941	2544.925696
904.169041	2544.537527
904.476101	2545.495347
904.783121	2544.156920
905.090100	2544.976108
905.397039	2546.221273
905.703938	2543.052907
906.010796	2544.582898
906.317614	2544.275387
906.624391	2545.656663
906.931129	2544.222455
907.237826	2542.803370
907.544483	2544.419060
907.851099	2544.419060
908.157675	2544.149358
908.464211	2543.831766
908.770707	2542.886549
909.077163	2544.739173
909.383578	2545.644061
909.689954	2547.123639
909.996289	2544.343443
910.302584	2545.036602
910.608839	2544.792106
910.915054	2545.858310
911.221229	2545.633978
911.527363	2544.101468
911.833458	2544.275387
912.139513	2545.817980
912.445527	2546.337219
912.751502	2543.887218
913.057436	2543.947712
913.363331	2545.008875
913.669186	2546.702703
913.975000	2544.784544
914.280775	2543.884698
914.586510	2543.519214
914.892205	2546.619524
915.197859	2544.212373
915.503475	2542.823535
915.809050	2544.855120
916.114585	2545.991900
916.420081	2543.587270
916.725536	2548.169679
917.030952	2543.698175
917.336328	2546.153217
917.641665	2542.246323
917.946961	2537.053934
918.252218	2542.742877
918.557435	2538.296579
918.862612	2544.645912
919.167750	2544.272867
919.472848	2546.553989
919.777906	2544.436704
920.082925	2543.466282
920.387904	2547.136242
920.692843	2542.626930
920.997743	2546.463248
921.302603	2544.434184
921.607423	2542.626930
921.912204	2545.596170
922.216946	2542.924358
922.521647	2545.218083
922.826310	2545.601211
923.130932	2543.935109
923.435516	2541.858154
923.740059	2545.570964
924.044564	2544.406457
924.349028	2543.877136
924.653454	2545.051725
924.957840	2544.434184
925.262186	2544.338402
925.566493	2546.226314
925.870761	2546.133053
926.174989	2544.724050
926.479178	2543.693134
926.783328	2544.275387
927.087438	2544.116591
927.391509	2546.523742
927.695541	2543.713299
927.999533	2543.967877
928.303486	2545.374359
928.607400	2546.155738
928.911275	2543.657846
929.215110	2543.403268
929.518906	2543.030222
929.822663	2543.602393
930.126381	2545.946530
930.430060	2543.867054
930.733699	2543.415871
931.037299	2543.783875
931.340861	2542.158103
931.644383	2543.683052
931.947866	2543.466282
932.251309	2547.022816
932.554714	2540.907897
932.858080	2542.256405
933.161407	2542.463093
933.464694	2542.170706
933.767943	2540.159285
934.071153	2544.187167
934.374323	2546.087682
934.677455	2544.293031
934.980548	2545.918803
935.283602	2544.282949
935.586617	2544.580377
935.889593	2543.569626
936.192530	2542.969728
936.495428	2543.433515
936.798287	2543.652805
937.101108	2545.006355
937.403890	2544.295552
937.706632	2544.219935
938.009336	2544.235058
938.312002	2545.777651
938.614628	2543.246992
938.917216	2541.331353
939.219765	2545.523073
939.522275	2545.722198
939.824747	2543.214224
940.127179	2545.250851
940.429573	2544.265305
940.731929	2544.724050
941.034246	2544.870243
941.336524	2544.719009
941.638763	2545.820501
941.940964	2543.458720
942.243126	2544.572815
942.545250	2544.129194
942.847335	2546.652291
943.149381	2544.151879
943.451389	2543.874616
943.753359	2543.993083
944.055290	2543.181457
944.357182	2542.866385
944.659036	2543.660367
944.960851	2544.028371
945.262628	2545.565923
945.564367	2544.935778
945.866067	2543.698175
946.167729	2544.940820
946.469352	2542.952084
946.770937	2544.018288
947.072484	2543.781354
947.373992	2544.383772
947.675462	2541.011240
947.976893	2538.079809
948.278286	2541.036446
948.579641	2539.456044
948.880958	2536.254912
949.182236	2542.584080
949.483476	2542.447969
949.784678	2544.782023
950.085841	2543.441076
950.386967	2543.899821
950.688054	2544.318237
950.989103	2544.224976
951.290114	2543.075593
951.591087	2543.937630
951.892021	2544.131714
952.192917	2542.909235
952.493776	2542.568957
952.794596	2543.423432
953.095378	2543.753628
953.396122	2544.192208
953.696828	2545.485264
953.997496	2541.593493
954.298126	2542.558874
954.598718	2544.648433
954.899272	2543.912424
955.199788	2543.204142
955.500266	2545.122301
955.800706	2543.126004
956.101108	2542.473175
956.401472	2544.005686
956.701798	2540.181970
957.002087	2546.070038
957.302337	2540.378575
957.602550	2546.017106
957.902724	2539.796322
958.202861	2543.078113
958.502960	2542.019471
958.803022	2543.297403
959.103045	2541.616179
959.403031	2543.672969
959.702979	2544.615665
960.002889	2542.319420
960.302762	2547.950388
960.602596	2543.587270
960.902393	2542.999975
961.202153	2544.114070
961.501875	2542.964687
961.801559	2543.665408
962.101205	2540.670962
962.400814	2545.081972
962.700385	2543.766231
962.999918	2541.883360
963.299414	2540.635674
963.598873	2540.255067
963.898293	2541.389327
964.197677	2541.475026
964.497022	2542.442928
964.796331	2545.845707
965.095601	2544.492157
965.394835	2542.654656
965.694030	2542.032074
965.993189	2544.043494
966.292309	2542.135418
966.591393	2545.059287
966.890439	2543.350336
967.189447	2540.938143
967.488419	2543.312527
967.787353	2543.504091
968.086249	2543.950233
968.385108	2545.238248
968.683930	2544.401416
968.982714	2544.219935
969.281462	2541.906045
969.580172	2541.288504
969.878844	2542.637012
970.177480	2543.012578
970.476078	2546.559030
970.774639	2544.640871
971.073162	2545.187836
971.371649	2544.734132
971.670098	2542.453010
971.968510	2544.643392
972.266885	2540.572660
972.565223	2544.497198
972.863524	2543.529297
973.161788	2542.851261
973.460014	2543.123484
973.758204	2543.925027
974.056356	2542.155582
974.354471	2541.827907
974.652550	2543.279759
974.950591	2544.804708
975.248595	2543.065510
975.546563	2542.684903
975.844493	2545.016437
976.142386	2543.042825
976.440243	2546.180943
976.738062	2541.752290
977.035845	2541.520397
977.333590	2544.035933
977.631299	2542.190870
977.928971	2543.015099
978.226606	2541.931251
978.524204	2540.555016
978.821765	2538.440252
979.119290	2543.239430
979.416777	2541.598535
979.714228	2541.109543
980.011642	2544.691283
980.309020	2537.376568
980.606360	2542.904193
980.903664	2543.216745
981.200931	2541.790098
981.498162	2543.738504
981.795356	2545.644061
982.092513	2542.626930
982.389633	2545.495347
982.686717	2542.705068
982.983764	2541.797660
983.280775	2539.428318
983.577749	2543.015099
983.874686	2544.408978
984.171587	2541.427135
984.468451	2544.918134
984.765279	2542.921837
985.062070	2541.091899
985.358824	2543.446117
985.655543	2542.589121
985.952224	2544.134235
986.248869	2543.158772
986.545478	2541.855633
986.842050	2544.928217
987.138586	2540.277752
987.435086	2544.776982
987.731549	2542.246323
988.027975	2542.866385
988.324366	2541.893442
988.620719	2543.630120
988.917037	2542.039636
989.213318	2542.077444
989.509563	2544.358566
989.805772	2544.857641
990.101944	2542.901673
990.398080	2544.184647
990.694180	2542.790767
990.990244	2543.748587
991.286271	2542.011909
991.582262	2541.903524
991.878217	2541.911086
992.174136	2544.240099
992.470019	2541.883360
992.765865	2539.511497
993.061676	2537.376568
993.357450	2539.377906
993.653188	2540.033256
993.948890	2542.987373
994.244556	2541.089378
994.540186	2543.214224
994.835780	2543.040305
995.131337	2542.105171
995.426859	2542.591642
995.722345	2543.995603
996.017795	2540.860006
996.313208	2543.640202
996.608586	2541.898483
996.903928	2542.826056
997.199234	2542.253885
997.494504	2542.672300
997.789738	2542.279090
998.084936	2543.781354
998.380099	2542.458051
998.675225	2542.132897
998.970316	2542.011909
999.265371	2542.455531
999.560390	2543.083154
999.855373	2544.860161
1000.150320	2542.276570
1000.445232	2541.457382
1000.740108	2542.558874
1001.034948	2542.652136
1001.329752	2541.863195
1001.624521	2543.667928
1001.919254	2540.421425
1002.213951	2542.120294
1002.508613	2543.322609
1002.803239	2540.791950
1003.097829	2542.536189
1003.392384	2543.882177
1003.686903	2539.461085
1003.981386	2542.372352
1004.275834	2542.498381
1004.570246	2542.208514
1004.864623	2542.836138
1005.158964	2542.329502
1005.453270	2542.778165
1005.747540	2541.152393
1006.041775	2543.189019
1006.335974	2540.827238
1006.630138	2542.654656
1006.924266	2542.649615
1007.218359	2544.519883
1007.512416	2539.690458
1007.806438	2536.685930
1008.100425	2540.701209
1008.394376	2539.776157
1008.688292	2538.558719
1008.982172	2542.947043
1009.276017	2541.172557
1009.569827	2541.888401
1009.863602	2541.124666
1010.157341	2541.795140
1010.451045	2541.238092
1010.744714	2543.889739
1011.038347	2543.206663
1011.331945	2540.544933
1011.625508	2541.187681
1011.919036	2541.719522
1012.212528	2542.954605
1012.505986	2539.846734
1012.799408	2542.657177
1013.092795	2541.795140
1013.386147	2541.850592
1013.679464	2543.728422
1013.972745	2542.566436
1014.265992	2539.899666
1014.559204	2541.580891
1014.852380	2540.620551
1015.145521	2543.395706
1015.438628	2542.286652
1015.731699	2540.721374
1016.024736	2540.900335
1016.317737	2540.300437
1016.610703	2541.832948
1016.903635	2540.192053
1017.196531	2542.594162
1017.489393	2542.485778
1017.782219	2542.826056
1018.075011	2543.110881
1018.367768	2542.117773
1018.660490	2541.447300
1018.953177	2541.447300
1019.245829	2541.447300
