Dividing Wavelength (nm)	Counts (n)	Blue Motor Position (mm): 22.500000	Red Motor Position (mm): 0.000000	
326.493990	2192.511234
326.888308	2192.511234
327.282561	2192.511234
327.676750	2151.819040
328.070874	2146.775365
328.464933	2147.544141
328.858929	2154.052271
329.252859	2158.543939
329.646726	2164.240443
330.040528	2177.639830
330.434265	2190.396470
330.827938	2207.370035
331.221547	2224.540205
331.615091	2243.154665
332.008571	2260.798704
332.401986	2280.192023
332.795338	2299.459313
333.188625	2318.777014
333.581847	2336.128666
333.975006	2356.842767
334.368100	2374.443955
334.761129	2393.698643
335.154095	2410.039543
335.546996	2434.302616
335.939833	2467.291927
336.332606	2481.790285
336.725315	2493.768067
337.117960	2507.835407
337.510540	2519.346882
337.903056	2530.364323
338.295508	2538.074768
338.687896	2546.720347
339.080220	2558.372974
339.472480	2562.542008
339.864676	2567.305899
340.256807	2573.814028
340.648875	2577.373083
341.040879	2576.974832
341.432818	2582.739391
341.824694	2584.191243
342.216506	2583.525811
342.608253	2584.947417
342.999937	2587.515884
343.391557	2583.293918
343.783113	2585.630493
344.174605	2585.517067
344.566033	2587.188209
344.957397	2582.956161
345.348697	2584.070256
345.739934	2578.577919
346.131106	2581.998342
346.522215	2574.393761
346.913260	2578.371231
347.304241	2572.485684
347.695159	2570.998544
348.086012	2569.927299
348.476802	2568.470405
348.867528	2563.446895
349.258191	2559.968499
349.648789	2560.089487
350.039324	2558.972871
350.429796	2561.664847
350.820203	2558.332645
351.210548	2557.483210
351.600828	2556.719476
351.991045	2555.940617
352.381198	2557.490772
352.771288	2552.656306
353.161314	2551.093548
353.551276	2551.093548
353.941175	2551.413661
354.331010	2553.944320
354.720782	2550.355019
355.110490	2552.096737
355.500135	2552.114382
355.889717	2550.521377
356.279235	2553.467931
356.668689	2548.782179
357.058080	2550.912066
357.447408	2551.206974
357.836672	2553.019269
358.225873	2552.711758
358.615010	2553.659495
359.004084	2552.454659
359.393095	2555.413817
359.782043	2555.615463
360.170927	2556.611091
360.559748	2555.524722
360.948505	2559.058571
361.337199	2556.268292
361.725830	2557.178221
362.114398	2558.279713
362.502903	2556.306101
362.891344	2556.215360
363.279722	2557.707542
363.668037	2559.345917
364.056289	2559.550083
364.444478	2559.474466
364.832603	2560.926318
365.220665	2560.644014
365.608665	2561.669889
365.996601	2561.816082
366.384474	2563.096535
366.772284	2562.327759
367.160031	2562.375650
367.547715	2564.797925
367.935336	2563.870352
368.322893	2560.855742
368.710388	2558.589744
369.097820	2563.890517
369.485189	2559.353478
369.872495	2567.288255
370.259738	2565.932184
370.646918	2566.796742
371.034035	2568.324212
371.421090	2567.328584
371.808081	2569.932340
372.195010	2567.167267
372.581875	2569.125755
372.968678	2566.237174
373.355418	2569.776064
373.742096	2568.452761
374.128710	2566.196845
374.515262	2567.462174
374.901751	2567.079047
375.288177	2571.399316
375.674540	2569.425704
376.060841	2568.097360
376.447079	2568.785477
376.833254	2568.929150
377.219367	2569.997875
377.605417	2571.038873
377.991404	2568.629202
378.377329	2571.938719
378.763191	2573.141034
379.148991	2570.577607
379.534727	2569.831517
379.920402	2570.060889
380.306013	2573.640108
380.691563	2573.012485
381.077049	2573.204049
381.462474	2575.318813
381.847835	2570.234809
382.233134	2572.407546
382.618371	2573.035170
383.003545	2574.567681
383.388657	2572.725139
383.773706	2573.277145
384.158693	2575.971642
384.543618	2577.385686
384.928480	2573.662794
385.313280	2573.919893
385.698017	2574.335788
386.082692	2579.155131
386.467305	2576.632033
386.851856	2574.769327
387.236344	2577.042887
387.620770	2574.721436
388.005133	2573.846796
388.389435	2575.016343
388.773674	2570.350756
389.157851	2576.407702
389.541965	2576.329564
389.926018	2579.074472
390.310008	2576.463155
390.693936	2580.334761
391.077802	2579.321489
391.461606	2579.515573
391.845348	2580.612024
392.229027	2581.801737
392.612645	2578.956005
392.996200	2579.918866
393.379694	2583.165369
393.763125	2581.287539
394.146494	2582.189905
394.529801	2580.735533
394.913047	2583.742581
395.296230	2581.524473
395.679351	2581.141345
396.062410	2582.532704
396.445408	2581.670667
396.828343	2583.364494
397.211217	2582.517580
397.594028	2583.782910
397.976778	2582.242837
398.359466	2583.089751
398.742092	2583.142683
399.124656	2581.955492
399.507158	2584.327355
399.889598	2587.576378
400.271977	2586.938672
400.654294	2586.822726
401.036549	2585.189392
401.418742	2586.830287
401.800874	2584.859196
402.182944	2585.171748
402.564952	2586.437077
402.946898	2583.727457
403.328783	2587.967068
403.710606	2589.161821
404.092367	2590.147367
404.474067	2587.558734
404.855705	2587.755339
405.237282	2589.968406
405.618797	2590.830443
406.000250	2589.368508
406.381642	2589.345823
406.762972	2586.603436
407.144240	2584.897005
407.525447	2585.995977
407.906593	2585.343147
408.287677	2589.587799
408.668700	2589.602922
409.049661	2590.936307
409.430560	2588.710638
409.811399	2590.268354
410.192176	2590.535536
410.572891	2590.636359
410.953545	2589.807089
411.334138	2587.959506
411.714669	2591.266503
412.095139	2589.265165
412.475547	2591.977306
412.855894	2593.285485
413.236180	2593.391349
413.616405	2595.375043
413.996568	2591.848756
414.376670	2591.717686
414.756711	2593.323294
415.136691	2593.076277
415.516609	2594.228181
415.896466	2594.099631
416.276262	2593.436720
416.655997	2592.083170
417.035670	2593.787080
417.415283	2595.536360
417.794834	2596.496700
418.174324	2595.503593
418.553753	2595.243973
418.933121	2596.284972
419.312428	2597.235229
419.691674	2595.755650
420.070859	2592.141143
420.449983	2597.285641
420.829045	2596.859663
421.208047	2594.976792
421.586988	2596.650455
421.965867	2597.020980
422.344686	2597.071392
422.723444	2599.264293
423.102141	2598.508120
423.480777	2597.562904
423.859352	2599.556680
424.237866	2597.131885
424.616319	2600.668255
424.994712	2601.767226
425.373044	2599.113059
425.751314	2595.853953
426.129524	2596.312698
426.507673	2598.586258
426.885762	2596.779005
427.263789	2602.833430
427.641756	2600.743872
428.019662	2602.946856
428.397508	2601.053903
428.775292	2602.203286
429.153016	2599.949890
429.530679	2602.341918
429.908282	2604.305447
430.285824	2603.085488
430.663305	2601.495004
431.040726	2599.407966
431.418086	2604.602875
431.795385	2602.714963
432.172624	2600.403594
432.549802	2604.648246
432.926920	2602.122628
433.303977	2604.857454
433.680974	2604.335694
434.057910	2603.866867
434.434786	2603.413163
434.811601	2606.591611
435.188355	2603.945005
435.565050	2602.220930
435.941683	2604.481888
436.318257	2606.989862
436.694770	2605.409460
437.071222	2603.985334
437.447614	2606.218565
437.823946	2608.850047
438.200218	2608.202259
438.576429	2606.730242
438.952580	2606.810901
439.328670	2609.223093
439.704700	2608.585387
440.080670	2608.298041
440.456580	2610.836262
440.832429	2607.239399
441.208218	2610.276694
441.583947	2610.785851
441.959616	2608.615634
442.335224	2608.489605
442.710773	2610.417846
443.086261	2611.022785
443.461689	2610.947167
443.837057	2610.584204
444.212365	2609.001282
444.587612	2609.210490
444.962800	2607.206631
445.337927	2609.903649
445.712995	2608.000613
446.088002	2613.245934
446.462949	2611.133690
446.837837	2614.410440
447.212664	2614.022271
447.587431	2612.550254
447.962139	2614.654936
448.336786	2618.445884
448.711374	2619.640637
449.085901	2618.249279
449.460369	2618.382869
449.834776	2615.582508
450.209124	2618.607201
450.583412	2618.584516
450.957640	2621.218518
451.331808	2622.456122
451.705917	2620.772376
452.079965	2616.651233
452.453954	2623.119033
452.827883	2622.350257
453.201752	2622.846811
453.575562	2622.609877
453.949311	2623.255145
454.323001	2621.515947
454.696632	2621.717593
455.070202	2624.417131
455.443713	2623.920577
455.817164	2624.712038
456.190556	2627.290588
456.563888	2629.019704
456.937160	2627.461987
457.310373	2627.782101
457.683526	2629.493573
458.056619	2629.606998
458.429653	2630.050620
458.802628	2629.722945
459.175542	2630.348048
459.548398	2633.733183
459.921194	2635.096815
460.293930	2635.953811
460.666607	2638.678555
461.039224	2643.112250
461.411782	2646.273053
461.784280	2646.217600
462.156719	2648.443270
462.529099	2648.833959
462.901419	2647.891263
463.273680	2648.045019
463.645882	2648.097951
464.018024	2648.723054
464.390106	2650.411840
464.762130	2659.604384
465.134094	2665.956238
465.505999	2679.138856
465.877845	2702.764223
466.249631	2717.391131
466.621358	2723.740464
466.993026	2720.572099
467.364634	2726.598798
467.736184	2722.855742
468.107674	2724.809189
468.479105	2737.013822
468.850477	2747.176788
469.221790	2754.345309
469.593043	2755.167017
469.964238	2763.159767
470.335373	2774.129317
470.706449	2791.433078
471.077467	2802.382464
471.448425	2843.558609
471.819324	2925.043820
472.190164	2985.799806
472.560945	2953.503654
472.931667	2934.967331
473.302330	2949.455607
473.672934	2966.756847
474.043479	3003.789163
474.413965	3029.501568
474.784393	3057.900909
475.154761	3112.975514
475.525070	3150.123777
475.895321	3176.347859
476.265513	3240.940164
476.635645	3311.443221
477.005719	3352.021989
477.375734	3413.909714
477.745691	3499.795852
478.115588	3587.428750
478.485427	3683.492978
478.855207	3819.893998
479.224928	4027.909649
479.594591	4295.579795
479.964194	4377.455695
480.333739	4481.797498
480.703226	4516.462992
481.072653	4606.926498
481.442022	4793.524807
481.811333	5001.464842
482.180584	5123.813646
482.549777	5120.620075
482.918912	5220.245878
483.287988	5363.545717
483.657005	5459.254543
484.025964	5546.181680
484.394864	5657.036653
484.763706	5745.970168
485.132489	5830.079300
485.501213	5963.188446
485.869879	6114.607064
486.238487	6180.182393
486.607036	6389.811214
486.975527	6466.570343
487.343959	6673.197157
487.712333	6839.509863
488.080648	6893.566156
488.448905	7169.108064
488.817104	7266.324195
489.185244	7571.069507
489.553326	7767.770289
489.921350	8134.282338
490.289315	8895.138647
490.657222	9576.765661
491.025070	9907.304037
491.392861	10054.541017
491.760593	10030.444302
492.128267	10043.878977
492.495883	9910.182535
492.863440	9882.783864
493.230939	9788.514287
493.598380	9950.625192
493.965763	10002.503706
494.333088	10064.895547
494.700354	10228.324713
495.067563	10409.226519
495.434713	10527.108861
495.801805	10709.036541
496.168839	10898.551158
496.535815	11032.673577
496.902733	11304.797582
497.269593	11323.568319
497.636395	11631.928138
498.003139	11817.314050
498.369825	11953.699947
498.736453	12185.156964
499.103023	12325.054024
499.469535	12555.565825
499.835989	12864.223072
500.202385	13107.730967
500.568723	13060.712125
500.935003	13342.517667
501.301226	13366.942057
501.667390	13925.227160
502.033497	14307.533144
502.399546	14313.610255
502.765537	14361.433161
503.131470	14720.736361
503.497345	15007.666235
503.863163	14747.983797
504.228923	15316.870447
504.594625	15625.568023
504.960269	15504.146792
505.325856	16007.153123
505.691385	15862.572830
506.056856	16380.858898
506.422270	16603.229236
506.787625	16493.074983
507.152924	16993.427146
507.518164	17150.874984
507.883347	17194.077672
508.248472	17162.792271
508.613540	17899.783758
508.978550	17949.683619
509.343503	18117.397767
509.708398	18499.076127
510.073236	18774.313045
510.438016	19079.295291
510.802738	19058.566066
511.167403	19388.751561
511.532010	19322.369647
511.896561	20082.525235
512.261053	20248.527911
512.625488	20267.296127
512.989866	20352.756287
513.354186	20372.046263
513.718449	20620.804520
514.082655	21057.297867
514.446803	21023.799399
514.810894	21518.739884
515.174927	21243.122359
515.538904	21403.373078
515.902822	21927.421185
516.266684	21889.776369
516.630488	21914.440214
516.994235	22050.992469
517.357925	22397.309656
517.721558	22708.013611
518.085133	22900.628538
518.448651	22939.412655
518.812112	22820.217093
519.175516	23064.113157
519.538863	23371.812585
519.902152	23253.773968
520.265385	23633.425784
520.628560	23533.983984
520.991678	23653.366068
521.354739	23814.642662
521.717743	23956.372182
522.080690	23831.429705
522.443580	24249.888324
522.806413	24325.528317
523.169189	24502.147662
523.531908	24621.393636
523.894569	24328.159799
524.257174	24449.873417
524.619722	24726.184101
524.982213	24481.720907
525.344647	24627.201045
525.707025	24779.030517
526.069345	24842.574261
526.431608	24853.027093
526.793815	25105.281391
527.155964	24598.869760
527.518057	24817.786907
527.880093	24788.681806
528.242072	25057.493773
528.603995	24813.887575
528.965860	24655.572659
529.327669	24762.654328
529.689421	24769.855617
530.051117	24638.437777
530.412755	24855.149419
530.774337	24695.848957
531.135862	24592.480098
531.497331	24823.828730
531.858743	24390.665065
532.220098	24898.967128
532.581396	24604.616676
532.942638	24592.187711
533.303824	24683.661968
533.664953	24736.110133
534.026025	24427.306692
534.387040	24668.374669
534.747999	24761.046200
535.108902	24935.412150
535.469748	24448.782007
535.830537	24648.893130
536.191270	24766.891418
536.551947	24684.909654
536.912567	24365.960891
537.273131	24671.938765
537.633638	24406.204422
537.994089	24613.307625
538.354483	24199.423853
538.714821	24701.187539
539.075103	24753.681074
539.435328	24541.723240
539.795497	24093.562143
540.155609	24518.730538
540.515665	24805.483971
540.875665	24063.088368
541.235609	24325.162833
541.595496	24327.448996
541.955328	24676.216184
542.315102	24594.683082
542.674821	24176.897457
543.034483	24051.231574
543.394090	24206.299987
543.753640	24012.868393
544.113134	24647.547142
544.472571	24231.722526
544.831953	24552.881834
545.191278	24144.639114
545.550548	24094.008285
545.909761	24298.903463
546.268918	24535.958681
546.628019	24487.757688
546.987064	24203.691190
547.346053	23965.413492
547.704986	24099.392237
548.063863	24248.335648
548.422684	24244.146449
548.781449	23819.129289
549.140158	24203.741601
549.498811	23791.763386
549.857408	23521.819679
550.215949	23971.508247
550.574434	23637.907370
550.932864	23875.537280
551.291237	24003.718699
551.649555	23886.746286
552.007817	23924.078551
552.366022	23803.925169
552.724173	23853.641028
553.082267	23780.798876
553.440305	24248.222222
553.798288	23533.759652
554.156215	24058.942019
554.514086	24136.192660
554.871902	23508.125385
555.229661	23797.651453
555.587365	23657.630885
555.945014	23492.810360
556.302606	23775.243524
556.660143	23704.014541
557.017625	23967.797957
557.375050	23511.860880
557.732421	23892.173088
558.089735	23709.027969
558.446994	23771.409727
558.804197	23776.450881
559.161345	23748.873249
559.518437	23485.674606
559.875474	23686.557025
560.232455	23866.629561
560.589381	23711.334297
560.946251	23661.073993
561.303065	23993.709488
561.659825	24077.906840
562.016528	23687.724053
562.373177	23427.855092
562.729770	23770.346043
563.086307	23659.448221
563.442789	23824.568694
563.799216	23647.543536
564.155587	23659.012161
564.511904	23642.038596
564.868164	23569.395569
565.224370	23562.642943
565.580520	23456.788795
565.936615	23607.025262
566.292654	23266.896091
566.648638	23587.077416
567.004567	23410.926898
567.360441	23355.980841
567.716260	23082.031938
568.072023	23424.033898
568.427732	23177.871835
568.783385	22959.320172
569.138982	23192.395399
569.494525	23231.270257
569.850013	22976.049241
570.205445	23084.053441
570.560823	22874.895968
570.916145	22656.382113
571.271412	22823.672804
571.626625	22580.905958
571.981782	22684.181556
572.336884	22487.987410
572.691931	22624.940437
573.046923	22363.544007
573.401860	22238.891396
573.756743	22246.377509
574.111570	22166.197957
574.466342	22097.232452
574.821059	22182.178415
575.175722	21883.812684
575.530330	21872.404553
575.884882	21901.686095
576.239380	21810.118576
576.593823	21702.560518
576.948211	21685.196263
577.302544	21523.355060
577.656823	21390.717261
578.011047	21500.155670
578.365216	21364.394877
578.719330	21259.380080
579.073389	21151.164151
579.427394	21288.833022
579.781344	21075.892162
580.135239	20963.502158
580.489080	20940.045669
580.842866	20696.164728
581.196597	20885.245806
581.550273	20865.035821
581.903895	20765.697363
582.257463	21068.819424
582.610975	20594.489697
582.964434	20900.764998
583.317837	20614.712285
583.671186	20714.496884
584.024481	20661.665592
584.377721	20450.431164
584.730906	20491.758543
585.084037	20535.571211
585.437113	20439.517066
585.790135	20633.901437
586.143103	20119.882706
586.496016	20113.135122
586.848874	20367.297496
587.201679	20310.471089
587.554428	19956.118303
587.907124	20290.951741
588.259765	20085.670915
588.612352	20158.649179
588.964884	19733.206041
589.317362	19900.451361
589.669786	19954.001018
590.022155	20017.010400
590.374470	20180.860503
590.726731	19982.412961
591.078937	19733.178315
591.431090	19848.996304
591.783188	19582.520912
592.135232	19552.311797
592.487222	19657.636625
592.839157	19682.166879
593.191038	19559.082067
593.542866	19459.335276
593.894639	19174.099230
594.246358	19388.512106
594.598022	19302.530186
594.949633	19060.045645
595.301190	19010.740640
595.652692	19170.376338
596.004141	19417.692825
596.355535	18754.027442
596.706876	18761.695037
597.058162	18659.203338
597.409395	18873.921204
597.760573	18963.764648
598.111698	18743.831708
598.462768	18679.284774
598.813785	18633.450603
599.164748	18462.363924
599.515657	18490.133120
599.866511	18275.745450
600.217312	18637.501171
600.568060	18180.974278
600.918753	18494.395416
601.269392	18391.719715
601.619978	18165.329057
601.970510	18384.883910
602.320988	18321.720773
602.671412	18536.279842
603.021783	18427.058203
603.372100	18173.082352
603.722363	18299.617834
604.072572	18239.865037
604.422728	18371.839925
604.772830	18136.012227
605.122878	18086.626563
605.472872	18083.143126
605.822813	18074.424451
606.172701	18028.691103
606.522534	18241.921828
606.872314	18256.543695
607.222041	18085.792253
607.571714	18309.944638
607.921333	18134.257906
608.270899	18207.831025
608.620411	18400.050222
608.969870	18157.414446
609.319276	18163.299993
609.668627	18190.880146
610.017926	18324.511052
610.367171	18441.047405
610.716362	18474.966809
611.065500	18309.279205
611.414585	18437.450542
611.763616	18416.161749
612.112594	18368.144759
612.461518	18332.634871
612.810389	18524.962452
613.159207	18383.842912
613.507971	18293.777657
613.856682	18570.751252
614.205340	18498.778699
614.553945	18643.928642
614.902496	18385.355258
615.250994	18629.405077
615.599439	18563.295386
615.947830	18549.190237
616.296169	18597.053473
616.644454	18565.004337
616.992686	18537.595584
617.340864	18745.442357
617.688990	18506.466459
618.037063	18673.321089
618.385082	18522.129324
618.733048	18809.540628
619.080961	18673.414351
619.428821	18725.713801
619.776628	18607.160986
620.124382	18529.169295
620.472083	18565.084996
620.819731	18589.451413
621.167326	18282.409855
621.514868	18326.368717
621.862357	18080.826716
622.209793	18095.970342
622.557176	17927.666380
622.904506	17762.697141
623.251783	17660.391965
623.599007	17434.283612
623.946179	17376.769087
624.293297	17322.790933
624.640363	17080.321515
624.987376	17093.647805
625.334336	16887.008388
625.681243	16735.347796
626.028097	16745.946822
626.374899	16686.254519
626.721647	16545.013991
627.068343	16376.851181
627.414987	16299.565251
627.761577	16275.786129
628.108115	16327.215980
628.454600	16043.678803
628.801032	16143.352497
629.147412	16067.813327
629.493739	16093.175372
629.840014	15904.056485
630.186236	16005.610529
630.532405	15764.598005
630.878521	15968.699201
631.224585	15856.556213
631.570597	15681.771848
631.916556	15714.284769
632.262462	15700.076277
632.608316	15612.821466
632.954117	15558.205605
633.299866	15551.568926
633.645562	15475.387009
633.991206	15238.793056
634.336797	15094.066570
634.682336	15067.794597
635.027823	14957.922649
635.373257	14844.826883
635.718639	14738.463578
636.063968	14686.436350
636.409245	14452.274754
636.754470	14462.082318
637.099642	14314.005986
637.444762	14086.534001
637.789829	14135.390343
638.134845	13973.443276
638.479808	13997.595444
638.824719	13953.946614
639.169577	13799.609168
639.514383	13844.452752
639.859137	13664.675124
640.203839	13739.138007
640.548489	13584.039347
640.893086	13572.943768
641.237632	13440.948716
641.582125	13594.424124
641.926566	13429.938836
642.270955	13438.234055
642.615292	13400.836255
642.959576	13409.660795
643.303809	13445.485754
643.647990	13381.163152
643.992118	13439.567440
644.336195	13202.539948
644.680219	13409.343202
645.024192	13340.566740
645.368112	13573.105085
645.711981	13632.099187
646.055797	13806.593687
646.399562	13772.293676
646.743274	14042.733936
647.086935	14322.046626
647.430544	14284.265699
647.774101	14309.736129
648.117606	14470.594307
648.461059	14431.419500
648.804460	14430.408749
649.147810	14157.153005
649.491108	14050.434298
649.834354	14070.200663
650.177548	13777.309624
650.520690	13585.034975
650.863781	13505.621679
651.206820	13547.286815
651.549807	13378.070404
651.892742	13185.326928
652.235626	13121.977268
652.578458	13123.421559
652.921238	12811.432109
653.263967	13012.546421
653.606644	12834.407167
653.949269	12801.886684
654.291843	12609.269237
654.634365	12764.226744
654.976836	12618.383643
655.319255	12633.708751
655.661622	12582.785535
656.003938	12492.309426
656.346203	12438.051488
656.688416	12504.640089
657.030577	12474.052888
657.372687	12386.843447
657.714746	12358.784384
658.056753	12544.462683
658.398708	12366.968698
658.740612	12364.977442
659.082465	12469.319244
659.424266	12424.084971
659.766016	12452.882562
660.107715	12360.984848
660.449362	12432.107967
660.790958	12399.300138
661.132503	12346.073115
661.473996	12404.875654
661.815438	12422.244950
662.156829	12435.651898
662.498168	12412.757498
662.839456	12412.414700
663.180693	12432.120570
663.521879	12524.998788
663.863013	12500.599604
664.204097	12476.908701
664.545129	12593.762647
664.886110	12566.442114
665.227040	12648.088642
665.567918	12655.993171
665.908746	12694.101774
666.249522	12676.422447
666.590248	12717.585989
666.930922	12839.460924
667.271545	12823.508193
667.612118	12905.081624
667.952639	12813.088128
668.293109	12820.390239
668.633528	12765.512238
668.973896	12749.798962
669.314213	12829.320643
669.654480	12565.925396
669.994695	12625.990744
670.334859	12658.634736
670.674973	12601.757918
671.015035	12638.676808
671.355047	12580.698497
671.695008	12555.344014
672.034918	12556.180846
672.374777	12604.840583
672.714585	12515.957479
673.054342	12551.558108
673.394049	12500.521466
673.733705	12586.392481
674.073310	12503.997342
674.412864	12526.493491
674.752368	12400.089078
675.091820	12403.058318
675.431223	12396.678738
675.770574	12268.361208
676.109875	12186.727283
676.449125	12155.570432
676.788324	12092.823190
677.127473	11932.030547
677.466571	11919.725090
677.805619	11828.964156
678.144616	11736.592574
678.483562	11710.814634
678.822458	11578.597771
679.161303	11552.524923
679.500098	11545.570652
679.838842	11500.691780
680.177535	11519.167608
680.516179	11578.476783
680.854771	11522.814883
681.193314	11743.388049
681.531805	11887.824669
681.870247	12298.882874
682.208638	12704.733567
682.546978	13027.707691
682.885268	13083.392277
683.223508	12770.550872
683.561697	12616.581430
683.899836	12512.753826
684.237925	12327.002430
684.575963	12238.230231
684.913951	12163.371617
685.251889	12104.687545
685.589776	12213.059750
685.927614	12132.111422
686.265401	12096.004158
686.603137	12141.624080
686.940824	12287.318467
687.278460	12404.701734
687.616046	12458.868932
687.953582	12628.723049
688.291068	12548.805637
688.628504	12782.319445
688.965889	12793.573821
689.303224	12755.568563
689.640510	12663.204542
689.977745	12353.329856
690.314930	12128.083540
690.652065	12046.820140
690.989150	11750.571693
691.326185	11528.241685
691.663170	11326.028402
692.000105	11076.708056
692.336990	10967.549431
692.673825	10722.095650
693.010610	10598.093348
693.347345	10396.512729
693.684030	10190.775679
694.020665	10138.382967
694.357251	9943.771743
694.693786	9888.014061
695.030272	9728.010359
695.366707	9611.078275
695.703093	9539.806442
696.039429	9535.367706
696.375716	9462.704514
696.711952	9333.197272
697.048139	9362.887148
697.384276	9323.104882
697.720363	9341.951236
698.056400	9281.578377
698.392388	9226.725582
698.728326	9188.929531
699.064214	9130.384091
699.400053	9176.117439
699.735842	8992.556424
700.071581	8948.368190
700.407270	8875.331953
700.742910	8790.940517
701.078501	8699.894758
701.414042	8579.789268
701.749533	8514.675204
702.084974	8377.354173
702.420366	8491.735434
702.755709	8371.277063
703.091002	8245.139832
703.426246	8266.978110
703.761440	8222.442036
704.096584	8170.497987
704.431679	8106.500539
704.766725	8092.433199
705.101721	8048.683546
705.436668	8086.030934
705.771565	7986.531160
706.106413	8062.647542
706.441212	8107.415508
706.775961	8062.014877
707.110661	8093.673323
707.445311	8243.597238
707.779913	8139.996486
708.114465	8267.225127
708.448967	8303.899521
708.783421	8442.425387
709.117825	8629.316084
709.452180	8664.762957
709.786485	8752.794106
710.120742	9027.473976
710.454949	9026.357361
710.789107	9126.351168
711.123216	9338.666924
711.457275	9506.363427
711.791286	9671.123458
712.125247	9657.169544
712.459159	9647.462803
712.793023	9907.362010
713.126837	9479.811670
713.460602	9628.639134
713.794318	9456.357702
714.127985	9484.913317
714.461602	9167.849946
714.795171	9116.205846
715.128691	8872.970173
715.462162	8619.440463
715.795584	8572.335922
716.128957	8424.494003
716.462281	8248.860203
716.795556	8298.971793
717.128782	8099.430321
717.461960	7823.409504
717.795088	7898.794918
718.128167	7806.808984
718.461198	7646.454921
718.794180	7586.223215
719.127113	7576.319868
719.459997	7434.323168
719.792833	7201.537806
720.125619	7264.111128
720.458357	7119.530836
720.791046	7107.875688
721.123686	7108.246213
721.456278	6953.767615
721.788821	6970.607590
722.121315	6862.084150
722.453761	6924.375168
722.786158	6874.503033
723.118506	6889.099694
723.450805	6850.867583
723.783056	6923.994561
724.115259	6821.636453
724.447412	6825.016546
724.779518	6861.295210
725.111574	6870.346602
725.443582	6948.330731
725.775542	6926.353821
726.107453	7118.754498
726.439315	7034.862137
726.771129	7084.005825
727.102895	7253.272648
727.434612	7373.226903
727.766281	7404.005668
728.097901	7480.323696
728.429473	7474.360011
728.760996	7449.625590
729.092471	7423.151971
729.423897	7381.597739
729.755276	7387.516054
730.086606	7306.764331
730.417887	7412.830208
730.749120	7593.432065
731.080305	7783.261754
731.411442	7918.576406
731.742530	7908.824294
732.073570	8019.525512
732.404562	8096.740865
732.735506	7949.392979
733.066401	8092.234074
733.397249	8024.276799
733.728048	7789.681664
734.058798	7459.995243
734.389501	7239.101964
734.720156	7062.079326
735.050762	6827.554767
735.381320	6728.002061
735.711831	6681.275606
736.042293	6574.055305
736.372707	6589.882007
736.703073	6462.103881
737.033391	6491.415670
737.363661	6499.637792
737.693883	6529.874632
738.024056	6616.539629
738.354182	6661.821793
738.684260	6689.583428
739.014290	6802.469986
739.344272	6919.170177
739.674207	6939.188598
740.004093	7011.158631
740.333931	7027.963318
740.663722	7033.405243
740.993464	7113.312573
741.323159	7107.621110
741.652806	6853.993098
741.982405	6853.572162
742.311956	6919.223109
742.641460	6766.133349
742.970915	6566.995169
743.300323	6562.765641
743.629683	6509.825964
743.958996	6377.954420
744.288260	6286.596110
744.617477	6240.270426
744.946647	6249.949442
745.275768	6077.340334
745.604842	6027.223703
745.933869	6011.908678
746.262847	5970.367049
746.591778	5963.657274
746.920662	5920.036169
747.249498	5909.124592
747.578286	5954.429442
747.907027	6032.630341
748.235720	6092.788950
748.564365	6062.519342
748.892963	6083.843422
749.221514	6244.890644
749.550017	6084.914668
749.878473	5959.483198
750.206881	6008.442884
750.535242	5952.506241
750.863555	5879.860694
751.191821	5900.315176
751.520039	5901.290639
751.848210	5808.518285
752.176334	5832.378066
752.504411	5882.529985
752.832440	5808.178007
753.160421	5736.497840
753.488356	5780.050889
753.816243	5816.531199
754.144082	5667.766749
754.471875	5638.437316
754.799620	5677.465929
755.127318	5693.045615
755.454969	5647.811341
755.782572	5607.590495
756.110129	5655.418442
756.437638	5649.379140
756.765100	5581.840281
757.092515	5578.006484
757.419882	5630.552951
757.747203	5613.160970
758.074477	5672.449981
758.401703	5668.157438
758.728882	5610.196772
759.056014	5662.249206
759.383099	5800.137366
759.710138	5807.613398
760.037129	5789.732425
760.364073	5795.318023
760.690970	5879.212906
761.017820	5864.923755
761.344623	5815.439789
761.671379	5909.364047
761.998088	6028.317633
762.324751	6262.264981
762.651366	6840.434915
762.977935	8128.996688
763.304456	9746.672710
763.630931	10671.356437
763.957359	10293.431215
764.283740	9364.492755
764.610074	8551.150473
764.936362	7554.945376
765.262602	6960.590817
765.588796	6423.108035
765.914943	6083.845943
766.241044	5928.858189
766.567097	5730.967694
766.893104	5470.695442
767.219064	5289.413029
767.544978	5229.249378
767.870845	5152.149972
768.196665	5046.983941
768.522438	4973.680523
768.848165	4940.381181
769.173846	4878.541347
769.499479	4835.729347
769.825066	4780.450575
770.150607	4719.966811
770.476101	4692.429508
770.801548	4691.693500
771.126949	4623.756390
771.452303	4569.241352
771.777611	4520.480792
772.102872	4543.118093
772.428087	4506.678112
772.753256	4463.573727
773.078378	4423.894805
773.403453	4354.256305
773.728482	4338.593440
774.053465	4293.575937
774.378401	4284.532107
774.703291	4285.063948
775.028135	4211.611816
775.352932	4163.100793
775.677683	4147.707629
776.002388	4165.026513
776.327046	4184.170295
776.651658	4105.026700
776.976224	4042.914644
777.300743	4044.704253
777.625216	4068.851380
777.949643	4065.582192
778.274024	4022.311448
778.598359	3977.921568
778.922647	4000.815968
779.246889	3993.269361
779.571086	3989.415399
779.895236	3973.525682
780.219339	3959.866675
780.543397	3946.792443
780.867409	4000.558869
781.191374	4018.212990
781.515294	3958.500523
781.839167	3948.380406
782.162995	3967.947645
782.486776	3952.642702
782.810511	3963.879434
783.134201	3960.143939
783.457844	3916.374121
783.781441	3861.601984
784.104993	3865.728168
784.428498	3884.019995
784.751958	3886.417064
785.075372	3863.699104
785.398739	3824.002538
785.722061	3836.229857
786.045337	3877.411043
786.368568	3909.480343
786.691752	3825.156962
787.014891	3868.578941
787.337983	3992.130060
787.661030	4152.458917
787.984031	4313.576714
788.306987	4484.625585
788.629897	4563.461669
788.952760	4524.518756
789.275579	4453.314978
789.598351	4393.839445
789.921078	4255.820215
790.243759	4058.053229
790.566395	4036.565311
790.888984	4034.145557
791.211529	3931.338786
791.534027	3866.277654
791.856480	3857.604349
792.178888	3798.128816
792.501249	3745.710898
792.823566	3755.883947
793.145836	3785.785551
793.468062	3735.333683
793.790241	3687.828370
794.112375	3717.724933
794.434464	3779.801701
794.756507	3806.313129
795.078505	3788.895943
795.400457	3818.658915
795.722364	3955.599339
796.044226	4060.714958
796.366042	4130.741626
796.687812	4115.499697
797.009538	4122.756438
797.331218	4076.302206
797.652852	4049.914286
797.974442	4029.248076
798.295986	4033.139847
798.617484	3954.323927
798.938938	3864.724979
799.260346	3906.881628
799.581709	3900.943149
799.903026	3831.150894
800.224299	3794.574803
800.545526	3785.556178
800.866708	3751.208277
801.187845	3689.489430
801.508936	3722.206518
801.829983	3722.057804
802.150984	3641.790032
802.471940	3632.952890
802.792851	3644.056031
803.113717	3645.938902
803.434538	3649.558450
803.755314	3589.941765
804.076045	3561.091242
804.396731	3577.787543
804.717372	3607.671503
805.037967	3597.473249
805.358518	3582.032195
805.679024	3609.829117
805.999485	3620.113071
806.319901	3627.263947
806.640272	3639.521513
806.960598	3656.847959
807.280879	3629.035913
807.601115	3639.597130
807.921306	3656.847959
808.241453	3697.648538
808.561554	3673.642563
808.881611	3608.415073
809.201623	3643.226761
809.521590	3656.908453
809.841513	3628.925008
810.161390	3657.558762
810.481223	3641.331287
810.801011	3585.104778
811.120755	3573.260587
811.440453	3609.743417
811.760107	3614.774489
812.079716	3573.336204
812.399281	3536.132489
812.718801	3558.263154
813.038276	3536.470246
813.357707	3530.614946
813.677093	3553.383317
813.996434	3500.264679
814.315731	3504.768950
814.634983	3510.382275
814.954191	3520.509953
815.273354	3555.155283
815.592473	3549.715878
815.911547	3558.396745
816.230577	3592.802620
816.549562	3644.308089
816.868502	3685.605221
817.187399	3712.391392
817.506250	3709.507852
817.825058	3675.764889
818.143821	3767.067747
818.462539	3871.701936
818.781213	3913.828338
819.099843	3970.669868
819.418429	4210.432186
819.736970	4446.806849
820.055466	4688.242830
820.373919	5046.903282
820.692327	5455.894614
821.010691	5880.032093
821.329011	7206.142900
821.647286	9871.884890
821.965517	14356.278582
822.283704	18375.872848
822.601847	20597.874831
822.919945	18838.310493
823.237999	16301.674974
823.556010	13829.246112
823.873976	11768.432502
824.191897	9691.908136
824.509775	8339.870674
824.827609	7217.601443
825.145398	6665.106105
825.463144	6548.131171
825.780845	6665.524521
826.098502	6840.019020
826.416116	7686.272475
826.733685	8981.221390
827.051210	10105.345765
827.368692	10181.318474
827.686129	8967.753947
828.003522	7455.473328
828.320872	6444.684174
828.638177	5745.892030
828.955439	5191.657494
829.272656	4700.830591
829.589830	4415.438269
829.906960	4240.974017
830.224046	4058.209505
830.541088	3928.805606
830.858086	3882.845406
831.175041	3812.526351
831.491952	3793.122950
831.808819	3803.883293
832.125642	3873.433572
832.442421	4015.251312
832.759157	4281.698978
833.075849	4818.521369
833.392497	5670.451163
833.709101	6437.182937
834.025662	6790.141844
834.342179	6449.281706
834.658653	5790.700326
834.975083	5157.831352
835.291469	4576.309050
835.607811	4170.914581
835.924110	4029.399310
836.240366	3835.508972
836.556578	3630.253352
836.872746	3518.843852
837.188871	3479.313644
837.504952	3413.778644
837.820990	3334.319977
838.136984	3289.637710
838.452935	3309.421718
838.768842	3307.518683
839.084706	3328.336127
839.400526	3480.210969
839.716303	3808.395126
840.032037	4320.064679
840.347727	4594.187502
840.663373	4333.867359
840.978977	3956.458855
841.294537	3649.757576
841.610054	3420.634613
841.925527	3314.916576
842.240957	3244.252202
842.556344	3192.797144
842.871687	3135.733803
843.186987	3084.104826
843.502244	3046.553271
843.817458	3014.199146
844.132629	2981.240082
844.447756	2992.234839
844.762840	2977.101295
845.077881	2945.936882
845.392879	2927.382915
845.707833	2923.549118
846.022745	2923.786052
846.337613	2925.774787
846.652438	2914.323806
846.967221	2910.381624
847.281960	2895.333779
847.596656	2892.661968
847.911309	2893.302194
848.225919	2886.599980
848.540485	2879.318034
848.855009	2878.856768
849.169490	2871.577342
849.483928	2863.387988
849.798323	2860.905219
850.112675	2858.843387
850.426984	2869.989378
850.741251	2869.482743
851.055474	2859.039992
851.369654	2850.883405
851.683792	2854.739888
851.997887	2862.841022
852.311938	2866.654655
852.625947	2855.415403
852.939914	2857.699045
853.253837	2863.647607
853.567718	2850.722088
853.881555	2845.847293
854.195350	2861.825230
854.509103	2857.396576
854.822812	2850.500278
855.136479	2848.168744
855.450103	2851.387521
855.763685	2840.622137
856.077224	2838.411591
856.390720	2854.170238
856.704173	2861.888244
857.017584	2855.556555
857.330953	2850.240658
857.644278	2859.899509
857.957561	2866.924357
858.270802	2870.720346
858.584000	2871.287476
858.897155	2857.487317
859.210268	2858.795496
859.523339	2854.810464
859.836367	2853.343488
860.149352	2850.628827
860.462295	2844.390399
860.775195	2856.564786
861.088054	2852.040350
861.400869	2837.766323
861.713642	2833.093173
862.026373	2851.115298
862.339062	2850.464990
862.651708	2856.345496
862.964312	2862.162987
863.276873	2854.603777
863.589392	2862.858666
863.901869	2876.280738
864.214303	2894.875034
864.526696	2911.828435
864.839045	2906.336098
865.151353	2905.189235
865.463619	2907.571180
865.775842	2906.310892
866.088023	2925.167328
866.400162	2932.325766
866.712258	2904.954822
867.024313	2895.432082
867.336325	2901.693195
867.648296	2921.963675
867.960224	2914.764907
868.272110	2901.723442
868.583954	2905.590007
868.895755	2919.979981
869.207515	2908.483629
869.519233	2910.124525
869.830909	2922.838315
870.142542	2933.366765
870.454134	2929.943821
870.765684	2934.342228
871.077191	2933.591096
871.388657	2941.946808
871.700081	2955.724282
872.011463	2967.510500
872.322803	2964.231229
872.634101	2966.088894
872.945357	2980.819146
873.256571	3008.356449
873.567744	3002.017198
873.878874	2994.331959
874.189963	3015.928262
874.501010	3017.937162
874.812015	3011.489526
875.122979	3009.271418
875.433900	3005.414935
875.744780	3010.413239
876.055618	3017.856503
876.366415	3013.790812
876.677169	3026.441588
876.987882	3023.457225
877.298554	3017.047398
877.609183	3034.996426
877.919771	3059.907288
878.230317	3086.179261
878.540822	3138.357724
878.851285	3178.571008
879.161707	3215.023592
879.472087	3314.130156
879.782425	3528.086807
880.092722	3958.757622
880.402977	4475.632167
880.713191	5090.942802
881.023363	6218.323763
881.333494	7480.553069
881.643583	8052.635810
881.953631	7770.230372
882.263637	7154.022411
882.573602	6579.832467
882.883526	6010.492113
883.193408	5436.276964
883.503248	4977.310153
883.813048	4675.317312
884.122806	4382.335532
884.432522	4069.405907
884.742197	3838.054754
885.051831	3645.084426
885.361424	3512.154241
885.670975	3440.471553
885.980485	3354.492154
886.289954	3279.217645
886.599382	3236.695512
886.908768	3197.959286
887.218113	3155.520332
887.527417	3101.884976
887.836680	3050.825649
888.145901	3041.479350
888.455082	3035.530788
888.764221	2983.427943
889.073319	2958.063377
889.382376	2953.949796
889.691392	2955.666309
890.000366	2958.176803
890.309300	2943.907817
890.618193	2957.811320
890.927044	2974.026191
891.235855	2972.831438
891.544625	2957.849128
891.853353	2970.865388
892.162041	2986.301401
892.470687	3028.551311
892.779293	3076.142324
893.087858	3123.267030
893.396381	3193.543235
893.704864	3307.939619
894.013306	3541.660114
894.321707	3838.798325
894.630068	4046.950087
894.938387	4046.680386
895.246665	4002.194724
895.554903	3887.886560
895.863100	3687.351981
896.171256	3526.629914
896.479371	3386.838718
896.787446	3263.469080
897.095480	3164.307063
897.403473	3098.487238
897.711425	3063.408369
898.019336	3050.571071
898.327207	3026.136598
898.635038	2991.062770
898.942827	2975.440235
899.250576	2962.630663
899.558284	2934.690068
899.865952	2913.562592
900.173579	2895.119530
900.481165	2888.313973
900.788711	2873.495501
901.096216	2852.070597
901.403681	2839.578618
901.711105	2844.014833
902.018489	2845.184381
902.325832	2843.235975
902.633135	2855.158304
902.940397	2883.905484
903.247619	2964.291723
903.554800	3146.993221
903.861941	3482.640805
904.169041	3903.176380
904.476101	4202.469684
904.783121	4169.808048
905.090100	3931.651337
905.397039	3660.079338
905.703938	3413.145979
906.010796	3229.894996
906.317614	3118.122532
906.624391	3025.335055
906.931129	2958.189406
907.237826	2896.029459
907.544483	2848.372911
907.851099	2819.484579
908.157675	2799.345169
908.464211	2781.925462
908.770707	2766.368461
909.077163	2755.250196
909.383578	2737.535582
909.689954	2730.183059
909.996289	2727.196175
910.302584	2726.888665
910.608839	2727.352451
910.915054	2722.555793
911.221229	2716.808878
911.527363	2718.449773
911.833458	2723.722820
912.139513	2729.308419
912.445527	2731.130796
912.751502	2742.410377
913.057436	2750.481265
913.363331	2763.641197
913.669186	2781.252468
913.975000	2812.580718
914.280775	2871.660521
914.586510	2941.278856
914.892205	3019.646113
915.197859	3142.856954
915.503475	3330.581961
915.809050	3538.794218
916.114585	3685.398534
916.420081	3712.557750
916.725536	3654.040036
917.030952	3539.948642
917.336328	3412.803181
917.641665	3281.128242
917.946961	3183.773479
918.252218	3114.848303
918.557435	3042.540513
918.862612	2981.376193
919.167750	2931.110848
919.472848	2889.831360
919.777906	2866.551312
920.082925	2840.155830
920.387904	2812.036274
920.692843	2791.783438
920.997743	2781.635596
921.302603	2771.742331
921.607423	2761.730600
921.912204	2747.285173
922.216946	2739.282342
922.521647	2727.899416
922.826310	2719.614280
923.130932	2714.069011
923.435516	2705.844368
923.740059	2699.822710
924.044564	2689.926925
924.349028	2684.905936
924.653454	2678.075172
924.957840	2673.275994
925.262186	2669.558143
925.566493	2664.653100
925.870761	2660.491627
926.174989	2659.967347
926.479178	2649.769093
926.783328	2643.956643
927.087438	2646.494864
927.391509	2646.497384
927.695541	2640.654687
927.999533	2637.113277
928.303486	2635.432052
928.607400	2636.195787
928.911275	2633.846609
929.215110	2634.577576
929.518906	2633.912144
929.822663	2632.452730
930.126381	2631.920888
930.430060	2633.791156
930.733699	2632.112452
931.037299	2635.346352
931.340861	2633.655045
931.644383	2636.538585
931.947866	2634.635549
932.251309	2631.999026
932.554714	2631.986423
932.858080	2631.293264
933.161407	2629.261679
933.464694	2627.358644
933.767943	2624.331431
934.071153	2628.013994
934.374323	2624.515433
934.677455	2624.706997
934.980548	2626.219343
935.283602	2624.296143
935.586617	2622.957717
935.889593	2623.953344
936.192530	2622.181379
936.495428	2624.281019
936.798287	2626.194137
937.101108	2629.445682
937.403890	2632.014149
937.706632	2639.913637
938.009336	2643.722229
938.312002	2654.162459
938.614628	2661.643531
938.917216	2662.366937
939.219765	2665.510096
939.522275	2666.800632
939.824747	2662.621515
940.127179	2661.890548
940.429573	2660.766370
940.731929	2659.337203
941.034246	2654.056595
941.336524	2653.504588
941.638763	2647.679535
941.940964	2644.289359
942.243126	2641.957825
942.545250	2645.877322
942.847335	2640.987403
943.149381	2637.801394
943.451389	2634.237298
943.753359	2630.277472
944.055290	2631.668830
944.357182	2629.972482
944.659036	2627.711525
944.960851	2627.759416
945.262628	2624.270937
945.564367	2627.527522
945.866067	2627.030969
946.167729	2627.409055
946.469352	2630.738737
946.770937	2629.601957
947.072484	2623.255145
947.373992	2625.556431
947.675462	2622.866976
947.976893	2618.579474
948.278286	2616.255502
948.579641	2621.074846
948.880958	2615.353136
949.182236	2621.367232
949.483476	2616.056377
949.784678	2616.870523
950.085841	2617.437653
950.386967	2619.935545
950.688054	2619.149125
950.989103	2617.956892
951.290114	2621.682305
951.591087	2622.435957
951.892021	2624.722120
952.192917	2628.364354
952.493776	2628.016514
952.794596	2631.535240
953.095378	2628.891155
953.396122	2629.153295
953.696828	2626.547018
953.997496	2624.848149
954.298126	2621.888992
954.598718	2622.430916
954.899272	2618.133332
955.199788	2616.946141
955.500266	2613.329113
955.800706	2610.581684
956.101108	2609.490274
956.401472	2606.936930
956.701798	2605.013729
957.002087	2605.653956
957.302337	2601.976434
957.602550	2604.562546
957.902724	2598.344283
958.202861	2600.201948
958.502960	2598.024170
958.803022	2596.816813
959.103045	2598.049375
959.403031	2597.517534
959.702979	2595.122986
960.002889	2594.744899
960.302762	2595.732965
960.602596	2596.143819
960.902393	2591.858838
961.202153	2592.254569
961.501875	2591.001842
961.801559	2592.884713
962.101205	2594.991916
962.400814	2592.292378
962.700385	2588.874475
962.999918	2588.919846
963.299414	2586.326172
963.598873	2588.824064
963.898293	2583.172930
964.197677	2592.854466
964.497022	2589.489496
964.796331	2588.319948
965.095601	2588.178796
965.394835	2589.696183
965.694030	2588.264496
965.993189	2589.698704
966.292309	2590.205340
966.591393	2591.548807
966.890439	2588.284660
967.189447	2589.794486
967.488419	2590.288519
967.787353	2588.889599
968.086249	2586.979002
968.385108	2588.493868
968.683930	2588.677870
968.982714	2587.059660
969.281462	2588.251893
969.580172	2587.566296
969.878844	2588.146029
970.177480	2589.106368
970.476078	2591.082501
970.774639	2590.154928
971.073162	2591.158118
971.371649	2590.996801
971.670098	2591.271544
971.968510	2589.998653
972.266885	2591.379929
972.565223	2591.523602
972.863524	2588.723241
973.161788	2588.559403
973.460014	2590.031420
973.758204	2587.198292
974.056356	2590.901019
974.354471	2589.015628
974.652550	2590.958992
974.950591	2588.430854
975.248595	2589.761718
975.546563	2588.909763
975.844493	2591.435382
976.142386	2589.497058
976.440243	2590.429671
976.738062	2587.944382
977.035845	2588.347675
977.333590	2587.788107
977.631299	2588.193920
977.928971	2584.997828
978.226606	2582.434401
978.524204	2586.858014
978.821765	2584.831470
979.119290	2585.396079
979.416777	2585.789289
979.714228	2588.665267
980.011642	2588.803899
980.309020	2588.226687
980.606360	2588.418251
980.903664	2587.480596
981.200931	2589.771801
981.498162	2588.577047
981.795356	2590.482603
982.092513	2592.844384
982.389633	2592.191555
982.686717	2595.284303
982.983764	2599.317226
983.280775	2605.059100
983.577749	2606.735283
983.874686	2604.214707
984.171587	2602.442741
984.468451	2600.436362
984.765279	2598.200610
985.062070	2596.743717
985.358824	2595.342276
985.655543	2591.790783
985.952224	2590.054105
986.248869	2590.026379
986.545478	2589.902871
986.842050	2585.741398
987.138586	2585.713672
987.435086	2589.497058
987.731549	2583.447673
988.027975	2584.622262
988.324366	2584.884402
988.620719	2583.850966
988.917037	2584.836511
989.213318	2585.126377
989.509563	2584.655030
989.805772	2583.699731
990.101944	2584.314752
990.398080	2584.027406
990.694180	2583.298959
990.990244	2583.190574
991.286271	2584.836511
991.582262	2583.624114
991.878217	2585.822057
992.174136	2582.847776
992.470019	2586.116964
992.765865	2580.221335
993.061676	2581.471541
993.357450	2582.207549
993.653188	2577.625141
993.948890	2582.212591
994.244556	2585.249886
994.540186	2586.497571
994.835780	2585.365832
995.131337	2587.599063
995.426859	2585.257447
995.722345	2584.670153
996.017795	2585.670822
996.313208	2589.497058
996.608586	2589.489496
996.903928	2591.538725
997.199234	2586.648806
997.494504	2588.466142
997.789738	2585.479258
998.084936	2589.189547
998.380099	2587.473035
998.675225	2585.953127
998.970316	2585.438929
999.265371	2585.799372
999.560390	2586.505133
999.855373	2586.210226
1000.150320	2581.690831
1000.445232	2583.742581
1000.740108	2582.560430
1001.034948	2583.893815
1001.329752	2582.676377
1001.624521	2582.079000
1001.919254	2580.995152
1002.213951	2584.024885
1002.508613	2585.464135
1002.803239	2584.004721
1003.097829	2580.228897
1003.392384	2581.156469
1003.686903	2582.018506
1003.981386	2583.576223
1004.275834	2581.584967
1004.570246	2581.156469
1004.864623	2580.773341
1005.158964	2583.208218
1005.453270	2582.497416
1005.747540	2581.494226
1006.041775	2580.387693
1006.335974	2582.567992
1006.630138	2581.811819
1006.924266	2583.924062
1007.218359	2581.116140
1007.512416	2577.642785
1007.806438	2577.720922
1008.100425	2579.843248
1008.394376	2575.661611
1008.688292	2581.416088
1008.982172	2579.394586
1009.276017	2581.670667
1009.569827	2580.712847
1009.863602	2583.341809
1010.157341	2583.248548
1010.451045	2578.398958
1010.744714	2579.175295
1011.038347	2580.778382
1011.331945	2580.375090
1011.625508	2582.305852
1011.919036	2581.600090
1012.212528	2581.171592
1012.505986	2581.960533
1012.799408	2581.196798
1013.092795	2581.897518
1013.386147	2580.680080
1013.679464	2580.012127
1013.972745	2579.936510
1014.265992	2578.905594
1014.559204	2578.789647
1014.852380	2580.798547
1015.145521	2577.799060
1015.438628	2581.363156
1015.731699	2580.233938
1016.024736	2579.712178
1016.317737	2580.541448
1016.610703	2582.119329
1016.903635	2579.054308
1017.196531	2579.893660
1017.489393	2583.193095
1017.782219	2579.553382
1018.075011	2580.102868
1018.367768	2580.395255
1018.660490	2580.924576
1018.953177	2580.924576
1019.245829	2580.924576
