Dividing Wavelength (nm)	Counts (n)	Blue Motor Position (mm): 1.000000	Red Motor Position (mm): 0.000000	
326.493990	2185.340192
326.888308	2185.340192
327.282561	2185.340192
327.676750	2139.969808
328.070874	2129.887500
328.464933	2175.257885
328.858929	2271.039808
329.252859	2187.860769
329.646726	2192.901923
330.040528	2213.066538
330.434265	2250.875192
330.827938	2218.107692
331.221547	2243.313462
331.615091	2316.410192
332.008571	2306.327885
332.401986	2318.930769
332.795338	2313.889615
333.188625	2341.615962
333.581847	2467.644808
333.975006	2371.862885
334.368100	2364.301154
334.761129	2412.192115
335.154095	2470.165385
335.546996	2447.480192
335.939833	2560.906154
336.332606	2462.603654
336.725315	2520.576923
337.117960	2389.506923
337.510540	2538.220962
337.903056	2495.371154
338.295508	2505.453462
338.687896	2540.741538
339.080220	2596.194231
339.472480	2573.509038
339.864676	2659.208654
340.256807	2603.755962
340.648875	2500.412308
341.040879	2502.932885
341.432818	2535.700385
341.824694	2573.509038
342.216506	2581.070769
342.608253	2691.976154
342.999937	2550.823846
343.391557	2573.509038
343.783113	2586.111923
344.174605	2666.770385
344.566033	2636.523462
344.957397	2545.782692
345.348697	2661.729231
345.739934	2568.467885
346.131106	2583.591346
346.522215	2593.673654
346.913260	2644.085192
347.304241	2540.741538
347.695159	2518.056346
348.086012	2490.330000
348.476802	2500.412308
348.867528	2591.153077
349.258191	2626.441154
349.648789	2543.262115
350.039324	2560.906154
350.429796	2565.947308
350.820203	2586.111923
351.210548	2623.920577
351.600828	2626.441154
351.991045	2555.865000
352.381198	2533.179808
352.771288	2563.426731
353.161314	2490.330000
353.551276	2518.056346
353.941175	2472.685962
354.331010	2636.523462
354.720782	2560.906154
355.110490	2535.700385
355.500135	2513.015192
355.889717	2586.111923
356.279235	2502.932885
356.668689	2576.029615
357.058080	2518.056346
357.447408	2570.988462
357.836672	2533.179808
358.225873	2525.618077
358.615010	2578.550192
359.004084	2477.727115
359.393095	2550.823846
359.782043	2515.535769
360.170927	2548.303269
360.559748	2578.550192
360.948505	2578.550192
361.337199	2530.659231
361.725830	2593.673654
362.114398	2533.179808
362.502903	2548.303269
362.891344	2634.002885
363.279722	2460.083077
363.668037	2540.741538
364.056289	2530.659231
364.444478	2553.344423
364.832603	2611.317692
365.220665	2520.576923
365.608665	2606.276538
365.996601	2545.782692
366.384474	2550.823846
366.772284	2565.947308
367.160031	2510.494615
367.547715	2593.673654
367.935336	2523.097500
368.322893	2626.441154
368.710388	2588.632500
369.097820	2581.070769
369.485189	2535.700385
369.872495	2581.070769
370.259738	2502.932885
370.646918	2603.755962
371.034035	2530.659231
371.421090	2578.550192
371.808081	2495.371154
372.195010	2560.906154
372.581875	2545.782692
372.968678	2555.865000
373.355418	2578.550192
373.742096	2558.385577
374.128710	2601.235385
374.515262	2603.755962
374.901751	2548.303269
375.288177	2588.632500
375.674540	2573.509038
376.060841	2616.358846
376.447079	2591.153077
376.833254	2613.838269
377.219367	2563.426731
377.605417	2596.194231
377.991404	2598.714808
378.377329	2530.659231
378.763191	2515.535769
379.148991	2570.988462
379.534727	2497.891731
379.920402	2613.838269
380.306013	2550.823846
380.691563	2598.714808
381.077049	2636.523462
381.462474	2588.632500
381.847835	2560.906154
382.233134	2586.111923
382.618371	2553.344423
383.003545	2613.838269
383.388657	2528.138654
383.773706	2641.564615
384.158693	2538.220962
384.543618	2565.947308
384.928480	2570.988462
385.313280	2507.974038
385.698017	2631.482308
386.082692	2634.002885
386.467305	2593.673654
386.851856	2616.358846
387.236344	2588.632500
387.620770	2570.988462
388.005133	2550.823846
388.389435	2611.317692
388.773674	2669.290962
389.157851	2598.714808
389.541965	2601.235385
389.926018	2530.659231
390.310008	2550.823846
390.693936	2649.126346
391.077802	2553.344423
391.461606	2616.358846
391.845348	2626.441154
392.229027	2596.194231
392.612645	2513.015192
392.996200	2596.194231
393.379694	2538.220962
393.763125	2669.290962
394.146494	2644.085192
394.529801	2626.441154
394.913047	2593.673654
395.296230	2593.673654
395.679351	2623.920577
396.062410	2565.947308
396.445408	2533.179808
396.828343	2581.070769
397.211217	2530.659231
397.594028	2601.235385
397.976778	2578.550192
398.359466	2621.400000
398.742092	2631.482308
399.124656	2651.646923
399.507158	2626.441154
399.889598	2553.344423
400.271977	2576.029615
400.654294	2530.659231
401.036549	2681.893846
401.418742	2598.714808
401.800874	2616.358846
402.182944	2593.673654
402.564952	2591.153077
402.946898	2535.700385
403.328783	2654.167500
403.710606	2538.220962
404.092367	2641.564615
404.474067	2581.070769
404.855705	2618.879423
405.237282	2576.029615
405.618797	2664.249808
406.000250	2606.276538
406.381642	2611.317692
406.762972	2598.714808
407.144240	2538.220962
407.525447	2570.988462
407.906593	2654.167500
408.287677	2565.947308
408.668700	2593.673654
409.049661	2613.838269
409.430560	2515.535769
409.811399	2586.111923
410.192176	2523.097500
410.572891	2586.111923
410.953545	2641.564615
411.334138	2639.044038
411.714669	2588.632500
412.095139	2611.317692
412.475547	2573.509038
412.855894	2555.865000
413.236180	2538.220962
413.616405	2553.344423
413.996568	2606.276538
414.376670	2565.947308
414.756711	2563.426731
415.136691	2603.755962
415.516609	2576.029615
415.896466	2649.126346
416.276262	2623.920577
416.655997	2515.535769
417.035670	2616.358846
417.415283	2598.714808
417.794834	2649.126346
418.174324	2651.646923
418.553753	2538.220962
418.933121	2659.208654
419.312428	2634.002885
419.691674	2634.002885
420.070859	2616.358846
420.449983	2558.385577
420.829045	2563.426731
421.208047	2555.865000
421.586988	2621.400000
421.965867	2578.550192
422.344686	2467.644808
422.723444	2576.029615
423.102141	2628.961731
423.480777	2631.482308
423.859352	2578.550192
424.237866	2634.002885
424.616319	2598.714808
424.994712	2639.044038
425.373044	2616.358846
425.751314	2583.591346
426.129524	2586.111923
426.507673	2573.509038
426.885762	2558.385577
427.263789	2618.879423
427.641756	2616.358846
428.019662	2593.673654
428.397508	2596.194231
428.775292	2623.920577
429.153016	2628.961731
429.530679	2659.208654
429.908282	2641.564615
430.285824	2613.838269
430.663305	2555.865000
431.040726	2583.591346
431.418086	2558.385577
431.795385	2510.494615
432.172624	2666.770385
432.549802	2613.838269
432.926920	2641.564615
433.303977	2669.290962
433.680974	2581.070769
434.057910	2684.414423
434.434786	2636.523462
434.811601	2570.988462
435.188355	2603.755962
435.565050	2616.358846
435.941683	2691.976154
436.318257	2593.673654
436.694770	2646.605769
437.071222	2591.153077
437.447614	2674.332115
437.823946	2666.770385
438.200218	2707.099615
438.576429	2754.990577
438.952580	2686.935000
439.328670	2626.441154
439.704700	2674.332115
440.080670	2634.002885
440.456580	2681.893846
440.832429	2704.579038
441.208218	2770.114038
441.583947	2797.840385
441.959616	2767.593462
442.335224	2777.675769
442.710773	2707.099615
443.086261	2749.949423
443.461689	2749.949423
443.837057	2830.607885
444.212365	2850.772500
444.587612	2891.101731
444.962800	2840.690192
445.337927	2870.937115
445.712995	2911.266346
446.088002	3022.171731
446.462949	2996.965962
446.837837	3092.747885
447.212664	3092.747885
447.587431	3233.900192
447.962139	3264.147115
448.336786	3528.807692
448.711374	3642.233654
449.085901	3496.040192
449.460369	3541.410577
449.834776	3511.163654
450.209124	3700.206923
450.583412	3896.811923
450.957640	3979.990962
451.331808	3866.565000
451.705917	3906.894231
452.079965	3927.058846
452.453954	4060.649423
452.827883	4211.884038
453.201752	4252.213269
453.575562	4312.707115
453.949311	4383.283269
454.323001	4655.505577
454.696632	4700.875962
455.070202	5018.468654
455.443713	5149.538654
455.817164	5336.061346
456.190556	5472.172500
456.563888	5625.927692
456.937160	5729.271346
457.310373	5714.147885
457.683526	5842.697308
458.056619	5845.217885
458.429653	6049.384615
458.802628	6029.220000
459.175542	6394.703654
459.548398	6646.761346
459.921194	7115.588654
460.293930	7314.714231
460.666607	7798.665000
461.039224	8383.438846
461.411782	9089.200385
461.784280	8829.580962
462.156719	9192.544038
462.529099	9142.132500
462.901419	8995.939038
463.273680	8950.568654
463.645882	9081.638654
464.018024	9061.474038
464.390106	9525.260192
464.762130	10243.624615
465.134094	10856.124808
465.505999	12681.022500
465.877845	14813.430577
466.249631	16789.562885
466.621358	16242.597692
466.993026	15599.850577
467.364634	15287.299038
467.736184	14765.539615
468.107674	14528.605385
468.479105	14931.897692
468.850477	14417.700000
469.221790	14745.375000
469.593043	14243.780192
469.964238	14170.683462
470.335373	14140.436538
470.706449	14886.527308
471.077467	14974.747500
471.448425	17046.661731
471.819324	20434.317115
472.190164	21124.955192
472.560945	18196.044808
472.931667	16857.618462
473.302330	16643.369423
473.672934	16804.686346
474.043479	16973.565000
474.413965	16930.715192
474.784393	16615.643077
475.154761	17984.316346
475.525070	17702.011731
475.895321	17525.571346
476.265513	18203.606538
476.635645	18990.026538
477.005719	18765.695192
477.375734	19007.670577
477.745691	20073.874615
478.115588	20247.794423
478.485427	20978.761731
478.855207	22165.953462
479.224928	24278.196923
479.594591	26269.452692
479.964194	25785.501923
480.333739	25838.434038
480.703226	25959.421731
481.072653	26002.271538
481.442022	26771.047500
481.811333	27804.484038
482.180584	27194.504423
482.549777	26327.425962
482.918912	26496.304615
483.287988	26249.288077
483.657005	26145.944423
484.025964	25977.065769
484.394864	25614.102692
484.763706	24928.505769
485.132489	24941.108654
485.501213	24631.077692
485.869879	24724.339038
486.238487	24749.544808
486.607036	24764.668269
486.975527	24462.199038
487.343959	24222.744231
487.712333	24384.061154
488.080648	23872.384038
488.448905	24046.303846
488.817104	23890.028077
489.185244	24532.775192
489.553326	24593.269038
489.921350	25656.952500
490.289315	27791.881154
490.657222	28590.904038
491.025070	28452.272308
491.392861	28250.626154
491.760593	27300.368654
492.128267	25964.462885
492.495883	25152.837115
492.863440	24036.221538
493.230939	23406.077308
493.598380	22738.124423
493.965763	22483.546154
494.333088	21442.547885
494.700354	21238.381154
495.067563	21311.477885
495.434713	20633.442692
495.801805	20789.718462
496.168839	20177.218269
496.535815	20005.819038
496.902733	19778.967115
497.269593	19501.703654
497.636395	19494.141923
498.003139	18969.861923
498.369825	18712.763077
498.736453	18644.707500
499.103023	18420.376154
499.469535	17797.793654
499.835989	18044.810192
500.202385	17790.231923
500.568723	17381.898462
500.935003	17079.429231
501.301226	16958.441538
501.667390	16991.209038
502.033497	16804.686346
502.399546	16308.132692
502.765537	15869.552308
503.131470	15849.387692
503.497345	15572.124231
503.863163	14954.582885
504.228923	15297.381346
504.594625	14730.251538
504.960269	14478.193846
505.325856	14435.344038
505.691385	13873.255385
506.056856	13958.955000
506.422270	13888.378846
506.787625	13278.399231
507.152924	13099.438269
507.518164	13011.218077
507.883347	12776.804423
508.248472	12383.594423
508.613540	12456.691154
508.978550	12048.357692
509.343503	11849.232115
509.708398	11508.954231
510.073236	11483.748462
510.438016	11335.034423
510.802738	11025.003462
511.167403	10808.233846
511.532010	10553.655577
511.896561	10581.381923
512.261053	10399.900385
512.625488	10246.145192
512.989866	9724.385769
513.354186	9590.795192
513.718449	9384.107885
514.082655	9278.243654
514.446803	9038.788846
514.810894	8879.992500
515.174927	8640.537692
515.538904	8557.358654
515.902822	8403.603462
516.266684	8133.901731
516.630488	8043.160962
516.994235	7980.146538
517.357925	7730.609423
517.721558	7599.539423
518.085133	7448.304808
518.448651	7236.576346
518.812112	7125.670962
519.175516	7034.930192
519.538863	6929.065962
519.902152	6581.226346
520.265385	6717.337500
520.628560	6646.761346
520.991678	6349.333269
521.354739	6251.030769
521.717743	6112.399038
522.080690	5918.314615
522.443580	5847.738462
522.806413	5744.394808
523.169189	5741.874231
523.531908	5570.475000
523.894569	5378.911154
524.257174	5373.870000
524.619722	5169.703269
524.982213	5089.044808
525.344647	5038.633269
525.707025	4978.139423
526.069345	4935.289615
526.431608	4816.822500
526.793815	4665.587885
527.155964	4534.517885
527.518057	4519.394423
527.880093	4423.612500
528.242072	4327.830577
528.603995	4272.377885
528.965860	4211.884038
529.327669	4048.046538
529.689421	4040.484808
530.051117	4022.840769
530.412755	3909.414808
530.774337	3884.209038
531.135862	3843.879808
531.497331	3783.385962
531.858743	3675.001154
532.220098	3743.056731
532.581396	3675.001154
532.942638	3634.671923
533.303824	3589.301538
533.664953	3465.793269
534.026025	3483.437308
534.387040	3284.311731
534.747999	3354.887885
535.108902	3352.367308
535.469748	3259.105962
535.830537	3243.982500
536.191270	3238.941346
536.551947	3208.694423
536.912567	3223.817885
537.273131	3155.762308
537.633638	3092.747885
537.994089	3145.680000
538.354483	3039.815769
538.714821	3087.706731
539.075103	3019.651154
539.435328	2986.883654
539.795497	2964.198462
540.155609	2981.842500
540.515665	2954.116154
540.875665	3022.171731
541.235609	2969.239615
541.595496	2928.910385
541.955328	2971.760192
542.315102	2873.457692
542.674821	2891.101731
543.034483	2850.772500
543.394090	2855.813654
543.753640	2860.854808
544.113134	2752.470000
544.472571	2790.278654
544.831953	2749.949423
545.191278	2757.511154
545.550548	2815.484423
545.909761	2812.963846
546.268918	2845.731346
546.628019	2795.319808
546.987064	2704.579038
547.346053	2722.223077
547.704986	2737.346538
548.063863	2818.005000
548.422684	2767.593462
548.781449	2772.634615
549.140158	2656.688077
549.498811	2765.072885
549.857408	2739.867115
550.215949	2724.743654
550.574434	2767.593462
550.932864	2699.537885
551.291237	2717.181923
551.649555	2709.620192
552.007817	2762.552308
552.366022	2714.661346
552.724173	2699.537885
553.082267	2754.990577
553.440305	2654.167500
553.798288	2702.058462
554.156215	2722.223077
554.514086	2699.537885
554.871902	2707.099615
555.229661	2656.688077
555.587365	2722.223077
555.945014	2742.387692
556.302606	2674.332115
556.660143	2674.332115
557.017625	2659.208654
557.375050	2581.070769
557.732421	2641.564615
558.089735	2671.811538
558.446994	2732.305385
558.804197	2669.290962
559.161345	2631.482308
559.518437	2697.017308
559.875474	2681.893846
560.232455	2681.893846
560.589381	2588.632500
560.946251	2636.523462
561.303065	2628.961731
561.659825	2651.646923
562.016528	2666.770385
562.373177	2674.332115
562.729770	2654.167500
563.086307	2573.509038
563.442789	2702.058462
563.799216	2613.838269
564.155587	2691.976154
564.511904	2646.605769
564.868164	2661.729231
565.224370	2747.428846
565.580520	2686.935000
565.936615	2641.564615
566.292654	2669.290962
566.648638	2661.729231
567.004567	2639.044038
567.360441	2694.496731
567.716260	2601.235385
568.072023	2749.949423
568.427732	2606.276538
568.783385	2674.332115
569.138982	2671.811538
569.494525	2651.646923
569.850013	2608.797115
570.205445	2754.990577
570.560823	2636.523462
570.916145	2641.564615
571.271412	2626.441154
571.626625	2649.126346
571.981782	2646.605769
572.336884	2583.591346
572.691931	2646.605769
573.046923	2684.414423
573.401860	2689.455577
573.756743	2618.879423
574.111570	2576.029615
574.466342	2603.755962
574.821059	2591.153077
575.175722	2684.414423
575.530330	2598.714808
575.884882	2669.290962
576.239380	2671.811538
576.593823	2626.441154
576.948211	2691.976154
577.302544	2644.085192
577.656823	2634.002885
578.011047	2525.618077
578.365216	2654.167500
578.719330	2611.317692
579.073389	2681.893846
579.427394	2626.441154
579.781344	2644.085192
580.135239	2651.646923
580.489080	2646.605769
580.842866	2651.646923
581.196597	2603.755962
581.550273	2626.441154
581.903895	2641.564615
582.257463	2603.755962
582.610975	2611.317692
582.964434	2631.482308
583.317837	2644.085192
583.671186	2651.646923
584.024481	2636.523462
584.377721	2636.523462
584.730906	2611.317692
585.084037	2646.605769
585.437113	2581.070769
585.790135	2623.920577
586.143103	2669.290962
586.496016	2626.441154
586.848874	2543.262115
587.201679	2631.482308
587.554428	2656.688077
587.907124	2659.208654
588.259765	2649.126346
588.612352	2606.276538
588.964884	2656.688077
589.317362	2649.126346
589.669786	2568.467885
590.022155	2669.290962
590.374470	2684.414423
590.726731	2639.044038
591.078937	2608.797115
591.431090	2628.961731
591.783188	2482.768269
592.135232	2581.070769
592.487222	2578.550192
592.839157	2699.537885
593.191038	2603.755962
593.542866	2626.441154
593.894639	2636.523462
594.246358	2623.920577
594.598022	2649.126346
594.949633	2681.893846
595.301190	2669.290962
595.652692	2694.496731
596.004141	2540.741538
596.355535	2598.714808
596.706876	2636.523462
597.058162	2528.138654
597.409395	2606.276538
597.760573	2606.276538
598.111698	2603.755962
598.462768	2578.550192
598.813785	2649.126346
599.164748	2603.755962
599.515657	2674.332115
599.866511	2631.482308
600.217312	2618.879423
600.568060	2593.673654
600.918753	2686.935000
601.269392	2636.523462
601.619978	2616.358846
601.970510	2649.126346
602.320988	2697.017308
602.671412	2644.085192
603.021783	2674.332115
603.372100	2684.414423
603.722363	2628.961731
604.072572	2628.961731
604.422728	2631.482308
604.772830	2631.482308
605.122878	2606.276538
605.472872	2608.797115
605.822813	2634.002885
606.172701	2646.605769
606.522534	2586.111923
606.872314	2628.961731
607.222041	2684.414423
607.571714	2671.811538
607.921333	2654.167500
608.270899	2628.961731
608.620411	2694.496731
608.969870	2646.605769
609.319276	2631.482308
609.668627	2676.852692
610.017926	2628.961731
610.367171	2621.400000
610.716362	2623.920577
611.065500	2732.305385
611.414585	2644.085192
611.763616	2623.920577
612.112594	2616.358846
612.461518	2671.811538
612.810389	2596.194231
613.159207	2560.906154
613.507971	2626.441154
613.856682	2588.632500
614.205340	2686.935000
614.553945	2644.085192
614.902496	2651.646923
615.250994	2613.838269
615.599439	2664.249808
615.947830	2563.426731
616.296169	2606.276538
616.644454	2671.811538
616.992686	2691.976154
617.340864	2631.482308
617.688990	2606.276538
618.037063	2568.467885
618.385082	2621.400000
618.733048	2641.564615
619.080961	2606.276538
619.428821	2649.126346
619.776628	2654.167500
620.124382	2646.605769
620.472083	2671.811538
620.819731	2613.838269
621.167326	2664.249808
621.514868	2676.852692
621.862357	2623.920577
622.209793	2651.646923
622.557176	2651.646923
622.904506	2581.070769
623.251783	2689.455577
623.599007	2606.276538
623.946179	2671.811538
624.293297	2686.935000
624.640363	2616.358846
624.987376	2644.085192
625.334336	2593.673654
625.681243	2671.811538
626.028097	2639.044038
626.374899	2704.579038
626.721647	2676.852692
627.068343	2681.893846
627.414987	2676.852692
627.761577	2659.208654
628.108115	2611.317692
628.454600	2669.290962
628.801032	2560.906154
629.147412	2664.249808
629.493739	2659.208654
629.840014	2636.523462
630.186236	2623.920577
630.532405	2616.358846
630.878521	2631.482308
631.224585	2644.085192
631.570597	2588.632500
631.916556	2646.605769
632.262462	2608.797115
632.608316	2626.441154
632.954117	2661.729231
633.299866	2644.085192
633.645562	2573.509038
633.991206	2598.714808
634.336797	2593.673654
634.682336	2651.646923
635.027823	2671.811538
635.373257	2596.194231
635.718639	2639.044038
636.063968	2646.605769
636.409245	2671.811538
636.754470	2676.852692
637.099642	2588.632500
637.444762	2603.755962
637.789829	2608.797115
638.134845	2646.605769
638.479808	2644.085192
638.824719	2639.044038
639.169577	2646.605769
639.514383	2654.167500
639.859137	2502.932885
640.203839	2626.441154
640.548489	2603.755962
640.893086	2644.085192
641.237632	2560.906154
641.582125	2651.646923
641.926566	2548.303269
642.270955	2606.276538
642.615292	2661.729231
642.959576	2661.729231
643.303809	2702.058462
643.647990	2644.085192
643.992118	2654.167500
644.336195	2606.276538
644.680219	2656.688077
645.024192	2626.441154
645.368112	2656.688077
645.711981	2596.194231
646.055797	2649.126346
646.399562	2608.797115
646.743274	2608.797115
647.086935	2649.126346
647.430544	2714.661346
647.774101	2618.879423
648.117606	2608.797115
648.461059	2639.044038
648.804460	2593.673654
649.147810	2606.276538
649.491108	2654.167500
649.834354	2634.002885
650.177548	2598.714808
650.520690	2621.400000
650.863781	2573.509038
651.206820	2626.441154
651.549807	2727.264231
651.892742	2613.838269
652.235626	2601.235385
652.578458	2631.482308
652.921238	2689.455577
653.263967	2709.620192
653.606644	2606.276538
653.949269	2646.605769
654.291843	2606.276538
654.634365	2558.385577
654.976836	2523.097500
655.319255	2659.208654
655.661622	2618.879423
656.003938	2553.344423
656.346203	2684.414423
656.688416	2565.947308
657.030577	2573.509038
657.372687	2598.714808
657.714746	2586.111923
658.056753	2636.523462
658.398708	2669.290962
658.740612	2676.852692
659.082465	2613.838269
659.424266	2649.126346
659.766016	2644.085192
660.107715	2623.920577
660.449362	2664.249808
660.790958	2651.646923
661.132503	2634.002885
661.473996	2646.605769
661.815438	2676.852692
662.156829	2606.276538
662.498168	2671.811538
662.839456	2626.441154
663.180693	2578.550192
663.521879	2659.208654
663.863013	2603.755962
664.204097	2616.358846
664.545129	2578.550192
664.886110	2654.167500
665.227040	2639.044038
665.567918	2631.482308
665.908746	2588.632500
666.249522	2628.961731
666.590248	2651.646923
666.930922	2689.455577
667.271545	2631.482308
667.612118	2618.879423
667.952639	2603.755962
668.293109	2565.947308
668.633528	2709.620192
668.973896	2661.729231
669.314213	2684.414423
669.654480	2641.564615
669.994695	2634.002885
670.334859	2618.879423
670.674973	2586.111923
671.015035	2651.646923
671.355047	2480.247692
671.695008	2626.441154
672.034918	2608.797115
672.374777	2639.044038
672.714585	2636.523462
673.054342	2540.741538
673.394049	2613.838269
673.733705	2639.044038
674.073310	2598.714808
674.412864	2649.126346
674.752368	2641.564615
675.091820	2651.646923
675.431223	2714.661346
675.770574	2623.920577
676.109875	2659.208654
676.449125	2656.688077
676.788324	2601.235385
677.127473	2641.564615
677.466571	2656.688077
677.805619	2623.920577
678.144616	2623.920577
678.483562	2616.358846
678.822458	2591.153077
679.161303	2598.714808
679.500098	2611.317692
679.838842	2621.400000
680.177535	2618.879423
680.516179	2601.235385
680.854771	2583.591346
681.193314	2636.523462
681.531805	2661.729231
681.870247	2664.249808
682.208638	2621.400000
682.546978	2631.482308
682.885268	2603.755962
683.223508	2565.947308
683.561697	2691.976154
683.899836	2661.729231
684.237925	2626.441154
684.575963	2631.482308
684.913951	2588.632500
685.251889	2576.029615
685.589776	2555.865000
685.927614	2639.044038
686.265401	2616.358846
686.603137	2623.920577
686.940824	2694.496731
687.278460	2679.373269
687.616046	2659.208654
687.953582	2669.290962
688.291068	2656.688077
688.628504	2666.770385
688.965889	2639.044038
689.303224	2608.797115
689.640510	2613.838269
689.977745	2578.550192
690.314930	2659.208654
690.652065	2644.085192
690.989150	2568.467885
691.326185	2586.111923
691.663170	2669.290962
692.000105	2538.220962
692.336990	2601.235385
692.673825	2659.208654
693.010610	2664.249808
693.347345	2608.797115
693.684030	2618.879423
694.020665	2510.494615
694.357251	2623.920577
694.693786	2717.181923
695.030272	2583.591346
695.366707	2664.249808
695.703093	2515.535769
696.039429	2686.935000
696.375716	2598.714808
696.711952	2565.947308
697.048139	2591.153077
697.384276	2608.797115
697.720363	2649.126346
698.056400	2608.797115
698.392388	2649.126346
698.728326	2606.276538
699.064214	2593.673654
699.400053	2598.714808
699.735842	2553.344423
700.071581	2618.879423
700.407270	2644.085192
700.742910	2601.235385
701.078501	2649.126346
701.414042	2626.441154
701.749533	2603.755962
702.084974	2565.947308
702.420366	2565.947308
702.755709	2679.373269
703.091002	2578.550192
703.426246	2691.976154
703.761440	2502.932885
704.096584	2649.126346
704.431679	2634.002885
704.766725	2598.714808
705.101721	2565.947308
705.436668	2611.317692
705.771565	2669.290962
706.106413	2626.441154
706.441212	2563.426731
706.775961	2588.632500
707.110661	2601.235385
707.445311	2674.332115
707.779913	2613.838269
708.114465	2596.194231
708.448967	2608.797115
708.783421	2631.482308
709.117825	2616.358846
709.452180	2666.770385
709.786485	2618.879423
710.120742	2593.673654
710.454949	2646.605769
710.789107	2634.002885
711.123216	2674.332115
711.457275	2669.290962
711.791286	2646.605769
712.125247	2754.990577
712.459159	2616.358846
712.793023	2606.276538
713.126837	2618.879423
713.460602	2649.126346
713.794318	2596.194231
714.127985	2598.714808
714.461602	2593.673654
714.795171	2649.126346
715.128691	2674.332115
715.462162	2593.673654
715.795584	2603.755962
716.128957	2606.276538
716.462281	2568.467885
716.795556	2676.852692
717.128782	2641.564615
717.461960	2661.729231
717.795088	2618.879423
718.128167	2613.838269
718.461198	2659.208654
718.794180	2586.111923
719.127113	2601.235385
719.459997	2578.550192
719.792833	2646.605769
720.125619	2639.044038
720.458357	2674.332115
720.791046	2697.017308
721.123686	2507.974038
721.456278	2628.961731
721.788821	2644.085192
722.121315	2525.618077
722.453761	2674.332115
722.786158	2618.879423
723.118506	2583.591346
723.450805	2722.223077
723.783056	2573.509038
724.115259	2631.482308
724.447412	2573.509038
724.779518	2500.412308
725.111574	2586.111923
725.443582	2636.523462
725.775542	2611.317692
726.107453	2676.852692
726.439315	2596.194231
726.771129	2568.467885
727.102895	2649.126346
727.434612	2702.058462
727.766281	2674.332115
728.097901	2608.797115
728.429473	2608.797115
728.760996	2583.591346
729.092471	2641.564615
729.423897	2596.194231
729.755276	2654.167500
730.086606	2623.920577
730.417887	2621.400000
730.749120	2505.453462
731.080305	2664.249808
731.411442	2616.358846
731.742530	2616.358846
732.073570	2636.523462
732.404562	2684.414423
732.735506	2601.235385
733.066401	2709.620192
733.397249	2538.220962
733.728048	2649.126346
734.058798	2611.317692
734.389501	2616.358846
734.720156	2593.673654
735.050762	2644.085192
735.381320	2548.303269
735.711831	2691.976154
736.042293	2518.056346
736.372707	2611.317692
736.703073	2636.523462
737.033391	2568.467885
737.363661	2596.194231
737.693883	2613.838269
738.024056	2570.988462
738.354182	2628.961731
738.684260	2634.002885
739.014290	2618.879423
739.344272	2591.153077
739.674207	2591.153077
740.004093	2593.673654
740.333931	2565.947308
740.663722	2644.085192
740.993464	2681.893846
741.323159	2661.729231
741.652806	2676.852692
741.982405	2623.920577
742.311956	2646.605769
742.641460	2596.194231
742.970915	2555.865000
743.300323	2664.249808
743.629683	2570.988462
743.958996	2654.167500
744.288260	2578.550192
744.617477	2664.249808
744.946647	2631.482308
745.275768	2591.153077
745.604842	2646.605769
745.933869	2628.961731
746.262847	2611.317692
746.591778	2611.317692
746.920662	2596.194231
747.249498	2573.509038
747.578286	2644.085192
747.907027	2676.852692
748.235720	2626.441154
748.564365	2603.755962
748.892963	2560.906154
749.221514	2586.111923
749.550017	2603.755962
749.878473	2628.961731
750.206881	2560.906154
750.535242	2641.564615
750.863555	2613.838269
751.191821	2631.482308
751.520039	2644.085192
751.848210	2616.358846
752.176334	2676.852692
752.504411	2671.811538
752.832440	2611.317692
753.160421	2651.646923
753.488356	2538.220962
753.816243	2573.509038
754.144082	2656.688077
754.471875	2656.688077
754.799620	2626.441154
755.127318	2558.385577
755.454969	2520.576923
755.782572	2588.632500
756.110129	2603.755962
756.437638	2487.809423
756.765100	2608.797115
757.092515	2601.235385
757.419882	2523.097500
757.747203	2646.605769
758.074477	2634.002885
758.401703	2628.961731
758.728882	2616.358846
759.056014	2520.576923
759.383099	2613.838269
759.710138	2676.852692
760.037129	2573.509038
760.364073	2593.673654
760.690970	2641.564615
761.017820	2626.441154
761.344623	2603.755962
761.671379	2616.358846
761.998088	2570.988462
762.324751	2606.276538
762.651366	2623.920577
762.977935	2646.605769
763.304456	2654.167500
763.630931	2591.153077
763.957359	2618.879423
764.283740	2656.688077
764.610074	2644.085192
764.936362	2586.111923
765.262602	2626.441154
765.588796	2684.414423
765.914943	2608.797115
766.241044	2586.111923
766.567097	2593.673654
766.893104	2618.879423
767.219064	2686.935000
767.544978	2578.550192
767.870845	2603.755962
768.196665	2601.235385
768.522438	2618.879423
768.848165	2613.838269
769.173846	2603.755962
769.499479	2530.659231
769.825066	2581.070769
770.150607	2573.509038
770.476101	2661.729231
770.801548	2596.194231
771.126949	2596.194231
771.452303	2570.988462
771.777611	2616.358846
772.102872	2616.358846
772.428087	2618.879423
772.753256	2598.714808
773.078378	2565.947308
773.403453	2669.290962
773.728482	2618.879423
774.053465	2639.044038
774.378401	2598.714808
774.703291	2634.002885
775.028135	2623.920577
775.352932	2684.414423
775.677683	2568.467885
776.002388	2639.044038
776.327046	2646.605769
776.651658	2621.400000
776.976224	2636.523462
777.300743	2568.467885
777.625216	2628.961731
777.949643	2623.920577
778.274024	2591.153077
778.598359	2628.961731
778.922647	2628.961731
779.246889	2507.974038
779.571086	2560.906154
779.895236	2555.865000
780.219339	2578.550192
780.543397	2578.550192
780.867409	2618.879423
781.191374	2646.605769
781.515294	2548.303269
781.839167	2694.496731
782.162995	2654.167500
782.486776	2543.262115
782.810511	2553.344423
783.134201	2603.755962
783.457844	2510.494615
783.781441	2631.482308
784.104993	2596.194231
784.428498	2616.358846
784.751958	2530.659231
785.075372	2530.659231
785.398739	2621.400000
785.722061	2578.550192
786.045337	2553.344423
786.368568	2611.317692
786.691752	2601.235385
787.014891	2616.358846
787.337983	2608.797115
787.661030	2550.823846
787.984031	2596.194231
788.306987	2565.947308
788.629897	2659.208654
788.952760	2563.426731
789.275579	2681.893846
789.598351	2593.673654
789.921078	2598.714808
790.243759	2598.714808
790.566395	2586.111923
790.888984	2596.194231
791.211529	2570.988462
791.534027	2603.755962
791.856480	2598.714808
792.178888	2623.920577
792.501249	2613.838269
792.823566	2550.823846
793.145836	2626.441154
793.468062	2628.961731
793.790241	2570.988462
794.112375	2550.823846
794.434464	2601.235385
794.756507	2639.044038
795.078505	2578.550192
795.400457	2616.358846
795.722364	2611.317692
796.044226	2691.976154
796.366042	2583.591346
796.687812	2623.920577
797.009538	2634.002885
797.331218	2570.988462
797.652852	2560.906154
797.974442	2555.865000
798.295986	2631.482308
798.617484	2621.400000
798.938938	2586.111923
799.260346	2545.782692
799.581709	2649.126346
799.903026	2560.906154
800.224299	2570.988462
800.545526	2553.344423
800.866708	2608.797115
801.187845	2634.002885
801.508936	2641.564615
801.829983	2611.317692
802.150984	2651.646923
802.471940	2593.673654
802.792851	2601.235385
803.113717	2651.646923
803.434538	2631.482308
803.755314	2596.194231
804.076045	2596.194231
804.396731	2616.358846
804.717372	2616.358846
805.037967	2661.729231
805.358518	2608.797115
805.679024	2568.467885
805.999485	2548.303269
806.319901	2603.755962
806.640272	2601.235385
806.960598	2583.591346
807.280879	2573.509038
807.601115	2543.262115
807.921306	2611.317692
808.241453	2586.111923
808.561554	2676.852692
808.881611	2570.988462
809.201623	2646.605769
809.521590	2616.358846
809.841513	2639.044038
810.161390	2639.044038
810.481223	2596.194231
810.801011	2603.755962
811.120755	2573.509038
811.440453	2603.755962
811.760107	2528.138654
812.079716	2573.509038
812.399281	2555.865000
812.718801	2596.194231
813.038276	2631.482308
813.357707	2603.755962
813.677093	2621.400000
813.996434	2634.002885
814.315731	2679.373269
814.634983	2555.865000
814.954191	2535.700385
815.273354	2651.646923
815.592473	2641.564615
815.911547	2659.208654
816.230577	2548.303269
816.549562	2608.797115
816.868502	2581.070769
817.187399	2565.947308
817.506250	2608.797115
817.825058	2583.591346
818.143821	2603.755962
818.462539	2591.153077
818.781213	2664.249808
819.099843	2588.632500
819.418429	2601.235385
819.736970	2525.618077
820.055466	2616.358846
820.373919	2671.811538
820.692327	2644.085192
821.010691	2616.358846
821.329011	2644.085192
821.647286	2664.249808
821.965517	2671.811538
822.283704	2742.387692
822.601847	2775.155192
822.919945	2636.523462
823.237999	2722.223077
823.556010	2621.400000
823.873976	2641.564615
824.191897	2576.029615
824.509775	2598.714808
824.827609	2576.029615
825.145398	2641.564615
825.463144	2621.400000
825.780845	2639.044038
826.098502	2573.509038
826.416116	2669.290962
826.733685	2611.317692
827.051210	2576.029615
827.368692	2588.632500
827.686129	2591.153077
828.003522	2628.961731
828.320872	2656.688077
828.638177	2618.879423
828.955439	2623.920577
829.272656	2596.194231
829.589830	2598.714808
829.906960	2603.755962
830.224046	2548.303269
830.541088	2545.782692
830.858086	2634.002885
831.175041	2634.002885
831.491952	2570.988462
831.808819	2573.509038
832.125642	2553.344423
832.442421	2631.482308
832.759157	2565.947308
833.075849	2495.371154
833.392497	2681.893846
833.709101	2611.317692
834.025662	2661.729231
834.342179	2639.044038
834.658653	2669.290962
834.975083	2576.029615
835.291469	2545.782692
835.607811	2601.235385
835.924110	2634.002885
836.240366	2477.727115
836.556578	2618.879423
836.872746	2608.797115
837.188871	2636.523462
837.504952	2717.181923
837.820990	2639.044038
838.136984	2583.591346
838.452935	2684.414423
838.768842	2588.632500
839.084706	2548.303269
839.400526	2608.797115
839.716303	2661.729231
840.032037	2570.988462
840.347727	2608.797115
840.663373	2563.426731
840.978977	2553.344423
841.294537	2641.564615
841.610054	2651.646923
841.925527	2533.179808
842.240957	2586.111923
842.556344	2530.659231
842.871687	2641.564615
843.186987	2636.523462
843.502244	2611.317692
843.817458	2623.920577
844.132629	2626.441154
844.447756	2606.276538
844.762840	2679.373269
845.077881	2581.070769
845.392879	2570.988462
845.707833	2608.797115
846.022745	2603.755962
846.337613	2502.932885
846.652438	2591.153077
846.967221	2631.482308
847.281960	2618.879423
847.596656	2596.194231
847.911309	2535.700385
848.225919	2651.646923
848.540485	2616.358846
848.855009	2588.632500
849.169490	2623.920577
849.483928	2628.961731
849.798323	2606.276538
850.112675	2639.044038
850.426984	2669.290962
850.741251	2535.700385
851.055474	2639.044038
851.369654	2593.673654
851.683792	2644.085192
851.997887	2573.509038
852.311938	2654.167500
852.625947	2578.550192
852.939914	2586.111923
853.253837	2535.700385
853.567718	2601.235385
853.881555	2606.276538
854.195350	2613.838269
854.509103	2603.755962
854.822812	2573.509038
855.136479	2520.576923
855.450103	2689.455577
855.763685	2626.441154
856.077224	2555.865000
856.390720	2616.358846
856.704173	2586.111923
857.017584	2583.591346
857.330953	2598.714808
857.644278	2558.385577
857.957561	2588.632500
858.270802	2563.426731
858.584000	2641.564615
858.897155	2623.920577
859.210268	2669.290962
859.523339	2593.673654
859.836367	2611.317692
860.149352	2651.646923
860.462295	2560.906154
860.775195	2608.797115
861.088054	2550.823846
861.400869	2505.453462
861.713642	2621.400000
862.026373	2565.947308
862.339062	2613.838269
862.651708	2581.070769
862.964312	2533.179808
863.276873	2646.605769
863.589392	2628.961731
863.901869	2611.317692
864.214303	2515.535769
864.526696	2596.194231
864.839045	2613.838269
865.151353	2623.920577
865.463619	2681.893846
865.775842	2593.673654
866.088023	2583.591346
866.400162	2656.688077
866.712258	2545.782692
867.024313	2570.988462
867.336325	2596.194231
867.648296	2631.482308
867.960224	2628.961731
868.272110	2603.755962
868.583954	2611.317692
868.895755	2613.838269
869.207515	2500.412308
869.519233	2588.632500
869.830909	2611.317692
870.142542	2651.646923
870.454134	2631.482308
870.765684	2485.288846
871.077191	2628.961731
871.388657	2606.276538
871.700081	2576.029615
872.011463	2570.988462
872.322803	2623.920577
872.634101	2679.373269
872.945357	2618.879423
873.256571	2654.167500
873.567744	2691.976154
873.878874	2596.194231
874.189963	2659.208654
874.501010	2684.414423
874.812015	2560.906154
875.122979	2651.646923
875.433900	2649.126346
875.744780	2593.673654
876.055618	2666.770385
876.366415	2530.659231
876.677169	2586.111923
876.987882	2548.303269
877.298554	2631.482308
877.609183	2623.920577
877.919771	2570.988462
878.230317	2563.426731
878.540822	2588.632500
878.851285	2601.235385
879.161707	2581.070769
879.472087	2606.276538
879.782425	2591.153077
880.092722	2568.467885
880.402977	2530.659231
880.713191	2707.099615
881.023363	2634.002885
881.333494	2586.111923
881.643583	2603.755962
881.953631	2621.400000
882.263637	2623.920577
882.573602	2555.865000
882.883526	2664.249808
883.193408	2550.823846
883.503248	2591.153077
883.813048	2626.441154
884.122806	2618.879423
884.432522	2661.729231
884.742197	2641.564615
885.051831	2616.358846
885.361424	2563.426731
885.670975	2548.303269
885.980485	2636.523462
886.289954	2616.358846
886.599382	2548.303269
886.908768	2560.906154
887.218113	2492.850577
887.527417	2573.509038
887.836680	2583.591346
888.145901	2664.249808
888.455082	2560.906154
888.764221	2606.276538
889.073319	2530.659231
889.382376	2550.823846
889.691392	2586.111923
890.000366	2747.428846
890.309300	2583.591346
890.618193	2611.317692
890.927044	2540.741538
891.235855	2659.208654
891.544625	2543.262115
891.853353	2606.276538
892.162041	2565.947308
892.470687	2611.317692
892.779293	2618.879423
893.087858	2591.153077
893.396381	2608.797115
893.704864	2583.591346
894.013306	2641.564615
894.321707	2634.002885
894.630068	2576.029615
894.938387	2618.879423
895.246665	2576.029615
895.554903	2560.906154
895.863100	2525.618077
896.171256	2669.290962
896.479371	2507.974038
896.787446	2613.838269
897.095480	2525.618077
897.403473	2593.673654
897.711425	2603.755962
898.019336	2543.262115
898.327207	2586.111923
898.635038	2664.249808
898.942827	2596.194231
899.250576	2616.358846
899.558284	2626.441154
899.865952	2694.496731
900.173579	2621.400000
900.481165	2543.262115
900.788711	2649.126346
901.096216	2623.920577
901.403681	2651.646923
901.711105	2570.988462
902.018489	2581.070769
902.325832	2563.426731
902.633135	2616.358846
902.940397	2565.947308
903.247619	2591.153077
903.554800	2520.576923
903.861941	2565.947308
904.169041	2533.179808
904.476101	2558.385577
904.783121	2631.482308
905.090100	2621.400000
905.397039	2608.797115
905.703938	2621.400000
906.010796	2618.879423
906.317614	2631.482308
906.624391	2581.070769
906.931129	2613.838269
907.237826	2631.482308
907.544483	2553.344423
907.851099	2596.194231
908.157675	2576.029615
908.464211	2601.235385
908.770707	2636.523462
909.077163	2616.358846
909.383578	2593.673654
909.689954	2623.920577
909.996289	2626.441154
910.302584	2583.591346
910.608839	2558.385577
910.915054	2576.029615
911.221229	2591.153077
911.527363	2553.344423
911.833458	2616.358846
912.139513	2639.044038
912.445527	2689.455577
912.751502	2591.153077
913.057436	2510.494615
913.363331	2608.797115
913.669186	2553.344423
913.975000	2588.632500
914.280775	2555.865000
914.586510	2621.400000
914.892205	2654.167500
915.197859	2636.523462
915.503475	2669.290962
915.809050	2548.303269
916.114585	2636.523462
916.420081	2570.988462
916.725536	2568.467885
917.030952	2598.714808
917.336328	2603.755962
917.641665	2578.550192
917.946961	2596.194231
918.252218	2704.579038
918.557435	2578.550192
918.862612	2601.235385
919.167750	2563.426731
919.472848	2613.838269
919.777906	2601.235385
920.082925	2598.714808
920.387904	2576.029615
920.692843	2621.400000
920.997743	2656.688077
921.302603	2606.276538
921.607423	2603.755962
921.912204	2649.126346
922.216946	2611.317692
922.521647	2563.426731
922.826310	2538.220962
923.130932	2560.906154
923.435516	2628.961731
923.740059	2596.194231
924.044564	2646.605769
924.349028	2558.385577
924.653454	2626.441154
924.957840	2588.632500
925.262186	2649.126346
925.566493	2603.755962
925.870761	2558.385577
926.174989	2523.097500
926.479178	2588.632500
926.783328	2573.509038
927.087438	2520.576923
927.391509	2518.056346
927.695541	2565.947308
927.999533	2639.044038
928.303486	2535.700385
928.607400	2616.358846
928.911275	2623.920577
929.215110	2578.550192
929.518906	2608.797115
929.822663	2659.208654
930.126381	2694.496731
930.430060	2596.194231
930.733699	2583.591346
931.037299	2528.138654
931.340861	2639.044038
931.644383	2656.688077
931.947866	2528.138654
932.251309	2631.482308
932.554714	2659.208654
932.858080	2573.509038
933.161407	2623.920577
933.464694	2613.838269
933.767943	2545.782692
934.071153	2679.373269
934.374323	2621.400000
934.677455	2611.317692
934.980548	2636.523462
935.283602	2548.303269
935.586617	2543.262115
935.889593	2576.029615
936.192530	2505.453462
936.495428	2533.179808
936.798287	2553.344423
937.101108	2565.947308
937.403890	2593.673654
937.706632	2634.002885
938.009336	2515.535769
938.312002	2540.741538
938.614628	2528.138654
938.917216	2611.317692
939.219765	2535.700385
939.522275	2583.591346
939.824747	2606.276538
940.127179	2644.085192
940.429573	2601.235385
940.731929	2573.509038
941.034246	2565.947308
941.336524	2664.249808
941.638763	2676.852692
941.940964	2581.070769
942.243126	2475.206538
942.545250	2558.385577
942.847335	2576.029615
943.149381	2518.056346
943.451389	2570.988462
943.753359	2568.467885
944.055290	2558.385577
944.357182	2618.879423
944.659036	2608.797115
944.960851	2616.358846
945.262628	2502.932885
945.564367	2583.591346
945.866067	2553.344423
946.167729	2553.344423
946.469352	2603.755962
946.770937	2570.988462
947.072484	2586.111923
947.373992	2621.400000
947.675462	2530.659231
947.976893	2596.194231
948.278286	2651.646923
948.579641	2563.426731
948.880958	2591.153077
949.182236	2576.029615
949.483476	2533.179808
949.784678	2636.523462
950.085841	2631.482308
950.386967	2636.523462
950.688054	2608.797115
950.989103	2520.576923
951.290114	2528.138654
951.591087	2586.111923
951.892021	2563.426731
952.192917	2603.755962
952.493776	2591.153077
952.794596	2568.467885
953.095378	2588.632500
953.396122	2545.782692
953.696828	2611.317692
953.997496	2596.194231
954.298126	2558.385577
954.598718	2558.385577
954.899272	2608.797115
955.199788	2515.535769
955.500266	2502.932885
955.800706	2593.673654
956.101108	2628.961731
956.401472	2603.755962
956.701798	2613.838269
957.002087	2581.070769
957.302337	2606.276538
957.602550	2639.044038
957.902724	2485.288846
958.202861	2747.428846
958.502960	2525.618077
958.803022	2563.426731
959.103045	2543.262115
959.403031	2674.332115
959.702979	2553.344423
960.002889	2583.591346
960.302762	2661.729231
960.602596	2444.959615
960.902393	2576.029615
961.202153	2601.235385
961.501875	2616.358846
961.801559	2586.111923
962.101205	2603.755962
962.400814	2553.344423
962.700385	2626.441154
962.999918	2558.385577
963.299414	2608.797115
963.598873	2540.741538
963.898293	2591.153077
964.197677	2583.591346
964.497022	2593.673654
964.796331	2588.632500
965.095601	2565.947308
965.394835	2570.988462
965.694030	2550.823846
965.993189	2621.400000
966.292309	2628.961731
966.591393	2608.797115
966.890439	2616.358846
967.189447	2560.906154
967.488419	2540.741538
967.787353	2628.961731
968.086249	2608.797115
968.385108	2568.467885
968.683930	2596.194231
968.982714	2540.741538
969.281462	2608.797115
969.580172	2603.755962
969.878844	2593.673654
970.177480	2644.085192
970.476078	2591.153077
970.774639	2603.755962
971.073162	2626.441154
971.371649	2570.988462
971.670098	2641.564615
971.968510	2646.605769
972.266885	2601.235385
972.565223	2674.332115
972.863524	2601.235385
973.161788	2661.729231
973.460014	2543.262115
973.758204	2480.247692
974.056356	2621.400000
974.354471	2596.194231
974.652550	2631.482308
974.950591	2601.235385
975.248595	2626.441154
975.546563	2581.070769
975.844493	2649.126346
976.142386	2591.153077
976.440243	2555.865000
976.738062	2523.097500
977.035845	2576.029615
977.333590	2548.303269
977.631299	2661.729231
977.928971	2649.126346
978.226606	2555.865000
978.524204	2487.809423
978.821765	2608.797115
979.119290	2626.441154
979.416777	2613.838269
979.714228	2558.385577
980.011642	2618.879423
980.309020	2618.879423
980.606360	2558.385577
980.903664	2570.988462
981.200931	2568.467885
981.498162	2639.044038
981.795356	2518.056346
982.092513	2558.385577
982.389633	2581.070769
982.686717	2603.755962
982.983764	2593.673654
983.280775	2593.673654
983.577749	2613.838269
983.874686	2616.358846
984.171587	2565.947308
984.468451	2626.441154
984.765279	2576.029615
985.062070	2611.317692
985.358824	2628.961731
985.655543	2588.632500
985.952224	2634.002885
986.248869	2568.467885
986.545478	2576.029615
986.842050	2634.002885
987.138586	2568.467885
987.435086	2611.317692
987.731549	2538.220962
988.027975	2558.385577
988.324366	2510.494615
988.620719	2548.303269
988.917037	2621.400000
989.213318	2634.002885
989.509563	2533.179808
989.805772	2616.358846
990.101944	2598.714808
990.398080	2611.317692
990.694180	2641.564615
990.990244	2520.576923
991.286271	2497.891731
991.582262	2654.167500
991.878217	2636.523462
992.174136	2626.441154
992.470019	2656.688077
992.765865	2628.961731
993.061676	2596.194231
993.357450	2679.373269
993.653188	2578.550192
993.948890	2593.673654
994.244556	2543.262115
994.540186	2598.714808
994.835780	2588.632500
995.131337	2528.138654
995.426859	2550.823846
995.722345	2646.605769
996.017795	2613.838269
996.313208	2593.673654
996.608586	2543.262115
996.903928	2565.947308
997.199234	2563.426731
997.494504	2550.823846
997.789738	2581.070769
998.084936	2565.947308
998.380099	2623.920577
998.675225	2596.194231
998.970316	2591.153077
999.265371	2606.276538
999.560390	2538.220962
999.855373	2586.111923
1000.150320	2628.961731
1000.445232	2581.070769
1000.740108	2543.262115
1001.034948	2558.385577
1001.329752	2603.755962
1001.624521	2502.932885
1001.919254	2611.317692
1002.213951	2656.688077
1002.508613	2603.755962
1002.803239	2576.029615
1003.097829	2500.412308
1003.392384	2570.988462
1003.686903	2497.891731
1003.981386	2616.358846
1004.275834	2543.262115
1004.570246	2611.317692
1004.864623	2656.688077
1005.158964	2573.509038
1005.453270	2583.591346
1005.747540	2641.564615
1006.041775	2576.029615
1006.335974	2563.426731
1006.630138	2596.194231
1006.924266	2641.564615
1007.218359	2631.482308
1007.512416	2598.714808
1007.806438	2555.865000
1008.100425	2588.632500
1008.394376	2550.823846
1008.688292	2621.400000
1008.982172	2598.714808
1009.276017	2613.838269
1009.569827	2523.097500
1009.863602	2485.288846
1010.157341	2646.605769
1010.451045	2573.509038
1010.744714	2515.535769
1011.038347	2611.317692
1011.331945	2649.126346
1011.625508	2649.126346
1011.919036	2596.194231
1012.212528	2543.262115
1012.505986	2560.906154
1012.799408	2578.550192
1013.092795	2674.332115
1013.386147	2613.838269
1013.679464	2545.782692
1013.972745	2586.111923
1014.265992	2583.591346
1014.559204	2671.811538
1014.852380	2621.400000
1015.145521	2553.344423
1015.438628	2528.138654
1015.731699	2616.358846
1016.024736	2586.111923
1016.317737	2596.194231
1016.610703	2601.235385
1016.903635	2457.562500
1017.196531	2639.044038
1017.489393	2603.755962
1017.782219	2613.838269
1018.075011	2707.099615
1018.367768	2533.179808
1018.660490	2623.920577
1018.953177	2623.920577
1019.245829	2623.920577
