Dividing Wavelength (nm)	Counts (n)	Blue Motor Position (mm): 13.500000	Red Motor Position (mm): 0.000000	
326.493990	2101.694847
326.888308	2101.694847
327.282561	2101.694847
327.676750	2079.082752
328.070874	2082.288925
328.464933	2087.524164
328.858929	2096.532706
329.252859	2109.977463
329.646726	2127.258538
330.040528	2140.554582
330.434265	2158.611995
330.827938	2179.769717
331.221547	2197.355783
331.615091	2222.914433
332.008571	2240.402195
332.401986	2262.885741
332.795338	2281.220418
333.188625	2300.099539
333.581847	2319.659216
333.975006	2335.995075
334.368100	2354.856552
334.761129	2373.803729
335.154095	2389.403579
335.546996	2421.598908
335.939833	2478.992445
336.332606	2490.720689
336.725315	2501.246619
337.117960	2510.386231
337.510540	2516.445698
337.903056	2528.277286
338.295508	2531.591844
338.687896	2540.159285
339.080220	2547.539534
339.472480	2551.491799
339.864676	2555.711245
340.256807	2557.662171
340.648875	2558.125957
341.040879	2560.306257
341.432818	2563.633418
341.824694	2564.278686
342.216506	2561.531257
342.608253	2562.668037
342.999937	2565.700291
343.391557	2562.254662
343.783113	2557.521019
344.174605	2560.898592
344.566033	2556.807696
344.957397	2558.148643
345.348697	2552.868034
345.739934	2554.183775
346.131106	2548.651109
346.522215	2548.903167
346.913260	2544.918134
347.304241	2548.756973
347.695159	2544.391334
348.086012	2540.118956
348.476802	2538.735159
348.867528	2539.829090
349.258191	2537.898328
349.648789	2537.633667
350.039324	2533.363810
350.429796	2534.180477
350.820203	2532.282482
351.210548	2535.022349
351.600828	2530.553367
351.991045	2531.947246
352.381198	2532.262318
352.771288	2531.765764
353.161314	2532.854653
353.551276	2531.579241
353.941175	2531.228881
354.331010	2529.572862
354.720782	2532.121165
355.110490	2532.960518
355.500135	2529.575383
355.889717	2531.637215
356.279235	2533.820034
356.668689	2534.661907
357.058080	2532.761392
357.447408	2531.153264
357.836672	2528.297450
358.225873	2533.646114
358.615010	2531.901875
359.004084	2536.943029
359.393095	2534.906403
359.782043	2538.029398
360.170927	2537.401774
360.559748	2539.322454
360.948505	2538.435211
361.337199	2538.021836
361.725830	2540.897814
362.114398	2539.443441
362.502903	2540.602907
362.891344	2539.647608
363.279722	2541.510314
363.668037	2543.123484
364.056289	2540.592824
364.444478	2540.459234
364.832603	2540.159285
365.220665	2545.243289
365.608665	2541.296065
365.996601	2542.546272
366.384474	2543.073072
366.772284	2547.998279
367.160031	2546.238917
367.547715	2544.184647
367.935336	2543.423432
368.322893	2546.022147
368.710388	2545.167672
369.097820	2547.254709
369.485189	2545.573484
369.872495	2547.874771
370.259738	2545.855789
370.646918	2545.117260
371.034035	2546.392672
371.421090	2549.795451
371.808081	2545.596170
372.195010	2548.106664
372.581875	2551.048177
372.968678	2547.413506
373.355418	2551.196892
373.742096	2548.426778
374.128710	2551.070863
374.515262	2549.374514
374.901751	2551.305276
375.288177	2548.935934
375.674540	2550.312169
376.060841	2549.752601
376.447079	2550.498692
376.833254	2551.096068
377.219367	2547.557178
377.605417	2552.487427
377.991404	2549.422405
378.377329	2547.935265
378.763191	2546.586756
379.148991	2554.133364
379.534727	2553.344423
379.920402	2552.626059
380.306013	2551.857283
380.691563	2554.493806
381.077049	2552.978939
381.462474	2550.660009
381.847835	2553.813250
382.233134	2555.517160
382.618371	2555.257541
383.003545	2556.946327
383.388657	2555.159238
383.773706	2553.190668
384.158693	2557.967161
384.543618	2556.525391
384.928480	2552.608415
385.313280	2559.461863
385.698017	2556.517829
386.082692	2558.932542
386.467305	2556.525391
386.851856	2555.819630
387.236344	2558.488921
387.620770	2559.512275
388.005133	2556.842984
388.389435	2555.940617
388.773674	2559.376164
389.157851	2559.645865
389.541965	2559.252655
389.926018	2558.614949
390.310008	2556.454815
390.693936	2558.932542
391.077802	2560.966648
391.461606	2562.557132
391.845348	2559.781977
392.229027	2561.939590
392.612645	2559.829867
392.996200	2559.787018
393.379694	2563.242729
393.763125	2562.713408
394.146494	2562.380691
394.529801	2563.177194
394.913047	2562.345403
395.296230	2564.603840
395.679351	2565.221382
396.062410	2562.300033
396.445408	2564.424879
396.828343	2563.807338
397.211217	2559.943293
397.594028	2564.969324
397.976778	2558.945145
398.359466	2563.411607
398.742092	2560.109652
399.124656	2563.172153
399.507158	2561.604354
399.889598	2564.639128
400.271977	2565.385219
400.654294	2566.456464
401.036549	2567.207596
401.418742	2566.406053
401.800874	2565.672565
402.182944	2567.424366
402.564952	2567.154664
402.946898	2568.442679
403.328783	2567.933522
403.710606	2569.587021
404.092367	2565.985116
404.474067	2569.768502
404.855705	2568.747669
405.237282	2569.856723
405.618797	2569.342525
406.000250	2566.113666
406.381642	2565.798594
406.762972	2569.158523
407.144240	2569.047617
407.525447	2567.996537
407.906593	2568.853533
408.287677	2568.556105
408.668700	2571.346383
409.049661	2569.498801
409.430560	2569.942422
409.811399	2571.323698
410.192176	2569.503842
410.572891	2569.350087
410.953545	2572.074830
411.334138	2568.934191
411.714669	2572.399985
412.095139	2571.792526
412.475547	2571.096846
412.855894	2573.181363
413.236180	2569.463512
413.616405	2574.471899
413.996568	2569.967628
414.376670	2574.454255
414.756711	2571.144737
415.136691	2573.521641
415.516609	2572.757907
415.896466	2573.715726
416.276262	2576.289235
416.655997	2569.241702
417.035670	2568.263718
417.415283	2574.098853
417.794834	2570.922927
418.174324	2573.607341
418.553753	2575.787640
418.933121	2573.879563
419.312428	2573.962742
419.691674	2576.846282
420.070859	2574.915520
420.449983	2572.480643
420.829045	2576.080027
421.208047	2576.180850
421.586988	2575.127249
421.965867	2579.107240
422.344686	2578.154462
422.723444	2576.574060
423.102141	2575.959039
423.480777	2578.842579
423.859352	2575.926272
424.237866	2575.132290
424.616319	2577.950295
424.994712	2576.929461
425.373044	2575.381827
425.751314	2576.596745
426.129524	2574.595407
426.507673	2577.486509
426.885762	2579.094637
427.263789	2577.277301
427.641756	2579.762590
428.019662	2578.202353
428.397508	2577.988104
428.775292	2579.271077
429.153016	2579.749987
429.530679	2578.892991
429.908282	2578.908114
430.285824	2577.110943
430.663305	2577.680593
431.040726	2578.666139
431.418086	2578.386355
431.795385	2578.018351
432.172624	2578.441807
432.549802	2580.738053
432.926920	2580.299473
433.303977	2578.101530
433.680974	2579.510532
434.057910	2581.214442
434.434786	2578.898032
434.811601	2579.984401
435.188355	2578.653536
435.565050	2577.189081
435.941683	2577.887281
436.318257	2577.768813
436.694770	2575.429718
437.071222	2578.557754
437.447614	2578.202353
437.823946	2578.633371
438.200218	2579.568505
438.576429	2582.530183
438.952580	2580.140676
439.328670	2581.363156
439.704700	2582.205029
440.080670	2578.913155
440.456580	2581.169072
440.832429	2581.839545
441.208218	2580.463310
441.583947	2581.814339
441.959616	2582.610842
442.335224	2581.894998
442.710773	2583.147725
443.086261	2582.199988
443.461689	2581.111098
443.837057	2579.623958
444.212365	2586.555545
444.587612	2581.516911
444.962800	2583.666963
445.337927	2581.781572
445.712995	2582.169741
446.088002	2587.132757
446.462949	2583.089751
446.837837	2584.597056
447.212664	2586.288363
447.587431	2587.236100
447.962139	2589.058477
448.336786	2586.275761
448.711374	2587.929259
449.085901	2590.424630
449.460369	2587.909094
449.834776	2585.990935
450.209124	2586.394228
450.583412	2588.940010
450.957640	2588.851790
451.331808	2583.931624
451.705917	2588.327510
452.079965	2587.286512
452.453954	2588.098138
452.827883	2589.043354
453.201752	2587.291553
453.575562	2589.111410
453.949311	2590.943869
454.323001	2586.794999
454.696632	2589.865062
455.070202	2591.871441
455.443713	2589.063519
455.817164	2585.559917
456.190556	2589.116451
456.563888	2589.204671
456.937160	2589.013107
457.310373	2591.616863
457.683526	2591.868921
458.056619	2591.831112
458.429653	2593.857656
458.802628	2591.594178
459.175542	2592.985536
459.548398	2595.954776
459.921194	2594.633994
460.293930	2596.564756
460.666607	2597.129365
461.039224	2601.603389
461.411782	2600.721187
461.784280	2597.903182
462.156719	2595.886720
462.529099	2596.282451
462.901419	2600.345621
463.273680	2599.808738
463.645882	2599.546598
464.018024	2599.380240
464.390106	2599.982658
464.762130	2604.189501
465.134094	2605.732094
465.505999	2608.938268
465.877845	2612.328444
466.249631	2614.362549
466.621358	2610.735439
466.993026	2611.698299
467.364634	2614.538990
467.736184	2608.852568
468.107674	2606.785695
468.479105	2606.740325
468.850477	2603.433328
469.221790	2605.336363
469.593043	2602.104984
469.964238	2605.326281
470.335373	2604.859974
470.706449	2606.778133
471.077467	2608.431632
471.448425	2613.001438
471.819324	2615.781634
472.190164	2616.094186
472.560945	2613.271139
472.931667	2605.354007
473.302330	2609.175202
473.672934	2609.177723
474.043479	2608.487084
474.413965	2607.819132
474.784393	2606.954574
475.154761	2608.469440
475.525070	2605.908534
475.895321	2606.153030
476.265513	2607.241919
476.635645	2612.149483
477.005719	2610.218721
477.375734	2611.834411
477.745691	2612.666201
478.115588	2614.062601
478.485427	2615.040584
478.855207	2619.413785
479.224928	2621.531070
479.594591	2626.289919
479.964194	2624.243211
480.333739	2623.930659
480.703226	2622.355299
481.072653	2627.139354
481.442022	2628.505506
481.811333	2630.353089
482.180584	2627.104066
482.549777	2629.112965
482.918912	2627.540125
483.287988	2631.535240
483.657005	2628.870990
484.025964	2630.353089
484.394864	2629.947276
484.763706	2630.968110
485.132489	2631.217647
485.501213	2630.700929
485.869879	2633.556742
486.238487	2631.348717
486.607036	2636.236116
486.975527	2637.962711
487.343959	2637.982876
487.712333	2637.529172
488.080648	2639.245685
488.448905	2645.511839
488.817104	2645.554689
489.185244	2646.275574
489.553326	2651.004176
489.921350	2659.034734
490.289315	2665.913388
490.657222	2669.001095
491.025070	2672.824810
491.392861	2672.411436
491.760593	2672.088802
492.128267	2673.853206
492.495883	2672.245078
492.863440	2669.134686
493.230939	2671.708195
493.598380	2669.243071
493.965763	2670.604182
494.333088	2670.203410
494.700354	2672.048473
495.067563	2675.456293
495.434713	2676.298165
495.801805	2682.017354
496.168839	2683.116326
496.535815	2684.769824
496.902733	2684.948785
497.269593	2690.234435
497.636395	2691.131761
498.003139	2694.617718
498.369825	2693.874148
498.736453	2699.638708
499.103023	2698.537216
499.469535	2702.179449
499.835989	2706.305634
500.202385	2709.655480
500.568723	2710.003320
500.935003	2716.158569
501.301226	2716.816439
501.667390	2720.163766
502.033497	2721.852552
502.399546	2725.850187
502.765537	2728.849674
503.131470	2733.185066
503.497345	2734.563822
503.863163	2734.647001
504.228923	2738.422825
504.594625	2741.724781
504.960269	2741.578587
505.325856	2750.599732
505.691385	2749.788106
506.056856	2753.135432
506.422270	2758.176586
506.787625	2758.516864
507.152924	2762.711104
507.518164	2766.048348
507.883347	2765.065323
508.248472	2769.924995
508.613540	2774.741818
508.978550	2781.615431
509.343503	2782.064094
509.708398	2787.730351
510.073236	2790.770166
510.438016	2794.977009
510.802738	2796.615384
511.167403	2801.258287
511.532010	2809.195584
511.896561	2810.372693
512.261053	2820.036585
512.625488	2816.449804
512.989866	2819.068683
513.354186	2819.524908
513.718449	2824.324086
514.082655	2831.119562
514.446803	2830.466732
514.810894	2843.873681
515.174927	2842.895697
515.538904	2844.559278
515.902822	2854.558407
516.266684	2851.785772
516.630488	2858.084694
516.994235	2858.606453
517.357925	2863.879500
517.721558	2871.267311
518.085133	2875.247302
518.448651	2879.333157
518.812112	2880.835421
519.175516	2883.638303
519.538863	2888.629045
519.902152	2890.930332
520.265385	2898.895355
520.628560	2901.284862
520.991678	2901.063051
521.354739	2904.972466
521.717743	2910.495050
522.080690	2915.150555
522.443580	2921.663726
522.806413	2925.003490
523.169189	2927.962648
523.531908	2932.885334
523.894569	2931.292330
524.257174	2938.793567
524.619722	2943.025615
524.982213	2948.812860
525.344647	2949.523663
525.707025	2954.408541
526.069345	2961.617391
526.431608	2964.216106
526.793815	2968.165850
527.155964	2967.109728
527.518057	2973.156592
527.880093	2976.435863
528.242072	2980.962819
528.603995	2982.817963
528.965860	2984.695793
529.327669	2991.897081
529.689421	2994.596619
530.051117	2998.894203
530.412755	3001.810510
530.774337	3008.192611
531.135862	3009.026922
531.497331	3011.580267
531.858743	3015.519928
532.220098	3023.994108
532.581396	3025.496372
532.942638	3026.650796
533.303824	3039.193187
533.664953	3043.944474
534.026025	3045.648384
534.387040	3056.685991
534.747999	3060.892833
535.108902	3070.181159
535.469748	3072.116963
535.830537	3074.768609
536.191270	3085.826380
536.551947	3088.374684
536.912567	3100.428082
537.273131	3111.843775
537.633638	3111.861419
537.994089	3123.763584
538.354483	3129.631487
538.714821	3146.421050
539.075103	3160.465704
539.435328	3163.782783
539.795497	3173.383661
540.155609	3181.386493
540.515665	3197.566076
540.875665	3205.372303
541.235609	3218.086093
541.595496	3232.718042
541.955328	3252.827204
542.315102	3256.766866
542.674821	3267.822117
543.034483	3282.227214
543.394090	3292.942186
543.753640	3308.854588
544.113134	3339.247705
544.472571	3337.737879
544.831953	3376.141389
545.191278	3379.917213
545.550548	3391.073287
545.909761	3421.133687
546.268918	3442.576235
546.628019	3469.138075
546.987064	3479.109477
547.346053	3487.165241
547.704986	3525.120088
548.063863	3538.920247
548.422684	3562.238104
548.781449	3580.940785
549.140158	3616.463275
549.498811	3638.014208
549.857408	3645.417142
550.215949	3692.998073
550.574434	3717.107391
550.932864	3740.359713
551.291237	3786.093061
551.649555	3804.747851
552.007817	3844.373841
552.366022	3870.038355
552.724173	3905.046648
553.082267	3947.614151
553.440305	3988.868433
553.798288	4006.078933
554.156215	4051.240109
554.514086	4094.321810
554.871902	4128.223570
555.229661	4164.668592
555.587365	4199.860887
555.945014	4242.617433
556.302606	4283.700316
556.660143	4339.904140
557.017625	4383.958784
557.375050	4421.467489
557.732421	4482.175584
558.089735	4531.891443
558.446994	4573.796035
558.804197	4644.730111
559.161345	4695.870096
559.518437	4712.994895
559.875474	4778.948311
560.232455	4841.352755
560.589381	4900.016662
560.946251	4941.659113
561.303065	5035.235532
561.659825	5087.172019
562.016528	5125.658708
562.373177	5169.887271
562.729770	5262.069811
563.086307	5299.424761
563.442789	5389.626126
563.799216	5459.367969
564.155587	5515.470970
564.511904	5587.161219
564.868164	5662.221479
565.224370	5751.051651
565.580520	5807.086597
565.936615	5899.808540
566.292654	5954.842816
566.648638	6051.902672
567.004567	6133.788654
567.360441	6220.383074
567.716260	6294.583818
568.072023	6400.218676
568.427732	6485.061295
568.783385	6537.995931
569.138982	6663.744993
569.494525	6753.127172
569.850013	6821.535629
570.205445	6917.982985
570.560823	7005.378948
570.916145	7090.980261
571.271412	7191.503390
571.626625	7265.147086
571.981782	7372.624486
572.336884	7449.189530
572.691931	7585.320849
573.046923	7649.434243
573.401860	7730.594300
573.756743	7833.285124
574.111570	7954.832384
574.466342	8045.890746
574.821059	8170.273656
575.175722	8217.965492
575.530330	8330.310126
575.884882	8407.142352
576.239380	8511.269905
576.593823	8622.959189
576.948211	8728.893996
577.302544	8775.743959
577.656823	8900.051251
578.011047	9053.778717
578.365216	9136.463722
578.719330	9232.817817
579.073389	9327.528494
579.427394	9460.887178
579.781344	9581.917720
580.135239	9656.529318
580.489080	9801.323859
580.842866	9842.227782
581.196597	10060.537469
581.550273	10181.714205
581.903895	10300.604777
582.257463	10519.791626
582.610975	10537.818792
582.964434	10732.470345
583.317837	10811.739969
583.671186	10916.417008
584.024481	11103.675708
584.377721	11139.367078
584.730906	11338.018786
585.084037	11495.232210
585.437113	11567.224928
585.790135	11723.130172
586.143103	11780.087649
586.496016	11948.336159
586.848874	12101.874582
587.201679	12259.269487
587.554428	12299.754993
587.907124	12497.050632
588.259765	12599.519645
588.612352	12820.874190
588.964884	12828.158657
589.317362	13059.729100
589.669786	13197.019884
590.022155	13293.295840
590.374470	13557.147312
590.726731	13591.343979
591.078937	13606.124642
591.431090	13784.896561
591.783188	13833.082430
592.135232	13900.661617
592.487222	14118.769659
592.839157	14304.374862
593.191038	14365.942473
593.542866	14444.460965
593.894639	14413.041974
594.246358	14655.970137
594.598022	14808.144927
594.949633	14834.326160
595.301190	14976.784126
595.652692	15081.806484
596.004141	15330.353013
596.355535	15153.698379
596.706876	15294.391942
597.058162	15381.188008
597.409395	15705.145157
597.760573	15894.863941
598.111698	15900.825106
598.462768	16056.392593
598.813785	16227.943058
599.164748	16194.434508
599.515657	16480.046121
599.866511	16444.311902
600.217312	16838.348651
600.568060	16603.413238
600.918753	17052.355714
601.269392	17194.042384
601.619978	17210.479066
601.970510	17463.696224
602.320988	17700.373356
602.671412	17999.349067
603.021783	18050.915030
603.372100	18079.541222
603.722363	18278.177807
604.072572	18469.673597
604.422728	18637.826325
604.772830	18707.500112
605.122878	18917.247400
605.472872	19041.945382
605.822813	19325.268310
606.172701	19394.185925
606.522534	19685.972950
606.872314	19961.751792
607.222041	20007.467496
607.571714	20355.964982
607.921333	20247.605380
608.270899	20545.650998
608.620411	20885.888553
608.969870	20932.735996
609.319276	21089.803227
609.668627	21279.464037
610.017926	21695.641534
610.367171	21933.974685
610.716362	22130.347792
611.065500	22256.328747
611.414585	22527.220190
611.763616	22843.061082
612.112594	22964.867961
612.461518	23248.347166
612.810389	23572.969747
613.159207	23667.158665
613.507971	23865.664180
613.856682	24290.457009
614.205340	24391.612802
614.553945	24944.050167
614.902496	24778.808706
615.250994	25213.983791
615.599439	25425.745020
615.947830	25688.399218
616.296169	25897.660034
616.644454	26119.642203
616.992686	26378.175257
617.340864	26853.094799
617.688990	26839.967635
618.037063	27370.939767
618.385082	27500.772163
618.733048	27848.417694
619.080961	27995.858841
619.428821	28167.386622
619.776628	28373.670637
620.124382	28421.571681
620.472083	28657.931220
620.819731	28879.981444
621.167326	28817.622371
621.514868	28950.066085
621.862357	28811.283120
622.209793	28966.543097
622.557176	28893.695903
622.904506	28850.581435
623.251783	28759.578526
623.599007	28756.586601
623.946179	28757.055428
624.293297	28856.948412
624.640363	28582.777698
624.987376	28720.991013
625.334336	28690.401292
625.681243	28564.044771
626.028097	28668.361367
626.374899	28701.827067
626.721647	28810.756319
627.068343	28864.182468
627.414987	28821.118411
627.761577	28789.921231
628.108115	29141.498862
628.454600	28858.465799
628.801032	29125.677200
629.147412	29209.090652
629.493739	29325.201028
629.840014	29181.495376
630.186236	29546.963907
630.532405	29348.531488
630.878521	29620.756317
631.224585	29649.405194
631.570597	29539.243379
631.916556	29757.416956
632.262462	29815.864094
632.608316	29920.926781
632.954117	29958.768202
633.299866	30048.609126
633.645562	30094.806260
633.991206	29828.827421
634.336797	29600.281670
634.682336	29695.751042
635.027823	29612.067888
635.373257	29570.586753
635.718639	29497.442132
636.063968	29488.816717
636.409245	29149.030345
636.754470	29277.559604
637.099642	29182.886735
637.444762	28899.042047
637.789829	29099.238869
638.134845	28915.085519
638.479808	28968.400762
638.824719	28992.492436
639.169577	28765.524567
639.514383	28889.083247
639.859137	28736.290915
640.203839	29009.196299
640.548489	28801.692325
640.893086	28942.035527
641.237632	28824.203597
641.582125	28988.908176
641.926566	29013.083029
642.270955	29065.304342
642.615292	29149.111004
642.959576	29206.612925
643.303809	29275.296126
643.647990	29470.242586
643.992118	29522.136224
644.336195	29580.565717
644.680219	29717.710308
645.024192	30048.440247
645.368112	30540.852593
645.711981	30611.685846
646.055797	31391.635525
646.399562	31380.860058
646.743274	32230.788515
647.086935	32654.462207
647.430544	32611.254478
647.774101	32768.722480
648.117606	33041.826989
648.461059	33352.142776
648.804460	33083.229986
649.147810	32633.901861
649.491108	32488.373832
649.834354	32237.838568
650.177548	31609.627620
650.520690	31301.628243
650.863781	31383.741078
651.206820	31309.053863
651.549807	30983.170993
651.892742	30643.235907
652.235626	30535.677849
652.578458	30482.957462
652.921238	30016.247439
653.263967	30365.796005
653.606644	30129.015530
653.949269	30133.915531
654.291843	29816.146398
654.634365	30217.036596
654.976836	29927.056824
655.319255	29974.592384
655.661622	30017.149805
656.003938	29879.281809
656.346203	29813.903085
656.688416	30037.180830
657.030577	29918.413766
657.372687	29808.337651
657.714746	30098.372876
658.056753	30260.440931
658.398708	29808.977878
658.740612	29906.166283
659.082465	30199.795850
659.424266	30073.335985
659.766016	30243.391749
660.107715	30146.125206
660.449362	30313.274744
660.790958	30318.502420
661.132503	30374.376049
661.473996	30442.955906
661.815438	30581.189386
662.156829	30795.473712
662.498168	30618.466198
662.839456	30696.208352
663.180693	30847.813492
663.521879	31037.693593
663.863013	31048.453936
664.204097	31063.007747
664.545129	31506.205828
664.886110	31514.828722
665.227040	31615.694649
665.567918	31756.486514
665.908746	31843.280060
666.249522	32019.773376
666.590248	32028.043389
666.930922	32176.223065
667.271545	32174.420853
667.612118	32260.070057
667.952639	32081.988777
668.293109	32191.863245
668.633528	32111.361059
668.973896	32074.076686
669.314213	32147.808602
669.654480	31940.720522
669.994695	31990.529643
670.334859	31919.139343
670.674973	31851.217356
671.015035	32029.696888
671.355047	32001.612620
671.695008	31976.469865
672.034918	31902.102763
672.374777	32013.618127
672.714585	31887.047357
673.054342	32118.186782
673.394049	31909.873702
673.733705	32202.603423
674.073310	31900.597979
674.412864	31983.998828
674.752368	31651.801913
675.091820	31956.673254
675.431223	31590.486359
675.770574	31346.539883
676.109875	31235.599210
676.449125	31012.268533
676.788324	30940.273295
677.127473	30456.970314
677.466571	30431.595666
677.805619	30116.158067
678.144616	30136.327723
678.483562	30085.366699
678.822458	29801.350612
679.161303	29750.102242
679.500098	29703.766476
679.838842	29601.012637
680.177535	29774.927404
680.516179	30064.892053
680.854771	30330.391982
681.193314	31168.592193
681.531805	32256.087545
681.870247	32994.835874
682.208638	33670.496683
682.546978	33882.535175
682.885268	33965.459635
683.223508	33488.042202
683.561697	33185.036088
683.899836	33006.891793
684.237925	32535.198590
684.575963	32412.660742
684.913951	31986.511843
685.251889	32138.149751
685.589776	32151.990239
685.927614	32159.761177
686.265401	32314.791782
686.603137	32405.729156
686.940824	32894.844587
687.278460	33282.284987
687.616046	33397.646751
687.953582	33965.699090
688.291068	33821.277594
688.628504	34104.033393
688.965889	34041.104669
689.303224	33670.554656
689.640510	33366.837740
689.977745	32650.570437
690.314930	31906.717940
690.652065	31424.607192
690.989150	30747.378584
691.326185	29881.719207
691.663170	29230.006400
692.000105	28534.468321
692.336990	27891.196926
692.673825	27451.565461
693.010610	26986.876940
693.347345	26439.843692
693.684030	25821.354609
694.020665	25555.486676
694.357251	24919.681229
694.693786	24889.567897
695.030272	24678.787172
695.366707	24155.472553
695.703093	23878.713207
696.039429	23888.984558
696.375716	23642.325942
696.711952	23622.486481
697.048139	23455.210914
697.384276	23290.924751
697.720363	23424.510287
698.056400	23234.526842
698.392388	23023.206714
698.728326	23002.232994
699.064214	22807.823416
699.400053	22749.169591
699.735842	22408.122931
700.071581	22143.996716
700.407270	21869.510930
700.742910	21688.157941
701.078501	21448.130963
701.414042	21172.105104
701.749533	20892.227804
702.084974	20558.077442
702.420366	20754.352247
702.755709	20342.008547
703.091002	20047.642971
703.426246	20076.032229
703.761440	19994.216823
704.096584	19732.160002
704.431679	19693.915288
704.766725	19615.454770
705.101721	19551.232990
705.436668	19648.534821
705.771565	19348.601291
706.106413	19687.162663
706.441212	19693.701039
706.775961	19822.512602
707.110661	19902.092257
707.445311	20247.262581
707.779913	20085.819629
708.114465	20331.132258
708.448967	20616.267481
708.783421	21293.186058
709.117825	21575.510838
709.452180	21781.275614
709.786485	22188.162265
710.120742	22954.387403
710.454949	22963.935348
710.789107	23423.779319
711.123216	24115.662561
711.457275	24216.021852
711.791286	24725.616971
712.125247	24795.404184
712.459159	24483.714683
712.793023	25131.160154
713.126837	24043.707652
713.460602	24302.545696
713.794318	23937.886271
714.127985	23562.249733
714.461602	22690.132638
714.795171	22647.945743
715.128691	21653.557982
715.462162	21135.937346
715.795584	20732.347610
716.128957	20484.753860
716.462281	20094.755075
716.795556	19866.882318
717.128782	19374.964005
717.461960	18840.218570
717.795088	18763.643443
718.128167	18378.695894
718.461198	17911.874965
718.794180	17781.641797
719.127113	17425.322961
719.459997	17230.928507
719.792833	16883.260291
720.125619	16864.245058
720.458357	16558.557051
720.791046	16388.967594
721.123686	16227.194447
721.456278	16000.619787
721.788821	15963.781555
722.121315	15702.876638
722.453761	15782.572239
722.786158	15709.941815
723.118506	15718.610079
723.450805	15586.882209
723.783056	15741.781743
724.115259	15644.626105
724.447412	15574.695219
724.779518	15820.743856
725.111574	15839.721280
725.443582	16046.562343
725.775542	16037.720159
726.107453	16494.100858
726.439315	16379.041562
726.771129	16768.276613
727.102895	17137.112634
727.434612	17332.200246
727.766281	17449.341538
728.097901	17697.734312
728.429473	17730.519456
728.760996	17716.835244
729.092471	17802.607956
729.423897	17680.075150
729.755276	17562.535607
730.086606	17679.021549
730.417887	18216.612715
730.749120	18720.781032
731.080305	18884.989057
731.411442	19210.496361
731.742530	19274.244272
732.073570	19375.526094
732.404562	19652.915584
732.735506	19447.491085
733.066401	19152.301281
733.397249	18619.171535
733.728048	17989.997727
734.058798	17174.079415
734.389501	16507.422107
734.720156	16054.519804
735.050762	15544.135745
735.381320	15210.063520
735.711831	14975.511235
736.042293	14626.474345
736.372707	14647.558971
736.703073	14453.519919
737.033391	14624.644407
737.363661	14602.037352
737.693883	14695.238204
738.024056	14865.450243
738.354182	15046.309199
738.684260	15323.287836
739.014290	15546.172371
739.344272	15727.187603
739.674207	15998.946124
740.004093	16095.796772
740.333931	16091.738643
740.663722	16121.393230
740.993464	16102.246928
741.323159	15932.327276
741.652806	15653.019627
741.982405	15437.331339
742.311956	15112.035763
742.641460	15000.293547
742.970915	14692.851218
743.300323	14364.228481
743.629683	14163.083922
743.958996	13881.996745
744.288260	13615.894398
744.617477	13334.033405
744.946647	13259.293258
745.275768	12982.957368
745.604842	12811.905977
745.933869	12637.393834
746.262847	12595.741300
746.591778	12517.174918
746.920662	12417.861666
747.249498	12418.390987
747.578286	12542.017724
747.907027	12686.383767
748.235720	12897.623237
748.564365	12927.408894
748.892963	12824.135817
749.221514	12879.182696
749.550017	12729.891445
749.878473	12693.819469
750.206881	12472.588433
750.535242	12379.387580
750.863555	12292.949436
751.191821	12194.036956
751.520039	12216.359185
751.848210	12128.847275
752.176334	12166.139211
752.504411	12062.271277
752.832440	11902.043243
753.160421	11964.767800
753.488356	11847.014008
753.816243	11758.778692
754.144082	11613.311157
754.471875	11560.406767
754.799620	11504.301246
755.127318	11474.679426
755.454969	11435.953282
755.782572	11393.693289
756.110129	11401.570092
756.437638	11316.392236
756.765100	11317.455920
757.092515	11317.866774
757.419882	11331.117447
757.747203	11332.208856
758.074477	11412.030486
758.401703	11361.341684
758.728882	11520.672393
759.056014	11566.894733
759.383099	11677.893378
759.710138	11771.285795
760.037129	11857.229906
760.364073	11867.418078
760.690970	11855.689833
761.017820	11860.962880
761.344623	12055.397664
761.671379	12384.504351
761.998088	13056.971589
762.324751	14679.905535
762.651366	17584.797342
762.977935	21146.768265
763.304456	23186.618237
763.630931	23518.726932
763.957359	22284.924692
764.283740	20406.177395
764.610074	18551.153767
764.936362	16462.933924
765.262602	14995.043185
765.588796	13558.936922
765.914943	12563.593862
766.241044	11738.598953
766.567097	11123.852927
766.893104	10594.219221
767.219064	10247.082847
767.544978	9875.864881
767.870845	9568.019259
768.196665	9382.698882
768.522438	9196.834060
768.848165	9037.641984
769.173846	8874.422025
769.499479	8748.859486
769.825066	8598.928008
770.150607	8417.259947
770.476101	8354.918518
770.801548	8245.122187
771.126949	8104.279911
771.452303	8018.991149
771.777611	7860.388888
772.102872	7843.196032
772.428087	7719.700366
772.753256	7601.134948
773.078378	7513.252513
773.403453	7366.577622
773.728482	7265.502487
774.053465	7203.912190
774.378401	7122.374047
774.703291	7025.750251
775.028135	6934.477640
775.352932	6891.985754
775.677683	6811.690256
776.002388	6725.501649
776.327046	6729.428708
776.651658	6635.184336
776.976224	6565.671866
777.300743	6551.357510
777.625216	6488.267469
777.949643	6446.408248
778.274024	6448.638959
778.598359	6380.658999
778.922647	6385.798456
779.246889	6344.541652
779.571086	6356.292582
779.895236	6365.190219
780.219339	6359.375248
780.543397	6358.961873
780.867409	6409.738895
781.191374	6404.382669
781.515294	6369.109716
781.839167	6417.928250
782.162995	6388.432458
782.486776	6339.384552
782.810511	6300.119005
783.134201	6226.117387
783.457844	6209.622732
783.781441	6167.483727
784.104993	6120.192662
784.428498	6100.988387
784.751958	6078.787145
785.075372	6055.282765
785.398739	6013.743658
785.722061	6040.688625
786.045337	6042.175765
786.368568	6152.856819
786.691752	6179.398494
787.014891	6436.212515
787.337983	6717.249280
787.661030	7150.380177
787.984031	7558.610295
788.306987	7802.733211
788.629897	7873.848768
788.952760	7775.402596
789.275579	7599.035308
789.598351	7305.425905
789.921078	7049.047944
790.243759	6770.667867
790.566395	6573.581436
790.888984	6384.921295
791.211529	6250.617395
791.534027	6093.456903
791.856480	5957.350790
792.178888	5904.184261
792.501249	5835.617007
792.823566	5734.133539
793.145836	5733.662191
793.468062	5715.824068
793.790241	5679.996588
794.112375	5716.986054
794.434464	5812.808307
794.756507	5847.834243
795.078505	5970.399817
795.400457	6186.113311
795.722364	6417.492190
796.044226	6600.702844
796.366042	6750.614157
796.687812	6696.202463
797.009538	6722.429065
797.331218	6627.020188
797.652852	6562.558953
797.974442	6436.172185
798.295986	6370.168358
798.617484	6241.810499
798.938938	6138.487010
799.260346	6074.171969
799.581709	5936.351864
799.903026	5886.056272
800.224299	5813.791332
800.545526	5703.677408
800.866708	5638.273478
801.187845	5585.951342
801.508936	5514.727400
801.829983	5487.742104
802.150984	5380.277307
802.471940	5357.645046
802.792851	5341.341955
803.113717	5319.947298
803.434538	5291.167351
803.755314	5261.467393
804.076045	5250.268469
804.396731	5219.328388
804.717372	5235.003856
805.037967	5237.365636
805.358518	5265.006283
805.679024	5316.728521
805.999485	5325.303524
806.319901	5343.023180
806.640272	5357.501373
806.960598	5404.852932
807.280879	5396.469493
807.601115	5431.490388
807.921306	5393.742228
808.241453	5388.817021
808.561554	5396.300614
808.881611	5362.731571
809.201623	5362.527404
809.521590	5315.760620
809.841513	5301.771418
810.161390	5315.637111
810.481223	5226.184357
810.801011	5215.282862
811.120755	5193.976425
811.440453	5135.995594
811.760107	5107.608857
812.079716	5086.098253
812.399281	5034.907857
812.718801	5030.030540
813.038276	4997.023585
813.357707	4960.772648
813.677093	4984.390454
813.996434	4922.469961
814.315731	4940.890337
814.634983	4947.247232
814.954191	4949.732521
815.273354	5003.173793
815.592473	5047.483015
815.911547	5116.723263
816.230577	5175.510678
816.549562	5259.796250
816.868502	5309.643179
817.187399	5361.551941
817.506250	5439.329383
817.825058	5471.333148
818.143821	5623.570953
818.462539	5787.771416
818.781213	6024.587180
819.099843	6391.661317
819.418429	7018.624580
819.736970	7621.281920
820.055466	8316.998959
820.373919	9233.432837
820.692327	10717.001564
821.010691	13509.460517
821.329011	19835.241516
821.647286	29207.527895
821.965517	39008.549285
822.283704	43784.719920
822.601847	44807.254963
822.919945	40217.082740
823.237999	35278.967558
823.556010	30323.659521
823.873976	25845.960481
824.191897	21854.770596
824.509775	18933.623589
824.827609	16318.225082
825.145398	14879.207552
825.463144	14214.281881
825.780845	14579.639506
826.098502	15899.799231
826.416116	18302.579512
826.733685	20416.794065
827.051210	20735.072354
827.368692	19228.611747
827.686129	16748.142244
828.003522	14376.259195
828.320872	12270.163420
828.638177	10709.722138
828.955439	9524.942600
829.272656	8507.138679
829.589830	7694.154319
829.906960	6999.160685
830.224046	6493.051524
830.541088	6103.231700
830.858086	5861.004258
831.175041	5667.771790
831.491952	5624.821159
831.808819	5669.054763
832.125642	5924.527838
832.442421	6496.716443
832.759157	7628.518496
833.075849	9376.284014
833.392497	11123.883174
833.709101	12108.163421
834.025662	11772.873758
834.342179	10713.578621
834.658653	9450.699006
834.975083	8406.479440
835.291469	7547.023203
835.607811	6846.441450
835.924110	6347.737744
836.240366	5874.471700
836.556578	5438.623621
836.872746	5103.303711
837.188871	4843.928784
837.504952	4632.951455
837.820990	4469.809634
838.136984	4367.043192
838.452935	4326.635823
838.768842	4370.209037
839.084706	4672.867311
839.400526	5425.589718
839.716303	6284.456140
840.032037	6789.741072
840.347727	6590.292861
840.663373	5991.053424
840.978977	5446.402122
841.294537	5030.275036
841.610054	4718.953539
841.925527	4486.876460
842.240957	4292.804640
842.556344	4110.176239
842.871687	3957.754432
843.186987	3814.628513
843.502244	3707.587172
843.817458	3620.959985
844.132629	3552.349881
844.447756	3508.572501
844.762840	3462.473669
845.077881	3422.008328
845.392879	3395.237280
845.707833	3367.952035
846.022745	3342.791636
846.337613	3328.903257
846.652438	3307.909372
846.967221	3299.432672
847.281960	3281.564302
847.596656	3272.034001
847.911309	3261.775253
848.225919	3247.281935
848.540485	3239.334556
848.855009	3232.859194
849.169490	3218.600290
849.483928	3213.919579
849.798323	3207.759289
850.112675	3198.523895
850.426984	3196.068853
850.741251	3192.351002
851.055474	3191.743543
851.369654	3190.021989
851.683792	3189.903522
851.997887	3189.273378
852.311938	3188.948223
852.625947	3187.677853
852.939914	3183.564271
853.253837	3189.026361
853.567718	3185.976463
853.881555	3178.487829
854.195350	3185.719364
854.509103	3182.951771
854.822812	3182.233407
855.136479	3177.008251
855.450103	3180.557223
855.763685	3175.654701
856.077224	3172.985410
856.390720	3184.161648
856.704173	3195.088349
857.017584	3197.314018
857.330953	3203.431458
857.644278	3210.693241
857.957561	3213.690207
858.270802	3210.829352
858.584000	3210.738611
858.897155	3204.233002
859.210268	3193.631455
859.523339	3183.803726
859.836367	3178.898683
860.149352	3172.299813
860.462295	3170.984072
860.775195	3161.262207
861.088054	3159.160045
861.400869	3158.121568
861.713642	3159.180210
862.026373	3164.685150
862.339062	3167.402332
862.651708	3178.810463
862.964312	3194.392670
863.276873	3201.737631
863.589392	3232.261817
863.901869	3258.183430
864.214303	3277.100360
864.526696	3296.327321
864.839045	3311.526400
865.151353	3324.068791
865.463619	3325.311435
865.775842	3324.802278
866.088023	3328.636076
866.400162	3325.840756
866.712258	3323.347906
867.024313	3321.442349
867.336325	3321.051660
867.648296	3324.154490
867.960224	3316.451607
868.272110	3322.062411
868.583954	3321.701969
868.895755	3327.378308
869.207515	3325.669357
869.519233	3345.602079
869.830909	3349.539220
870.142542	3363.019266
870.454134	3370.081922
870.765684	3381.419477
871.077191	3398.284658
871.388657	3410.937954
871.700081	3428.032506
872.011463	3445.452213
872.322803	3465.024493
872.634101	3483.031495
872.945357	3500.027745
873.256571	3526.740819
873.567744	3543.842934
873.878874	3545.135990
874.189963	3560.330027
874.501010	3563.571489
874.812015	3558.711817
875.122979	3576.055907
875.433900	3574.069692
875.744780	3578.142944
876.055618	3583.869695
876.366415	3581.896083
876.677169	3587.648040
876.987882	3604.445165
877.298554	3626.091879
877.609183	3660.986746
877.919771	3709.197821
878.230317	3778.987555
878.540822	3878.787277
878.851285	4027.486192
879.161707	4247.338473
879.472087	4626.105568
879.782425	5256.617803
880.092722	6443.025634
880.402977	8342.514759
880.713191	10616.105391
881.023363	12818.343531
881.333494	13984.243948
881.643583	14342.163351
881.953631	13898.700609
882.263637	13084.624839
882.573602	12109.569903
882.883526	11220.615354
883.193408	10319.269649
883.503248	9455.750243
883.813048	8675.974483
884.122806	7944.581198
884.432522	7220.293419
884.742197	6598.666218
885.051831	6071.069139
885.361424	5601.425164
885.670975	5233.267178
885.980485	4929.595632
886.289954	4676.444009
886.599382	4473.023369
886.908768	4302.859221
887.218113	4148.330212
887.527417	4023.365049
887.836680	3904.245104
888.145901	3807.298675
888.455082	3734.859815
888.764221	3672.397398
889.073319	3614.542596
889.382376	3582.967329
889.691392	3563.463104
890.000366	3557.653175
890.309300	3553.922721
890.618193	3558.432033
890.927044	3552.806105
891.235855	3558.406827
891.544625	3572.438879
891.853353	3605.188735
892.162041	3664.024041
892.470687	3758.056684
892.779293	3871.515413
893.087858	4044.109397
893.396381	4316.989576
893.704864	4730.109613
894.013306	5281.357265
894.321707	5815.306198
894.630068	6129.604497
894.938387	6136.120188
895.246665	5952.634791
895.554903	5645.043748
895.863100	5329.026416
896.171256	5068.781890
896.479371	4846.686295
896.787446	4634.453718
897.095480	4452.057211
897.403473	4309.163184
897.711425	4175.000436
898.019336	4059.084145
898.327207	3938.746761
898.635038	3842.191021
898.942827	3741.761154
899.250576	3660.419616
899.558284	3577.840475
899.865952	3529.949514
900.173579	3468.646562
900.481165	3424.864141
900.788711	3385.989283
901.096216	3358.159593
901.403681	3328.341168
901.711105	3322.579130
902.018489	3316.890188
902.325832	3352.261443
902.633135	3411.232861
902.940397	3591.396138
903.247619	4006.315867
903.554800	4746.536212
903.861941	5657.525645
904.169041	6283.233660
904.476101	6434.974911
904.783121	6146.941025
905.090100	5765.756697
905.397039	5378.827975
905.703938	5047.477974
906.010796	4744.618053
906.317614	4503.355992
906.624391	4277.109008
906.931129	4099.902368
907.237826	3926.733692
907.544483	3767.208899
907.851099	3603.704115
908.157675	3451.602421
908.464211	3317.439673
908.770707	3223.971640
909.077163	3150.922800
909.383578	3096.120417
909.689954	3052.227090
909.996289	3025.146012
910.302584	3006.738238
910.608839	2994.256341
910.915054	2982.326451
911.221229	2981.913076
911.527363	2984.529435
911.833458	2991.806341
912.139513	3005.727487
912.445527	3017.738036
912.751502	3049.462017
913.057436	3091.265785
913.363331	3148.548417
913.669186	3237.613002
913.975000	3351.127184
914.280775	3536.739948
914.586510	3799.560504
914.892205	4168.169673
915.197859	4645.813959
915.503475	5190.238409
915.809050	5644.968130
916.114585	5899.962295
916.420081	5945.362926
916.725536	5874.905240
917.030952	5645.202544
917.336328	5450.195590
917.641665	5247.236215
917.946961	5035.631262
918.252218	4846.845092
918.557435	4635.686281
918.862612	4446.166622
919.167750	4289.404382
919.472848	4102.455712
919.777906	3949.073565
920.082925	3797.050009
920.387904	3651.842093
920.692843	3551.301321
920.997743	3456.116774
921.302603	3370.747355
921.607423	3310.583704
921.912204	3247.430649
922.216946	3200.421890
922.521647	3156.233656
922.826310	3115.543982
923.130932	3081.193560
923.435516	3044.771223
923.740059	3018.012779
924.044564	2985.608242
924.349028	2965.927577
924.653454	2936.532609
924.957840	2913.469330
925.262186	2896.034500
925.566493	2874.029863
925.870761	2846.341326
926.174989	2838.555264
926.479178	2825.894406
926.783328	2808.986376
927.087438	2797.366516
927.391509	2788.317645
927.695541	2774.600665
927.999533	2768.400046
928.303486	2759.172214
928.607400	2754.030237
928.911275	2745.689648
929.215110	2741.192939
929.518906	2739.231930
929.822663	2739.857033
930.126381	2740.000706
930.430060	2741.591190
930.733699	2743.642940
931.037299	2750.095617
931.340861	2746.849113
931.644383	2748.603435
931.947866	2749.498240
932.251309	2745.384658
932.554714	2746.047570
932.858080	2745.624113
933.161407	2738.997516
933.464694	2734.392422
933.767943	2735.690519
934.071153	2732.330590
934.374323	2727.349930
934.677455	2723.674929
934.980548	2721.373642
935.283602	2719.921790
935.586617	2715.760318
935.889593	2718.787531
936.192530	2719.790720
936.495428	2724.002604
936.798287	2733.432082
937.101108	2745.583784
937.403890	2772.352311
937.706632	2796.481794
938.009336	2826.912719
938.312002	2854.230732
938.614628	2874.876777
938.917216	2893.261865
939.219765	2900.700088
939.522275	2910.245513
939.824747	2912.491347
940.127179	2904.329718
940.429573	2899.517937
940.731929	2896.710014
941.034246	2886.176523
941.336524	2886.289949
941.638763	2880.986656
941.940964	2874.977600
942.243126	2857.119313
942.545250	2850.782582
942.847335	2835.185252
943.149381	2821.422902
943.451389	2808.976293
943.753359	2799.420786
944.055290	2790.813016
944.357182	2781.471758
944.659036	2779.011675
944.960851	2774.585542
945.262628	2769.075561
945.564367	2770.797115
945.866067	2769.080602
946.167729	2769.720828
946.469352	2768.024480
946.770937	2765.491300
947.072484	2758.816813
947.373992	2759.691453
947.675462	2755.766915
947.976893	2751.013107
948.278286	2749.107550
948.579641	2745.772827
948.880958	2741.795357
949.182236	2741.155130
949.483476	2738.997516
949.784678	2738.712691
950.085841	2739.221848
950.386967	2744.452045
950.688054	2748.306007
950.989103	2755.242635
951.290114	2764.112545
951.591087	2776.481016
951.892021	2785.635751
952.192917	2796.244859
952.493776	2806.228865
952.794596	2808.784730
953.095378	2810.549133
953.396122	2809.309010
953.696828	2804.267856
953.997496	2802.695016
954.298126	2790.369395
954.598718	2783.256327
954.899272	2775.676952
955.199788	2763.981475
955.500266	2750.788775
955.800706	2740.686303
956.101108	2722.923797
956.401472	2710.681355
956.701798	2700.029397
957.002087	2687.232428
957.302337	2680.991480
957.602550	2668.529747
957.902724	2662.596309
958.202861	2652.055257
958.502960	2643.833135
958.803022	2641.267187
959.103045	2631.003398
959.403031	2625.019548
959.702979	2622.899743
960.002889	2617.508229
960.302762	2612.255347
960.602596	2609.064297
960.902393	2607.224275
961.202153	2604.849892
961.501875	2601.394181
961.801559	2599.337390
962.101205	2598.550970
962.400814	2595.680033
962.700385	2588.690473
962.999918	2592.494024
963.299414	2588.798858
963.598873	2589.055957
963.898293	2586.956316
964.197677	2586.225349
964.497022	2585.880030
964.796331	2586.046388
965.095601	2580.934658
965.394835	2579.850810
965.694030	2579.689493
965.993189	2582.447004
966.292309	2581.320306
966.591393	2579.709658
966.890439	2578.121694
967.189447	2578.567836
967.488419	2580.990111
967.787353	2580.349884
968.086249	2580.559092
968.385108	2583.467838
968.683930	2580.629668
968.982714	2582.232755
969.281462	2585.577561
969.580172	2585.096131
969.878844	2588.375401
970.177480	2592.516709
970.476078	2593.161977
970.774639	2598.480394
971.073162	2599.062647
971.371649	2601.706732
971.670098	2596.393356
971.968510	2602.656990
972.266885	2600.101125
972.565223	2606.634460
972.863524	2606.445417
973.161788	2609.149996
973.460014	2606.936930
973.758204	2612.557816
974.056356	2608.207300
974.354471	2609.386930
974.652550	2611.726026
974.950591	2612.177209
975.248595	2609.681838
975.546563	2608.565222
975.844493	2606.400047
976.142386	2606.185798
976.440243	2602.271342
976.738062	2604.484408
977.035845	2599.622215
977.333590	2600.280086
977.631299	2596.116093
977.928971	2594.238263
978.226606	2592.136102
978.524204	2590.331369
978.821765	2590.480083
979.119290	2591.145515
979.416777	2589.068560
979.714228	2589.751636
980.011642	2592.040320
980.309020	2595.496031
980.606360	2599.894438
980.903664	2604.118925
981.200931	2615.295163
981.498162	2635.926085
981.795356	2665.310971
982.092513	2698.781712
982.389633	2738.506004
982.686717	2778.091664
982.983764	2805.702064
983.280775	2821.080104
983.577749	2820.903663
983.874686	2813.256233
984.171587	2795.768470
984.468451	2780.811367
984.765279	2763.563059
985.062070	2748.520256
985.358824	2730.069633
985.655543	2711.079606
985.952224	2691.842563
986.248869	2669.364058
986.545478	2643.422281
986.842050	2624.918725
987.138586	2611.383227
987.435086	2597.318408
987.731549	2586.991604
988.027975	2581.612693
988.324366	2576.324523
988.620719	2571.815211
988.917037	2568.490570
989.213318	2569.763461
989.509563	2563.903120
989.805772	2567.192473
990.101944	2561.201061
990.398080	2562.743654
990.694180	2560.467573
990.990244	2562.751216
991.286271	2561.448078
991.582262	2562.673078
991.878217	2561.135526
992.174136	2565.438151
992.470019	2565.654921
992.765865	2564.777760
993.061676	2567.131979
993.357450	2569.357648
993.653188	2574.212279
993.948890	2579.954154
994.244556	2584.576892
994.540186	2593.383787
994.835780	2604.842330
995.131337	2618.856738
995.426859	2631.724283
995.722345	2647.198105
996.017795	2667.887000
996.313208	2679.542148
996.608586	2685.868796
996.903928	2690.630166
997.199234	2686.178827
997.494504	2685.853672
997.789738	2678.445697
998.084936	2669.918585
998.380099	2658.097079
998.675225	2646.910759
998.970316	2639.464975
999.265371	2625.521143
999.560390	2611.756273
999.855373	2602.311671
1000.150320	2593.792121
1000.445232	2585.746439
1000.740108	2578.892991
1001.034948	2573.151117
1001.329752	2567.963769
1001.624521	2569.521486
1001.919254	2559.814744
1002.213951	2558.834240
1002.508613	2555.628066
1002.803239	2556.134702
1003.097829	2549.099772
1003.392384	2553.377191
1003.686903	2548.784699
1003.981386	2549.876109
1004.275834	2550.556665
1004.570246	2548.467107
1004.864623	2548.963660
1005.158964	2549.782848
1005.453270	2545.288659
1005.747540	2550.617159
1006.041775	2547.620193
1006.335974	2545.681869
1006.630138	2545.676828
1006.924266	2544.056097
1007.218359	2544.540048
1007.512416	2545.921324
1007.806438	2545.013916
1008.100425	2541.996786
1008.394376	2543.022661
1008.688292	2542.878988
1008.982172	2542.122815
1009.276017	2545.026519
1009.569827	2543.443597
1009.863602	2544.459389
1010.157341	2544.038453
1010.451045	2542.314378
1010.744714	2542.967208
1011.038347	2543.967877
1011.331945	2541.890922
1011.625508	2542.725232
1011.919036	2540.386137
1012.212528	2540.852444
1012.505986	2541.497712
1012.799408	2538.820859
1013.092795	2542.526107
1013.386147	2541.230530
1013.679464	2542.543751
1013.972745	2542.412681
1014.265992	2540.378575
1014.559204	2542.987372
1014.852380	2540.731456
1015.145521	2539.372865
1015.438628	2540.534851
1015.731699	2542.422763
1016.024736	2538.846065
1016.317737	2539.418236
1016.610703	2543.504091
1016.903635	2539.007382
1017.196531	2538.341949
1017.489393	2540.529810
1017.782219	2535.801208
1018.075011	2539.733308
1018.367768	2542.155582
1018.660490	2541.996786
1018.953177	2541.996786
1019.245829	2541.996786
