Dividing Wavelength (nm)	Counts (n)	Blue Motor Position (mm): 48.700000	Red Motor Position (mm): 0.000000	
326.493990	2130.225257
326.888308	2130.225257
327.282561	2130.225257
327.676750	2098.150916
328.070874	2095.020359
328.464933	2100.946236
328.858929	2103.431525
329.252859	2115.716817
329.646726	2124.405245
330.040528	2139.811011
330.434265	2155.846922
330.827938	2173.133038
331.221547	2192.251614
331.615091	2207.906918
332.008571	2229.530947
332.401986	2248.725140
332.795338	2270.218100
333.188625	2288.124278
333.581847	2306.184212
333.975006	2323.550987
334.368100	2345.424553
334.761129	2359.751513
335.154095	2376.042001
335.546996	2399.037224
335.939833	2422.168559
336.332606	2440.697320
336.725315	2450.303238
337.117960	2462.507872
337.510540	2470.041876
337.903056	2483.905049
338.295508	2486.758343
338.687896	2498.363079
339.080220	2506.575118
339.472480	2513.085768
339.864676	2517.887468
340.256807	2520.839063
340.648875	2525.676050
341.040879	2523.442819
341.432818	2526.643952
341.824694	2528.224353
342.216506	2527.195958
342.608253	2530.954138
342.999937	2531.065044
343.391557	2528.083201
343.783113	2527.742923
344.174605	2528.889786
344.566033	2521.960720
344.957397	2525.766791
345.348697	2524.133457
345.739934	2523.878879
346.131106	2518.983918
346.522215	2519.097344
346.913260	2515.059380
347.304241	2515.883609
347.695159	2511.649040
348.086012	2510.572753
348.476802	2511.023937
348.867528	2508.082423
349.258191	2506.126456
349.648789	2506.965808
350.039324	2501.619664
350.429796	2502.169150
350.820203	2501.110508
351.210548	2502.433810
351.600828	2499.124293
351.991045	2498.249653
352.381198	2496.943994
352.771288	2495.933243
353.161314	2499.204951
353.551276	2496.807883
353.941175	2500.329129
354.331010	2498.166474
354.720782	2499.315857
355.110490	2497.886690
355.500135	2499.598161
355.889717	2498.955414
356.279235	2499.467091
356.668689	2498.521875
357.058080	2499.706546
357.447408	2496.996926
357.836672	2499.792246
358.225873	2498.985661
358.615010	2497.397698
359.004084	2498.718480
359.393095	2501.670076
359.782043	2502.511948
360.170927	2504.525889
360.559748	2505.017402
360.948505	2504.525889
361.337199	2505.720643
361.725830	2505.708040
362.114398	2507.953874
362.502903	2506.834738
362.891344	2505.740807
363.279722	2503.817607
363.668037	2507.482526
364.056289	2508.589059
364.444478	2512.276663
364.832603	2513.168947
365.220665	2512.110305
365.608665	2511.649040
365.996601	2513.831859
366.384474	2511.840603
366.772284	2513.252127
367.160031	2513.395799
367.547715	2518.167252
367.935336	2513.768845
368.322893	2518.079031
368.710388	2519.054495
369.097820	2523.374763
369.485189	2524.607326
369.872495	2527.952131
370.259738	2531.032276
370.646918	2535.075282
371.034035	2536.900179
371.421090	2548.023485
371.808081	2552.459701
372.195010	2561.402707
372.581875	2574.411405
372.968678	2583.803075
373.355418	2590.452357
373.742096	2607.090685
374.128710	2621.357150
374.515262	2631.746968
374.901751	2649.088537
375.288177	2662.006494
375.674540	2680.752025
376.060841	2698.630477
376.447079	2718.585884
376.833254	2737.028946
377.219367	2750.382962
377.605417	2785.229938
377.991404	2795.274437
378.377329	2817.848724
378.763191	2836.112825
379.148991	2875.179246
379.534727	2897.589696
379.920402	2928.776794
380.306013	2943.108794
380.691563	2990.611587
381.077049	3015.898015
381.462474	3035.921478
381.847835	3078.604928
382.233134	3102.696602
382.618371	3105.318002
383.003545	3173.741583
383.388657	3180.650484
383.773706	3219.051474
384.158693	3238.084350
384.543618	3264.542846
384.928480	3302.089360
385.313280	3351.578367
385.698017	3349.120805
386.082692	3405.450658
386.467305	3416.833583
386.851856	3447.125877
387.236344	3472.384578
387.620770	3502.611336
388.005133	3533.117879
388.389435	3563.720203
388.773674	3572.751430
389.157851	3617.277422
389.541965	3633.583034
389.926018	3600.543312
390.310008	3670.937984
390.693936	3690.038916
391.077802	3729.072570
391.461606	3719.428843
391.845348	3782.082823
392.229027	3782.276908
392.612645	3795.053712
392.996200	3873.831823
393.379694	3913.024274
393.763125	3976.378975
394.146494	3946.454686
394.529801	4008.571783
394.913047	4054.133732
395.296230	4019.110315
395.679351	4076.975200
396.062410	4098.087552
396.445408	4083.097681
396.828343	4115.300572
397.211217	4136.854025
397.594028	4058.287642
397.976778	4127.911018
398.359466	4150.351715
398.742092	4183.293134
399.124656	4098.241307
399.507158	4182.529400
399.889598	4207.891445
400.271977	4270.197586
400.654294	4239.852360
401.036549	4249.090274
401.418742	4223.095565
401.800874	4319.608455
402.182944	4340.393132
402.564952	4408.831837
402.946898	4391.931369
403.328783	4389.166296
403.710606	4302.022390
404.092367	4496.079087
404.474067	4459.858396
404.855705	4469.003049
405.237282	4399.760281
405.618797	4509.770860
406.000250	4540.106004
406.381642	4621.026605
406.762972	4583.686779
407.144240	4591.306483
407.525447	4589.811781
407.906593	4651.321419
408.287677	4695.660888
408.668700	4625.856031
409.049661	4677.827806
409.430560	4716.143096
409.811399	4643.585769
410.192176	4804.053257
410.572891	4740.577569
410.953545	4847.250905
411.334138	4726.911001
411.714669	4795.140497
412.095139	4688.865412
412.475547	4829.044777
412.855894	4811.771264
413.236180	4823.655784
413.616405	4777.136016
413.996568	4859.384962
414.376670	4805.164832
414.756711	4761.319396
415.136691	4796.715858
415.516609	4868.688411
415.896466	4906.660903
416.276262	4943.539464
416.655997	4918.101801
417.035670	5103.170121
417.415283	5194.903997
417.794834	5137.449967
418.174324	5092.634109
418.553753	4998.198174
418.933121	5183.087533
419.312428	5247.899127
419.691674	5190.757648
420.070859	5317.870342
420.449983	5227.411878
420.829045	5342.085525
421.208047	5250.250825
421.586988	5324.375952
421.965867	5335.794165
422.344686	5467.494309
422.723444	5322.520807
423.102141	5140.164628
423.480777	5436.261841
423.859352	5207.476635
424.237866	5465.205625
424.616319	5456.741528
424.994712	5567.132715
425.373044	5440.977840
425.751314	5585.706846
426.129524	5391.511518
426.507673	5582.120065
426.885762	5667.083672
427.263789	5595.257312
427.641756	5482.988296
428.019662	5603.915494
428.397508	5605.352223
428.775292	5555.628802
429.153016	5656.933309
429.530679	5582.233491
429.908282	5668.381769
430.285824	5535.832191
430.663305	5811.548018
431.040726	5548.424993
431.418086	5546.516916
431.795385	5653.626312
432.172624	5665.425133
432.549802	5654.170757
432.926920	5669.339589
433.303977	5681.990364
433.680974	5717.500252
434.057910	5733.997428
434.434786	5746.655765
434.811601	5710.165373
435.188355	5947.233194
435.565050	5817.398277
435.941683	5798.705679
436.318257	6014.653586
436.694770	5994.524259
437.071222	6033.436925
437.447614	5966.402182
437.823946	5875.777359
438.200218	6032.337954
438.576429	5894.512808
438.952580	5998.058108
439.328670	6037.071597
439.704700	5947.107166
440.080670	5934.302635
440.456580	6206.779521
440.832429	6087.924237
441.208218	5933.029743
441.583947	6091.009423
441.959616	6093.149393
442.335224	6017.131313
442.710773	6155.130379
443.086261	6185.112642
443.461689	5977.941383
443.837057	6127.557788
444.212365	6280.609739
444.587612	6180.081570
444.962800	6328.946843
445.337927	6309.009080
445.712995	5923.655718
446.088002	6497.243244
446.462949	6324.182953
446.837837	6257.052427
447.212664	6431.526762
447.587431	6574.582105
447.962139	7118.678881
448.336786	8041.850262
448.711374	7786.553628
449.085901	6853.869590
449.460369	6778.227077
449.834776	6713.738116
450.209124	7110.373580
450.583412	7258.696929
450.957640	7397.679020
451.331808	7165.488515
451.705917	6716.213323
452.079965	6638.229193
452.453954	6850.930597
452.827883	6730.716722
453.201752	6825.939077
453.575562	6621.265711
453.949311	6826.123079
454.323001	6712.293826
454.696632	6787.893489
455.070202	6923.737462
455.443713	7087.388439
455.817164	7184.092893
456.190556	7266.820749
456.563888	7344.031061
456.937160	7380.513891
457.310373	7039.005965
457.683526	7064.191570
458.056619	6956.270548
458.429653	6945.187572
458.802628	6874.709720
459.175542	6986.714076
459.548398	7341.336564
459.921194	7505.209352
460.293930	7506.908221
460.666607	8038.225672
461.039224	8345.655398
461.411782	8470.255077
461.784280	8487.684867
462.156719	8376.177064
462.529099	8256.374043
462.901419	7846.437494
463.273680	7741.107626
463.645882	7751.573061
464.018024	7621.070191
464.390106	7787.738299
464.762130	8172.958070
465.134094	8642.723033
465.505999	9667.924846
465.877845	10892.582432
466.249631	11540.718541
466.621358	11152.058182
466.993026	10523.978304
467.364634	10267.560014
467.736184	9899.515454
468.107674	9576.017050
468.479105	9610.145661
468.850477	9363.837405
469.221790	9137.116552
469.593043	8807.609093
469.964238	8669.615068
470.335373	8679.422633
470.706449	8737.862208
471.077467	8727.232936
471.448425	10029.698211
471.819324	11102.778383
472.190164	11123.978956
472.560945	9878.836641
472.931667	9089.956558
473.302330	8959.927556
473.672934	8601.819110
474.043479	8956.676012
474.413965	8898.914471
474.784393	8781.264022
475.154761	8935.767826
475.525070	9029.860963
475.895321	8853.972584
476.265513	9035.262559
476.635645	9206.061893
477.005719	9202.086943
477.375734	9311.573243
477.745691	9557.493330
478.115588	9687.560140
478.485427	9937.417369
478.855207	10473.891920
479.224928	11284.338059
479.594591	11919.790625
479.964194	11727.200904
480.333739	11657.879998
480.703226	11576.268758
481.072653	11672.771566
481.442022	11906.933162
481.811333	12093.055083
482.180584	11897.730536
482.549777	11605.270516
482.918912	11435.555031
483.287988	11457.184101
483.657005	11468.556944
484.025964	11147.029632
484.394864	11280.002667
484.763706	11248.717266
485.132489	11004.584268
485.501213	10973.543363
485.869879	11048.941381
486.238487	10892.118646
486.607036	10995.996662
486.975527	10783.348190
487.343959	10969.008845
487.712333	11013.146668
488.080648	10944.791142
488.448905	10989.707823
488.817104	10934.063567
489.185244	11197.037878
489.553326	11354.170643
489.921350	11895.013354
490.289315	12964.816776
490.657222	13297.807673
491.025070	13208.692676
491.392861	13075.966657
491.760593	12699.747866
492.128267	12350.746265
492.495883	12016.280830
492.863440	11679.622494
493.230939	11341.802172
493.598380	11277.955959
493.965763	11145.224898
494.333088	11055.550333
494.700354	10966.773093
495.067563	11027.468586
495.434713	10854.302431
495.801805	10982.178860
496.168839	10905.538198
496.535815	10842.755668
496.902733	10837.717034
497.269593	10779.421131
497.636395	10884.987934
498.003139	10869.337672
498.369825	10732.125026
498.736453	10891.977494
499.103023	10819.531072
499.469535	10848.202634
499.835989	10832.237300
500.202385	10799.379059
500.568723	10650.425566
500.935003	10870.237518
501.301226	10679.076964
501.667390	10934.562641
502.033497	11028.234841
502.399546	10900.774307
502.765537	10800.472990
503.131470	10878.623477
503.497345	11046.907275
503.863163	10659.968470
504.228923	10976.704167
504.594625	11036.393949
504.960269	10777.928950
505.325856	10998.242496
505.691385	10796.651795
506.056856	10950.633839
506.422270	10971.839453
506.787625	10860.019099
507.152924	10979.229785
507.518164	10959.680190
507.883347	10887.437935
508.248472	10799.404265
508.613540	11038.546521
508.978550	10921.090157
509.343503	10892.607638
509.708398	11008.924701
510.073236	11132.846345
510.438016	11132.811057
510.802738	11080.672923
511.167403	11131.921293
511.532010	11027.645026
511.896561	11261.355439
512.261053	11335.664567
512.625488	11205.696059
512.989866	11183.212513
513.354186	11182.743686
513.718449	11076.569424
514.082655	11270.502613
514.446803	11164.857672
514.810894	11289.709409
515.174927	11150.157667
515.538904	11173.263796
515.902822	11333.078455
516.266684	11212.390712
516.630488	11153.908286
516.994235	11210.666637
517.357925	11267.223342
517.721558	11359.307579
518.085133	11372.764939
518.448651	11389.693134
518.812112	11271.099989
519.175516	11289.081785
519.538863	11403.319372
519.902152	11317.070271
520.265385	11488.870274
520.628560	11393.559699
520.991678	11370.670340
521.354739	11438.108375
521.717743	11368.616069
522.080690	11345.477173
522.443580	11478.757719
522.806413	11432.772314
523.169189	11469.171965
523.531908	11525.658094
523.894569	11348.388440
524.257174	11354.846158
524.619722	11468.788838
524.982213	11423.952815
525.344647	11471.059877
525.707025	11423.216807
526.069345	11517.085612
526.431608	11437.490834
526.793815	11544.874973
527.155964	11331.727426
527.518057	11380.465302
527.880093	11329.327837
528.242072	11398.172354
528.603995	11303.920422
528.965860	11225.956457
529.327669	11273.595361
529.689421	11226.337064
530.051117	11198.472086
530.412755	11294.662342
530.774337	11192.876405
531.135862	11173.505772
531.497331	11194.156858
531.858743	11047.406349
532.220098	11215.455733
532.581396	11086.061917
532.942638	11072.735627
533.303824	11025.426918
533.664953	11042.178673
534.026025	10959.995262
534.387040	11062.645757
534.747999	11054.655528
535.108902	11124.576332
535.469748	10875.059382
535.830537	10979.963273
536.191270	10959.612134
536.551947	10984.608696
536.912567	10977.533436
537.273131	10908.517520
537.633638	10886.099508
537.994089	10870.814730
538.354483	10823.110291
538.714821	10966.377363
539.075103	10976.575617
539.435328	10942.116810
539.795497	10770.921746
540.155609	10922.161402
540.515665	11010.240442
540.875665	10746.149516
541.235609	10823.465693
541.595496	10810.845164
541.955328	10971.032868
542.315102	10855.056083
542.674821	10798.474172
543.034483	10801.929883
543.394090	10805.153701
543.753640	10736.994781
544.113134	10953.613161
544.472571	10807.265945
544.831953	10948.312388
545.191278	10756.287276
545.550548	10784.636205
545.909761	10929.405541
546.268918	10894.266178
546.628019	10983.608027
546.987064	10844.159629
547.346053	10768.575089
547.704986	10868.450429
548.063863	10858.887360
548.422684	10838.296767
548.781449	10761.290622
549.140158	10868.016890
549.498811	10740.785728
549.857408	10600.949162
550.215949	10824.690693
550.574434	10675.278455
550.932864	10781.377099
551.291237	10841.248363
551.649555	10774.531212
552.007817	10797.788575
552.366022	10762.082083
552.724173	10751.140258
553.082267	10737.723227
553.440305	10873.748682
553.798288	10677.902375
554.156215	10830.447691
554.514086	10800.629266
554.871902	10654.544189
555.229661	10691.647081
555.587365	10672.649493
555.945014	10563.044726
556.302606	10684.274394
556.660143	10579.330173
557.017625	10737.985367
557.375050	10633.361260
557.732421	10764.645509
558.089735	10675.275934
558.446994	10683.392192
558.804197	10709.618795
559.161345	10716.255474
559.518437	10566.724768
559.875474	10653.790536
560.232455	10685.088540
560.589381	10633.789758
560.946251	10628.693152
561.303065	10738.600388
561.659825	10675.656541
562.016528	10604.840932
562.373177	10481.398198
562.729770	10600.722310
563.086307	10512.965904
563.442789	10614.038518
563.799216	10486.202418
564.155587	10527.867554
564.511904	10487.901287
564.868164	10479.447272
565.224370	10500.242031
565.580520	10421.690772
565.936615	10427.478017
566.292654	10293.796699
566.648638	10425.214539
567.004567	10387.403364
567.360441	10373.943483
567.716260	10274.620150
568.072023	10369.464418
568.427732	10320.061111
568.783385	10231.543490
569.138982	10300.821547
569.494525	10321.505401
569.850013	10196.991422
570.205445	10271.061095
570.560823	10172.294809
570.916145	10085.871788
571.271412	10165.993367
571.626625	10100.798645
571.981782	10077.891642
572.336884	10051.055059
572.691931	10057.308610
573.046923	10007.058389
573.401860	9958.083579
573.756743	9896.515967
574.111570	9944.079254
574.466342	9922.099823
574.821059	9949.788361
575.175722	9845.063431
575.530330	9859.740750
575.884882	9844.942443
576.239380	9768.810937
576.593823	9753.195963
576.948211	9768.493345
577.302544	9646.895673
577.656823	9660.468980
578.011047	9661.313373
578.365216	9637.952666
578.719330	9561.785872
579.073389	9572.823479
579.427394	9522.842959
579.781344	9497.201130
580.135239	9442.696175
580.489080	9456.115726
580.842866	9356.447073
581.196597	9364.999391
581.550273	9400.869721
581.903895	9367.441830
582.257463	9436.535885
582.610975	9317.415940
582.964434	9344.532306
583.317837	9264.486345
583.671186	9242.234692
584.024481	9240.424918
584.377721	9158.077670
584.730906	9137.071182
585.084037	9166.022528
585.437113	9101.984751
585.790135	9124.937124
586.143103	9021.467442
586.496016	8997.584975
586.848874	9054.035816
587.201679	9036.777426
587.554428	8925.108306
587.907124	8968.111869
588.259765	8943.342160
588.612352	8944.176471
588.964884	8824.007966
589.317362	8836.336108
589.669786	8836.310902
590.022155	8882.944096
590.374470	8911.240092
590.726731	8839.186880
591.078937	8693.928553
591.431090	8802.411663
591.783188	8673.035491
592.135232	8665.748503
592.487222	8670.194800
592.839157	8722.733706
593.191038	8655.086462
593.542866	8595.747040
593.894639	8498.906475
594.246358	8551.089979
594.598022	8566.077329
594.949633	8464.646793
595.301190	8439.183925
595.652692	8467.149726
596.004141	8578.307169
596.355535	8351.702262
596.706876	8335.908327
597.058162	8264.429807
597.409395	8347.127415
597.760573	8409.153772
598.111698	8319.398548
598.462768	8300.564798
598.813785	8268.850899
599.164748	8237.406702
599.515657	8227.722645
599.866511	8136.412225
600.217312	8261.843695
600.568060	8128.122048
600.918753	8229.991164
601.269392	8198.272224
601.619978	8110.793082
601.970510	8170.583687
602.320988	8168.748707
602.671412	8222.711738
603.021783	8159.553642
603.372100	8137.440621
603.722363	8132.240671
604.072572	8110.926672
604.422728	8126.466029
604.772830	8051.746047
605.122878	8061.165442
605.472872	8053.754946
605.822813	8079.578257
606.172701	8027.339300
606.522534	8098.379240
606.872314	8106.082123
607.222041	8068.954025
607.571714	8128.732027
607.921333	8083.578412
608.270899	8092.234074
608.620411	8179.700613
608.969870	8089.350534
609.319276	8081.934996
609.668627	8095.878828
610.017926	8127.940566
610.367171	8175.531579
610.716362	8150.492168
611.065500	8148.392527
611.414585	8174.898914
611.763616	8158.366450
612.112594	8144.437742
612.461518	8154.930904
612.810389	8217.852066
613.159207	8157.693456
613.507971	8101.330836
613.856682	8224.798776
614.205340	8180.935696
614.553945	8259.605423
614.902496	8158.961307
615.250994	8213.410809
615.599439	8196.613685
615.947830	8214.948361
616.296169	8180.907970
616.644454	8191.854835
616.992686	8188.386522
617.340864	8250.969926
617.688990	8152.145667
618.037063	8243.282166
618.385082	8185.439967
618.733048	8280.871530
619.080961	8218.242755
619.428821	8232.678099
619.776628	8234.082061
620.124382	8187.322838
620.472083	8176.035695
620.819731	8200.926392
621.167326	8089.612674
621.514868	8098.149868
621.862357	7991.516861
622.209793	8007.013368
622.557176	7943.507432
622.904506	7905.234992
623.251783	7843.110333
623.599007	7798.417983
623.946179	7802.584497
624.293297	7762.872808
624.640363	7681.256527
624.987376	7658.364647
625.334336	7606.576874
625.681243	7553.097793
626.028097	7548.165024
626.374899	7520.927670
626.721647	7518.165118
627.068343	7441.647964
627.414987	7414.844149
627.761577	7372.695062
628.108115	7405.475165
628.454600	7305.594783
628.801032	7357.344748
629.147412	7308.382542
629.493739	7306.260216
629.840014	7238.557520
630.186236	7295.658669
630.532405	7177.688107
630.878521	7233.486119
631.224585	7191.589089
631.570597	7112.536235
631.916556	7145.565875
632.262462	7142.715103
632.608316	7096.646518
632.954117	7076.731440
633.299866	7065.935809
633.645562	7057.212092
633.991206	6979.759805
634.336797	6924.733090
634.682336	6876.307766
635.027823	6844.624114
635.373257	6839.890471
635.718639	6768.684173
636.063968	6784.024404
636.409245	6673.751684
636.754470	6676.771335
637.099642	6628.013295
637.444762	6575.028248
637.789829	6587.240443
638.134845	6527.832965
638.479808	6512.021386
638.824719	6518.509351
639.169577	6447.918074
639.514383	6469.703420
639.859137	6394.300362
640.203839	6398.348408
640.548489	6385.148147
640.893086	6365.462441
641.237632	6341.380849
641.582125	6358.669486
641.926566	6324.621533
642.270955	6344.944945
642.615292	6333.254509
642.959576	6351.546336
643.303809	6340.360015
643.647990	6343.571230
643.992118	6339.097206
644.336195	6285.610564
644.680219	6309.112423
645.024192	6304.872813
645.368112	6395.782461
645.711981	6419.160812
646.055797	6494.687379
646.399562	6450.907478
646.743274	6578.224339
647.086935	6631.574870
647.430544	6626.329550
647.774101	6653.168653
648.117606	6653.077912
648.461059	6645.206150
648.804460	6607.236179
649.147810	6517.538929
649.491108	6488.900134
649.834354	6457.057686
650.177548	6383.499689
650.520690	6295.035001
650.863781	6265.400578
651.206820	6289.078878
651.549807	6211.092228
651.892742	6151.586448
652.235626	6160.010216
652.578458	6145.156456
652.921238	6050.859153
653.263967	6091.160657
653.606644	6034.472882
653.949269	6033.721750
654.291843	5974.740250
654.634365	6027.425349
654.976836	5976.202185
655.319255	5976.174459
655.661622	5956.312313
656.003938	5952.561694
656.346203	5915.121044
656.688416	5943.911074
657.030577	5896.501543
657.372687	5866.877202
657.714746	5852.940932
658.056753	5893.504577
658.398708	5841.368964
658.740612	5820.838865
659.082465	5873.476073
659.424266	5871.361308
659.766016	5865.679928
660.107715	5842.800651
660.449362	5856.273135
660.790958	5852.071333
661.132503	5838.276216
661.473996	5877.468666
661.815438	5861.611717
662.156829	5861.999886
662.498168	5852.860274
662.839456	5827.989741
663.180693	5860.701789
663.521879	5864.951481
663.863013	5852.779615
664.204097	5871.925918
664.545129	5916.280510
664.886110	5907.158542
665.227040	5944.546259
665.567918	5910.140384
665.908746	5935.262975
666.249522	5938.645589
666.590248	5927.091264
666.930922	5950.767043
667.271545	5966.850845
667.612118	5970.596422
667.952639	5942.986022
668.293109	5961.217355
668.633528	5927.320637
668.973896	5927.794505
669.314213	5919.708494
669.654480	5902.223252
669.994695	5893.348301
670.334859	5882.086363
670.674973	5876.883893
671.015035	5879.364140
671.355047	5876.788111
671.695008	5863.050966
672.034918	5836.058108
672.374777	5850.959759
672.714585	5830.258261
673.054342	5837.923335
673.394049	5829.660884
673.733705	5860.353949
674.073310	5849.984296
674.412864	5813.284696
674.752368	5795.854906
675.091820	5807.721782
675.431223	5738.998253
675.770574	5744.735086
676.109875	5692.886818
676.449125	5695.987128
676.788324	5664.507643
677.127473	5606.395742
677.466571	5597.142704
677.805619	5586.863791
678.144616	5577.041103
678.483562	5552.941867
678.822458	5523.819121
679.161303	5518.238564
679.500098	5507.594167
679.838842	5495.525645
680.177535	5497.816850
680.516179	5510.439899
680.854771	5521.878277
681.193314	5603.393735
681.531805	5711.468511
681.870247	5866.020206
682.208638	5963.753056
682.546978	5976.713862
682.885268	5954.036232
683.223508	5866.413416
683.561697	5817.650335
683.899836	5785.540705
684.237925	5741.604529
684.575963	5706.908788
684.913951	5665.387324
685.251889	5724.527620
685.589776	5697.325554
685.927614	5667.774310
686.265401	5737.412810
686.603137	5724.182301
686.940824	5793.649401
687.278460	5821.098484
687.616046	5834.570968
687.953582	5902.770218
688.291068	5880.725252
688.628504	5947.971723
688.965889	5905.890692
689.303224	5852.106621
689.640510	5806.937883
689.977745	5725.006530
690.314930	5628.677642
690.652065	5566.033743
690.989150	5482.814376
691.326185	5406.778652
691.663170	5348.689437
692.000105	5270.559114
692.336990	5192.527093
692.673825	5168.511036
693.010610	5102.494606
693.347345	5029.445766
693.684030	5018.231720
694.020665	4976.589268
694.357251	4885.581318
694.693786	4893.440477
695.030272	4863.561558
695.366707	4828.215508
695.703093	4793.819715
696.039429	4815.995751
696.375716	4795.906753
696.711952	4769.980098
697.048139	4762.370477
697.384276	4739.660079
697.720363	4755.264970
698.056400	4762.441053
698.392388	4708.493145
698.728326	4693.457904
699.064214	4670.608874
699.400053	4659.566226
699.735842	4631.018172
700.071581	4607.980099
700.407270	4576.649328
700.742910	4562.400507
701.078501	4504.954038
701.414042	4504.081918
701.749533	4475.254080
702.084974	4408.920057
702.420366	4467.899037
702.755709	4408.315119
703.091002	4350.180532
703.426246	4399.941762
703.761440	4360.386348
704.096584	4322.255061
704.431679	4343.143082
704.766725	4324.873940
705.101721	4314.597548
705.436668	4343.362372
705.771565	4291.849341
706.106413	4316.803053
706.441212	4347.886808
706.775961	4356.703786
707.110661	4337.529757
707.445311	4366.332389
707.779913	4386.600348
708.114465	4404.166249
708.448967	4425.906225
708.783421	4487.690607
709.117825	4531.841032
709.452180	4532.577040
709.786485	4580.858691
710.120742	4665.666023
710.454949	4650.837468
710.789107	4719.868509
711.123216	4792.229231
711.457275	4785.912665
711.791286	4856.889591
712.125247	4871.062795
712.459159	4776.936891
712.793023	4853.948077
713.126837	4810.284123
713.460602	4801.484789
713.794318	4722.615937
714.127985	4730.321341
714.461602	4644.987209
714.795171	4617.207931
715.128691	4553.288621
715.462162	4490.274198
715.795584	4443.184780
716.128957	4424.913118
716.462281	4373.289182
716.795556	4346.235830
717.128782	4309.962207
717.461960	4236.683995
717.795088	4250.030450
718.128167	4212.206672
718.461198	4148.123525
718.794180	4142.575735
719.127113	4124.745174
719.459997	4104.648614
719.792833	4062.113878
720.125619	4053.422929
720.458357	4014.122094
720.791046	4022.344216
721.123686	3997.307325
721.456278	3952.743525
721.788821	3967.604847
722.121315	3939.255918
722.453761	3918.945109
722.786158	3925.223866
723.118506	3951.702527
723.450805	3905.006319
723.783056	3928.787962
724.115259	3944.085343
724.447412	3948.516517
724.779518	3934.696194
725.111574	3945.307823
725.443582	3977.936691
725.775542	3958.447591
726.107453	4012.196373
726.439315	4011.667052
726.771129	4028.668343
727.102895	4065.796441
727.434612	4111.842340
727.766281	4122.421202
728.097901	4124.954382
728.429473	4127.517808
728.760996	4135.750013
729.092471	4133.052995
729.423897	4115.892908
729.755276	4121.765852
730.086606	4124.349443
730.417887	4159.108199
730.749120	4224.093713
731.080305	4286.992190
731.411442	4317.168537
731.742530	4282.429945
732.073570	4285.363897
732.404562	4342.437320
732.735506	4333.421217
733.066401	4297.077018
733.397249	4234.067636
733.728048	4157.106861
734.058798	4069.973037
734.389501	4000.667254
734.720156	3938.625774
735.050762	3894.853435
735.381320	3884.698030
735.711831	3836.860001
736.042293	3804.705001
736.372707	3831.360102
736.703073	3799.986481
737.033391	3788.603556
737.363661	3808.584169
737.693883	3831.077797
738.024056	3843.146320
738.354182	3837.911082
738.684260	3902.619332
739.014290	3922.955347
739.344272	3918.055345
739.674207	3962.445226
740.004093	3964.650730
740.333931	3960.453970
740.663722	3959.710400
740.993464	3961.212663
741.323159	3937.095783
741.652806	3904.408942
741.982405	3877.617730
742.311956	3846.047504
742.641460	3837.006194
742.970915	3812.175991
743.300323	3771.713170
743.629683	3738.759147
743.958996	3726.443608
744.288260	3701.699105
744.617477	3664.137467
744.946647	3653.724964
745.275768	3630.046664
745.604842	3625.373515
745.933869	3579.095723
746.262847	3571.927202
746.591778	3608.271400
746.920662	3578.344591
747.249498	3548.962225
747.578286	3593.452929
747.907027	3613.531844
748.235720	3608.765433
748.564365	3633.792242
748.892963	3634.878610
749.221514	3619.762711
749.550017	3592.699276
749.878473	3589.535952
750.206881	3562.464956
750.535242	3560.246848
750.863555	3560.188875
751.191821	3554.474727
751.520039	3536.074516
751.848210	3517.417205
752.176334	3547.167575
752.504411	3554.303328
752.832440	3513.424611
753.160421	3496.756036
753.488356	3507.599558
753.816243	3515.375538
754.144082	3473.375165
754.471875	3459.363278
754.799620	3480.284066
755.127318	3472.578662
755.454969	3469.216213
755.782572	3478.839775
756.110129	3454.291877
756.437638	3442.687141
756.765100	3456.666260
757.092515	3465.140440
757.419882	3472.331646
757.747203	3445.434569
758.074477	3445.353911
758.401703	3465.626911
758.728882	3486.058708
759.056014	3495.543639
759.383099	3494.701766
759.710138	3492.637413
760.037129	3511.002337
760.364073	3538.395967
760.690970	3523.824512
761.017820	3504.665607
761.344623	3519.814274
761.671379	3568.973086
761.998088	3617.053090
762.324751	3749.559819
762.651366	3997.400586
762.977935	4471.828616
763.304456	4920.027522
763.630931	5014.876832
763.957359	4651.223117
764.283740	4305.689829
764.610074	4115.101446
764.936362	3915.801950
765.262602	3753.784306
765.588796	3640.222233
765.914943	3552.967422
766.241044	3461.251190
766.567097	3432.836726
766.893104	3384.923079
767.219064	3359.014069
767.544978	3325.747495
767.870845	3272.417128
768.196665	3252.859972
768.522438	3263.436313
768.848165	3258.359871
769.173846	3219.956361
769.499479	3204.822817
769.825066	3187.062832
770.150607	3168.690347
770.476101	3185.200126
770.801548	3179.687624
771.126949	3134.206334
771.452303	3117.487347
771.777611	3124.310549
772.102872	3129.702063
772.428087	3108.935030
772.753256	3094.842484
773.078378	3086.312852
773.403453	3052.433777
773.728482	3041.744011
774.053465	3064.877866
774.378401	3051.125598
774.703291	3018.884898
775.028135	3020.001514
775.352932	3013.064886
775.677683	3004.232785
776.002388	2998.117865
776.327046	3001.407218
776.651658	2991.642503
776.976224	2981.116574
777.300743	2981.955926
777.625216	2969.489153
777.949643	2964.319449
778.274024	2966.827423
778.598359	2956.979529
778.922647	2958.950620
779.246889	2960.657051
779.571086	2944.616099
779.895236	2940.043773
780.219339	2950.909980
780.543397	2964.027062
780.867409	2967.691981
781.191374	2956.354426
781.515294	2953.816205
781.839167	2958.489355
782.162995	2947.698765
782.486776	2958.547328
782.810511	2954.920218
783.134201	2938.352466
783.457844	2944.963939
783.781441	2938.566715
784.104993	2916.864548
784.428498	2919.117943
784.751958	2932.653441
785.075372	2926.677153
785.398739	2908.029925
785.722061	2926.382246
786.045337	2940.706685
786.368568	2924.196906
786.691752	2914.797674
787.014891	2961.030096
787.337983	2993.948831
787.661030	3019.189888
787.984031	3088.808223
788.306987	3132.068885
788.629897	3129.414717
788.952760	3114.336626
789.275579	3095.797783
789.598351	3037.882487
789.921078	2991.208964
790.243759	2981.020792
790.566395	2964.962196
790.888984	2938.024791
791.211529	2925.545414
791.534027	2914.341450
791.856480	2903.669327
792.178888	2888.160218
792.501249	2881.611759
792.823566	2878.725698
793.145836	2878.408105
793.468062	2872.207486
793.790241	2868.542567
794.112375	2874.775954
794.434464	2889.662481
794.756507	2892.523336
795.078505	2896.268913
795.400457	2910.255595
795.722364	2950.294959
796.044226	2974.220275
796.366042	2977.345791
796.687812	2963.492700
797.009538	2985.409116
797.331218	2973.529637
797.652852	2958.698563
797.974442	2938.322219
798.295986	2934.165788
798.617484	2931.257042
798.938938	2917.114085
799.260346	2899.732186
799.581709	2895.686660
799.903026	2889.508726
800.224299	2882.998076
800.545526	2872.300748
800.866708	2854.699559
801.187845	2846.979032
801.508936	2847.266377
801.829983	2855.304497
802.150984	2841.539627
802.471940	2830.199551
802.792851	2828.278872
803.113717	2829.171156
803.434538	2834.643328
803.755314	2828.132678
804.076045	2821.122954
804.396731	2821.901812
804.717372	2823.671257
805.037967	2816.545586
805.358518	2822.352995
805.679024	2832.329439
805.999485	2827.694098
806.319901	2833.030159
806.640272	2826.615291
806.960598	2833.078050
807.280879	2842.225224
807.601115	2850.162520
807.921306	2833.057885
808.241453	2829.060250
808.561554	2836.556446
808.881611	2838.613237
809.201623	2831.298523
809.521590	2835.323884
809.841513	2828.379695
810.161390	2832.470591
810.481223	2825.750733
810.801011	2820.772593
811.120755	2814.312355
811.440453	2815.013075
811.760107	2814.687921
812.079716	2817.097592
812.399281	2802.959676
812.718801	2797.353913
813.038276	2794.041875
813.357707	2802.483287
813.677093	2806.579225
813.996434	2799.962710
814.315731	2795.965075
814.634983	2788.630197
814.954191	2792.461473
815.273354	2807.829431
815.592473	2814.501398
815.911547	2818.166317
816.230577	2825.264262
816.549562	2839.220696
816.868502	2832.095025
817.187399	2842.169771
817.506250	2860.133923
817.825058	2856.494210
818.143821	2866.894110
818.462539	2883.156872
818.781213	2906.789802
819.099843	2948.643981
819.418429	3005.016684
819.736970	3068.331056
820.055466	3142.062972
820.373919	3249.605907
820.692327	3394.677712
821.010691	3564.123496
821.329011	4016.766179
821.647286	4925.154376
821.965517	6333.514128
822.283704	7092.124603
822.601847	7071.987714
822.919945	6431.725888
823.237999	5909.979068
823.556010	5319.367565
823.873976	4753.233385
824.191897	4340.451106
824.509775	4037.502965
824.827609	3760.640275
825.145398	3635.067654
825.463144	3628.718320
825.780845	3716.131928
826.098502	3826.939010
826.416116	4112.164974
826.733685	4436.086835
827.051210	4506.826827
827.368692	4386.204618
827.686129	4109.188173
828.003522	3782.271867
828.320872	3519.680683
828.638177	3319.022596
828.955439	3179.604445
829.272656	3095.326435
829.589830	3026.691125
829.906960	2974.023670
830.224046	2931.390632
830.541088	2895.101886
830.858086	2879.683517
831.175041	2860.980837
831.491952	2864.716332
831.808819	2875.781664
832.125642	2899.863256
832.442421	2946.602314
832.759157	3032.395191
833.075849	3212.873540
833.392497	3496.962723
833.709101	3706.490721
834.025662	3657.410047
834.342179	3492.902074
834.658653	3312.486740
834.975083	3159.684325
835.291469	3063.211764
835.607811	2975.934268
835.924110	2916.829259
836.240366	2862.861187
836.556578	2817.868889
836.872746	2796.350724
837.188871	2774.840120
837.504952	2753.926893
837.820990	2748.547982
838.136984	2733.641290
838.452935	2727.261710
838.768842	2724.637790
839.084706	2742.599421
839.400526	2823.769559
839.716303	2958.103707
840.032037	3042.603527
840.347727	3026.434026
840.663373	2965.355406
840.978977	2887.343551
841.294537	2811.302786
841.610054	2765.408121
841.925527	2742.107908
842.240957	2719.805844
842.556344	2698.958152
842.871687	2683.459124
843.186987	2669.890859
843.502244	2667.294665
843.817458	2663.922133
844.132629	2649.617859
844.447756	2642.577887
844.762840	2634.761578
845.077881	2636.636887
845.392879	2636.228554
845.707833	2634.012967
846.022745	2621.062243
846.337613	2627.277985
846.652438	2624.031482
846.967221	2623.295474
847.281960	2622.216667
847.596656	2621.916718
847.911309	2619.728857
848.225919	2617.911522
848.540485	2616.626027
848.855009	2616.847838
849.169490	2614.977570
849.483928	2615.998404
849.798323	2613.127467
850.112675	2613.165275
850.426984	2613.434977
850.741251	2611.874740
851.055474	2612.444390
851.369654	2618.803806
851.683792	2616.184926
851.997887	2616.812550
852.311938	2611.799122
852.625947	2614.808691
852.939914	2617.420009
853.253837	2619.864969
853.567718	2616.303393
853.881555	2611.655450
854.195350	2615.794237
854.509103	2615.428753
854.822812	2613.215687
855.136479	2610.153186
855.450103	2616.270626
855.763685	2616.079062
856.077224	2615.380862
856.390720	2609.283587
856.704173	2613.495471
857.017584	2619.310442
857.330953	2617.480503
857.644278	2622.209105
857.957561	2619.393621
858.270802	2615.118722
858.584000	2615.290122
858.897155	2619.950668
859.210268	2621.326903
859.523339	2614.216356
859.836367	2612.499843
860.149352	2613.208125
860.462295	2615.448918
860.775195	2609.253340
861.088054	2608.532455
861.400869	2609.500356
861.713642	2606.213524
862.026373	2607.556992
862.339062	2610.969853
862.651708	2614.165944
862.964312	2617.966974
863.276873	2614.423043
863.589392	2618.150976
863.901869	2624.124744
864.214303	2629.072636
864.526696	2633.133286
864.839045	2630.889972
865.151353	2633.178656
865.463619	2633.728142
865.775842	2634.630508
866.088023	2632.210754
866.400162	2633.332411
866.712258	2633.332411
867.024313	2631.681433
867.336325	2629.609519
867.648296	2635.021198
867.960224	2638.239974
868.272110	2633.085395
868.583954	2626.955352
868.895755	2630.834519
869.207515	2636.258801
869.519233	2642.615696
869.830909	2637.924902
870.142542	2632.430045
870.454134	2634.443986
870.765684	2641.385654
871.077191	2642.492188
871.388657	2645.269863
871.700081	2644.992600
872.011463	2647.162817
872.322803	2645.678197
872.634101	2649.252375
872.945357	2657.444250
873.256571	2663.607061
873.567744	2661.656134
873.878874	2657.489620
874.189963	2658.530619
874.501010	2665.167298
874.812015	2670.152999
875.122979	2669.197700
875.433900	2660.428613
875.744780	2658.054230
876.055618	2664.464057
876.366415	2669.716939
876.677169	2668.275169
876.987882	2664.378357
877.298554	2661.825013
877.609183	2673.583504
877.919771	2680.825122
878.230317	2687.023220
878.540822	2698.370857
878.851285	2715.173023
879.161707	2737.996847
879.472087	2777.509411
879.782425	2827.424396
880.092722	2944.449741
880.402977	3139.986017
880.713191	3408.883683
881.023363	3709.462482
881.333494	3908.328439
881.643583	4081.388730
881.953631	4078.404367
882.263637	3899.332500
882.573602	3675.369158
882.883526	3541.405536
883.193408	3422.945982
883.503248	3314.399858
883.813048	3199.559852
884.122806	3077.596697
884.432522	2991.239211
884.742197	2928.444078
885.051831	2888.578633
885.361424	2849.885257
885.670975	2813.409988
885.980485	2782.865637
886.289954	2761.702873
886.599382	2747.711151
886.908768	2738.982393
887.218113	2716.398024
887.527417	2701.229192
887.836680	2694.221988
888.145901	2686.572037
888.455082	2680.114319
888.764221	2667.229130
889.073319	2661.761998
889.382376	2661.220074
889.691392	2662.903820
890.000366	2661.388953
890.309300	2657.098931
890.618193	2661.920795
890.927044	2664.022956
891.235855	2665.361382
891.544625	2663.975065
891.853353	2662.233346
892.162041	2671.181394
892.470687	2689.687470
892.779293	2703.696837
893.087858	2716.352653
893.396381	2737.671693
893.704864	2780.352622
894.013306	2855.133098
894.321707	2953.392748
894.630068	3004.033659
894.938387	3025.430837
895.246665	3015.903056
895.554903	2971.833289
895.863100	2925.787390
896.171256	2868.124152
896.479371	2803.723411
896.787446	2761.423089
897.095480	2741.165212
897.403473	2736.020715
897.711425	2718.999259
898.019336	2701.478729
898.327207	2685.692356
898.635038	2685.271419
898.942827	2683.529701
899.250576	2675.000068
899.558284	2662.631597
899.865952	2656.826709
900.173579	2652.975267
900.481165	2653.330668
900.788711	2645.055614
901.096216	2639.154944
901.403681	2632.873666
901.711105	2633.854171
902.018489	2630.786628
902.325832	2636.006743
902.633135	2637.259470
902.940397	2653.176913
903.247619	2691.005732
903.554800	2762.141454
903.861941	2897.763616
904.169041	3029.002494
904.476101	3095.724686
904.783121	3087.447111
905.090100	3026.938142
905.397039	2948.427212
905.703938	2872.462064
906.010796	2807.085861
906.317614	2755.298087
906.624391	2715.377190
906.931129	2685.765452
907.237826	2662.051865
907.544483	2647.175420
907.851099	2629.438120
908.157675	2621.163066
908.464211	2611.085799
908.770707	2601.552977
909.077163	2598.339242
909.383578	2591.367326
909.689954	2594.412183
909.996289	2593.078798
910.302584	2591.301791
910.608839	2591.107707
910.915054	2590.510330
911.221229	2592.342789
911.527363	2593.855135
911.833458	2593.172059
912.139513	2591.873962
912.445527	2595.952255
912.751502	2601.142123
913.057436	2602.276383
913.363331	2613.825666
913.669186	2625.513582
913.975000	2637.909779
914.280775	2654.283447
914.586510	2675.478978
914.892205	2714.822663
915.197859	2783.488220
915.503475	2867.844368
915.809050	2938.990172
916.114585	2957.894499
916.420081	2970.769606
916.725536	2980.831749
917.030952	2952.371915
917.336328	2902.986251
917.641665	2851.808457
917.946961	2802.672331
918.252218	2764.432658
918.557435	2737.013822
918.862612	2714.681511
919.167750	2694.784077
919.472848	2678.596932
919.777906	2661.061278
920.082925	2649.330513
920.387904	2639.112094
920.692843	2632.356948
920.997743	2627.870321
921.302603	2619.502006
921.607423	2612.194853
921.912204	2608.459358
922.216946	2604.628081
922.521647	2603.183791
922.826310	2596.897472
923.130932	2594.505444
923.435516	2587.982191
923.740059	2586.855493
924.044564	2584.614700
924.349028	2582.517580
924.653454	2570.476784
924.957840	2569.403019
925.262186	2566.090981
925.566493	2570.875036
925.870761	2564.026628
926.174989	2565.070147
926.479178	2564.644169
926.783328	2564.800445
927.087438	2561.075032
927.391509	2563.512430
927.695541	2559.388767
927.999533	2557.034548
928.303486	2557.642007
928.607400	2558.221739
928.911275	2555.227294
929.215110	2561.841288
929.518906	2556.669064
929.822663	2558.597305
930.126381	2557.193344
930.430060	2555.829712
930.733699	2553.828374
931.037299	2558.204095
931.340861	2559.025803
931.644383	2557.495813
931.947866	2558.045299
932.251309	2555.638148
932.554714	2556.951369
932.858080	2557.334496
933.161407	2555.280226
933.464694	2553.644372
933.767943	2555.877603
934.071153	2553.478014
934.374323	2553.694783
934.677455	2550.977601
934.980548	2553.523384
935.283602	2551.945503
935.586617	2553.019269
935.889593	2554.675288
936.192530	2551.811912
936.495428	2552.081614
936.798287	2553.485575
937.101108	2558.287274
937.403890	2560.114693
937.706632	2560.495300
938.009336	2562.957903
938.312002	2566.448902
938.614628	2572.720098
938.917216	2576.614389
939.219765	2572.939388
939.522275	2578.545151
939.824747	2579.286201
940.127179	2569.834037
940.429573	2569.924778
940.731929	2572.936868
941.034246	2565.170970
941.336524	2572.223544
941.638763	2567.021073
941.940964	2569.818914
942.243126	2563.840105
942.545250	2562.068140
942.847335	2563.222564
943.149381	2562.005125
943.451389	2559.051009
943.753359	2558.675443
944.055290	2557.894064
944.357182	2558.251986
944.659036	2558.524209
944.960851	2557.863817
945.262628	2555.870041
945.564367	2556.777449
945.866067	2555.549928
946.167729	2559.850032
946.469352	2556.353992
946.770937	2559.040927
947.072484	2554.231666
947.373992	2557.636966
947.675462	2559.066133
947.976893	2553.404917
948.278286	2553.629248
948.579641	2555.159238
948.880958	2554.468600
949.182236	2553.629248
949.483476	2552.706717
949.784678	2554.115720
950.085841	2551.753939
950.386967	2553.460370
950.688054	2554.269475
950.989103	2552.353836
951.290114	2555.355843
951.591087	2557.780638
951.892021	2558.257028
952.192917	2559.421534
952.493776	2558.975392
952.794596	2561.427913
953.095378	2562.201730
953.396122	2562.113510
953.696828	2560.273489
953.997496	2559.280382
954.298126	2555.668395
954.598718	2556.323745
954.899272	2553.364588
955.199788	2553.057077
955.500266	2551.212015
955.800706	2547.879812
956.101108	2544.963505
956.401472	2545.354194
956.701798	2542.142979
957.002087	2544.938299
957.302337	2545.155069
957.602550	2544.976108
957.902724	2545.202960
958.202861	2543.143648
958.502960	2541.064172
958.803022	2540.628113
959.103045	2541.648946
959.403031	2540.882691
959.702979	2542.614327
960.002889	2542.694986
960.302762	2540.187012
960.602596	2539.075437
960.902393	2540.945705
961.202153	2539.579552
961.501875	2538.495704
961.801559	2538.170550
962.101205	2538.382278
962.400814	2536.522093
962.700385	2538.601569
962.999918	2535.755837
963.299414	2537.484953
963.598873	2538.226003
963.898293	2535.203831
964.197677	2538.417567
964.497022	2537.447144
964.796331	2538.876312
965.095601	2536.229706
965.394835	2536.494366
965.694030	2537.487474
965.993189	2537.495035
966.292309	2536.199459
966.591393	2534.361958
966.890439	2534.798018
967.189447	2536.138965
967.488419	2534.021680
967.787353	2536.131403
968.086249	2533.814993
968.385108	2537.921013
968.683930	2535.284489
968.982714	2538.601569
969.281462	2536.806918
969.580172	2536.668286
969.878844	2538.513348
970.177480	2534.432534
970.476078	2538.354552
970.774639	2538.639377
971.073162	2540.214738
971.371649	2535.526465
971.670098	2532.332894
971.968510	2536.582587
972.266885	2533.061341
972.565223	2537.303472
972.863524	2538.778009
973.161788	2537.822710
973.460014	2539.365303
973.758204	2538.145344
974.056356	2540.960829
974.354471	2539.458565
974.652550	2536.199459
974.950591	2535.672658
975.248595	2538.236085
975.546563	2538.591486
975.844493	2536.940508
976.142386	2541.359080
976.440243	2537.588297
976.738062	2535.836496
977.035845	2535.602082
977.333590	2534.898841
977.631299	2536.093595
977.928971	2535.332380
978.226606	2536.098636
978.524204	2536.267514
978.821765	2535.433203
979.119290	2536.098636
979.416777	2537.910931
979.714228	2535.516383
980.011642	2534.792977
980.309020	2537.794984
980.606360	2535.032432
980.903664	2536.252391
981.200931	2538.402443
981.498162	2538.180632
981.795356	2540.900335
982.092513	2543.597352
982.389633	2545.765048
982.686717	2550.695297
982.983764	2551.711089
983.280775	2551.675801
983.577749	2552.452139
983.874686	2548.542724
984.171587	2548.852755
984.468451	2546.899308
984.765279	2542.919317
985.062070	2541.908566
985.358824	2543.211704
985.655543	2541.462423
985.952224	2538.835982
986.248869	2539.382948
986.545478	2531.959848
986.842050	2533.220137
987.138586	2533.013450
987.435086	2531.543953
987.731549	2527.299302
988.027975	2534.074612
988.324366	2531.793490
988.620719	2534.745086
988.917037	2532.511855
989.213318	2535.634850
989.509563	2531.559077
989.805772	2532.269879
990.101944	2531.725435
990.398080	2532.834489
990.694180	2531.758202
990.990244	2532.819365
991.286271	2530.656710
991.582262	2535.370189
991.878217	2532.723583
992.174136	2533.376413
992.470019	2531.569159
992.765865	2533.131917
993.061676	2530.906247
993.357450	2532.973120
993.653188	2530.258459
993.948890	2532.395908
994.244556	2534.306506
994.540186	2535.178625
994.835780	2532.718542
995.131337	2533.472195
995.426859	2533.628470
995.722345	2534.248532
996.017795	2536.597710
996.313208	2534.697195
996.608586	2534.558563
996.903928	2537.333718
997.199234	2536.297761
997.494504	2538.185673
997.789738	2536.643080
998.084936	2537.275745
998.380099	2533.058820
998.675225	2532.395908
998.970316	2535.831455
999.265371	2534.515713
999.560390	2533.013450
999.855373	2535.581918
1000.150320	2531.087729
1000.445232	2534.215765
1000.740108	2532.547143
1001.034948	2534.162833
1001.329752	2534.556043
1001.624521	2532.889941
1001.919254	2528.362985
1002.213951	2531.569159
1002.508613	2526.485155
1002.803239	2528.052954
1003.097829	2526.870804
1003.392384	2533.275590
1003.686903	2530.878521
1003.981386	2530.923891
1004.275834	2530.724766
1004.570246	2531.768285
1004.864623	2531.763243
1005.158964	2530.898686
1005.453270	2532.274921
1005.747540	2532.660569
1006.041775	2529.466998
1006.335974	2531.856505
1006.630138	2529.308202
1006.924266	2529.199817
1007.218359	2532.917668
1007.512416	2532.584952
1007.806438	2532.491690
1008.100425	2529.383819
1008.394376	2532.532019
1008.688292	2530.823068
1008.982172	2529.139323
1009.276017	2533.404139
1009.569827	2529.348531
1009.863602	2532.610157
1010.157341	2531.579241
1010.451045	2529.449354
1010.744714	2530.865918
1011.038347	2531.639735
1011.331945	2529.719056
1011.625508	2529.608150
1011.919036	2531.503624
1012.212528	2530.220650
1012.505986	2531.904396
1012.799408	2530.417255
1013.092795	2530.266021
1013.386147	2532.842050
1013.679464	2530.288706
1013.972745	2529.898017
1014.265992	2532.317770
1014.559204	2532.267359
1014.852380	2530.031607
1015.145521	2528.859539
1015.438628	2533.071423
1015.731699	2530.961700
1016.024736	2530.092101
1016.317737	2531.664941
1016.610703	2531.254087
1016.903635	2528.753675
1017.196531	2526.449867
1017.489393	2529.167049
1017.782219	2525.928108
1018.075011	2529.497245
1018.367768	2530.891124
1018.660490	2531.720394
1018.953177	2531.720394
1019.245829	2531.720394
