Dividing Wavelength (nm)	Counts (n)	Blue Motor Position (mm): 32.800000	Red Motor Position (mm): 0.000000	
326.493990	2052.341951
326.888308	2052.341951
327.282561	2052.341951
327.676750	2025.505368
328.070874	2030.816224
328.464933	2034.178674
328.858929	2042.791485
329.252859	2054.434030
329.646726	2066.162274
330.040528	2083.879409
330.434265	2099.091091
330.827938	2120.891561
331.221547	2143.203708
331.615091	2162.342448
332.008571	2184.886488
332.401986	2203.712678
332.795338	2223.363095
333.188625	2243.658781
333.581847	2262.835330
333.975006	2281.510284
334.368100	2298.136010
334.761129	2315.205357
335.154095	2328.514003
335.546996	2379.548124
335.939833	2490.531646
336.332606	2496.311329
336.725315	2513.370594
337.117960	2522.079187
337.510540	2534.319108
337.903056	2541.739687
338.295508	2547.055584
338.687896	2556.049002
339.080220	2557.440361
339.472480	2563.363716
339.864676	2564.021587
340.256807	2572.117680
340.648875	2573.632547
341.040879	2571.790005
341.432818	2574.232444
341.824694	2574.746642
342.216506	2576.120356
342.608253	2573.496436
342.999937	2575.165057
343.391557	2575.654049
343.783113	2569.622309
344.174605	2569.171126
344.566033	2565.332287
344.957397	2569.065261
345.348697	2565.266752
345.739934	2565.135682
346.131106	2562.269786
346.522215	2559.643345
346.913260	2560.056719
347.304241	2557.026986
347.695159	2555.721327
348.086012	2553.127653
348.476802	2552.797458
348.867528	2546.596839
349.258191	2545.636499
349.648789	2547.567261
350.039324	2542.473175
350.429796	2547.995759
350.820203	2546.054915
351.210548	2544.512322
351.600828	2545.883515
351.991045	2543.683052
352.381198	2544.388813
352.771288	2544.250182
353.161314	2539.473688
353.551276	2539.332536
353.941175	2537.926054
354.331010	2542.001827
354.720782	2545.172713
355.110490	2544.731612
355.500135	2540.602907
355.889717	2543.690613
356.279235	2544.628268
356.668689	2545.760007
357.058080	2542.853782
357.447408	2544.739173
357.836672	2545.586087
358.225873	2545.896118
358.615010	2545.848227
359.004084	2546.180943
359.393095	2545.651622
359.782043	2547.473999
360.170927	2547.884853
360.559748	2547.670604
360.948505	2548.295707
361.337199	2551.428785
361.725830	2551.630431
362.114398	2550.652447
362.502903	2551.612787
362.891344	2551.552293
363.279722	2552.056408
363.668037	2553.777962
364.056289	2553.982129
364.444478	2553.742674
364.832603	2555.247459
365.220665	2554.070349
365.608665	2553.818292
365.996601	2556.011193
366.384474	2555.988508
366.772284	2554.924825
367.160031	2553.793086
367.547715	2559.171997
367.935336	2553.291491
368.322893	2555.887685
368.710388	2554.851728
369.097820	2554.158569
369.485189	2552.220246
369.872495	2561.642162
370.259738	2560.107131
370.646918	2561.780794
371.034035	2561.538819
371.421090	2558.998077
371.808081	2560.999415
372.195010	2560.389436
372.581875	2561.526216
372.968678	2562.259704
373.355418	2559.058571
373.742096	2563.358675
374.128710	2561.637121
374.515262	2565.526371
374.901751	2563.756926
375.288177	2562.960424
375.674540	2563.245249
376.060841	2564.694581
376.447079	2565.236505
376.833254	2565.491083
377.219367	2565.831361
377.605417	2566.839592
377.991404	2563.565362
378.377329	2567.615930
378.763191	2565.791032
379.148991	2568.828327
379.534727	2568.969479
379.920402	2568.750189
380.306013	2568.709860
380.691563	2572.576425
381.077049	2567.825137
381.462474	2564.777760
381.847835	2567.525189
382.233134	2568.969479
382.618371	2565.980075
383.003545	2569.823955
383.388657	2568.951835
383.773706	2572.084912
384.158693	2571.777402
384.543618	2571.663976
384.928480	2571.948801
385.313280	2572.024419
385.698017	2572.256312
386.082692	2570.222206
386.467305	2571.074161
386.851856	2574.507187
387.236344	2573.367886
387.620770	2573.670355
388.005133	2570.174315
388.389435	2573.186405
388.773674	2569.972669
389.157851	2575.124728
389.541965	2576.430387
389.926018	2576.604307
390.310008	2575.212948
390.693936	2578.948443
391.077802	2581.290059
391.461606	2578.212435
391.845348	2578.038515
392.229027	2579.124884
392.612645	2576.465675
392.996200	2580.264185
393.379694	2579.452559
393.763125	2580.778382
394.146494	2580.256623
394.529801	2581.017837
394.913047	2584.430698
395.296230	2582.026068
395.679351	2582.431881
396.062410	2584.055132
396.445408	2581.234607
396.828343	2583.682087
397.211217	2582.867941
397.594028	2586.817685
397.976778	2583.185533
398.359466	2582.973805
398.742092	2583.049422
399.124656	2587.117633
399.507158	2582.071438
399.889598	2589.877665
400.271977	2588.327510
400.654294	2586.084197
401.036549	2585.817016
401.418742	2587.546131
401.800874	2591.344641
402.182944	2586.679053
402.564952	2587.319279
402.946898	2588.614856
403.328783	2591.211050
403.710606	2589.247521
404.092367	2590.913622
404.474067	2591.286667
404.855705	2594.742378
405.237282	2593.416555
405.618797	2591.987388
406.000250	2593.842533
406.381642	2597.517534
406.762972	2592.867069
407.144240	2593.837491
407.525447	2596.184148
407.906593	2593.466967
408.287677	2595.889241
408.668700	2599.879314
409.049661	2600.307812
409.430560	2600.965683
409.811399	2601.366455
410.192176	2601.500045
410.572891	2601.976434
410.953545	2604.638163
411.334138	2604.716301
411.714669	2608.056066
412.095139	2605.885849
412.475547	2607.415839
412.855894	2607.355345
413.236180	2610.843824
413.616405	2611.340377
413.996568	2611.252157
414.376670	2613.321551
414.756711	2616.542848
415.136691	2620.449742
415.516609	2622.448560
415.896466	2624.205402
416.276262	2626.345372
416.655997	2633.972638
417.035670	2638.212248
417.415283	2646.278094
417.794834	2651.319248
418.174324	2656.506595
418.553753	2661.963644
418.933121	2673.270952
419.312428	2679.852179
419.691674	2683.668332
420.070859	2699.421938
420.449983	2707.888556
420.829045	2724.957903
421.208047	2736.131620
421.586988	2754.317583
421.965867	2774.240223
422.344686	2792.824437
422.723444	2819.988694
423.102141	2815.600370
423.480777	2858.306504
423.859352	2867.531816
424.237866	2913.978487
424.616319	2935.708381
424.994712	2977.224803
425.373044	2992.290291
425.751314	3047.775751
426.129524	3050.744991
426.507673	3106.676593
426.885762	3139.955770
427.263789	3184.948068
427.641756	3226.756877
428.019662	3272.018877
428.397508	3313.542861
428.775292	3351.270857
429.153016	3414.189498
429.530679	3444.645629
429.908282	3497.441633
430.285824	3529.876417
430.663305	3617.607617
431.040726	3645.218017
431.418086	3689.774255
431.795385	3766.344341
432.172624	3856.764997
432.549802	3878.250395
432.926920	3957.704020
433.303977	3999.966534
433.680974	4062.859969
434.057910	4171.965662
434.434786	4242.367896
434.811601	4284.232158
435.188355	4448.513279
435.565050	4475.543946
435.941683	4538.994429
436.318257	4705.176066
436.694770	4750.964866
437.071222	4892.366711
437.447614	4870.692270
437.823946	4921.948202
438.200218	5045.486718
438.576429	5065.560593
438.952580	5194.909038
439.328670	5267.723465
439.704700	5370.943610
440.080670	5387.317278
440.456580	5567.339402
440.832429	5629.171675
441.208218	5575.054888
441.583947	5692.291962
441.959616	5815.260828
442.335224	5902.997069
442.710773	6012.243914
443.086261	6182.713052
443.461689	6101.096772
443.837057	6249.944401
444.212365	6436.320899
444.587612	6502.395303
444.962800	6505.717423
445.337927	6656.271483
445.712995	6446.375481
446.088002	6913.128354
446.462949	7025.115066
446.837837	7101.163392
447.212664	7212.149435
447.587431	7903.266422
447.962139	8640.265470
448.336786	9235.194721
448.711374	9038.567035
449.085901	8307.453534
449.460369	8368.350673
449.834776	8385.926656
450.209124	9150.389910
450.583412	9043.598107
450.957640	9265.514740
451.331808	9027.862145
451.705917	8727.379129
452.079965	8730.900375
452.453954	8950.944220
452.827883	8983.252975
453.201752	9009.645936
453.575562	9087.299870
453.949311	9433.922046
454.323001	9564.853415
454.696632	9552.671466
455.070202	10102.560528
455.443713	10206.057937
455.817164	10394.196319
456.190556	10726.504139
456.563888	10626.817843
456.937160	10872.143074
457.310373	10483.386933
457.683526	10565.988760
458.056619	10655.524693
458.429653	10772.144226
458.802628	10981.533592
459.175542	11076.098076
459.548398	11619.448761
459.921194	12169.801609
460.293930	12507.959688
460.666607	13338.454497
461.039224	14055.442685
461.411782	14339.632692
461.784280	14002.109797
462.156719	13969.138131
462.529099	13931.979786
462.901419	13419.619594
463.273680	13120.530457
463.645882	13375.325496
464.018024	13372.557902
464.390106	13804.413388
464.762130	14957.451301
465.134094	16605.717045
465.505999	18836.969546
465.877845	20799.510903
466.249631	21690.189526
466.621358	21103.525247
466.993026	20320.550876
467.364634	19652.827364
467.736184	18996.985851
468.107674	18486.286720
468.479105	18358.085136
468.850477	18113.236294
469.221790	17725.611893
469.593043	17106.666585
469.964238	16793.310982
470.335373	16910.480001
470.706449	17785.977189
471.077467	18943.320248
471.448425	21288.137342
471.819324	22761.732147
472.190164	22245.923806
472.560945	20590.481979
472.931667	19209.714982
473.302330	18967.467375
473.672934	18537.106592
474.043479	18969.662798
474.413965	18783.379560
474.784393	18642.436460
475.154761	19277.493295
475.525070	19428.838816
475.895321	19265.286141
476.265513	19780.943248
476.635645	20366.006960
477.005719	20448.931420
477.375734	20834.660348
477.745691	21436.420362
478.115588	22108.438937
478.485427	23384.196179
478.855207	25258.444247
479.224928	26988.172517
479.594591	28159.880343
479.964194	27606.175128
480.333739	27987.051946
480.703226	28279.466595
481.072653	28801.609146
481.442022	29286.792477
481.811333	29594.806977
482.180584	29081.839326
482.549777	28884.944460
482.918912	28700.075266
483.287988	28638.454722
483.657005	28471.927767
484.025964	28138.737744
484.394864	28313.459095
484.763706	28262.314069
485.132489	27775.595706
485.501213	27851.391975
485.869879	28048.551502
486.238487	28009.729576
486.607036	28278.239074
486.975527	28013.704526
487.343959	28344.424383
487.712333	28680.326546
488.080648	28642.323808
488.448905	29087.810573
488.817104	29010.549849
489.185244	29912.371943
489.553326	31079.772104
489.921350	33034.426576
490.289315	35419.461995
490.657222	36102.160255
491.025070	36480.735785
491.392861	36088.531495
491.760593	35277.944204
492.128267	34266.971047
492.495883	33324.398786
492.863440	32490.496158
493.230939	31608.758021
493.598380	31105.678593
493.965763	30991.806490
494.333088	30539.418385
494.700354	30359.565139
495.067563	30347.420999
495.434713	30255.157802
495.801805	30559.267928
496.168839	30414.054971
496.535815	30287.572421
496.902733	30442.522367
497.269593	30271.337385
497.636395	30428.833113
498.003139	30709.436339
498.369825	30502.945637
498.736453	30920.307805
499.103023	30760.404925
499.469535	30855.977641
499.835989	31001.702275
500.202385	30863.720853
500.568723	30944.172627
500.935003	31283.175100
501.301226	31192.449454
501.667390	31875.430018
502.033497	32077.149269
502.399546	31876.279453
502.765537	31495.664776
503.131470	31961.238018
503.497345	32391.606363
503.863163	31387.839536
504.228923	32169.568742
504.594625	32555.146435
504.960269	32076.370411
505.325856	32738.021853
505.691385	32421.155087
506.056856	32745.177771
506.422270	33241.824686
506.787625	32776.495939
507.152924	33255.682818
507.518164	33462.276864
507.883347	33019.411499
508.248472	33195.940104
508.613540	33894.611259
508.978550	34123.857730
509.343503	33991.950899
509.708398	34358.200808
510.073236	34966.095906
510.438016	35075.312504
510.802738	34767.194661
511.167403	35328.597718
511.532010	35595.138645
511.896561	36083.888593
512.261053	36835.287697
512.625488	36621.295757
512.989866	36558.830820
513.354186	36613.373584
513.718449	36585.596826
514.082655	37488.190217
514.446803	37194.878242
514.810894	37821.135743
515.174927	37839.906479
515.538904	37839.044442
515.902822	38489.015531
516.266684	38196.288330
516.630488	38561.146881
516.994235	38586.599667
517.357925	39175.847537
517.721558	39436.654152
518.085133	39815.701030
518.448651	40015.350887
518.812112	39900.672198
519.175516	40078.002347
519.538863	40516.164316
519.902152	40585.845665
520.265385	41129.307255
520.628560	41165.699345
520.991678	41109.747578
521.354739	41350.404701
521.717743	41717.430948
522.080690	41633.662094
522.443580	42304.795947
522.806413	42337.427336
523.169189	42479.655930
523.531908	42730.833941
523.894569	42581.701487
524.257174	42781.129533
524.619722	43129.372441
524.982213	43261.052420
525.344647	43306.271570
525.707025	43441.245944
526.069345	43894.599430
526.431608	43789.438440
526.793815	44193.517168
527.155964	43738.628650
527.518057	44011.092933
527.880093	43860.957290
528.242072	44490.231921
528.603995	44234.181635
528.965860	44150.374973
529.327669	44387.160490
529.689421	44442.961022
530.051117	44379.099685
530.412755	44679.600345
530.774337	44750.443680
531.135862	44692.351944
531.497331	44826.736502
531.858743	44839.132700
532.220098	45240.098515
532.581396	44964.107945
532.942638	44742.070323
533.303824	44998.029869
533.664953	45055.688066
534.026025	44732.078757
534.387040	45297.124047
534.747999	45373.424431
535.108902	45690.606269
535.469748	45018.219690
535.830537	45272.772753
536.191270	45531.583071
536.551947	45261.220949
536.912567	45550.313478
537.273131	45705.142437
537.633638	45313.374207
537.994089	45535.222784
538.354483	45271.414162
538.714821	45917.564057
539.075103	46198.404217
539.435328	46064.581747
539.795497	45819.858933
540.155609	45937.731193
540.515665	46529.376132
540.875665	45826.276322
541.235609	46117.012267
541.595496	46236.301091
541.955328	46809.013977
542.315102	46238.614981
542.674821	46137.600340
543.034483	46013.119128
543.394090	46047.540126
543.753640	46020.562392
544.113134	47086.247191
544.472571	46192.548917
544.831953	47321.129672
545.191278	46590.492560
545.550548	46272.234436
545.909761	46922.276101
546.268918	47064.492092
546.628019	47486.043459
546.987064	46916.312416
547.346053	46192.080089
547.704986	47115.286758
548.063863	46762.514373
548.422684	46956.195504
548.781449	46574.544870
549.140158	47087.822552
549.498811	46859.957357
549.857408	46255.762465
550.215949	47079.476922
550.574434	46917.580266
550.932864	46856.292438
551.291237	47578.238601
551.649555	47330.614603
552.007817	47498.762290
552.366022	47176.317487
552.724173	47240.637569
553.082267	47663.582815
553.440305	48004.644599
553.798288	47253.056451
554.156215	47642.236049
554.514086	47857.145478
554.871902	47478.373343
555.229661	47639.120616
555.587365	47320.474322
555.945014	47461.694686
556.302606	47468.943865
556.660143	47577.288343
557.017625	47780.351061
557.375050	47488.180908
557.732421	47893.769461
558.089735	47964.287642
558.446994	47826.255808
558.804197	48317.470880
559.161345	48176.094241
559.518437	47503.032147
559.875474	47764.756252
560.232455	48002.648302
560.589381	48050.269562
560.946251	47855.008029
561.303065	48519.023773
561.659825	48203.515597
562.016528	48011.619035
562.373177	47588.477184
562.729770	48214.545642
563.086307	47728.379286
563.442789	48280.299932
563.799216	48140.097882
564.155587	48010.540228
564.511904	47985.536105
564.868164	48049.092452
565.224370	48346.828040
565.580520	48084.196527
565.936615	48283.652300
566.292654	47938.439125
566.648638	48303.723654
567.004567	48237.321575
567.360441	48326.981017
567.716260	48050.561949
568.072023	48425.313764
568.427732	48350.709728
568.783385	47891.611847
569.138982	48292.166808
569.494525	48427.229402
569.850013	48022.306281
570.205445	48136.248961
570.560823	47934.144062
570.916145	47793.064851
571.271412	48013.779170
571.626625	47692.294707
571.981782	47750.623377
572.336884	47336.033844
572.691931	47670.605142
573.046923	47349.629836
573.401860	47175.354627
573.756743	47187.770988
574.111570	47339.615583
574.466342	47240.864421
574.821059	47389.419663
575.175722	46888.835607
575.530330	46995.914755
575.884882	46631.996380
576.239380	46524.657612
576.593823	46614.483411
576.948211	46531.569033
577.302544	46084.494305
577.656823	46067.165338
578.011047	46355.829369
578.365216	46175.376226
578.719330	45892.612866
579.073389	45866.555142
579.427394	45915.509787
579.781344	45842.670155
580.135239	45603.026304
580.489080	45669.791345
580.842866	45149.980328
581.196597	45650.105639
581.550273	45646.435679
581.903895	45588.013748
582.257463	46009.209713
582.610975	45447.118539
582.964434	45796.160469
583.317837	45289.585002
583.671186	45236.688174
584.024481	45516.779723
584.377721	45059.484055
584.730906	45275.129493
585.084037	45393.503347
585.437113	45100.577020
585.790135	45214.668414
586.143103	44768.964879
586.496016	44940.482577
586.848874	45043.561570
587.201679	45071.247587
587.554428	44577.859778
587.907124	44849.348598
588.259765	44609.011588
588.612352	44778.598524
588.964884	44224.127054
589.317362	44533.376637
589.669786	44542.927103
590.022155	44382.068924
590.374470	44837.680847
590.726731	44403.302264
591.078937	43742.999331
591.431090	44087.988174
591.783188	43616.143735
592.135232	43399.951332
592.487222	43670.711705
592.839157	43815.218901
593.191038	43460.193121
593.542866	43269.743369
593.894639	42669.465455
594.246358	42943.384111
594.598022	42955.102273
594.949633	42516.284954
595.301190	42512.632638
595.652692	42455.405459
596.004141	42935.610651
596.355535	41829.926817
596.706876	41858.568132
597.058162	41575.880389
597.409395	42069.106881
597.760573	42307.069508
598.111698	41890.818914
598.462768	41816.789570
598.813785	41835.146931
599.164748	41426.758017
599.515657	41711.769732
599.866511	41207.024203
600.217312	41890.662638
600.568060	40841.845539
600.918753	41672.617611
601.269392	41591.863367
601.619978	41300.842597
601.970510	41515.499969
602.320988	41656.014571
602.671412	41902.146387
603.021783	41790.893162
603.372100	41340.544204
603.722363	41462.605662
604.072572	41486.596513
604.422728	41482.918992
604.772830	41262.766762
605.122878	41430.377566
605.472872	41284.927674
605.822813	41555.105794
606.172701	41302.891826
606.522534	41625.074489
606.872314	41827.065962
607.222041	41660.561691
607.571714	41991.097546
607.921333	41485.618529
608.270899	41713.665206
608.620411	42086.791249
608.969870	41833.495953
609.319276	41845.488858
609.668627	41881.523026
610.017926	42300.344608
610.367171	42420.891200
610.716362	42457.716828
611.065500	42357.322250
611.414585	42571.992224
611.763616	42751.351437
612.112594	42652.892661
612.461518	42785.641366
612.810389	43174.473123
613.159207	42969.237668
613.507971	42932.787605
613.856682	43428.456537
614.205340	43261.861525
614.553945	43939.679948
614.902496	43275.366777
615.250994	43714.098396
615.599439	43753.026186
615.947830	43867.440213
616.296169	43866.520203
616.644454	43907.721553
616.992686	44068.267180
617.340864	44525.076377
617.688990	44040.969332
618.037063	44731.730917
618.385082	44552.487651
618.733048	44892.485751
619.080961	44755.643630
619.428821	44775.626764
619.776628	44787.332323
620.124382	44601.654024
620.472083	44704.697729
620.819731	44814.090768
621.167326	44362.945307
621.514868	44351.058267
621.862357	43818.984643
622.209793	43894.513730
622.557176	43458.693377
622.904506	43214.111716
623.251783	42847.120757
623.599007	42527.471274
623.946179	42454.916468
624.293297	42181.201978
624.640363	41645.075267
624.987376	41490.838644
625.334336	41294.888994
625.681243	40869.992822
626.028097	40780.124172
626.374899	40594.229103
626.721647	40569.484600
627.068343	40352.402433
627.414987	40080.701885
627.761577	39809.006377
628.108115	40138.745730
628.454600	39401.073688
628.801032	39614.828693
629.147412	39499.766877
629.493739	39409.056355
629.840014	38979.726487
630.186236	39425.866082
630.532405	38859.210143
630.878521	39088.519629
631.224585	38863.984116
631.570597	38522.594657
631.916556	38684.219090
632.262462	38570.566277
632.608316	38506.901545
632.954117	38366.394505
633.299866	38332.041562
633.645562	38235.258970
633.991206	37686.083232
634.336797	37278.188350
634.682336	37179.401900
635.027823	36923.412107
635.373257	36797.998282
635.718639	36483.972206
636.063968	36381.745168
636.409245	35712.731120
636.754470	35673.546231
637.099642	35444.178772
637.444762	34895.469341
637.789829	35023.010533
638.134845	34649.823996
638.479808	34566.218980
638.824719	34499.998383
639.169577	33979.743745
639.514383	34086.225517
639.859137	33701.824933
640.203839	33874.325656
640.548489	33580.496963
640.893086	33579.587035
641.237632	33309.842454
641.582125	33408.339039
641.926566	33194.153015
642.270955	33226.892788
642.615292	33146.977897
642.959576	33032.906668
643.303809	33058.130081
643.647990	33147.955881
643.992118	33099.149950
644.336195	32954.698207
644.680219	33032.480690
645.024192	33250.699637
645.368112	33770.654327
645.711981	33789.225938
646.055797	34516.193090
646.399562	34335.886141
646.743274	35210.690170
647.086935	35609.818485
647.430544	35553.949898
647.774101	35589.878201
648.117606	35883.462398
648.461059	36026.560591
648.804460	35612.812930
649.147810	35092.245740
649.491108	34736.420937
649.834354	34595.117395
650.177548	33764.239459
650.520690	33257.661471
650.863781	33257.127108
651.206820	33073.150199
651.549807	32661.421520
651.892742	32079.193457
652.235626	31977.765441
652.578458	31850.032685
652.921238	31175.523780
653.263967	31477.970326
653.606644	31184.585254
653.949269	31092.150657
654.291843	30698.217252
654.634365	31059.978013
654.976836	30597.439545
655.319255	30674.203715
655.661622	30545.787883
656.003938	30411.892316
656.346203	30233.465717
656.688416	30475.289867
657.030577	30235.013351
657.372687	30071.201057
657.714746	30227.464223
658.056753	30427.640881
658.398708	29794.275352
658.740612	29873.466838
659.082465	30082.165566
659.424266	29963.960591
659.766016	29977.208743
660.107715	29834.128194
660.449362	29946.951738
660.790958	29919.676575
661.132503	29842.758650
661.473996	29925.743604
661.815438	30006.780152
662.156829	30113.372829
662.498168	29939.349678
662.839456	29904.853062
663.180693	30037.137980
663.521879	30118.446751
663.863013	30078.019217
664.204097	30056.334694
664.545129	30476.804733
664.886110	30405.633723
665.227040	30509.836894
665.567918	30506.436636
665.908746	30587.553842
666.249522	30678.760918
666.590248	30700.329495
666.930922	30800.351028
667.271545	30780.846804
667.612118	30848.587309
667.952639	30659.576807
668.293109	30707.122450
668.633528	30552.623687
668.973896	30523.183349
669.314213	30490.972896
669.654480	30299.250254
669.994695	30291.552412
670.334859	30213.848067
670.674973	30034.783761
671.015035	30243.732027
671.355047	30168.636478
671.695008	30103.078793
672.034918	30010.752581
672.374777	30115.616143
672.714585	29970.935027
673.054342	30112.122623
673.394049	29969.518463
673.733705	30179.684167
674.073310	29894.097760
674.412864	29953.432141
674.752368	29651.131789
675.091820	29876.385666
675.431223	29474.169645
675.770574	29276.876528
676.109875	29109.298491
676.449125	28894.547858
676.788324	28812.765219
677.127473	28312.163519
677.466571	28224.472648
677.805619	27945.704402
678.144616	27878.183187
678.483562	27825.666967
678.822458	27505.863729
679.161303	27452.160317
679.500098	27387.215132
679.838842	27303.451319
680.177535	27396.649651
680.516179	27641.737948
680.854771	27776.858515
681.193314	28553.050014
681.531805	29594.507028
681.870247	30336.096047
682.208638	31075.136763
682.546978	31336.863388
682.885268	31477.277167
683.223508	31016.404800
683.561697	30732.134135
683.899836	30579.719889
684.237925	30163.423925
684.575963	30029.505673
684.913951	29660.152934
685.251889	29823.609827
685.589776	29866.121877
685.927614	29859.444869
686.265401	30041.289370
686.603137	30166.955253
686.940824	30670.599290
687.278460	31009.967247
687.616046	31170.223007
687.953582	31849.062263
688.291068	31743.276170
688.628504	32091.980343
688.965889	32074.923599
689.303224	31789.889199
689.640510	31499.627122
689.977745	30861.412004
690.314930	30113.529105
690.652065	29656.152778
690.989150	28984.413987
691.326185	28126.638975
691.663170	27509.397578
692.000105	26750.593018
692.336990	26138.912013
692.673825	25733.628450
693.010610	25239.393727
693.347345	24730.383382
693.684030	24109.401448
694.020665	23900.798502
694.357251	23224.507549
694.693786	23231.799578
695.030272	23002.701821
695.366707	22488.085713
695.703093	22224.110733
696.039429	22292.695631
696.375716	22062.425806
696.711952	22062.496382
697.048139	21933.417638
697.384276	21761.385742
697.720363	21883.648846
698.056400	21783.249226
698.392388	21621.584463
698.728326	21604.278182
699.064214	21453.134308
699.400053	21440.470929
699.735842	21071.599620
700.071581	20859.707321
700.407270	20603.878846
700.742910	20439.998496
701.078501	20189.163283
701.414042	19974.521035
701.749533	19679.981539
702.084974	19354.393577
702.420366	19587.393187
702.755709	19179.916722
703.091002	18875.146204
703.426246	18941.238252
703.761440	18875.375577
704.096584	18639.242889
704.431679	18575.215194
704.766725	18514.814609
705.101721	18458.530127
705.436668	18577.264423
705.771565	18305.694945
706.106413	18622.143295
706.441212	18693.531075
706.775961	18806.100040
707.110661	18888.326301
707.445311	19258.510831
707.779913	19134.402664
708.114465	19438.361556
708.448967	19751.003835
708.783421	20381.289218
709.117825	20755.274778
709.452180	20983.581074
709.786485	21441.194335
710.120742	22210.978527
710.454949	22321.231082
710.789107	22834.107992
711.123216	23557.306882
711.457275	23770.041054
711.791286	24322.811135
712.125247	24472.137673
712.459159	24195.378327
712.793023	24944.932369
713.126837	23915.604371
713.460602	24150.103724
713.794318	23801.286125
714.127985	23526.767572
714.461602	22629.744657
714.795171	22598.275254
715.128691	21613.228751
715.462162	21098.423600
715.795584	20653.524129
716.128957	20382.592356
716.462281	20011.886067
716.795556	19733.632019
717.128782	19249.880375
717.461960	18649.622625
717.795088	18619.098438
718.128167	18268.342516
718.461198	17815.697312
718.794180	17689.870112
719.127113	17347.023759
719.459997	17152.644429
719.792833	16786.951567
720.125619	16826.970767
720.458357	16500.356930
720.791046	16356.245465
721.123686	16211.362703
721.456278	15988.374824
721.788821	15988.384907
722.121315	15714.607403
722.453761	15823.226624
722.786158	15703.925198
723.118506	15786.776562
723.450805	15668.838767
723.783056	15850.721078
724.115259	15739.488018
724.447412	15743.659573
724.779518	15963.204343
725.111574	16005.542474
725.443582	16285.477747
725.775542	16229.170579
726.107453	16758.612721
726.439315	16679.355700
726.771129	17103.909074
727.102895	17533.947223
727.434612	17805.312535
727.766281	17963.997976
728.097901	18288.746586
728.429473	18367.461682
728.760996	18386.234939
729.092471	18496.167381
729.423897	18394.751969
729.755276	18272.125902
730.086606	18391.472698
730.417887	18970.734043
730.749120	19533.107522
731.080305	19751.888558
731.411442	20156.642800
731.742530	20265.998030
732.073570	20419.450753
732.404562	20754.816033
732.735506	20589.307390
733.066401	20368.126765
733.397249	19875.931189
733.728048	19227.381706
734.058798	18368.853041
734.389501	17601.501205
734.720156	17084.329232
735.050762	16503.590830
735.381320	16126.688963
735.711831	15846.710840
736.042293	15481.761548
736.372707	15520.369225
736.703073	15311.141176
737.033391	15518.972825
737.363661	15507.431103
737.693883	15644.091743
738.024056	15853.342477
738.354182	16068.077987
738.684260	16433.760767
739.014290	16716.574539
739.344272	16948.593644
739.674207	17297.171789
740.004093	17472.780383
740.333931	17520.575563
740.663722	17600.407275
740.993464	17631.347357
741.323159	17474.275085
741.652806	17162.978794
741.982405	17001.288826
742.311956	16646.142058
742.641460	16518.260588
742.970915	16181.473702
743.300323	15832.099055
743.629683	15618.815398
743.958996	15294.611232
744.288260	14978.057017
744.617477	14678.083158
744.946647	14649.298169
745.275768	14324.373119
745.604842	14127.979847
745.933869	13943.834059
746.262847	13924.413014
746.591778	13841.009644
746.920662	13722.784504
747.249498	13730.759609
747.578286	13897.899065
747.907027	14067.833841
748.235720	14344.046222
748.564365	14416.285956
748.892963	14333.490046
749.221514	14441.640440
749.550017	14305.461230
749.878473	14270.261373
750.206881	14043.578329
750.535242	13971.666269
750.863555	13897.808324
751.191821	13791.414773
751.520039	13809.862875
751.848210	13736.103233
752.176334	13791.044248
752.504411	13712.535838
752.832440	13530.167057
753.160421	13647.562927
753.488356	13534.525134
753.816243	13437.944188
754.144082	13276.433181
754.471875	13229.089184
754.799620	13194.302702
755.127318	13169.936285
755.454969	13155.833657
755.782572	13120.253193
756.110129	13141.403354
756.437638	13049.029251
756.765100	13049.641752
757.092515	13079.397162
757.419882	13114.312194
757.747203	13134.181902
758.074477	13222.263462
758.401703	13207.802912
758.728882	13403.669383
759.056014	13441.314200
759.383099	13617.489924
759.710138	13743.065066
760.037129	13864.140978
760.364073	13920.405297
760.690970	13952.590543
761.017820	13978.983504
761.344623	14198.954252
761.671379	14586.127471
761.998088	15292.735923
762.324751	17090.910459
762.651366	20546.757531
762.977935	25062.585338
763.304456	28053.088540
763.630931	29098.414640
763.957359	27860.289612
764.283740	25567.537554
764.610074	23269.159569
764.936362	20617.638675
765.262602	18719.931598
765.588796	16777.693488
765.914943	15481.743904
766.241044	14378.850348
766.567097	13580.684459
766.893104	12866.733567
767.219064	12398.606979
767.544978	11916.907085
767.870845	11525.494257
768.196665	11301.535956
768.522438	11067.268495
768.848165	10866.307938
769.173846	10649.984465
769.499479	10527.791937
769.825066	10351.278456
770.150607	10126.027099
770.476101	10041.991064
770.801548	9919.170913
771.126949	9756.956664
771.452303	9647.709819
771.777611	9449.015261
772.102872	9439.868087
772.428087	9296.477507
772.753256	9139.891707
773.078378	9044.951657
773.403453	8865.552115
773.728482	8747.465607
774.053465	8676.392899
774.378401	8576.094102
774.703291	8452.800082
775.028135	8332.548398
775.352932	8289.920401
775.677683	8189.054474
776.002388	8081.035150
776.327046	8092.591996
776.651658	7991.531984
776.976224	7888.301757
777.300743	7890.469453
777.625216	7800.525186
777.949643	7753.506344
778.274024	7768.319774
778.598359	7687.505037
778.922647	7704.150927
779.246889	7655.082856
779.571086	7666.117942
779.895236	7675.580188
780.219339	7677.095054
780.543397	7684.374481
780.867409	7764.614526
781.191374	7776.609952
781.515294	7745.889160
781.839167	7836.135897
782.162995	7808.215466
782.486776	7752.757733
782.810511	7709.187040
783.134201	7610.019982
783.457844	7610.556865
783.781441	7551.325828
784.104993	7488.997002
784.428498	7464.333156
784.751958	7448.347657
785.075372	7418.783811
785.398739	7367.779937
785.722061	7415.565034
786.045337	7422.375633
786.368568	7575.173006
786.691752	7600.615709
787.014891	7943.378883
787.337983	8309.069224
787.661030	8904.953773
787.984031	9546.788440
788.306987	9950.524369
788.629897	10161.345423
788.952760	10108.670406
789.275579	9875.809428
789.598351	9479.458789
789.921078	9118.411351
790.243759	8701.976755
790.566395	8413.398423
790.888984	8152.430492
791.211529	7942.040457
791.534027	7723.637507
791.856480	7519.599326
792.178888	7438.797192
792.501249	7337.827921
792.823566	7184.496186
793.145836	7188.340066
793.468062	7165.269225
793.790241	7112.483303
794.112375	7184.491145
794.434464	7339.758683
794.756507	7382.185034
795.078505	7544.066566
795.400457	7856.270265
795.722364	8215.185295
796.044226	8505.570880
796.366042	8774.914689
796.687812	8732.422803
797.009538	8803.699678
797.331218	8695.269500
797.652852	8613.590204
797.974442	8453.510885
798.295986	8364.990744
798.617484	8173.878081
798.938938	8031.888942
799.260346	7927.703415
799.581709	7724.610450
799.903026	7644.307390
800.224299	7538.312089
800.545526	7359.106632
800.866708	7262.755058
801.187845	7195.992537
801.508936	7093.452947
801.829983	7054.479787
802.150984	6901.410192
802.471940	6856.382605
802.792851	6845.150915
803.113717	6810.064484
803.434538	6770.945130
803.755314	6719.106945
804.076045	6721.783798
804.396731	6664.909500
804.717372	6700.411826
805.037967	6703.554985
805.358518	6741.663588
805.679024	6827.030487
805.999485	6841.284350
806.319901	6879.211471
806.640272	6905.700213
806.960598	6985.262224
807.280879	6990.605847
807.601115	7066.200470
807.921306	7012.993611
808.241453	7026.314860
808.561554	7045.168776
808.881611	7009.346337
809.201623	7014.621904
809.521590	6958.929757
809.841513	6940.111130
810.161390	6979.543035
810.481223	6848.059660
810.801011	6831.156672
811.120755	6808.844525
811.440453	6729.451393
811.760107	6692.935795
812.079716	6663.376989
812.399281	6600.576815
812.718801	6588.672130
813.038276	6546.079422
813.357707	6481.663558
813.677093	6519.807448
813.996434	6420.950421
814.315731	6470.240303
814.634983	6462.824766
814.954191	6472.896991
815.273354	6580.921356
815.592473	6651.358878
815.911547	6772.288598
816.230577	6861.663214
816.549562	7007.158476
816.868502	7106.015503
817.187399	7205.328754
817.506250	7360.331632
817.825058	7395.730614
818.143821	7664.615678
818.462539	7946.718647
818.781213	8311.494019
819.099843	8870.394143
819.418429	9882.060459
819.736970	10875.409742
820.055466	12062.215824
820.373919	13619.430768
820.692327	15990.023282
821.010691	20181.515853
821.329011	29231.135618
821.647286	42303.540700
821.965517	55726.172383
822.283704	61036.362528
822.601847	63006.412683
822.919945	60333.570229
823.237999	56176.959922
823.556010	50039.123221
823.873976	43270.232361
824.191897	36726.731490
824.509775	31853.115351
824.827609	27297.843036
825.145398	24690.827968
825.463144	23329.658457
825.780845	23648.967662
826.098502	25447.840397
826.416116	29264.041750
826.733685	32975.487925
827.051210	34160.063297
827.368692	32364.590820
827.686129	28361.602115
828.003522	24182.639331
828.320872	20428.053482
828.638177	17552.617137
828.955439	15375.967893
829.272656	13540.007389
829.589830	12049.267621
829.906960	10764.401013
830.224046	9818.602414
830.541088	9056.357267
830.858086	8594.123789
831.175041	8210.870068
831.491952	8097.837316
831.808819	8146.234914
832.125642	8557.189775
832.442421	9457.255027
832.759157	11273.025710
833.075849	14227.585486
833.392497	17500.312645
833.709101	19705.948522
834.025662	19548.601508
834.342179	17834.107606
834.658653	15598.050885
834.975083	13642.720899
835.291469	12008.434274
835.607811	10668.835860
835.924110	9749.473071
836.240366	8873.408753
836.556578	8062.632418
836.872746	7411.070845
837.188871	6902.473875
837.504952	6479.442929
837.820990	6165.991545
838.136984	5947.349141
838.452935	5849.205437
838.768842	5888.357559
839.084706	6316.044010
839.400526	7539.257305
839.716303	9141.335998
840.032037	10248.811963
840.347727	10172.471249
840.663373	9184.301752
840.978977	8125.767829
841.294537	7307.187788
841.610054	6697.845879
841.925527	6259.260453
842.240957	5897.232510
842.556344	5560.357404
842.871687	5274.619763
843.186987	4988.204087
843.502244	4763.449284
843.817458	4598.971557
844.132629	4460.322182
844.447756	4369.924212
844.762840	4289.664001
845.077881	4212.879666
845.392879	4153.676356
845.707833	4102.992595
846.022745	4055.356212
846.337613	4028.028117
846.652438	3988.674349
846.967221	3968.025783
847.281960	3932.404990
847.596656	3918.917383
847.911309	3895.574320
848.225919	3872.818551
848.540485	3856.606201
848.855009	3841.122297
849.169490	3822.112105
849.483928	3812.980055
849.798323	3799.978919
850.112675	3779.980662
850.426984	3789.614307
850.741251	3775.841875
851.055474	3767.670164
851.369654	3775.730969
851.683792	3771.133437
851.997887	3776.986217
852.311938	3777.823048
852.625947	3783.822021
852.939914	3769.041358
853.253837	3782.990231
853.567718	3779.877318
853.881555	3770.044548
854.195350	3780.993934
854.509103	3781.608955
854.822812	3780.784726
855.136479	3770.052110
855.450103	3779.239613
855.763685	3765.270575
856.077224	3767.912140
856.390720	3788.487609
856.704173	3809.310095
857.017584	3820.995490
857.330953	3836.015608
857.644278	3852.238041
857.957561	3861.841439
858.270802	3858.564689
858.584000	3865.113148
858.897155	3852.051518
859.210268	3839.226823
859.523339	3815.261177
859.836367	3817.721260
860.149352	3808.768171
860.462295	3798.824495
860.775195	3787.958288
861.088054	3786.718164
861.400869	3778.937143
861.713642	3783.469141
862.026373	3793.848876
862.339062	3801.176193
862.651708	3821.408864
862.964312	3854.791385
863.276873	3868.019373
863.589392	3928.006583
863.901869	3974.042400
864.214303	4019.967312
864.526696	4050.398237
864.839045	4098.238787
865.151353	4126.789362
865.463619	4132.495948
865.775842	4138.772184
866.088023	4158.115092
866.400162	4147.866426
866.712258	4156.209535
867.024313	4155.155934
867.336325	4153.499915
867.648296	4164.275382
867.960224	4162.304290
868.272110	4173.924150
868.583954	4172.807534
868.895755	4191.011141
869.207515	4183.953526
869.519233	4230.551431
869.830909	4242.458637
870.142542	4268.115589
870.454134	4282.003968
870.765684	4314.458916
871.077191	4349.908310
871.388657	4371.086198
871.700081	4411.717897
872.011463	4453.098209
872.322803	4490.344774
872.634101	4521.660422
872.945357	4561.442687
873.256571	4614.586531
873.567744	4643.875635
873.878874	4664.599818
874.189963	4702.658009
874.501010	4711.926171
874.812015	4710.615471
875.122979	4759.693624
875.433900	4754.143314
875.744780	4766.322741
876.055618	4796.705776
876.366415	4795.112771
876.677169	4813.583559
876.987882	4862.984346
877.298554	4913.610133
877.609183	4993.744315
877.919771	5107.172797
878.230317	5249.313171
878.540822	5472.666533
878.851285	5800.616276
879.161707	6267.096927
879.472087	7036.059411
879.782425	8284.778424
880.092722	10487.230813
880.402977	13825.498014
880.713191	17597.982480
881.023363	21339.383192
881.333494	23563.744435
881.643583	24782.559324
881.953631	24791.356138
882.263637	23936.631024
882.573602	22455.197225
882.883526	20872.579907
883.193408	19185.678760
883.503248	17487.314030
883.813048	15920.425112
884.122806	14483.497140
884.432522	13002.703568
884.742197	11720.591952
885.051831	10626.901022
885.361424	9612.005847
885.670975	8796.130385
885.980485	8098.961493
886.289954	7518.528081
886.599382	7042.449073
886.908768	6657.849364
887.218113	6294.210772
887.527417	6004.467935
887.836680	5737.523715
888.145901	5514.732441
888.455082	5348.029045
888.764221	5195.229152
889.073319	5065.469852
889.382376	4989.091330
889.691392	4934.099903
890.000366	4903.371550
890.309300	4883.196852
890.618193	4890.304879
890.927044	4876.716449
891.235855	4893.629520
891.544625	4926.283594
891.853353	4989.550075
892.162041	5105.461325
892.470687	5298.708917
892.779293	5547.741917
893.087858	5925.939361
893.396381	6508.759760
893.704864	7321.139181
894.013306	8486.653951
894.321707	9681.800622
894.630068	10521.540906
894.938387	10733.695345
895.246665	10489.501853
895.554903	9873.142658
895.863100	9162.604626
896.171256	8602.182073
896.479371	8082.040861
896.787446	7574.258037
897.095480	7141.449773
897.403473	6819.867008
897.711425	6498.120404
898.019336	6233.595939
898.327207	5955.951870
898.635038	5719.010077
898.942827	5473.425227
899.250576	5274.529022
899.558284	5079.854784
899.865952	4955.176967
900.173579	4805.563083
900.481165	4697.029561
900.788711	4601.731589
901.096216	4531.208367
901.403681	4463.765290
901.711105	4440.921302
902.018489	4426.342285
902.325832	4495.630424
902.633135	4619.718426
902.940397	4971.452333
903.247619	5770.397079
903.554800	7229.962352
903.861941	9169.715173
904.169041	10701.568072
904.476101	11332.229021
904.783121	10969.311314
905.090100	10225.090813
905.397039	9384.243996
905.703938	8618.558262
906.010796	7920.227384
906.317614	7360.616457
906.624391	6817.623694
906.931129	6390.375823
907.237826	5981.747454
907.544483	5605.198468
907.851099	5230.161827
908.157675	4874.579000
908.464211	4542.848391
908.770707	4304.792504
909.077163	4103.499231
909.383578	3955.901808
909.689954	3841.061803
909.996289	3769.522788
910.302584	3704.779250
910.608839	3675.016277
910.915054	3640.307933
911.221229	3624.904687
911.527363	3635.044968
911.833458	3651.335457
912.139513	3684.380221
912.445527	3710.332081
912.751502	3795.124288
913.057436	3898.145308
913.363331	4033.374260
913.669186	4237.828337
913.975000	4497.241072
914.280775	4926.828039
914.586510	5512.529457
914.892205	6317.276572
915.197859	7368.334464
915.503475	8602.073688
915.809050	9677.533285
916.114585	10335.086270
916.420081	10609.778743
916.725536	10562.744777
917.030952	10118.057035
917.336328	9701.630001
917.641665	9283.269684
917.946961	8799.250859
918.252218	8372.882670
918.557435	7854.553752
918.862612	7421.556445
919.167750	7040.699793
919.472848	6608.740964
919.777906	6230.301545
920.082925	5867.913159
920.387904	5497.090923
920.692843	5226.622937
920.997743	4980.826358
921.302603	4743.156119
921.607423	4581.171243
921.912204	4412.763937
922.216946	4294.919404
922.521647	4171.307791
922.826310	4063.379208
923.130932	3971.189107
923.435516	3869.599775
923.740059	3798.159063
924.044564	3722.317424
924.349028	3663.461953
924.653454	3597.841253
924.957840	3524.215201
925.262186	3477.627378
925.566493	3415.853079
925.870761	3360.813761
926.174989	3323.413441
926.479178	3286.045888
926.783328	3243.122983
927.087438	3215.106771
927.391509	3180.741225
927.695541	3148.866009
927.999533	3124.204685
928.303486	3104.229112
928.607400	3087.651278
928.911275	3078.695668
929.215110	3059.574572
929.518906	3052.068294
929.822663	3050.440001
930.126381	3044.473795
930.430060	3056.053326
930.733699	3053.840259
931.037299	3065.162691
931.340861	3064.323339
931.644383	3072.547981
931.947866	3067.564801
932.251309	3065.366858
932.554714	3065.215623
932.858080	3058.347051
933.161407	3049.285577
933.464694	3043.450441
933.767943	3033.990716
934.071153	3032.289327
934.374323	3022.396062
934.677455	3017.120495
934.980548	3009.102539
935.283602	3001.432424
935.586617	2999.897393
935.889593	3007.622961
936.192530	3013.014475
936.495428	3028.387473
936.798287	3049.925803
937.101108	3084.951740
937.403890	3138.866881
937.706632	3201.052034
938.009336	3280.619086
938.312002	3354.797144
938.614628	3419.235693
938.917216	3470.748723
939.219765	3504.118641
939.522275	3536.432438
939.824747	3540.200700
940.127179	3539.477294
940.429573	3533.417827
940.731929	3528.583361
941.034246	3514.952081
941.336524	3501.774505
941.638763	3488.833863
941.940964	3472.445072
942.243126	3428.350099
942.545250	3402.282293
942.847335	3366.701829
943.149381	3335.280317
943.451389	3298.782363
943.753359	3265.019235
944.055290	3241.661049
944.357182	3215.552913
944.659036	3199.721169
944.960851	3188.920497
945.262628	3174.921213
945.564367	3175.632016
945.866067	3169.996006
946.167729	3164.806138
946.469352	3163.863442
946.770937	3162.078873
947.072484	3144.767551
947.373992	3150.421205
947.675462	3143.063641
947.976893	3125.742237
948.278286	3116.940382
948.579641	3109.187087
948.880958	3101.887497
949.182236	3106.061572
949.483476	3094.905498
949.784678	3099.311467
950.085841	3099.205603
950.386967	3111.276646
950.688054	3126.311887
950.989103	3147.857778
951.290114	3171.440296
951.591087	3198.652445
951.892021	3226.913153
952.192917	3255.569592
952.493776	3281.155968
952.794596	3289.743574
953.095378	3290.928245
953.396122	3286.547483
953.696828	3278.539610
953.997496	3268.903444
954.298126	3248.373345
954.598718	3223.414592
954.899272	3195.479038
955.199788	3169.146571
955.500266	3134.937301
955.800706	3101.892538
956.101108	3061.855694
956.401472	3032.415355
956.701798	2997.011332
957.002087	2958.176803
957.302337	2928.633121
957.602550	2897.589696
957.902724	2870.364944
958.202861	2846.709330
958.502960	2823.136895
958.803022	2802.843730
959.103045	2780.428239
959.403031	2763.603388
959.702979	2749.546131
960.002889	2737.827969
960.302762	2726.218191
960.602596	2714.348795
960.902393	2704.682382
961.202153	2694.920188
961.501875	2688.301153
961.801559	2681.969463
962.101205	2676.630882
962.400814	2671.667866
962.700385	2663.342400
962.999918	2657.141781
963.299414	2651.657005
963.598873	2649.128867
963.898293	2641.483957
964.197677	2642.840027
964.497022	2641.463792
964.796331	2637.370375
965.095601	2630.176649
965.394835	2631.154633
965.694030	2630.655558
965.993189	2629.448202
966.292309	2627.794704
966.591393	2628.117337
966.890439	2628.311422
967.189447	2626.365537
967.488419	2629.052472
967.787353	2629.564149
968.086249	2631.240332
968.385108	2631.958697
968.683930	2632.414921
968.982714	2639.873308
969.281462	2643.283649
969.580172	2646.484782
969.878844	2653.534835
970.177480	2661.152019
970.476078	2670.964625
970.774639	2678.657425
971.073162	2684.608507
971.371649	2690.110927
971.670098	2694.285002
971.968510	2703.359079
972.266885	2704.447968
972.565223	2710.449462
972.863524	2711.775286
973.161788	2714.326109
973.460014	2718.233004
973.758204	2722.694425
974.056356	2725.456977
974.354471	2728.441340
974.652550	2726.508058
974.950591	2724.231977
975.248595	2722.230639
975.546563	2720.914897
975.844493	2718.701831
976.142386	2709.801674
976.440243	2708.985007
976.738062	2702.323122
977.035845	2694.108562
977.333590	2686.937521
977.631299	2683.754032
977.928971	2676.570388
978.226606	2670.752896
978.524204	2668.340704
978.821765	2662.979437
979.119290	2663.904489
979.416777	2666.223419
979.714228	2668.421362
980.011642	2673.439831
980.309020	2678.032322
980.606360	2694.809282
980.903664	2718.180072
981.200931	2755.119126
981.498162	2805.684420
981.795356	2881.543703
982.092513	2973.204483
982.389633	3074.095615
982.686717	3172.209072
982.983764	3250.558685
983.280775	3294.298257
983.577749	3302.258238
983.874686	3288.669808
984.171587	3253.759818
984.468451	3218.771690
984.765279	3172.940039
985.062070	3124.933131
985.358824	3081.858992
985.655543	3024.926721
985.952224	2966.840026
986.248869	2904.851478
986.545478	2845.612879
986.842050	2791.541463
987.138586	2744.270563
987.435086	2705.088195
987.731549	2674.889163
988.027975	2650.169865
988.324366	2631.220168
988.620719	2618.390431
988.917037	2606.064810
989.213318	2598.898810
989.509563	2591.440423
989.805772	2582.870461
990.101944	2580.221335
990.398080	2579.689493
990.694180	2577.433577
990.990244	2579.593711
991.286271	2578.913155
991.582262	2579.397106
991.878217	2581.116140
992.174136	2584.518918
992.470019	2589.103848
992.765865	2588.438416
993.061676	2592.226843
993.357450	2605.023812
993.653188	2612.991355
993.948890	2629.145733
994.244556	2647.684576
994.540186	2669.732062
994.835780	2701.559387
995.131337	2741.306365
995.426859	2783.347067
995.722345	2831.931187
996.017795	2883.771893
996.313208	2922.160280
996.608586	2946.670370
996.903928	2961.904737
997.199234	2961.025055
997.494504	2957.949951
997.789738	2945.717592
998.084936	2916.557037
998.380099	2887.744322
998.675225	2856.705938
998.970316	2826.254848
999.265371	2787.659774
999.560390	2752.525453
999.855373	2723.422872
1000.150320	2694.816844
1000.445232	2668.738955
1000.740108	2647.687097
1001.034948	2627.950979
1001.329752	2611.915069
1001.624521	2599.836464
1001.919254	2588.332551
1002.213951	2580.876685
1002.508613	2572.543657
1002.803239	2567.303378
1003.097829	2560.611246
1003.392384	2558.239383
1003.686903	2548.850234
1003.981386	2546.642209
1004.275834	2544.335881
1004.570246	2545.137425
1004.864623	2537.840354
1005.158964	2534.545960
1005.453270	2531.959848
1005.747540	2532.305167
1006.041775	2532.075795
1006.335974	2527.722759
1006.630138	2527.629497
1006.924266	2527.178314
1007.218359	2525.973478
1007.512416	2525.814682
1007.806438	2522.916018
1008.100425	2525.290402
1008.394376	2519.669515
1008.688292	2525.295443
1008.982172	2522.684125
1009.276017	2523.447860
1009.569827	2523.107582
1009.863602	2522.268230
1010.157341	2524.330062
1010.451045	2521.706142
1010.744714	2518.570544
1011.038347	2517.010307
1011.331945	2518.368898
1011.625508	2517.844618
1011.919036	2515.727333
1012.212528	2515.767662
1012.505986	2514.184740
1012.799408	2510.219873
1013.092795	2513.879750
1013.386147	2515.946623
1013.679464	2511.840603
1013.972745	2510.383710
1014.265992	2512.135511
1014.559204	2509.866992
1014.852380	2511.044101
1015.145521	2511.870850
1015.438628	2508.775582
1015.731699	2510.960922
1016.024736	2512.934534
1016.317737	2515.230779
1016.610703	2516.619617
1016.903635	2515.006448
1017.196531	2516.521315
1017.489393	2519.200688
1017.782219	2518.499968
1018.075011	2521.438960
1018.367768	2521.194464
1018.660490	2522.240504
1018.953177	2522.240504
1019.245829	2522.240504
