Dividing Wavelength (nm)	Counts (n)	Blue Motor Position (mm): 25.200000	Red Motor Position (mm): 0.000000	
326.493990	2056.904195
326.888308	2056.904195
327.282561	2056.904195
327.676750	2034.385361
328.070874	2033.490556
328.464933	2038.246885
328.858929	2048.949254
329.252859	2059.636501
329.646726	2071.311813
330.040528	2088.300501
330.434265	2105.319437
330.827938	2129.295164
331.221547	2148.383493
331.615091	2168.946360
332.008571	2187.238187
332.401986	2208.330374
332.795338	2231.630588
333.188625	2251.444843
333.581847	2269.439241
333.975006	2285.797786
334.368100	2304.321505
334.761129	2319.888588
335.154095	2335.690085
335.546996	2383.545759
335.939833	2487.506954
336.332606	2494.811586
336.725315	2511.575943
337.117960	2518.263033
337.510540	2531.117976
337.903056	2539.866898
338.295508	2544.391334
338.687896	2551.852242
339.080220	2556.011193
339.472480	2560.155022
339.864676	2566.337997
340.256807	2569.246743
340.648875	2570.353276
341.040879	2570.965776
341.432818	2571.288410
341.824694	2573.204049
342.216506	2571.996692
342.608253	2571.154820
342.999937	2572.435273
343.391557	2570.461661
343.783113	2570.272618
344.174605	2564.795404
344.566033	2563.880435
344.957397	2563.323387
345.348697	2561.768191
345.739934	2563.658624
346.131106	2563.129303
346.522215	2558.249466
346.913260	2559.368602
347.304241	2555.345761
347.695159	2553.508261
348.086012	2553.414999
348.476802	2550.080276
348.867528	2549.238403
349.258191	2544.582898
349.648789	2543.176416
350.039324	2535.513862
350.429796	2545.729760
350.820203	2542.936961
351.210548	2544.978628
351.600828	2540.965870
351.991045	2540.829759
352.381198	2539.924872
352.771288	2540.063503
353.161314	2539.508976
353.551276	2540.023174
353.941175	2538.561239
354.331010	2538.483102
354.720782	2542.674821
355.110490	2544.451828
355.500135	2543.115922
355.889717	2541.306148
356.279235	2542.367311
356.668689	2540.882691
357.058080	2542.715150
357.447408	2541.810263
357.836672	2541.921168
358.225873	2540.849923
358.615010	2545.245809
359.004084	2545.810419
359.393095	2543.551982
359.782043	2544.414019
360.170927	2543.514173
360.559748	2546.211190
360.948505	2549.092210
361.337199	2547.048022
361.725830	2548.242775
362.114398	2548.048691
362.502903	2547.390820
362.891344	2548.749411
363.279722	2545.192877
363.668037	2551.123795
364.056289	2549.240924
364.444478	2553.614125
364.832603	2550.730585
365.220665	2551.191850
365.608665	2554.153528
365.996601	2553.593960
366.384474	2554.140925
366.772284	2555.239897
367.160031	2551.204453
367.547715	2554.108158
367.935336	2549.281253
368.322893	2552.381563
368.710388	2548.648588
369.097820	2551.955585
369.485189	2550.919628
369.872495	2559.303067
370.259738	2554.524053
370.646918	2553.611604
371.034035	2557.694939
371.421090	2554.965154
371.808081	2555.343241
372.195010	2559.628221
372.581875	2555.877603
372.968678	2559.487069
373.355418	2557.528581
373.742096	2557.170659
374.128710	2560.376833
374.515262	2559.424055
374.901751	2558.224260
375.288177	2560.601164
375.674540	2559.292985
376.060841	2560.354147
376.447079	2557.694939
376.833254	2558.403221
377.219367	2561.642162
377.605417	2562.552091
377.991404	2560.366750
378.377329	2561.075032
378.763191	2564.704663
379.148991	2565.186093
379.534727	2559.272820
379.920402	2565.768347
380.306013	2561.634601
380.691563	2563.091494
381.077049	2562.539488
381.462474	2561.949673
381.847835	2565.687688
382.233134	2565.133161
382.618371	2567.154664
383.003545	2564.026628
383.388657	2564.838254
383.773706	2566.206927
384.158693	2564.440003
384.543618	2566.544684
384.928480	2565.808676
385.313280	2566.534602
385.698017	2567.174829
386.082692	2568.591393
386.467305	2566.721125
386.851856	2567.694068
387.236344	2568.609037
387.620770	2566.229612
388.005133	2565.869170
388.389435	2565.574262
388.773674	2566.222051
389.157851	2571.026270
389.541965	2569.493759
389.926018	2570.456620
390.310008	2570.121383
390.693936	2571.318657
391.077802	2570.562484
391.461606	2573.506518
391.845348	2572.014336
392.229027	2570.282700
392.612645	2571.840417
392.996200	2573.723287
393.379694	2572.999882
393.763125	2574.751683
394.146494	2572.566343
394.529801	2575.424677
394.913047	2573.015005
395.296230	2574.325705
395.679351	2573.884604
396.062410	2575.492732
396.445408	2572.838565
396.828343	2575.091961
397.211217	2577.307548
397.594028	2575.293607
397.976778	2573.677917
398.359466	2575.555747
398.742092	2573.864440
399.124656	2575.999368
399.507158	2574.295458
399.889598	2578.567836
400.271977	2578.908114
400.654294	2578.638412
401.036549	2578.225038
401.418742	2578.066242
401.800874	2576.291755
402.182944	2577.615058
402.564952	2581.214442
402.946898	2580.430543
403.328783	2578.552713
403.710606	2577.995665
404.092367	2580.685121
404.474067	2580.443146
404.855705	2580.531366
405.237282	2580.286870
405.618797	2579.160172
406.000250	2582.280646
406.381642	2580.972467
406.762972	2580.851479
407.144240	2577.357959
407.525447	2582.021027
407.906593	2575.384348
408.287677	2582.784762
408.668700	2582.109247
409.049661	2584.521439
409.430560	2585.209557
409.811399	2584.483630
410.192176	2583.745101
410.572891	2586.242993
410.953545	2586.401789
411.334138	2587.306677
411.714669	2586.343816
412.095139	2585.963209
412.475547	2584.138311
412.855894	2585.582602
413.236180	2582.784762
413.616405	2586.081676
413.996568	2584.284505
414.376670	2587.588981
414.756711	2588.435895
415.136691	2586.084197
415.516609	2587.778024
415.896466	2587.256265
416.276262	2590.706935
416.655997	2587.858683
417.035670	2589.265165
417.415283	2588.156111
417.794834	2588.773652
418.174324	2588.728282
418.553753	2591.858838
418.933121	2587.856162
419.312428	2589.623087
419.691674	2587.662078
420.070859	2590.280957
420.449983	2589.670978
420.829045	2593.096442
421.208047	2590.648962
421.586988	2590.101996
421.965867	2593.318252
422.344686	2591.402614
422.723444	2593.497213
423.102141	2592.428489
423.480777	2593.799683
423.859352	2595.158274
424.237866	2593.340938
424.616319	2591.611822
424.994712	2595.014601
425.373044	2593.020824
425.751314	2591.798345
426.129524	2592.738520
426.507673	2593.792121
426.885762	2589.653334
427.263789	2597.358737
427.641756	2593.353541
428.019662	2595.732965
428.397508	2595.241453
428.775292	2594.346648
429.153016	2594.984354
429.530679	2596.930239
429.908282	2598.823192
430.285824	2598.845878
430.663305	2595.914447
431.040726	2599.292020
431.418086	2599.266814
431.795385	2599.196238
432.172624	2599.372678
432.549802	2599.259252
432.926920	2599.244129
433.303977	2600.743872
433.680974	2603.304778
434.057910	2602.208327
434.434786	2603.047679
434.811601	2602.112545
435.188355	2605.956425
435.565050	2601.056424
435.941683	2602.848554
436.318257	2607.562033
436.694770	2605.565736
437.071222	2604.819645
437.447614	2604.928030
437.823946	2606.422732
438.200218	2607.798967
438.576429	2604.996085
438.952580	2607.136055
439.328670	2610.924482
439.704700	2609.056735
440.080670	2609.981787
440.456580	2606.478185
440.832429	2613.392127
441.208218	2611.668052
441.583947	2613.944133
441.959616	2611.844493
442.335224	2612.094030
442.710773	2613.661829
443.086261	2614.975049
443.461689	2614.591922
443.837057	2619.217180
444.212365	2618.702983
444.587612	2616.895729
444.962800	2619.164248
445.337927	2616.933538
445.712995	2618.090482
446.088002	2624.807820
446.462949	2624.918725
446.837837	2626.428551
447.212664	2628.087091
447.587431	2631.421814
447.962139	2638.310551
448.336786	2642.313227
448.711374	2644.443114
449.085901	2641.801550
449.460369	2643.427322
449.834776	2646.015954
450.209124	2653.920483
450.583412	2657.799651
450.957640	2661.547749
451.331808	2663.120589
451.705917	2663.269303
452.079965	2669.840447
452.453954	2672.398833
452.827883	2678.430573
453.201752	2685.853672
453.575562	2688.966585
453.949311	2702.053420
454.323001	2707.202959
454.696632	2714.041284
455.070202	2729.925960
455.443713	2741.296282
455.817164	2754.168869
456.190556	2767.008688
456.563888	2783.009310
456.937160	2795.052627
457.310373	2800.857515
457.683526	2814.440904
458.056619	2830.940601
458.429653	2846.467355
458.802628	2871.234543
459.175542	2892.780435
459.548398	2928.517175
459.921194	2975.132724
460.293930	3012.780061
460.666607	3072.464802
461.039224	3129.369347
461.411782	3171.115142
461.784280	3182.946730
462.156719	3212.485371
462.529099	3237.590317
462.901419	3238.855647
463.273680	3255.516660
463.645882	3302.575831
464.018024	3342.521934
464.390106	3405.551481
464.762130	3541.125752
465.134094	3724.918659
465.505999	3960.433805
465.877845	4176.943801
466.249631	4309.727793
466.621358	4314.453875
466.993026	4302.947442
467.364634	4307.887772
467.736184	4311.109070
468.107674	4326.857634
468.479105	4380.429976
468.850477	4420.701234
469.221790	4445.130665
469.593043	4439.348462
469.964238	4460.806133
470.335373	4545.121952
470.706449	4730.752360
471.077467	4975.192869
471.448425	5385.343666
471.819324	5685.095715
472.190164	5699.044588
472.560945	5536.059043
472.931667	5405.485596
473.302330	5450.359427
473.672934	5463.408454
474.043479	5631.314165
474.413965	5690.782137
474.784393	5754.537609
475.154761	5959.400019
475.525070	6084.753351
475.895321	6151.823382
476.265513	6352.065575
476.635645	6581.372540
477.005719	6709.395162
477.375734	6897.203349
477.745691	7148.030999
478.115588	7435.280987
478.485427	7868.525310
478.855207	8490.225608
479.224928	9085.976567
479.594591	9534.059526
479.964194	9549.510663
480.333739	9798.236152
480.703226	10049.444410
481.072653	10382.344566
481.442022	10701.033710
481.811333	10968.887857
482.180584	10992.810653
482.549777	11107.310380
482.918912	11233.936603
483.287988	11403.914229
483.657005	11528.317303
484.025964	11591.525810
484.394864	11831.366266
484.763706	12000.517142
485.132489	12014.738237
485.501213	12220.450082
485.869879	12484.818272
486.238487	12671.333402
486.607036	12977.339002
486.975527	13057.735324
487.343959	13385.135581
487.712333	13716.599008
488.080648	13914.802054
488.448905	14292.805413
488.817104	14476.537827
489.185244	15079.497636
489.553326	15842.594737
489.921350	17001.389649
490.289315	18424.799766
490.657222	19002.306789
491.025070	19456.716397
491.392861	19509.721609
491.760593	19338.924796
492.128267	19075.353108
492.495883	18837.403085
492.863440	18621.220764
493.230939	18376.661788
493.598380	18332.254264
493.965763	18494.241661
494.333088	18459.394685
494.700354	18574.403568
495.067563	18785.597668
495.434713	18960.550912
495.801805	19340.991669
496.168839	19476.729778
496.535815	19615.205233
496.902733	19924.580844
497.269593	20031.586896
497.636395	20332.760551
498.003139	20746.425032
498.369825	20801.184566
498.736453	21277.956732
499.103023	21400.129096
499.469535	21663.869662
499.835989	21973.351138
500.202385	22078.494483
500.568723	22344.092715
500.935003	22771.703549
501.301226	22901.596439
501.667390	23594.727367
502.033497	23956.820845
502.399546	23993.994313
502.765537	23908.546756
503.131470	24462.872032
503.497345	24980.641382
503.863163	24414.454270
504.228923	25184.152763
504.594625	25675.640057
504.960269	25455.361799
505.325856	26183.044795
505.691385	26113.653312
506.056856	26542.405967
506.422270	27105.583510
506.787625	26919.625427
507.152924	27450.859699
507.518164	27799.838615
507.883347	27614.692158
508.248472	27925.635568
508.613540	28654.936775
508.978550	29004.666823
509.343503	29043.143429
509.708398	29499.113274
510.073236	30180.483190
510.438016	30421.009243
510.802738	30291.756579
511.167403	30941.488213
511.532010	31297.360907
511.896561	31858.083408
512.261053	32670.838396
512.625488	32615.816722
512.989866	32699.585575
513.354186	32865.840309
513.718449	32973.993223
514.082655	33892.312493
514.446803	33747.230606
514.810894	34428.058597
515.174927	34556.018206
515.538904	34670.215464
515.902822	35356.427407
516.266684	35197.245413
516.630488	35633.206918
516.994235	35745.347386
517.357925	36391.525006
517.721558	36716.840746
518.085133	37169.997627
518.448651	37430.463964
518.812112	37425.669827
519.175516	37660.965683
519.538863	38141.589290
519.902152	38290.416755
520.265385	38904.779653
520.628560	38981.132969
520.991678	39012.685551
521.354739	39313.498763
521.717743	39727.349767
522.080690	39706.169360
522.443580	40420.894070
522.806413	40496.763435
523.169189	40693.249968
523.531908	40956.430966
523.894569	40894.081975
524.257174	41136.256486
524.619722	41509.727848
524.982213	41697.868750
525.344647	41776.586368
525.707025	41954.939870
526.069345	42430.837396
526.431608	42379.737740
526.793815	42800.774909
527.155964	42398.190884
527.518057	42688.677292
527.880093	42576.332658
528.242072	43225.424065
528.603995	43010.237372
528.965860	42979.519101
529.327669	43219.498189
529.689421	43289.466884
530.051117	43264.893779
530.412755	43570.188577
530.774337	43662.756764
531.135862	43629.964059
531.497331	43802.893280
531.858743	43816.882482
532.220098	44243.217903
532.581396	44003.314433
532.942638	43790.471877
533.303824	44046.544848
533.664953	44133.993744
534.026025	43826.148122
534.387040	44395.876645
534.747999	44504.611813
535.108902	44803.214478
535.469748	44160.485007
535.830537	44430.784115
536.191270	44695.858066
536.551947	44440.473212
536.912567	44718.674328
537.273131	44900.944808
537.633638	44534.455443
537.994089	44746.168782
538.354483	44491.179658
538.714821	45142.481612
539.075103	45424.592143
539.435328	45305.656200
539.795497	45079.936016
540.155609	45184.237489
540.515665	45791.028575
540.875665	45123.055525
541.235609	45404.545994
541.595496	45524.762390
541.955328	46102.713035
542.315102	45551.185598
542.674821	45436.043124
543.034483	45346.252612
543.394090	45358.467328
543.753640	45348.919382
544.113134	46404.300063
544.472571	45522.332554
544.831953	46659.326995
545.191278	45926.577640
545.550548	45634.294060
545.909761	46262.043743
546.268918	46399.662202
546.628019	46822.980493
546.987064	46266.137160
547.346053	45568.101190
547.704986	46473.661299
548.063863	46140.947666
548.422684	46335.881523
548.781449	45945.209744
549.140158	46478.037021
549.498811	46247.638646
549.857408	45654.609910
550.215949	46487.209400
550.574434	46336.778849
550.932864	46256.604338
551.291237	46982.742220
551.649555	46742.901764
552.007817	46938.894264
552.366022	46590.074144
552.724173	46665.366298
553.082267	47078.133454
553.440305	47415.547963
553.798288	46682.339863
554.156215	47085.090246
554.514086	47281.221378
554.871902	46900.273985
555.229661	47074.594564
555.587365	46767.588295
555.945014	46893.788540
556.302606	46911.412414
556.660143	47033.645271
557.017625	47251.942356
557.375050	46959.066441
557.732421	47352.956997
558.089735	47425.312678
558.446994	47292.160682
558.804197	47775.806461
559.161345	47642.415010
559.518437	46979.629308
559.875474	47249.646111
560.232455	47472.870924
560.589381	47540.129998
560.946251	47330.397834
561.303065	47997.934823
561.659825	47692.521558
562.016528	47510.067077
562.373177	47093.813963
562.729770	47717.414776
563.086307	47235.893843
563.442789	47775.206564
563.799216	47641.840318
564.155587	47518.546298
564.511904	47494.510077
564.868164	47546.706183
565.224370	47867.323568
565.580520	47572.980677
565.936615	47777.107079
566.292654	47441.996377
566.648638	47823.160540
567.004567	47763.233823
567.360441	47855.834778
567.716260	47578.752798
568.072023	47933.826470
568.427732	47869.445894
568.783385	47400.071621
569.138982	47825.686158
569.494525	47952.945046
569.850013	47550.812203
570.205445	47676.702418
570.560823	47465.427660
570.916145	47332.855396
571.271412	47568.236952
571.626625	47230.381341
571.981782	47300.037485
572.336884	46893.584373
572.691931	47212.732262
573.046923	46883.542395
573.401860	46722.739670
573.756743	46735.559324
574.111570	46897.461021
574.466342	46798.964436
574.821059	46943.118751
575.175722	46461.376007
575.530330	46548.706436
575.884882	46199.039402
576.239380	46088.340705
576.593823	46187.144800
576.948211	46119.527803
577.302544	45664.104924
577.656823	45665.271951
578.011047	45926.728874
578.365216	45758.500529
578.719330	45473.589637
579.073389	45448.517459
579.427394	45503.942425
579.781344	45418.084013
580.135239	45186.493405
580.489080	45240.075830
580.842866	44747.489564
581.196597	45220.833745
581.550273	45222.903139
581.903895	45147.827755
582.257463	45594.103461
582.610975	45028.332245
582.964434	45359.601587
583.317837	44878.589811
583.671186	44826.383622
584.024481	45086.285349
584.377721	44655.967416
584.730906	44869.170415
585.084037	44989.502757
585.437113	44701.794025
585.790135	44820.697200
586.143103	44363.479670
586.496016	44534.210947
586.848874	44648.609852
587.201679	44659.712993
587.554428	44148.053522
587.907124	44445.095950
588.259765	44208.572574
588.612352	44377.630188
588.964884	43827.080736
589.317362	44134.371830
589.669786	44124.760870
590.022155	43988.294315
590.374470	44428.613898
590.726731	44003.314433
591.078937	43363.710477
591.431090	43693.656517
591.783188	43238.248761
592.135232	43014.693752
592.487222	43275.449956
592.839157	43437.029019
593.191038	43065.289293
593.542866	42889.836974
593.894639	42288.376909
594.246358	42580.479007
594.598022	42572.662698
594.949633	42160.117352
595.301190	42138.410144
595.652692	42070.815833
596.004141	42538.922255
596.355535	41460.921917
596.706876	41479.112920
597.058162	41209.219626
597.409395	41699.587784
597.760573	41920.891917
598.111698	41518.096163
598.462768	41429.386979
598.813785	41436.505088
599.164748	41058.506770
599.515657	41323.910917
599.866511	40828.962871
600.217312	41521.713191
600.568060	40467.214712
600.918753	41272.034923
601.269392	41197.105733
601.619978	40921.687334
601.970510	41122.473971
602.320988	41266.119129
602.671412	41529.320292
603.021783	41394.774417
603.372100	40968.081073
603.722363	41073.776425
604.072572	41098.054622
604.422728	41097.323654
604.772830	40870.018028
605.122878	41030.145238
605.472872	40901.036247
605.822813	41152.093270
606.172701	40903.362740
606.522534	41219.037273
606.872314	41433.326641
607.222041	41267.424788
607.571714	41606.006324
607.921333	41082.928640
608.270899	41299.675570
608.620411	41701.009389
608.969870	41439.381066
609.319276	41445.904319
609.668627	41484.113745
610.017926	41882.117882
610.367171	42009.414579
610.716362	42051.115003
611.065500	41937.837756
611.414585	42164.034329
611.763616	42330.157992
612.112594	42237.047881
612.461518	42371.487892
612.810389	42747.094183
613.159207	42539.534755
613.507971	42522.795604
613.856682	43013.163762
614.205340	42835.319416
614.553945	43529.907237
614.902496	42859.290103
615.250994	43283.669557
615.599439	43346.535266
615.947830	43448.704331
616.296169	43455.398983
616.644454	43485.817306
616.992686	43647.741688
617.340864	44101.521151
617.688990	43634.339780
618.037063	44307.079240
618.385082	44135.692612
618.733048	44466.369620
619.080961	44340.897821
619.428821	44360.787693
619.776628	44375.545671
620.124382	44199.475812
620.472083	44315.263554
620.819731	44402.873766
621.167326	43952.411382
621.514868	43942.439980
621.862357	43421.222481
622.209793	43499.733411
622.557176	43069.483533
622.904506	42823.230729
623.251783	42446.772483
623.599007	42138.820998
623.946179	42066.984556
624.293297	41801.933289
624.640363	41274.489965
624.987376	41110.536519
625.334336	40904.386094
625.681243	40497.025575
626.028097	40425.710892
626.374899	40230.028423
626.721647	40196.459380
627.068343	39987.806022
627.414987	39685.644302
627.761577	39443.033732
628.108115	39753.336916
628.454600	39015.516159
628.801032	39249.564329
629.147412	39141.615582
629.493739	39053.191223
629.840014	38613.642936
630.186236	39034.410404
630.532405	38484.223914
630.878521	38727.797345
631.224585	38508.290383
631.570597	38155.815426
631.916556	38335.635905
632.262462	38222.522495
632.608316	38164.261880
632.954117	38019.595888
633.299866	37974.202818
633.645562	37890.960765
633.991206	37357.977213
634.336797	36950.460418
634.682336	36846.816816
635.027823	36615.886599
635.373257	36482.185117
635.718639	36155.936763
636.063968	36052.968676
636.409245	35381.555039
636.754470	35353.674937
637.099642	35123.576511
637.444762	34563.269905
637.789829	34690.780851
638.134845	34323.479861
638.479808	34241.435082
638.824719	34203.674319
639.169577	33688.123077
639.514383	33777.797642
639.859137	33393.475197
640.203839	33561.731268
640.548489	33271.771660
640.893086	33271.839716
641.237632	32997.724455
641.582125	33104.947277
641.926566	32894.774011
642.270955	32935.239353
642.615292	32863.728065
642.959576	32742.044694
643.303809	32756.626231
643.647990	32841.688141
643.992118	32787.775521
644.336195	32644.337050
644.680219	32720.289594
645.024192	32922.117230
645.368112	33459.511791
645.711981	33471.597958
646.055797	34200.707600
646.399562	34016.329919
646.743274	34884.633381
647.086935	35279.015449
647.430544	35239.858287
647.774101	35276.129388
648.117606	35569.206950
648.461059	35706.918670
648.804460	35295.414323
649.147810	34793.673321
649.491108	34443.786997
649.834354	34288.940395
650.177548	33468.820282
650.520690	32970.706391
650.863781	32961.100472
651.206820	32779.296300
651.549807	32372.699516
651.892742	31803.250778
652.235626	31714.113095
652.578458	31568.491805
652.921238	30898.587993
653.263967	31194.332325
653.606644	30905.370866
653.949269	30808.374025
654.291843	30421.387329
654.634365	30778.714396
654.976836	30333.157055
655.319255	30396.741128
655.661622	30280.227460
656.003938	30148.703756
656.346203	29957.971700
656.688416	30202.457579
657.030577	29969.326899
657.372687	29794.860126
657.714746	29959.781474
658.056753	30143.695370
658.398708	29526.542192
658.740612	29597.864437
659.082465	29814.946604
659.424266	29702.314624
659.766016	29710.007425
660.107715	29568.325796
660.449362	29672.400417
660.790958	29654.121193
661.132503	29581.347096
661.473996	29648.505348
661.815438	29737.852238
662.156829	29864.034839
662.498168	29659.328705
662.839456	29629.280908
663.180693	29756.411246
663.521879	29862.991321
663.863013	29801.433791
664.204097	29786.958118
664.545129	30185.665496
664.886110	30132.705654
665.227040	30244.221018
665.567918	30227.060931
665.908746	30311.628807
666.249522	30396.612579
666.590248	30414.213767
666.930922	30512.745640
667.271545	30498.927837
667.612118	30557.712732
667.952639	30370.360770
668.293109	30412.565310
668.633528	30290.382864
668.973896	30241.579454
669.314213	30213.230525
669.654480	30020.726504
669.994695	30012.746357
670.334859	29922.237481
670.674973	29768.714182
671.015035	29962.980087
671.355047	29886.765402
671.695008	29813.754371
672.034918	29742.021272
672.374777	29820.096142
672.714585	29694.705002
673.054342	29832.784727
673.394049	29683.133034
673.733705	29895.824356
674.073310	29623.816297
674.412864	29679.430306
674.752368	29378.387722
675.091820	29599.817884
675.431223	29192.850575
675.770574	28991.214504
676.109875	28846.407359
676.449125	28633.421130
676.788324	28526.949440
677.127473	28057.872595
677.466571	27951.287480
677.805619	27665.411207
678.144616	27612.627805
678.483562	27549.951140
678.822458	27244.358914
679.161303	27178.990272
679.500098	27106.667358
679.838842	27030.505606
680.177535	27122.821736
680.516179	27353.121808
680.854771	27490.314290
681.193314	28257.015816
681.531805	29268.205743
681.870247	30013.600833
682.208638	30736.209907
682.546978	30997.654228
682.885268	31132.197583
683.223508	30690.995799
683.561697	30412.701421
683.899836	30252.929612
684.237925	29851.444558
684.575963	29716.147550
684.913951	29343.467649
685.251889	29515.885193
685.589776	29543.823268
685.927614	29565.202801
686.265401	29729.337729
686.603137	29834.327320
686.940824	30342.145432
687.278460	30690.572342
687.616046	30855.823885
687.953582	31505.752124
688.291068	31433.918203
688.628504	31759.249066
688.965889	31760.005239
689.303224	31493.819713
689.640510	31189.195389
689.977745	30553.526054
690.314930	29828.381279
690.652065	29392.689475
690.989150	28730.092817
691.326185	27870.790335
691.663170	27249.062311
692.000105	26510.785330
692.336990	25910.888022
692.673825	25487.025286
693.010610	24988.593803
693.347345	24478.290402
693.684030	23870.039902
694.020665	23668.940713
694.357251	23005.350947
694.693786	22996.087827
695.030272	22772.008539
695.366707	22275.021346
695.703093	22008.460254
696.039429	22073.740675
696.375716	21831.556083
696.711952	21837.832319
697.048139	21703.911547
697.384276	21547.671066
697.720363	21665.959220
698.056400	21548.094523
698.392388	21401.248232
698.728326	21389.177189
699.064214	21229.354968
699.400053	21225.833722
699.735842	20846.378510
700.071581	20660.869090
700.407270	20394.537370
700.742910	20225.000846
701.078501	19976.736622
701.414042	19768.703326
701.749533	19474.012596
702.084974	19154.552156
702.420366	19386.306601
702.755709	18975.717223
703.091002	18666.898659
703.426246	18754.168594
703.761440	18677.676646
704.096584	18433.583977
704.431679	18368.149800
704.766725	18310.234504
705.101721	18244.102127
705.436668	18366.032515
705.771565	18085.625894
706.106413	18400.183812
706.441212	18485.565835
706.775961	18580.697449
707.110661	18663.256426
707.445311	19021.120375
707.779913	18904.110153
708.114465	19199.799032
708.448967	19510.840745
708.783421	20135.008688
709.117825	20493.780046
709.452180	20727.341744
709.786485	21176.077533
710.120742	21939.774533
710.454949	22041.520141
710.789107	22544.208879
711.123216	23253.771447
711.457275	23480.041117
711.791286	24033.527042
712.125247	24180.743858
712.459159	23915.884155
712.793023	24651.690970
713.126837	23650.230471
713.460602	23888.261152
713.794318	23547.942939
714.127985	23287.065748
714.461602	22387.189539
714.795171	22362.641641
715.128691	21391.821274
715.462162	20870.994464
715.795584	20440.474885
716.128957	20181.856131
716.462281	19808.374686
716.795556	19516.655716
717.128782	19048.977792
717.461960	18442.244679
717.795088	18393.471516
718.128167	18066.383810
718.461198	17625.502139
718.794180	17489.383423
719.127113	17156.014440
719.459997	16969.088455
719.792833	16599.380315
720.125619	16639.570914
720.458357	16312.455482
720.791046	16173.269224
721.123686	16021.222983
721.456278	15805.917823
721.788821	15793.977850
722.121315	15536.105187
722.453761	15641.558563
722.786158	15525.692683
723.118506	15598.519712
723.450805	15488.075593
723.783056	15659.648744
724.115259	15556.100923
724.447412	15546.666404
724.779518	15769.382060
725.111574	15818.848382
725.443582	16083.622385
725.775542	16047.842796
726.107453	16552.595886
726.439315	16477.003784
726.771129	16882.083181
727.102895	17306.959189
727.434612	17580.532526
727.766281	17732.135146
728.097901	18057.269404
728.429473	18138.782341
728.760996	18165.896187
729.092471	18278.533208
729.423897	18164.449376
729.755276	18044.232980
730.086606	18152.675761
730.417887	18742.117716
730.749120	19288.185583
731.080305	19504.055352
731.411442	19901.893131
731.742530	20012.591829
732.073570	20174.417908
732.404562	20491.587144
732.735506	20333.738534
733.066401	20127.267996
733.397249	19624.327201
733.728048	19009.999590
734.058798	18151.833888
734.389501	17390.846510
734.720156	16885.314561
735.050762	16305.730582
735.381320	15922.030719
735.711831	15659.399207
736.042293	15294.281037
736.372707	15326.546942
736.703073	15121.442556
737.033391	15320.253061
737.363661	15322.244317
737.693883	15440.643377
738.024056	15638.135620
738.354182	15865.879827
738.684260	16215.998044
739.014290	16496.487844
739.344272	16716.657718
739.674207	17072.860607
740.004093	17236.965288
740.333931	17290.048638
740.663722	17370.424795
740.993464	17413.176301
741.323159	17260.792302
741.652806	16964.367415
741.982405	16795.012372
742.311956	16440.178156
742.641460	16327.329406
742.970915	16002.147257
743.300323	15653.390151
743.629683	15440.623212
743.958996	15131.315656
744.288260	14805.329443
744.617477	14508.544113
744.946647	14476.636130
745.275768	14168.079706
745.604842	13961.946925
745.933869	13784.742805
746.262847	13760.585596
746.591778	13676.814222
746.920662	13565.888673
747.249498	13570.602152
747.578286	13731.230957
747.907027	13904.167740
748.235720	14167.016022
748.564365	14233.473553
748.892963	14160.553263
749.221514	14256.521709
749.550017	14120.382828
749.878473	14093.984826
750.206881	13876.877454
750.535242	13799.286534
750.863555	13723.344072
751.191821	13621.114513
751.520039	13645.155776
751.848210	13564.827510
752.176334	13618.697280
752.504411	13538.016133
752.832440	13362.631870
753.160421	13473.975835
753.488356	13371.975649
753.816243	13274.925876
754.144082	13116.232873
754.471875	13060.185325
754.799620	13031.596941
755.127318	13002.625430
755.454969	12994.859533
755.782572	12957.265128
756.110129	12982.047440
756.437638	12889.645611
756.765100	12891.604099
757.092515	12920.547884
757.419882	12954.978965
757.747203	12961.290489
758.074477	13057.304305
758.401703	13035.304710
758.728882	13244.051329
759.056014	13282.429633
759.383099	13451.530098
759.710138	13577.838728
760.037129	13694.864073
760.364073	13753.890944
760.690970	13771.383748
761.017820	13809.021002
761.344623	14031.751782
761.671379	14401.497732
761.998088	15095.495737
762.324751	16860.643154
762.651366	20259.023593
762.977935	24703.912283
763.304456	27641.795922
763.630931	28669.924125
763.957359	27485.394123
764.283740	25220.915378
764.610074	22971.973468
764.936362	20367.352948
765.262602	18505.954782
765.588796	16588.516628
765.914943	15318.163503
766.241044	14223.703797
766.567097	13428.255091
766.893104	12714.084908
767.219064	12260.849889
767.544978	11787.772888
767.870845	11397.469113
768.196665	11181.601865
768.522438	10957.444438
768.848165	10753.688562
769.173846	10540.248628
769.499479	10420.894270
769.825066	10250.220965
770.150607	10018.332929
770.476101	9939.451475
770.801548	9814.140993
771.126949	9657.111571
771.452303	9556.442249
771.777611	9346.788223
772.102872	9343.171195
772.428087	9208.315288
772.753256	9045.060042
773.078378	8954.914128
773.403453	8775.355790
773.728482	8667.575921
774.053465	8586.743540
774.378401	8491.556473
774.703291	8363.647276
775.028135	8242.828463
775.352932	8212.384934
775.677683	8103.322092
776.002388	7999.202100
776.327046	8015.991663
776.651658	7910.008965
776.976224	7814.693349
777.300743	7814.494223
777.625216	7723.473670
777.949643	7678.372987
778.274024	7697.148764
778.598359	7608.258099
778.922647	7629.546891
779.246889	7576.408089
779.571086	7585.509892
779.895236	7595.713187
780.219339	7606.024867
780.543397	7600.865247
780.867409	7684.823143
781.191374	7694.383692
781.515294	7660.514699
781.839167	7752.283864
782.162995	7732.714105
782.486776	7670.768406
782.810511	7621.095397
783.134201	7534.072479
783.457844	7537.558437
783.781441	7480.926114
784.104993	7408.220073
784.428498	7392.844554
784.751958	7376.541462
785.075372	7347.302770
785.398739	7295.041128
785.722061	7338.528642
786.045337	7335.486305
786.368568	7496.049576
786.691752	7528.502004
787.014891	7859.115996
787.337983	8222.706697
787.661030	8814.901122
787.984031	9437.365154
788.306987	9840.838944
788.629897	10038.542915
788.952760	9984.373197
789.275579	9762.035627
789.598351	9372.966935
789.921078	9017.931072
790.243759	8604.725335
790.566395	8320.442067
790.888984	8069.319509
791.211529	7851.410593
791.534027	7640.803788
791.856480	7441.143849
792.178888	7366.728856
792.501249	7271.541789
792.823566	7113.483972
793.145836	7109.539269
793.468062	7086.745692
793.790241	7041.581995
794.112375	7109.040195
794.434464	7258.782629
794.756507	7299.865512
795.078505	7466.659649
795.400457	7772.025022
795.722364	8121.528219
796.044226	8403.101867
796.366042	8685.529990
796.687812	8630.941856
797.009538	8707.113691
797.331218	8603.240716
797.652852	8524.145012
797.974442	8365.540229
798.295986	8277.322558
798.617484	8085.683094
798.938938	7947.880633
799.260346	7845.608225
799.581709	7647.402658
799.903026	7570.068838
800.224299	7459.506252
800.545526	7292.223123
800.866708	7200.990841
801.187845	7132.335367
801.508936	7021.724890
801.829983	6986.217523
802.150984	6836.122208
802.471940	6791.223171
802.792851	6777.029803
803.113717	6746.377067
803.434538	6712.419854
803.755314	6651.016080
804.076045	6660.080075
804.396731	6606.832887
804.717372	6633.346836
805.037967	6638.720706
805.358518	6684.436409
805.679024	6765.236023
805.999485	6773.500995
806.319901	6815.145967
806.640272	6830.690365
806.960598	6915.240597
807.280879	6918.424086
807.601115	6995.760427
807.921306	6943.055163
808.241453	6961.137782
808.561554	6981.655278
808.881611	6942.172962
809.201623	6953.061854
809.521590	6900.825418
809.841513	6876.113682
810.161390	6913.506440
810.481223	6784.773015
810.801011	6767.461693
811.120755	6748.418734
811.440453	6670.832856
811.760107	6635.544779
812.079716	6605.131498
812.399281	6538.134563
812.718801	6531.361773
813.038276	6487.869218
813.357707	6426.863695
813.677093	6470.734336
813.996434	6367.504108
814.315731	6409.660757
814.634983	6408.534059
814.954191	6422.114928
815.273354	6528.531165
815.592473	6586.882521
815.911547	6712.452622
816.230577	6795.964377
816.549562	6941.300842
816.868502	7042.985956
817.187399	7139.002293
817.506250	7288.711959
817.825058	7324.756209
818.143821	7587.894358
818.462539	7861.140020
818.781213	8225.418838
819.099843	8779.237479
819.418429	9771.611298
819.736970	10736.334389
820.055466	11910.018348
820.373919	13437.339250
820.692327	15777.175684
821.010691	19923.645710
821.329011	28923.390820
821.647286	41968.762714
821.965517	55447.721730
822.283704	60842.734329
822.601847	62814.090144
822.919945	60092.850092
823.237999	55872.852316
823.556010	49679.089055
823.873976	42951.341572
824.191897	36402.013127
824.509775	31572.575139
824.827609	27047.489253
825.145398	24447.980464
825.463144	23090.561571
825.780845	23395.576584
826.098502	25169.631719
826.416116	28950.696230
826.733685	32589.484255
827.051210	33739.920933
827.368692	31955.322224
827.686129	27979.805287
828.003522	23880.754874
828.320872	20180.842859
828.638177	17347.442175
828.955439	15209.466144
829.272656	13387.658679
829.589830	11932.305290
829.906960	10658.196505
830.224046	9723.443073
830.541088	8980.545875
830.858086	8516.729474
831.175041	8144.162999
831.491952	8025.385853
831.808819	8069.874036
832.125642	8473.131055
832.442421	9350.438018
832.759157	11142.759774
833.075849	14063.619436
833.392497	17272.938962
833.709101	19440.627554
834.025662	19290.917888
834.342179	17580.587979
834.658653	15404.609209
834.975083	13484.708452
835.291469	11877.318904
835.607811	10559.604138
835.924110	9649.892639
836.240366	8785.906925
836.556578	7983.876992
836.872746	7347.688418
837.188871	6846.675864
837.504952	6434.949706
837.820990	6116.694102
838.136984	5899.795937
838.452935	5805.112985
838.768842	5840.159087
839.084706	6262.869919
839.400526	7471.030329
839.716303	9050.625475
840.032037	10136.837853
840.347727	10060.595443
840.663373	9086.092513
840.978977	8049.981643
841.294537	7235.973928
841.610054	6643.106510
841.925527	6212.753288
842.240957	5857.271283
842.556344	5525.636457
842.871687	5240.833950
843.186987	4958.292400
843.502244	4736.516919
843.817458	4576.248556
844.132629	4439.829892
844.447756	4345.739276
844.762840	4268.158439
845.077881	4192.863765
845.392879	4129.778766
845.707833	4082.631374
846.022745	4037.505486
846.337613	4010.658821
846.652438	3970.369919
846.967221	3948.829069
847.281960	3917.924275
847.596656	3903.297367
847.911309	3880.897000
848.225919	3856.278526
848.540485	3838.810927
848.855009	3829.885565
849.169490	3806.103921
849.483928	3795.512457
849.798323	3783.804377
850.112675	3767.561780
850.426984	3774.707615
850.741251	3757.313114
851.055474	3752.680293
851.369654	3759.805964
851.683792	3754.696755
851.997887	3758.003752
852.311938	3761.404010
852.625947	3768.854836
852.939914	3757.812188
853.253837	3767.155967
853.567718	3766.014145
853.881555	3755.137856
854.195350	3769.989095
854.509103	3766.840895
854.822812	3761.827467
855.136479	3755.329420
855.450103	3761.547683
855.763685	3749.106115
856.077224	3755.442846
856.390720	3773.162502
856.704173	3791.184627
857.017584	3805.851864
857.330953	3816.738235
857.644278	3838.798325
857.957561	3842.967359
858.270802	3840.910568
858.584000	3846.511290
858.897155	3836.434023
859.210268	3817.333092
859.523339	3800.876245
859.836367	3797.637303
860.149352	3788.532980
860.462295	3786.004841
860.775195	3772.257614
861.088054	3769.346348
861.400869	3766.286368
861.713642	3763.881737
862.026373	3780.472175
862.339062	3784.484933
862.651708	3802.807007
862.964312	3836.628108
863.276873	3846.854088
863.589392	3903.935073
863.901869	3951.329481
864.214303	3999.107017
864.526696	4033.593550
864.839045	4074.671392
865.151353	4100.933283
865.463619	4109.079788
865.775842	4118.844503
866.088023	4139.951814
866.400162	4129.720793
866.712258	4136.806134
867.024313	4136.856546
867.336325	4134.537615
867.648296	4141.542298
867.960224	4143.838544
868.272110	4153.792302
868.583954	4153.363804
868.895755	4167.148839
869.207515	4162.269002
869.519233	4203.740054
869.830909	4219.251685
870.142542	4240.784973
870.454134	4259.752315
870.765684	4288.534783
871.077191	4323.202798
871.388657	4346.886138
871.700081	4383.157240
872.011463	4426.773303
872.322803	4461.582471
872.634101	4494.372656
872.945357	4533.499572
873.256571	4590.472172
873.567744	4619.572232
873.878874	4637.826250
874.189963	4679.171274
874.501010	4687.186708
874.812015	4681.351573
875.122979	4726.321186
875.433900	4725.431422
875.744780	4738.835850
876.055618	4762.229324
876.366415	4761.657153
876.677169	4785.106081
876.987882	4828.573430
877.298554	4879.978075
877.609183	4960.523111
877.919771	5066.793155
878.230317	5213.730186
878.540822	5428.485861
878.851285	5753.579790
879.161707	6212.823864
879.472087	6964.840510
879.782425	8206.711116
880.092722	10386.937057
880.402977	13710.136249
880.713191	17493.146645
881.023363	21247.520766
881.333494	23493.231296
881.643583	24701.028743
881.953631	24692.292423
882.263637	23829.521628
882.573602	22341.017611
882.883526	20783.079262
883.193408	19083.897864
883.503248	17384.623205
883.813048	15827.214177
884.122806	14397.066557
884.432522	12920.447061
884.742197	11650.560242
885.051831	10560.443491
885.361424	9545.916320
885.670975	8723.303356
885.980485	8041.227679
886.289954	7458.011549
886.599382	6989.963100
886.908768	6613.714062
887.218113	6249.220995
887.527417	5959.727694
887.836680	5696.158527
888.145901	5472.727027
888.455082	5311.349610
888.764221	5160.457793
889.073319	5028.097258
889.382376	4955.277790
889.691392	4891.280342
890.000366	4870.498186
890.309300	4855.969580
890.618193	4857.754149
890.927044	4845.189073
891.235855	4868.758987
891.544625	4896.571033
891.853353	4956.318789
892.162041	5074.508641
892.470687	5266.069966
892.779293	5517.184963
893.087858	5886.182301
893.396381	6460.591535
893.704864	7267.584483
894.013306	8421.829753
894.321707	9601.351368
894.630068	10418.880329
894.938387	10618.394075
895.246665	10379.297189
895.554903	9773.695816
895.863100	9072.670441
896.171256	8518.072942
896.479371	8013.619800
896.787446	7513.625559
897.095480	7079.829229
897.403473	6760.804849
897.711425	6451.046110
898.019336	6182.733217
898.327207	5907.481176
898.635038	5675.842677
898.942827	5432.060039
899.250576	5241.194392
899.558284	5051.788160
899.865952	4925.708902
900.173579	4776.105100
900.481165	4672.579965
900.788711	4578.378444
901.096216	4506.050489
901.403681	4442.325263
901.711105	4416.557405
902.018489	4398.426895
902.325832	4471.843739
902.633135	4595.984673
902.940397	4939.438485
903.247619	5732.207818
903.554800	7173.030081
903.861941	9103.590358
904.169041	10624.899684
904.476101	11251.931002
904.783121	10896.466641
905.090100	10154.852417
905.397039	9314.590373
905.703938	8562.656907
906.010796	7868.527831
906.317614	7309.940258
906.624391	6774.335306
906.931129	6349.033321
907.237826	5951.190500
907.544483	5573.166976
907.851099	5201.376839
908.157675	4843.540615
908.464211	4520.931975
908.770707	4289.613590
909.077163	4087.909462
909.383578	3944.886887
909.689954	3827.823733
909.996289	3760.272271
910.302584	3695.571582
910.608839	3662.189061
910.915054	3632.242087
911.221229	3614.736680
911.527363	3626.021303
911.833458	3641.497645
912.139513	3668.896317
912.445527	3701.036193
912.751502	3780.986372
913.057436	3882.207700
913.363331	4016.516642
913.669186	4223.332499
913.975000	4480.338084
914.280775	4903.013628
914.586510	5482.842102
914.892205	6284.541839
915.197859	7320.536763
915.503475	8546.051346
915.809050	9611.385785
916.114585	10257.903684
916.420081	10518.024702
916.725536	10484.024639
917.030952	10037.385970
917.336328	9624.946489
917.641665	9212.854847
917.946961	8729.408193
918.252218	8310.536200
918.557435	7796.678785
918.862612	7369.453600
919.167750	6991.916547
919.472848	6564.298152
919.777906	6194.867274
920.082925	5829.665925
920.387904	5470.841635
920.692843	5199.030182
920.997743	4954.168737
921.302603	4716.183425
921.607423	4554.349784
921.912204	4392.642171
922.216946	4273.696146
922.521647	4157.525277
922.826310	4050.872105
923.130932	3955.012044
923.435516	3856.628886
923.740059	3784.840334
924.044564	3709.349056
924.349028	3651.653050
924.653454	3589.180551
924.957840	3518.327133
925.262186	3471.585555
925.566493	3409.496184
925.870761	3354.298070
926.174989	3320.809685
926.479178	3283.427008
926.783328	3238.903537
927.087438	3210.438662
927.391509	3175.163188
927.695541	3147.010865
927.999533	3120.990949
928.303486	3100.055037
928.607400	3086.998449
928.911275	3074.730801
929.215110	3053.880588
929.518906	3046.767520
929.822663	3047.435473
930.126381	3041.378527
930.430060	3048.093344
930.733699	3052.164076
931.037299	3062.120354
931.340861	3060.608008
931.644383	3068.966241
931.947866	3067.993299
932.251309	3061.545663
932.554714	3058.946948
932.858080	3054.425033
933.161407	3047.886657
933.464694	3038.517672
933.767943	3030.832433
934.071153	3026.784387
934.374323	3019.174765
934.677455	3009.525996
934.980548	3004.799915
935.283602	2996.242556
935.586617	2994.750374
935.889593	3006.511386
936.192530	3011.512211
936.495428	3022.017976
936.798287	3043.425235
937.101108	3076.127200
937.403890	3131.025366
937.706632	3190.251362
938.009336	3269.165584
938.312002	3342.713498
938.614628	3405.450658
938.917216	3456.915797
939.219765	3490.608349
939.522275	3523.532125
939.824747	3523.935417
940.127179	3524.676467
940.429573	3518.543903
940.731929	3515.650281
941.034246	3505.159640
941.336524	3488.939727
941.638763	3473.692757
941.940964	3458.347485
942.243126	3415.835435
942.545250	3394.972619
942.847335	3359.132536
943.149381	3320.935713
943.451389	3291.049233
943.753359	3256.547576
944.055290	3230.096642
944.357182	3205.969679
944.659036	3191.345292
944.960851	3182.430012
945.262628	3166.956190
945.564367	3171.583969
945.866067	3163.240859
946.167729	3161.975530
946.469352	3157.962771
946.770937	3157.153666
947.072484	3140.071716
947.373992	3143.902993
947.675462	3134.420583
947.976893	3118.233438
948.278286	3111.606841
948.579641	3102.008484
948.880958	3094.993719
949.182236	3101.093515
949.483476	3090.595312
949.784678	3092.636979
950.085841	3094.653441
950.386967	3103.498145
950.688054	3123.128398
950.989103	3143.885349
951.290114	3163.031652
951.591087	3191.350333
951.892021	3220.904098
952.192917	3247.213880
952.493776	3268.520316
952.794596	3278.615227
953.095378	3282.794343
953.396122	3276.485339
953.696828	3273.740431
953.997496	3260.008328
954.298126	3239.200966
954.598718	3217.395455
954.899272	3189.953934
955.199788	3163.079542
955.500266	3131.126189
955.800706	3096.863987
956.101108	3059.289747
956.401472	3027.669109
956.701798	2994.523523
957.002087	2956.291412
957.302337	2929.880807
957.602550	2896.541136
957.902724	2869.003833
958.202861	2845.771675
958.502960	2824.664364
958.803022	2804.464461
959.103045	2784.708179
959.403031	2765.501383
959.702979	2754.930083
960.002889	2740.552712
960.302762	2725.091493
960.602596	2713.824515
960.902393	2708.112887
961.202153	2698.827082
961.501875	2690.516740
961.801559	2683.285205
962.101205	2679.065759
962.400814	2674.170798
962.700385	2665.003460
962.999918	2660.017759
963.299414	2652.156080
963.598873	2653.771769
963.898293	2645.365645
964.197677	2647.314051
964.497022	2643.833135
964.796331	2642.358597
965.095601	2637.919861
965.394835	2635.729480
965.694030	2635.122021
965.993189	2633.881897
966.292309	2632.863584
966.591393	2631.073974
966.890439	2628.865949
967.189447	2629.975003
967.488419	2629.743110
967.787353	2631.149592
968.086249	2633.597072
968.385108	2637.476240
968.683930	2636.084881
968.982714	2639.757362
969.281462	2644.944709
969.580172	2650.878147
969.878844	2657.207316
970.177480	2662.934067
970.476078	2671.390602
970.774639	2680.303362
971.073162	2687.063549
971.371649	2694.191741
971.670098	2698.073429
971.968510	2703.200283
972.266885	2707.696992
972.565223	2707.659183
972.863524	2714.336192
973.161788	2717.585215
973.460014	2720.746019
973.758204	2723.574106
974.056356	2722.969168
974.354471	2728.821947
974.652550	2725.149467
974.950591	2727.233984
975.248595	2724.128633
975.546563	2722.928838
975.844493	2720.506564
976.142386	2711.981973
976.440243	2709.320244
976.738062	2703.250694
977.035845	2695.081505
977.333590	2690.229394
977.631299	2687.426512
977.928971	2681.480472
978.226606	2670.107628
978.524204	2669.038904
978.821765	2665.842812
979.119290	2670.296672
979.416777	2667.975220
979.714228	2670.009326
980.011642	2675.451252
980.309020	2682.450894
980.606360	2697.672658
980.903664	2717.630586
981.200931	2755.275402
981.498162	2803.032773
981.795356	2881.594115
982.092513	2968.057465
982.389633	3073.987231
982.686717	3167.430058
982.983764	3243.571646
983.280775	3295.593833
983.577749	3302.401911
983.874686	3288.072432
984.171587	3256.560179
984.468451	3214.854713
984.765279	3172.698064
985.062070	3123.854324
985.358824	3079.298086
985.655543	3024.649458
985.952224	2972.586942
986.248869	2908.118146
986.545478	2848.435925
986.842050	2791.727986
987.138586	2747.138980
987.435086	2707.820500
987.731549	2677.618948
988.027975	2654.550628
988.324366	2637.587145
988.620719	2623.582820
988.917037	2612.504884
989.213318	2601.021136
989.509563	2594.384457
989.805772	2592.148705
990.101944	2587.069742
990.398080	2581.753846
990.694180	2580.874164
990.990244	2583.427509
991.286271	2581.708475
991.582262	2583.876171
991.878217	2584.670153
992.174136	2590.361616
992.470019	2591.478231
992.765865	2592.345310
993.061676	2597.872935
993.357450	2610.896756
993.653188	2613.651747
993.948890	2630.148922
994.244556	2650.484937
994.540186	2675.307579
994.835780	2705.778833
995.131337	2742.811149
995.426859	2785.502161
995.722345	2833.493945
996.017795	2883.605535
996.313208	2922.205650
996.608586	2949.223714
996.903928	2961.675364
997.199234	2960.687298
997.494504	2958.998511
997.789738	2942.526541
998.084936	2919.843869
998.380099	2885.221225
998.675225	2856.234590
998.970316	2828.510765
999.265371	2792.000208
999.560390	2756.533170
999.855373	2726.654251
1000.150320	2695.038655
1000.445232	2669.943791
1000.740108	2653.023158
1001.034948	2631.177318
1001.329752	2618.856738
1001.624521	2604.630602
1001.919254	2593.502255
1002.213951	2587.344485
1002.508613	2578.756880
1002.803239	2569.307237
1003.097829	2564.621484
1003.392384	2560.354147
1003.686903	2556.371636
1003.981386	2552.507592
1004.275834	2547.877292
1004.570246	2547.169010
1004.864623	2544.003165
1005.158964	2541.369162
1005.453270	2537.810108
1005.747540	2538.266332
1006.041775	2534.931609
1006.335974	2536.854809
1006.630138	2533.462112
1006.924266	2531.755682
1007.218359	2531.405322
1007.512416	2528.310053
1007.806438	2527.911802
1008.100425	2526.885927
1008.394376	2524.531708
1008.688292	2528.904909
1008.982172	2529.416586
1009.276017	2528.549508
1009.569827	2529.184693
1009.863602	2524.556914
1010.157341	2525.653365
1010.451045	2524.811492
1010.744714	2524.917357
1011.038347	2525.514733
1011.331945	2522.820237
1011.625508	2521.504495
1011.919036	2520.907119
1012.212528	2521.408713
1012.505986	2517.678260
1012.799408	2522.404341
1013.092795	2518.852848
1013.386147	2517.411078
1013.679464	2517.527025
1013.972745	2514.890502
1014.265992	2518.028620
1014.559204	2519.908970
1014.852380	2519.611542
1015.145521	2518.494927
1015.438628	2516.992663
1015.731699	2516.397807
1016.024736	2519.072139
1016.317737	2522.119516
1016.610703	2518.215143
1016.903635	2523.221008
1017.196531	2520.327386
1017.489393	2526.664116
1017.782219	2526.848118
1018.075011	2528.809127
1018.367768	2528.950280
1018.660490	2528.073119
1018.953177	2528.073119
1019.245829	2528.073119
