Dividing Wavelength (nm)	Counts (n)	Blue Motor Position (mm): 32.600000	Red Motor Position (mm): 0.000000	
326.493990	2052.974616
326.888308	2052.974616
327.282561	2052.974616
327.676750	2027.657941
328.070874	2031.411080
328.464933	2034.924764
328.858929	2045.160827
329.252859	2052.984698
329.646726	2064.586914
330.040528	2085.600963
330.434265	2101.389857
330.827938	2124.380039
331.221547	2142.780251
331.615091	2163.126348
332.008571	2183.399348
332.401986	2202.953984
332.795338	2225.361913
333.188625	2245.554254
333.581847	2264.735845
333.975006	2280.441560
334.368100	2301.798408
334.761129	2316.016982
335.154095	2331.871411
335.546996	2381.650285
335.939833	2484.477220
336.332606	2496.878459
336.725315	2509.675428
337.117960	2523.125226
337.510540	2530.623943
337.903056	2537.053934
338.295508	2548.504915
338.687896	2553.662016
339.080220	2556.681667
339.472480	2561.067471
339.864676	2563.393963
340.256807	2568.178018
340.648875	2571.288410
341.040879	2572.084913
341.432818	2572.795715
341.824694	2575.240675
342.216506	2571.600962
342.608253	2571.663976
342.999937	2573.146075
343.391557	2572.689851
343.783113	2568.614078
344.174605	2567.807493
344.566033	2570.408729
344.957397	2562.897410
345.348697	2566.910168
345.739934	2561.589230
346.131106	2559.247614
346.522215	2560.991853
346.913260	2559.426575
347.304241	2555.834753
347.695159	2555.181924
348.086012	2552.794937
348.476802	2547.393341
348.867528	2548.976263
349.258191	2544.897970
349.648789	2546.029709
350.039324	2539.849254
350.429796	2546.402754
350.820203	2544.834955
351.210548	2545.175233
351.600828	2541.989224
351.991045	2541.674152
352.381198	2542.964687
352.771288	2543.559543
353.161314	2542.694986
353.551276	2537.807587
353.941175	2536.133924
354.331010	2538.904038
354.720782	2544.567774
355.110490	2546.377548
355.500135	2542.551313
355.889717	2546.221273
356.279235	2542.810932
356.668689	2544.605583
357.058080	2544.862682
357.447408	2544.557692
357.836672	2541.802701
358.225873	2545.598690
358.615010	2544.051056
359.004084	2542.543751
359.393095	2546.977446
359.782043	2546.334699
360.170927	2549.077086
360.559748	2548.449463
360.948505	2545.507949
361.337199	2548.688917
361.725830	2551.527087
362.114398	2548.903167
362.502903	2551.685883
362.891344	2552.573127
363.279722	2549.442570
363.668037	2547.587425
364.056289	2553.336861
364.444478	2553.994732
364.832603	2555.126471
365.220665	2551.335523
365.608665	2555.408776
365.996601	2552.152190
366.384474	2552.830225
366.772284	2555.975905
367.160031	2553.200750
367.547715	2557.468087
367.935336	2550.866696
368.322893	2551.620348
368.710388	2553.344423
369.097820	2553.107489
369.485189	2553.001625
369.872495	2558.254507
370.259738	2557.828529
370.646918	2558.892213
371.034035	2556.669064
371.421090	2559.497151
371.808081	2559.645865
372.195010	2559.545042
372.581875	2560.817934
372.968678	2561.692574
373.355418	2562.305074
373.742096	2558.824157
374.128710	2560.913716
374.515262	2561.687533
374.901751	2562.819272
375.288177	2564.376988
375.674540	2561.253993
376.060841	2562.231977
376.447079	2561.765671
376.833254	2564.724828
377.219367	2564.520661
377.605417	2564.316494
377.991404	2564.540826
378.377329	2566.834551
378.763191	2563.837585
379.148991	2564.407235
379.534727	2565.370096
379.920402	2567.202555
380.306013	2567.053841
380.691563	2567.371434
381.077049	2569.385375
381.462474	2564.818089
381.847835	2569.917216
382.233134	2568.843451
382.618371	2566.595096
383.003545	2566.695919
383.388657	2569.186249
383.773706	2569.309757
384.158693	2570.368400
384.543618	2574.398802
384.928480	2569.733214
385.313280	2571.646332
385.698017	2570.494428
386.082692	2567.182390
386.467305	2568.172977
386.851856	2573.624985
387.236344	2571.699264
387.620770	2569.342525
388.005133	2567.966290
388.389435	2570.290262
388.773674	2567.883111
389.157851	2574.875191
389.541965	2571.825293
389.926018	2575.013823
390.310008	2575.081878
390.693936	2575.659091
391.077802	2576.032136
391.461606	2575.328895
391.845348	2575.843093
392.229027	2579.954154
392.612645	2574.615572
392.996200	2576.296797
393.379694	2577.864595
393.763125	2577.347877
394.146494	2578.154462
394.529801	2580.758218
394.913047	2581.695872
395.296230	2579.628999
395.679351	2580.198650
396.062410	2579.578588
396.445408	2579.258474
396.828343	2582.973805
397.211217	2581.269895
397.594028	2583.770307
397.976778	2580.806109
398.359466	2583.966912
398.742092	2584.876840
399.124656	2584.627303
399.507158	2583.903898
399.889598	2583.737540
400.271977	2585.343147
400.654294	2585.975812
401.036549	2585.766604
401.418742	2585.552355
401.800874	2584.793661
402.182944	2585.517067
402.564952	2587.289033
402.946898	2590.724579
403.328783	2591.367326
403.710606	2590.459918
404.092367	2588.637541
404.474067	2591.309353
404.855705	2590.021338
405.237282	2591.604260
405.618797	2590.722058
406.000250	2594.969230
406.381642	2591.793303
406.762972	2592.897316
407.144240	2591.458067
407.525447	2595.125506
407.906593	2589.129054
408.287677	2596.859663
408.668700	2597.101638
409.049661	2598.971907
409.430560	2600.920312
409.811399	2602.649428
410.192176	2601.716815
410.572891	2601.076588
410.953545	2599.760847
411.334138	2600.108687
411.714669	2603.541712
412.095139	2602.596496
412.475547	2607.743514
412.855894	2607.378031
413.236180	2607.365428
413.616405	2612.298197
413.996568	2605.931219
414.376670	2609.318875
414.756711	2614.712909
415.136691	2613.624020
415.516609	2614.289452
415.896466	2619.423868
416.276262	2623.237501
416.655997	2625.238839
417.035670	2626.768829
417.415283	2635.356434
417.794834	2637.932464
418.174324	2640.523617
418.553753	2645.973104
418.933121	2654.601039
419.312428	2659.768222
419.691674	2667.919768
420.070859	2678.798578
420.449983	2683.222190
420.829045	2699.227854
421.208047	2711.233362
421.586988	2725.051164
421.965867	2739.254615
422.344686	2754.415885
422.723444	2774.522527
423.102141	2774.862805
423.480777	2811.113743
423.859352	2818.766214
424.237866	2859.012266
424.616319	2879.285266
424.994712	2914.321285
425.373044	2927.241763
425.751314	2978.167499
426.129524	2976.776140
426.507673	3026.378574
426.885762	3058.362174
427.263789	3097.060592
427.641756	3137.596510
428.019662	3176.352901
428.397508	3213.866647
428.775292	3249.464755
429.153016	3307.826193
429.530679	3331.577589
429.908282	3378.271277
430.285824	3407.416708
430.663305	3494.699245
431.040726	3516.923172
431.418086	3558.079152
431.795385	3626.308649
432.172624	3708.507183
432.549802	3728.172724
432.926920	3805.935043
433.303977	3843.728573
433.680974	3902.400042
434.057910	3999.535515
434.434786	4064.551276
434.811601	4107.282617
435.188355	4254.552365
435.565050	4276.872073
435.941683	4341.260211
436.318257	4494.927183
436.694770	4538.689439
437.071222	4666.460004
437.447614	4652.652284
437.823946	4705.070202
438.200218	4815.441224
438.576429	4845.927602
438.952580	4959.144355
439.328670	5026.226990
439.704700	5128.832114
440.080670	5142.975072
440.456580	5311.732738
440.832429	5380.857039
441.208218	5326.447866
441.583947	5444.569662
441.959616	5559.530655
442.335224	5642.180372
442.710773	5741.803655
443.086261	5904.758953
443.461689	5839.813768
443.837057	5979.032793
444.212365	6158.886039
444.587612	6223.377520
444.962800	6235.458645
445.337927	6376.726899
445.712995	6183.270100
446.088002	6626.594210
446.462949	6739.206025
446.837837	6810.576161
447.212664	6921.418531
447.587431	7569.453817
447.962139	8275.769882
448.336786	8834.249070
448.711374	8651.688725
449.085901	7978.147721
449.460369	8046.336888
449.834776	8063.030669
450.209124	8794.423955
450.583412	8704.152013
450.957640	8915.807377
451.331808	8699.171353
451.705917	8422.780011
452.079965	8439.166281
452.453954	8647.103795
452.827883	8684.257099
453.201752	8711.852375
453.575562	8800.369996
453.949311	9144.481678
454.323001	9261.650696
454.696632	9262.903423
455.070202	9798.692377
455.443713	9905.164067
455.817164	10091.588457
456.190556	10408.069574
456.563888	10332.651392
456.937160	10573.563093
457.310373	10200.283295
457.683526	10289.418457
458.056619	10379.183763
458.429653	10501.436785
458.802628	10701.310973
459.175542	10805.945162
459.548398	11343.609426
459.921194	11888.059082
460.293930	12209.876262
460.666607	13032.680789
461.039224	13738.704468
461.411782	14024.610988
461.784280	13702.899673
462.156719	13672.378007
462.529099	13632.469712
462.901419	13136.750369
463.273680	12838.830780
463.645882	13109.903705
464.018024	13107.267181
464.390106	13537.658211
464.762130	14666.755685
465.134094	16292.565609
465.505999	18484.605495
465.877845	20421.008469
466.249631	21313.552319
466.621358	20716.561237
466.993026	19961.577872
467.364634	19298.472057
467.736184	18650.613212
468.107674	18157.651380
468.479105	18035.579840
468.850477	17797.115619
469.221790	17415.646466
469.593043	16831.066704
469.964238	16512.065009
470.335373	16640.914381
470.706449	17498.938930
471.077467	18641.987798
471.448425	20952.635951
471.819324	22412.128127
472.190164	21906.528123
472.560945	20278.311048
472.931667	18915.974509
473.302330	18686.518830
473.672934	18253.319877
474.043479	18693.745324
474.413965	18520.702677
474.784393	18372.757415
475.154761	18990.187855
475.525070	19142.188726
475.895321	18983.006732
476.265513	19504.113325
476.635645	20078.172199
477.005719	20147.818260
477.375734	20537.743948
477.745691	21124.970316
478.115588	21794.909415
478.485427	23046.821999
478.855207	24907.176647
479.224928	26619.520498
479.594591	27771.058668
479.964194	27227.231594
480.333739	27581.654956
480.703226	27883.811635
481.072653	28391.443225
481.442022	28886.867660
481.811333	29192.338898
482.180584	28672.248097
482.549777	28477.949425
482.918912	28300.672209
483.287988	28256.904911
483.657005	28076.144258
484.025964	27722.784579
484.394864	27927.830991
484.763706	27872.194296
485.132489	27391.056491
485.501213	27477.522362
485.869879	27661.988263
486.238487	27622.412685
486.607036	27895.144149
486.975527	27613.772147
487.343959	27948.877808
487.712333	28276.356203
488.080648	28250.444672
488.448905	28661.621345
488.817104	28603.212016
489.185244	29486.875873
489.553326	30652.859470
489.921350	32577.181319
490.289315	34944.857525
490.657222	35617.844002
491.025070	36001.891705
491.392861	35607.875120
491.760593	34800.879651
492.128267	33787.411123
492.495883	32870.755434
492.863440	32031.521785
493.230939	31166.555567
493.598380	30675.655568
493.965763	30561.843958
494.333088	30113.849218
494.700354	29932.085375
495.067563	29917.642469
495.434713	29846.015235
495.801805	30144.456584
496.168839	30006.334010
496.535815	29877.139319
496.902733	30020.355979
497.269593	29851.008498
497.636395	30014.377171
498.003139	30319.800517
498.369825	30085.883417
498.736453	30481.707256
499.103023	30346.458139
499.469535	30429.992579
499.835989	30581.963203
500.202385	30434.224627
500.568723	30526.046724
500.935003	30856.307836
501.301226	30751.522412
501.667390	31441.469851
502.033497	31635.826497
502.399546	31432.564653
502.765537	31062.208724
503.131470	31521.712417
503.497345	31951.460701
503.863163	30959.225512
504.228923	31713.780379
504.594625	32105.823352
504.960269	31627.001957
505.325856	32300.227888
505.691385	31989.959992
506.056856	32299.655717
506.422270	32782.192443
506.787625	32331.394822
507.152924	32794.162663
507.518164	33002.130423
507.883347	32577.400609
508.248472	32732.539598
508.613540	33409.324584
508.978550	33652.464475
509.343503	33509.041128
509.708398	33865.291908
510.073236	34484.259901
510.438016	34574.196606
510.802738	34272.349958
511.167403	34843.369016
511.532010	35091.925627
511.896561	35581.313281
512.261053	36315.201937
512.625488	36109.202747
512.989866	36054.236526
513.354186	36119.368233
513.718449	36079.223005
514.082655	36962.438200
514.446803	36675.004210
514.810894	37285.868548
515.174927	37306.438977
515.538904	37301.425549
515.902822	37955.298491
516.266684	37657.267996
516.630488	38022.318111
516.994235	38034.772281
517.357925	38625.676171
517.721558	38891.685256
518.085133	39264.705435
518.448651	39448.515987
518.812112	39348.439000
519.175516	39508.538485
519.538863	39950.309920
519.902152	40018.017657
520.265385	40559.785420
520.628560	40585.807856
520.991678	40548.684799
521.354739	40769.515064
521.717743	41136.294294
522.080690	41044.462115
522.443580	41728.544172
522.806413	41746.853642
523.169189	41893.851168
523.531908	42124.468833
523.894569	41991.400015
524.257174	42191.574152
524.619722	42513.388811
524.982213	42662.548992
525.344647	42706.258316
525.707025	42829.612830
526.069345	43279.911377
526.431608	43187.708673
526.793815	43572.260491
527.155964	43127.179539
527.518057	43388.911205
527.880093	43237.827824
528.242072	43864.077764
528.603995	43603.324081
528.965860	43557.575610
529.327669	43750.810599
529.689421	43826.891692
530.051117	43763.421045
530.412755	44052.379983
530.774337	44119.850787
531.135862	44066.470008
531.497331	44212.504674
531.858743	44214.054828
532.220098	44621.256551
532.581396	44367.366399
532.942638	44117.274757
533.303824	44368.810690
533.664953	44430.484166
534.026025	44107.562974
534.387040	44675.048183
534.747999	44751.255306
535.108902	45056.492130
535.469748	44409.228141
535.830537	44655.198640
536.191270	44895.001287
536.551947	44634.766843
536.912567	44904.080405
537.273131	45069.460498
537.633638	44695.926122
537.994089	44888.142797
538.354483	44639.616433
538.714821	45297.587833
539.075103	45561.333441
539.435328	45428.582216
539.795497	45185.722109
540.155609	45298.575899
540.515665	45880.345218
540.875665	45197.926742
541.235609	45485.640516
541.595496	45607.936388
541.955328	46180.999633
542.315102	45618.583304
542.674821	45498.472773
543.034483	45394.851856
543.394090	45398.020221
543.753640	45389.477986
544.113134	46454.809904
544.472571	45554.545527
544.831953	46675.206630
545.191278	45956.070910
545.550548	45630.921528
545.909761	46287.156251
546.268918	46428.316120
546.628019	46843.651745
546.987064	46278.528316
547.346053	45562.916363
547.704986	46464.761142
548.063863	46135.301574
548.422684	46323.298803
548.781449	45912.585917
549.140158	46445.337576
549.498811	46223.776344
549.857408	45615.246061
550.215949	46448.110211
550.574434	46292.275543
550.932864	46212.675723
551.291237	46937.439891
551.649555	46683.857250
552.007817	46863.271915
552.366022	46533.769497
552.724173	46604.118799
553.082267	47025.075310
553.440305	47353.773664
553.798288	46623.693599
554.156215	47000.754263
554.514086	47194.490847
554.871902	46834.388624
555.229661	46995.198912
555.587365	46682.483536
555.945014	46824.003848
556.302606	46828.492995
556.660143	46941.709749
557.017625	47148.611305
557.375050	46846.318515
557.732421	47260.940816
558.089735	47304.498906
558.446994	47181.676233
558.804197	47662.761107
559.161345	47536.810398
559.518437	46880.008546
559.875474	47133.245868
560.232455	47351.784929
560.589381	47407.678722
560.946251	47220.233499
561.303065	47866.673259
561.659825	47554.550219
562.016528	47372.672950
562.373177	46943.403576
562.729770	47578.329342
563.086307	47100.760673
563.442789	47639.234042
563.799216	47500.256992
564.155587	47377.928353
564.511904	47367.593987
564.868164	47392.046104
565.224370	47720.767143
565.580520	47455.995661
565.936615	47644.585227
566.292654	47300.324830
566.648638	47670.471552
567.004567	47598.902290
567.360441	47695.052218
567.716260	47419.101977
568.072023	47780.454405
568.427732	47726.622444
568.783385	47262.932072
569.138982	47666.453752
569.494525	47792.565777
569.850013	47387.173829
570.205445	47516.008077
570.560823	47301.917835
570.916145	47172.917229
571.271412	47401.556241
571.626625	47057.154692
571.981782	47138.639903
572.336884	46725.212356
572.691931	47059.299703
573.046923	46712.843885
573.401860	46560.107005
573.756743	46565.095227
574.111570	46717.945532
574.466342	46622.234185
574.821059	46770.318080
575.175722	46283.957639
575.530330	46388.548978
575.884882	46013.141813
576.239380	45904.507468
576.593823	46000.564134
576.948211	45945.020701
577.302544	45487.435167
577.656823	45484.730587
578.011047	45748.201452
578.365216	45571.070429
578.719330	45294.361495
579.073389	45266.282268
579.427394	45322.685218
579.781344	45268.873421
580.135239	45010.746179
580.489080	45086.650833
580.842866	44562.499382
581.196597	45072.701960
581.550273	45049.540379
581.903895	44979.750645
582.257463	45433.424244
582.610975	44872.825251
582.964434	45194.478593
583.317837	44693.849166
583.671186	44657.807437
584.024481	44937.765395
584.377721	44495.913302
584.730906	44694.547366
585.084037	44802.057534
585.437113	44520.025141
585.790135	44639.470240
586.143103	44199.069999
586.496016	44368.435124
586.848874	44469.258201
587.201679	44488.512888
587.554428	44003.546326
587.907124	44260.715748
588.259765	44022.427968
588.612352	44195.480697
588.964884	43661.141075
589.317362	43964.651304
589.669786	43974.262263
590.022155	43823.413296
590.374470	44264.584834
590.726731	43843.766955
591.078937	43199.419273
591.431090	43522.552194
591.783188	43066.458841
592.135232	42853.719628
592.487222	43108.131539
592.839157	43261.710291
593.191038	42902.341557
593.542866	42707.831156
593.894639	42123.024542
594.246358	42418.867176
594.598022	42413.306784
594.949633	41991.223575
595.301190	41971.139618
595.652692	41898.158834
596.004141	42389.051272
596.355535	41286.140072
596.706876	41300.030971
597.058162	41034.689838
597.409395	41523.669159
597.760573	41735.241344
598.111698	41350.281193
598.462768	41259.419436
598.813785	41303.222022
599.164748	40886.479915
599.515657	41163.266988
599.866511	40671.875476
600.217312	41334.580519
600.568060	40300.957458
600.918753	41126.211987
601.269392	41048.847919
601.619978	40754.643660
601.970510	40970.326907
602.320988	41112.258073
602.671412	41365.218132
603.021783	41233.172668
603.372100	40806.237349
603.722363	40920.432087
604.072572	40942.887906
604.422728	40948.027363
604.772830	40731.414023
605.122878	40875.656558
605.472872	40743.006156
605.822813	40997.702893
606.172701	40763.987439
606.522534	41082.331263
606.872314	41300.393934
607.222041	41122.857099
607.571714	41440.555655
607.921333	40952.440893
608.270899	41157.492346
608.620411	41559.809191
608.969870	41277.799483
609.319276	41301.903760
609.668627	41334.333503
610.017926	41741.648651
610.367171	41858.026208
610.716362	41905.629824
611.065500	41797.781899
611.414585	42024.742207
611.763616	42195.032384
612.112594	42110.172121
612.461518	42234.302972
612.810389	42633.731236
613.159207	42404.968715
613.507971	42396.698702
613.856682	42878.761559
614.205340	42720.728948
614.553945	43388.979261
614.902496	42724.071233
615.250994	43151.525791
615.599439	43223.954569
615.947830	43325.488449
616.296169	43314.380266
616.644454	43372.255233
616.992686	43527.805076
617.340864	43984.198378
617.688990	43514.516594
618.037063	44190.842836
618.385082	44006.674362
618.733048	44345.457545
619.080961	44220.920880
619.428821	44237.602058
619.776628	44262.530564
620.124382	44058.283175
620.472083	44154.299511
620.819731	44271.715546
621.167326	43822.483203
621.514868	43805.116428
621.862357	43288.970330
622.209793	43363.450858
622.557176	42941.105509
622.904506	42678.453832
623.251783	42306.676298
623.599007	42003.007272
623.946179	41923.707402
624.293297	41668.675428
624.640363	41116.074226
624.987376	40976.837557
625.334336	40773.033789
625.681243	40352.525941
626.028097	40271.154156
626.374899	40090.171692
626.721647	40065.303680
627.068343	39841.930153
627.414987	39552.630937
627.761577	39310.474071
628.108115	39640.157971
628.454600	38892.945545
628.801032	39124.440370
629.147412	39007.835961
629.493739	38921.097868
629.840014	38503.970114
630.186236	38918.330275
630.532405	38361.403762
630.878521	38600.183056
631.224585	38377.200218
631.570597	38038.752272
631.916556	38192.444450
632.262462	38096.904502
632.608316	38034.457209
632.954117	37875.741522
633.299866	37840.614762
633.645562	37759.737010
633.991206	37232.759992
634.336797	36819.743299
634.682336	36716.659265
635.027823	36474.015927
635.373257	36346.762081
635.718639	36028.929933
636.063968	35927.627947
636.409245	35267.811485
636.754470	35228.314044
637.099642	35001.046226
637.444762	34451.799912
637.789829	34581.982668
638.134845	34201.269689
638.479808	34129.597084
638.824719	34071.376798
639.169577	33566.827874
639.514383	33652.666122
639.859137	33277.637043
640.203839	33445.288176
640.548489	33149.974863
640.893086	33142.589572
641.237632	32877.056876
641.582125	32967.081801
641.926566	32767.174846
642.270955	32791.069915
642.615292	32740.287852
642.959576	32623.640593
643.303809	32625.994812
643.647990	32711.661659
643.992118	32673.308561
644.336195	32512.836031
644.680219	32610.052162
645.024192	32817.170489
645.368112	33334.745754
645.711981	33359.157542
646.055797	34086.797688
646.399562	33906.500821
646.743274	34772.450064
647.086935	35181.605233
647.430544	35137.487575
647.774101	35162.156462
648.117606	35446.613650
648.461059	35566.157052
648.804460	35184.297209
649.147810	34657.539482
649.491108	34304.154598
649.834354	34156.766383
650.177548	33341.009388
650.520690	32847.399768
650.863781	32830.264886
651.206820	32637.531492
651.549807	32241.911821
651.892742	31677.526921
652.235626	31575.988000
652.578458	31436.411053
652.921238	30767.941450
653.263967	31071.736505
653.606644	30787.090273
653.949269	30683.892813
654.291843	30298.897373
654.634365	30660.847178
654.976836	30206.682066
655.319255	30276.736461
655.661622	30162.584573
656.003938	30017.646359
656.346203	29849.302067
656.688416	30090.291906
657.030577	29863.261022
657.372687	29674.815130
657.714746	29851.855412
658.056753	30024.187256
658.398708	29418.658979
658.740612	29479.291457
659.082465	29694.407574
659.424266	29575.796786
659.766016	29585.979917
660.107715	29462.222110
660.449362	29565.964015
660.790958	29541.106086
661.132503	29459.661204
661.473996	29544.017352
661.815438	29626.679672
662.156829	29730.444262
662.498168	29547.951973
662.839456	29525.055052
663.180693	29642.362702
663.521879	29737.597660
663.863013	29693.096874
664.204097	29683.793425
664.545129	30077.782283
664.886110	30018.606699
665.227040	30125.516969
665.567918	30125.655601
665.908746	30196.819049
666.249522	30275.599681
666.590248	30313.448664
666.930922	30405.885781
667.271545	30400.111139
667.612118	30463.178495
667.952639	30272.832087
668.293109	30300.639092
668.633528	30163.285293
668.973896	30128.150972
669.314213	30097.135273
669.654480	29913.337324
669.994695	29900.003472
670.334859	29829.001341
670.674973	29662.575208
671.015035	29843.305615
671.355047	29787.840320
671.695008	29712.472549
672.034918	29624.585073
672.374777	29729.330167
672.714585	29589.609547
673.054342	29735.898791
673.394049	29585.294320
673.733705	29802.623503
674.073310	29533.851865
674.412864	29583.724000
674.752368	29262.300031
675.091820	29486.583486
675.431223	29087.712271
675.770574	28889.375634
676.109875	28740.364168
676.449125	28529.396920
676.788324	28435.734802
677.127473	27947.836810
677.466571	27855.455145
677.805619	27579.371313
678.144616	27504.202668
678.483562	27464.705228
678.822458	27154.462538
679.161303	27087.490809
679.500098	27009.473912
679.838842	26950.489892
680.177535	27032.249845
680.516179	27265.453622
680.854771	27419.012210
681.193314	28191.296814
681.531805	29214.391426
681.870247	29966.284563
682.208638	30687.628308
682.546978	30953.644955
682.885268	31080.460221
683.223508	30618.773708
683.561697	30355.940549
683.899836	30192.995334
684.237925	29779.867735
684.575963	29647.663475
684.913951	29274.393759
685.251889	29455.338415
685.589776	29485.267745
685.927614	29500.161834
686.265401	29675.200778
686.603137	29796.158223
686.940824	30306.267540
687.278460	30644.944858
687.616046	30809.455352
687.953582	31475.961426
688.291068	31395.320608
688.628504	31712.694010
688.965889	31703.254450
689.303224	31441.200149
689.640510	31132.676493
689.977745	30495.956077
690.314930	29760.275290
690.652065	29304.617997
690.989150	28637.696028
691.326185	27794.285784
691.663170	27152.065469
692.000105	26424.412720
692.336990	25823.015669
692.673825	25401.189560
693.010610	24915.887761
693.347345	24415.951493
693.684030	23796.103819
694.020665	23597.376493
694.357251	22941.010701
694.693786	22939.430299
695.030272	22706.571841
695.366707	22222.847924
695.703093	21955.994445
696.039429	22024.105475
696.375716	21785.056480
696.711952	21774.649018
697.048139	21655.629896
697.384276	21495.643838
697.720363	21609.205910
698.056400	21507.931650
698.392388	21356.414730
698.728326	21350.834173
699.064214	21181.582473
699.400053	21178.265394
699.735842	20793.350613
700.071581	20595.409707
700.407270	20346.409475
700.742910	20174.120480
701.078501	19928.328942
701.414042	19722.483507
701.749533	19418.917825
702.084974	19107.777810
702.420366	19341.886474
702.755709	18931.826417
703.091002	18629.354666
703.426246	18708.503302
703.761440	18628.038925
704.096584	18395.785405
704.431679	18322.050969
704.766725	18280.756357
705.101721	18210.797744
705.436668	18335.389862
705.771565	18063.409529
706.106413	18381.682778
706.441212	18455.644066
706.775961	18555.554694
707.110661	18642.849835
707.445311	19011.690897
707.779913	18886.259428
708.114465	19186.873514
708.448967	19498.799949
708.783421	20125.196082
709.117825	20501.679534
709.452180	20731.767877
709.786485	21169.806338
710.120742	21948.347015
710.454949	22055.685783
710.789107	22558.298904
711.123216	23276.260034
711.457275	23492.822963
711.791286	24046.820564
712.125247	24193.079561
712.459159	23912.761160
712.793023	24656.112062
713.126837	23631.545434
713.460602	23865.422205
713.794318	23523.427807
714.127985	23247.838009
714.461602	22353.539837
714.795171	22329.783400
715.128691	21349.115139
715.462162	20825.417393
715.795584	20396.495859
716.128957	20132.530961
716.462281	19762.278376
716.795556	19472.951433
717.128782	19008.157048
717.461960	18414.873734
717.795088	18366.672742
718.128167	18033.525569
718.461198	17583.320284
718.794180	17451.103422
719.127113	17131.408568
719.459997	16937.470338
719.792833	16569.284626
720.125619	16621.488295
720.458357	16280.592869
720.791046	16152.484547
721.123686	16007.949625
721.456278	15789.660102
721.788821	15779.320695
722.121315	15519.802095
722.453761	15620.400841
722.786158	15505.482698
723.118506	15592.934114
723.450805	15475.583614
723.783056	15642.443286
724.115259	15538.832451
724.447412	15534.981009
724.779518	15756.232210
725.111574	15812.700695
725.443582	16080.494349
725.775542	16034.075405
726.107453	16552.542954
726.439315	16472.028166
726.771129	16897.219246
727.102895	17313.394222
727.434612	17595.998786
727.766281	17755.644567
728.097901	18065.622596
728.429473	18152.217016
728.760996	18167.607659
729.092471	18283.133261
729.423897	18169.107402
729.755276	18034.427936
730.086606	18154.447727
730.417887	18734.949195
730.749120	19303.989600
731.080305	19503.188274
731.411442	19900.852133
731.742530	20013.005203
732.073570	20173.024029
732.404562	20496.809779
732.735506	20332.586631
733.066401	20113.402303
733.397249	19624.422983
733.728048	18987.236260
734.058798	18123.978993
734.389501	17372.698356
734.720156	16863.390583
735.050762	16294.897143
735.381320	15909.848771
735.711831	15646.745911
736.042293	15279.893583
736.372707	15328.112220
736.703073	15120.762001
737.033391	15318.072762
737.363661	15322.582074
737.693883	15450.655108
738.024056	15656.974412
738.354182	15881.903135
738.684260	16235.298102
739.014290	16515.734969
739.344272	16743.338024
739.674207	17092.085047
740.004093	17259.310203
740.333931	17310.798028
740.663722	17392.323568
740.993464	17424.801201
741.323159	17261.719874
741.652806	16955.500025
741.982405	16780.289682
742.311956	16438.471725
742.641460	16316.261553
742.970915	15984.019268
743.300323	15641.598893
743.629683	15425.222487
743.958996	15112.789416
744.288260	14804.611078
744.617477	14491.215147
744.946647	14472.144462
745.275768	14157.344568
745.604842	13953.717241
745.933869	13774.768882
746.262847	13752.791972
746.591778	13674.530579
746.920662	13553.729410
747.249498	13570.488726
747.578286	13727.054361
747.907027	13897.263880
748.235720	14163.489735
748.564365	14240.793309
748.892963	14157.730217
749.221514	14262.240898
749.550017	14134.666938
749.878473	14100.818110
750.206881	13879.123288
750.535242	13796.586996
750.863555	13724.758116
751.191821	13625.475111
751.520039	13648.717351
751.848210	13568.888159
752.176334	13622.321870
752.504411	13538.076627
752.832440	13373.989590
753.160421	13479.962206
753.488356	13376.938665
753.816243	13284.758646
754.144082	13115.030558
754.471875	13070.935585
754.799620	13037.361501
755.127318	13016.355013
755.454969	12994.708298
755.782572	12968.887508
756.110129	12987.837205
756.437638	12888.844067
756.765100	12890.946228
757.092515	12927.754213
757.419882	12956.244294
757.747203	12980.446874
758.074477	13069.680338
758.401703	13048.187379
758.728882	13254.592382
759.056014	13296.983444
759.383099	13462.469402
759.710138	13586.002877
760.037129	13706.446124
760.364073	13770.867029
760.690970	13801.476916
761.017820	13818.153052
761.344623	14039.535324
761.671379	14412.623558
761.998088	15113.089364
762.324751	16900.619504
762.651366	20315.270267
762.977935	24783.093687
763.304456	27731.558707
763.630931	28734.823940
763.957359	27530.517492
764.283740	25266.830207
764.610074	22992.097754
764.936362	20363.040241
765.262602	18492.633532
765.588796	16569.503916
765.914943	15291.697445
766.241044	14198.951732
766.567097	13420.554728
766.893104	12703.969832
767.219064	12248.294895
767.544978	11776.095055
767.870845	11394.630944
768.196665	11178.612460
768.522438	10945.176790
768.848165	10742.434186
769.173846	10537.387773
769.499479	10400.351568
769.825066	10248.680893
770.150607	10015.404019
770.476101	9935.358058
770.801548	9807.388367
771.126949	9656.844390
771.452303	9535.960041
771.777611	9343.042645
772.102872	9333.545112
772.428087	9198.558135
772.753256	9037.016881
773.078378	8950.278787
773.403453	8767.206765
773.728482	8654.373139
774.053465	8580.621058
774.378401	8483.846028
774.703291	8354.401800
775.028135	8239.665138
775.352932	8205.849078
775.677683	8101.038449
776.002388	7994.047520
776.327046	8007.121753
776.651658	7908.801609
776.976224	7813.170920
777.300743	7801.404867
777.625216	7718.951755
777.949643	7676.210332
778.274024	7692.470574
778.598359	7603.963036
778.922647	7629.035214
779.246889	7577.675939
779.571086	7586.495437
779.895236	7593.220337
780.219339	7606.665094
780.543397	7609.047039
780.867409	7688.026797
781.191374	7695.936367
781.515294	7665.530648
781.839167	7752.631704
782.162995	7731.363076
782.486776	7668.046183
782.810511	7619.023483
783.134201	7530.856222
783.457844	7529.754730
783.781441	7477.944272
784.104993	7412.300887
784.428498	7384.239304
784.751958	7375.051801
785.075372	7346.531473
785.398739	7288.293543
785.722061	7334.601583
786.045337	7340.454362
786.368568	7495.139648
786.691752	7526.563680
787.014891	7868.689147
787.337983	8228.078046
787.661030	8820.171648
787.984031	9447.240775
788.306987	9859.531542
788.629897	10054.316686
788.952760	9995.960289
789.275579	9772.460733
789.598351	9370.622798
789.921078	9024.741671
790.243759	8603.661652
790.566395	8313.021489
790.888984	8064.195176
791.211529	7852.668361
791.534027	7637.884960
791.856480	7431.706809
792.178888	7363.701643
792.501249	7264.244719
792.823566	7110.648323
793.145836	7117.809282
793.468062	7088.026145
793.790241	7040.122581
794.112375	7108.669670
794.434464	7267.760924
794.756507	7305.173847
795.078505	7466.881460
795.400457	7779.160776
795.722364	8131.214796
796.044226	8416.302128
796.366042	8698.016928
796.687812	8640.767065
797.009538	8713.165596
797.331218	8608.866643
797.652852	8523.484621
797.974442	8368.179273
798.295986	8277.753576
798.617484	8087.911284
798.938938	7943.426774
799.260346	7843.127977
799.581709	7646.553224
799.903026	7566.189670
800.224299	7456.360572
800.545526	7290.809079
800.866708	7195.359872
801.187845	7129.739173
801.508936	7019.153901
801.829983	6981.824157
802.150984	6832.207752
802.471940	6789.889786
802.792851	6778.005266
803.113717	6740.577219
803.434538	6707.724020
803.755314	6655.046483
804.076045	6659.409601
804.396731	6604.907166
804.717372	6637.858668
805.037967	6640.056612
805.358518	6685.185021
805.679024	6770.075531
805.999485	6777.186078
806.319901	6823.184087
806.640272	6842.257292
806.960598	6926.305930
807.280879	6927.039418
807.601115	6998.976683
807.921306	6953.215609
808.241453	6960.255580
808.561554	6983.719631
808.881611	6944.328055
809.201623	6953.235774
809.521590	6898.725777
809.841513	6875.811212
810.161390	6914.307984
810.481223	6785.816534
810.801011	6769.205932
811.120755	6741.746767
811.440453	6666.263050
811.760107	6635.824563
812.079716	6602.968843
812.399281	6535.319079
812.718801	6529.022677
813.038276	6479.541232
813.357707	6419.816162
813.677093	6461.072965
813.996434	6366.294231
814.315731	6412.592188
814.634983	6403.167751
814.954191	6413.739051
815.273354	6519.295771
815.592473	6585.493683
815.911547	6703.716302
816.230577	6791.303830
816.549562	6937.988804
816.868502	7032.780140
817.187399	7132.350490
817.506250	7285.004191
817.825058	7317.572565
818.143821	7582.926301
818.462539	7862.559104
818.781213	8226.666523
819.099843	8780.177654
819.418429	9774.565415
819.736970	10751.218396
820.055466	11927.677510
820.373919	13455.868011
820.692327	15804.758357
821.010691	19929.982441
821.329011	28960.375245
821.647286	42026.206662
821.965517	55517.282091
822.283704	60893.985220
822.601847	62848.107850
822.919945	60105.576485
823.237999	55855.140222
823.556010	49629.834461
823.873976	42867.620609
824.191897	36339.427202
824.509775	31497.892966
824.827609	26981.165313
825.145398	24400.931375
825.463144	23035.733982
825.780845	23363.719013
826.098502	25150.611446
826.416116	28952.629512
826.733685	32650.078924
827.051210	33815.601255
827.368692	32022.911495
827.686129	28026.476289
828.003522	23901.957967
828.320872	20187.613128
828.638177	17331.791913
828.955439	15191.028123
829.272656	13375.751473
829.589830	11909.267217
829.906960	10640.013063
830.224046	9705.063027
830.541088	8956.698697
830.858086	8501.288420
831.175041	8126.022407
831.491952	8012.369594
831.808819	8059.116213
832.125642	8460.931463
832.442421	9348.625723
832.759157	11143.213478
833.075849	14083.627776
833.392497	17315.982854
833.709101	19504.950157
834.025662	19342.536783
834.342179	17622.979041
834.658653	15418.674028
834.975083	13485.971261
835.291469	11870.142822
835.607811	10548.506038
835.924110	9646.381475
836.240366	8778.466182
836.556578	7971.236299
836.872746	7333.192580
837.188871	6830.639953
837.504952	6418.084525
837.820990	6108.668585
838.136984	5891.178084
838.452935	5797.886491
838.768842	5830.439742
839.084706	6257.417911
839.400526	7466.021943
839.716303	9048.251092
840.032037	10147.555347
840.347727	10066.503675
840.663373	9086.205939
840.978977	8040.920169
841.294537	7231.111735
841.610054	6635.214583
841.925527	6200.296597
842.240957	5845.411969
842.556344	5511.932080
842.871687	5230.887753
843.186987	4949.845947
843.502244	4725.743973
843.817458	4565.818409
844.132629	4431.370836
844.447756	4338.666537
844.762840	4257.569495
845.077881	4184.034184
845.392879	4118.930203
845.707833	4076.466043
846.022745	4031.435937
846.337613	4006.262935
846.652438	3959.284422
846.967221	3940.675003
847.281960	3908.323398
847.596656	3893.817478
847.911309	3875.263511
848.225919	3849.167978
848.540485	3836.204651
848.855009	3819.326868
849.169490	3800.331800
849.483928	3786.161117
849.798323	3778.979993
850.112675	3758.356633
850.426984	3766.709825
850.741251	3751.667022
851.055474	3746.179726
851.369654	3750.671394
851.683792	3749.224583
851.997887	3753.146600
852.311938	3759.811006
852.625947	3764.940380
852.939914	3752.652567
853.253837	3761.620780
853.567718	3757.050974
853.881555	3750.305910
854.195350	3764.854680
854.509103	3763.833846
854.822812	3761.156994
855.136479	3749.209459
855.450103	3759.901746
855.763685	3748.153337
856.077224	3750.273142
856.390720	3767.103035
856.704173	3789.286632
857.017584	3803.452274
857.330953	3809.980569
857.644278	3833.293385
857.957561	3838.463088
858.270802	3838.170701
858.584000	3842.496011
858.897155	3830.717355
859.210268	3818.159841
859.523339	3796.223260
859.836367	3798.937921
860.149352	3783.764048
860.462295	3781.067031
860.775195	3768.875000
861.088054	3766.687139
861.400869	3761.862755
861.713642	3765.588168
862.026373	3775.458747
862.339062	3779.111063
862.651708	3799.883138
862.964312	3835.299764
863.276873	3846.866691
863.589392	3904.108993
863.901869	3949.547433
864.214303	3993.801202
864.526696	4029.769835
864.839045	4071.992019
865.151353	4100.661061
865.463619	4107.887555
865.775842	4114.975418
866.088023	4130.633241
866.400162	4124.152838
866.712258	4131.240700
867.024313	4133.524343
867.336325	4128.808344
867.648296	4135.598778
867.960224	4136.284375
868.272110	4144.481291
868.583954	4150.392044
868.895755	4161.044002
869.207515	4160.476872
869.519233	4203.707287
869.830909	4218.213207
870.142542	4241.331939
870.454134	4254.421295
870.765684	4286.674597
871.077191	4318.005368
871.388657	4343.574100
871.700081	4382.673290
872.011463	4424.356070
872.322803	4457.231955
872.634101	4490.954754
872.945357	4533.955796
873.256571	4587.129887
873.567744	4614.014360
873.878874	4629.218480
874.189963	4670.460160
874.501010	4680.275286
874.812015	4674.961910
875.122979	4724.660125
875.433900	4720.780957
875.744780	4732.526846
876.055618	4756.968880
876.366415	4760.507770
876.677169	4777.892189
876.987882	4824.192667
877.298554	4876.106469
877.609183	4956.464982
877.919771	5064.466662
878.230317	5214.277152
878.540822	5428.233803
878.851285	5745.748357
879.161707	6207.475200
879.472087	6965.198432
879.782425	8194.466153
880.092722	10387.844465
880.402977	13716.853587
880.713191	17520.469698
881.023363	21274.344745
881.333494	23517.622919
881.643583	24748.481124
881.953631	24711.224477
882.263637	23849.890410
882.573602	22329.564110
882.883526	20761.079667
883.193408	19063.569411
883.503248	17355.442486
883.813048	15800.896833
884.122806	14364.556156
884.432522	12889.025549
884.742197	11627.323044
885.051831	10528.722030
885.361424	9532.395946
885.670975	8715.177016
885.980485	8023.495420
886.289954	7446.976464
886.599382	6982.353478
886.908768	6602.875581
887.218113	6238.959726
887.527417	5953.194359
887.836680	5686.464388
888.145901	5467.212005
888.455082	5302.744360
888.764221	5156.094674
889.073319	5019.083675
889.382376	4948.225216
889.691392	4889.100043
890.000366	4865.683884
890.309300	4846.983723
890.618193	4855.810784
890.927044	4837.508875
891.235855	4861.073748
891.544625	4888.076689
891.853353	4954.894663
892.162041	5072.577879
892.470687	5259.498822
892.779293	5504.546790
893.087858	5879.759871
893.396381	6461.440969
893.704864	7264.758917
894.013306	8423.581554
894.321707	9616.830231
894.630068	10440.617784
894.938387	10645.649073
895.246665	10402.733513
895.554903	9782.530438
895.863100	9085.782482
896.171256	8522.781380
896.479371	8015.046447
896.787446	7512.259406
897.095480	7082.533808
897.403473	6762.307113
897.711425	6449.707683
898.019336	6179.774060
898.327207	5907.680301
898.635038	5677.264282
898.942827	5428.261529
899.250576	5238.575513
899.558284	5044.319691
899.865952	4921.328140
900.173579	4773.392960
900.481165	4662.227956
900.788711	4569.387546
901.096216	4498.287112
901.403681	4430.677677
901.711105	4407.846291
902.018489	4394.386411
902.325832	4466.563131
902.633135	4590.532666
902.940397	4932.264923
903.247619	5733.415175
903.554800	7183.314035
903.861941	9113.236606
904.169041	10639.801334
904.476101	11266.285687
904.783121	10903.047868
905.090100	10152.772941
905.397039	9308.966966
905.703938	8547.742653
906.010796	7857.437292
906.317614	7297.954915
906.624391	6768.893380
906.931129	6343.430078
907.237826	5940.210867
907.544483	5571.435340
907.851099	5191.496177
908.157675	4835.777238
908.464211	4515.500132
908.770707	4275.727731
909.077163	4078.936209
909.383578	3937.201648
909.689954	3820.708144
909.996289	3752.332454
910.302584	3687.523380
910.608839	3655.365860
910.915054	3625.297897
911.221229	3610.076133
911.527363	3625.718834
911.833458	3634.427427
912.139513	3661.758043
912.445527	3688.408102
912.751502	3775.826751
913.057436	3875.039180
913.363331	4010.179911
913.669186	4216.060634
913.975000	4468.756033
914.280775	4892.875867
914.586510	5474.748530
914.892205	6273.834429
915.197859	7319.684808
915.503475	8555.324548
915.809050	9624.598649
916.114585	10277.564184
916.420081	10539.449605
916.725536	10499.264047
917.030952	10055.589577
917.336328	9631.767170
917.641665	9219.637720
917.946961	8733.869615
918.252218	8308.189543
918.557435	7795.327756
918.862612	7368.246243
919.167750	6984.758109
919.472848	6564.777061
919.777906	6183.837230
920.082925	5824.896993
920.387904	5458.783195
920.692843	5190.281259
920.997743	4951.159168
921.302603	4709.176221
921.607423	4547.864339
921.912204	4386.764186
922.216946	4271.110034
922.521647	4146.762413
922.826310	4039.388357
923.130932	3951.274029
923.435516	3848.830221
923.740059	3777.056793
924.044564	3703.834033
924.349028	3646.367400
924.653454	3580.116556
924.957840	3510.611647
925.262186	3464.439719
925.566493	3405.687592
925.870761	3348.856144
926.174989	3311.181081
926.479178	3273.826131
926.783328	3234.915985
927.087438	3203.517158
927.391509	3168.218999
927.695541	3140.260760
927.999533	3114.180350
928.303486	3092.669747
928.607400	3077.868919
928.911275	3065.828123
929.215110	3048.569733
929.518906	3039.840975
929.822663	3037.738814
930.126381	3037.169163
930.430060	3044.509083
930.733699	3045.678631
931.037299	3057.706824
931.340861	3054.341854
931.644383	3063.766291
931.947866	3062.029614
932.251309	3057.217832
932.554714	3056.733882
932.858080	3051.241544
933.161407	3042.154865
933.464694	3031.422248
933.767943	3024.102493
934.071153	3021.566792
934.374323	3014.844414
934.677455	3007.544823
934.980548	2999.912516
935.283602	2995.032679
935.586617	2991.347596
935.889593	2999.385715
936.192530	3006.652539
936.495428	3020.477903
936.798287	3042.202756
937.101108	3076.898497
937.403890	3127.269706
937.706632	3189.442257
938.009336	3272.724639
938.312002	3344.976976
938.614628	3406.179104
938.917216	3459.055767
939.219765	3490.898215
939.522275	3523.821991
939.824747	3529.044627
940.127179	3527.819626
940.429573	3516.666073
940.731929	3512.857482
941.034246	3503.256604
941.336524	3486.928307
941.638763	3474.290134
941.940964	3458.715489
942.243126	3414.091195
942.545250	3394.534039
942.847335	3352.362267
943.149381	3317.767348
943.451389	3286.607976
943.753359	3251.380393
944.055290	3228.859038
944.357182	3202.677806
944.659036	3186.808254
944.960851	3175.911800
945.262628	3166.058864
945.564367	3165.244718
945.866067	3158.474448
946.167729	3158.860097
946.469352	3154.565034
946.770937	3150.580002
947.072484	3137.157929
947.373992	3140.664052
947.675462	3132.696508
947.976893	3114.702110
948.278286	3106.316150
948.579641	3098.784666
948.880958	3091.943821
949.182236	3096.589244
949.483476	3086.758994
949.784678	3089.120774
950.085841	3093.070518
950.386967	3102.237857
950.688054	3119.347533
950.989103	3139.035759
951.290114	3159.815395
951.591087	3190.591640
951.892021	3216.377142
952.192917	3246.092223
952.493776	3269.974689
952.794596	3278.544651
953.095378	3285.524128
953.396122	3274.536933
953.696828	3272.137344
953.997496	3258.382556
954.298126	3236.745924
954.598718	3214.786657
954.899272	3188.345806
955.199788	3161.322700
955.500266	3127.957824
955.800706	3092.689911
956.101108	3053.414282
956.401472	3022.363295
956.701798	2994.102586
957.002087	2952.434929
957.302337	2924.801844
957.602550	2894.852349
957.902724	2865.248173
958.202861	2840.838906
958.502960	2821.261585
958.803022	2797.101856
959.103045	2776.879267
959.403031	2756.326483
959.702979	2748.023702
960.002889	2734.629357
960.302762	2723.402707
960.602596	2712.095399
960.902393	2700.573842
961.202153	2693.551514
961.501875	2684.479958
961.801559	2674.561488
962.101205	2674.679955
962.400814	2667.269459
962.700385	2660.093376
962.999918	2656.095741
963.299414	2646.845224
963.598873	2647.457724
963.898293	2639.447331
964.197677	2639.775006
964.497022	2638.292907
964.796331	2635.603451
965.095601	2633.922226
965.394835	2633.080353
965.694030	2627.956021
965.993189	2627.736730
966.292309	2627.739251
966.591393	2625.906792
966.890439	2624.651544
967.189447	2627.303191
967.488419	2625.092645
967.787353	2626.322687
968.086249	2628.765126
968.385108	2630.287554
968.683930	2631.086577
968.982714	2635.701753
969.281462	2640.889101
969.580172	2646.754483
969.878844	2649.970739
970.177480	2660.405928
970.476078	2670.997392
970.774639	2673.830521
971.073162	2681.314113
971.371649	2688.782583
971.670098	2693.075125
971.968510	2700.450333
972.266885	2703.419573
972.565223	2707.316385
972.863524	2711.553475
973.161788	2713.322920
973.460014	2717.539845
973.758204	2719.483210
974.056356	2720.587222
974.354471	2724.393294
974.652550	2722.797768
974.950591	2720.062942
975.248595	2716.839125
975.546563	2719.107644
975.844493	2712.544062
976.142386	2709.211859
976.440243	2701.224151
976.738062	2700.029397
977.035845	2692.697039
977.333590	2686.390555
977.631299	2680.232786
977.928971	2673.666683
978.226606	2668.552432
978.524204	2668.922957
978.821765	2660.184117
979.119290	2664.995898
979.416777	2664.448933
979.714228	2665.285765
980.011642	2668.242402
980.309020	2678.203722
980.606360	2692.480269
980.903664	2715.107488
981.200931	2749.664598
981.498162	2799.332566
981.795356	2876.247971
982.092513	2968.075109
982.389633	3071.663259
982.686717	3170.326201
982.983764	3243.117942
983.280775	3292.183492
983.577749	3298.976447
983.874686	3284.183181
984.171587	3249.245465
984.468451	3214.002758
984.765279	3167.112466
985.062070	3120.895167
985.358824	3074.829103
985.655543	3016.583612
985.952224	2966.535036
986.248869	2900.518606
986.545478	2843.130111
986.842050	2787.180865
987.138586	2743.025398
987.435086	2701.203986
987.731549	2671.950170
988.027975	2647.145173
988.324366	2634.456588
988.620719	2615.564864
988.917037	2606.768051
989.213318	2596.791608
989.509563	2588.045206
989.805772	2585.103692
990.101944	2581.030440
990.398080	2578.751838
990.694180	2577.035326
990.990244	2576.377455
991.286271	2577.163875
991.582262	2579.187898
991.878217	2580.206211
992.174136	2583.677046
992.470019	2587.362129
992.765865	2588.816502
993.061676	2592.133581
993.357450	2602.041969
993.653188	2608.900459
993.948890	2627.366206
994.244556	2643.984369
994.540186	2668.925478
994.835780	2697.836495
995.131337	2739.872157
995.426859	2779.241047
995.722345	2827.056392
996.017795	2880.842983
996.313208	2916.506626
996.608586	2942.816408
996.903928	2960.324335
997.199234	2958.912812
997.494504	2954.479117
997.789738	2940.379010
998.084936	2915.334557
998.380099	2884.470093
998.675225	2853.454394
998.970316	2823.991370
999.265371	2790.419806
999.560390	2753.107706
999.855373	2723.488407
1000.150320	2691.603108
1000.445232	2665.394150
1000.740108	2645.582415
1001.034948	2626.375619
1001.329752	2611.499174
1001.624521	2600.454006
1001.919254	2590.154928
1002.213951	2580.314596
1002.508613	2572.894018
1002.803239	2566.103583
1003.097829	2560.089487
1003.392384	2554.939948
1003.686903	2550.344937
1003.981386	2546.531304
1004.275834	2545.321427
1004.570246	2540.728936
1004.864623	2538.072248
1005.158964	2537.116949
1005.453270	2532.925229
1005.747540	2530.565969
1006.041775	2528.675537
1006.335974	2530.016484
1006.630138	2525.214785
1006.924266	2526.749816
1007.218359	2528.163860
1007.512416	2523.042047
1007.806438	2522.185051
1008.100425	2524.403159
1008.394376	2521.328055
1008.688292	2525.703777
1008.982172	2523.243693
1009.276017	2521.716224
1009.569827	2523.384846
1009.863602	2521.154135
1010.157341	2523.389887
1010.451045	2521.990967
1010.744714	2518.666326
1011.038347	2519.999711
1011.331945	2515.681963
1011.625508	2516.002076
1011.919036	2515.319000
1012.212528	2513.761283
1012.505986	2514.136849
1012.799408	2513.352950
1013.092795	2512.609379
1013.386147	2510.746673
1013.679464	2512.382528
1013.972745	2511.260871
1014.265992	2510.855058
1014.559204	2511.921262
1014.852380	2510.146776
1015.145521	2510.973525
1015.438628	2509.914883
1015.731699	2511.170130
1016.024736	2512.012003
1016.317737	2513.441170
1016.610703	2512.304390
1016.903635	2517.837056
1017.196531	2517.252282
1017.489393	2519.586336
1017.782219	2519.006604
1018.075011	2519.379649
1018.367768	2522.716893
1018.660490	2522.815195
1018.953177	2522.815195
1019.245829	2522.815195
