Dividing Wavelength (nm)	Counts (n)	Blue Motor Position (mm): 5.400000	Red Motor Position (mm): 0.000000	
326.493990	2187.860769
326.888308	2187.860769
327.282561	2187.860769
327.676750	2051.749615
328.070874	2018.982115
328.464933	2021.502692
328.858929	2081.996538
329.252859	2039.146731
329.646726	2099.640577
330.040528	2208.025385
330.434265	2119.805192
330.827938	2094.599423
331.221547	2137.449231
331.615091	2228.190000
332.008571	2213.066538
332.401986	2248.354615
332.795338	2170.216731
333.188625	2313.889615
333.581847	2313.889615
333.975006	2225.669423
334.368100	2354.218846
334.761129	2197.943077
335.154095	2316.410192
335.546996	2386.986346
335.939833	2366.821731
336.332606	2361.780577
336.725315	2313.889615
337.117960	2397.068654
337.510540	2407.150962
337.903056	2447.480192
338.295508	2379.424615
338.687896	2533.179808
339.080220	2447.480192
339.472480	2492.850577
339.864676	2437.397885
340.256807	2384.465769
340.648875	2525.618077
341.040879	2548.303269
341.432818	2434.877308
341.824694	2487.809423
342.216506	2543.262115
342.608253	2462.603654
342.999937	2427.315577
343.391557	2502.932885
343.783113	2427.315577
344.174605	2475.206538
344.566033	2439.918462
344.957397	2502.932885
345.348697	2434.877308
345.739934	2548.303269
346.131106	2523.097500
346.522215	2434.877308
346.913260	2540.741538
347.304241	2472.685962
347.695159	2417.233269
348.086012	2485.288846
348.476802	2442.439038
348.867528	2485.288846
349.258191	2439.918462
349.648789	2447.480192
350.039324	2417.233269
350.429796	2444.959615
350.820203	2513.015192
351.210548	2450.000769
351.600828	2457.562500
351.991045	2397.068654
352.381198	2402.109808
352.771288	2455.041923
353.161314	2485.288846
353.551276	2341.615962
353.941175	2457.562500
354.331010	2510.494615
354.720782	2386.986346
355.110490	2477.727115
355.500135	2480.247692
355.889717	2477.727115
356.279235	2465.124231
356.668689	2371.862885
357.058080	2497.891731
357.447408	2404.630385
357.836672	2422.274423
358.225873	2482.768269
358.615010	2444.959615
359.004084	2472.685962
359.393095	2381.945192
359.782043	2389.506923
360.170927	2424.795000
360.559748	2402.109808
360.948505	2455.041923
361.337199	2465.124231
361.725830	2475.206538
362.114398	2528.138654
362.502903	2485.288846
362.891344	2492.850577
363.279722	2432.356731
363.668037	2477.727115
364.056289	2467.644808
364.444478	2467.644808
364.832603	2465.124231
365.220665	2505.453462
365.608665	2457.562500
365.996601	2346.657115
366.384474	2477.727115
366.772284	2482.768269
367.160031	2487.809423
367.547715	2397.068654
367.935336	2417.233269
368.322893	2432.356731
368.710388	2510.494615
369.097820	2447.480192
369.485189	2412.192115
369.872495	2497.891731
370.259738	2409.671538
370.646918	2384.465769
371.034035	2518.056346
371.421090	2359.260000
371.808081	2422.274423
372.195010	2465.124231
372.581875	2422.274423
372.968678	2412.192115
373.355418	2525.618077
373.742096	2485.288846
374.128710	2427.315577
374.515262	2424.795000
374.901751	2414.712692
375.288177	2502.932885
375.674540	2467.644808
376.060841	2507.974038
376.447079	2472.685962
376.833254	2482.768269
377.219367	2409.671538
377.605417	2457.562500
377.991404	2467.644808
378.377329	2439.918462
378.763191	2510.494615
379.148991	2490.330000
379.534727	2417.233269
379.920402	2467.644808
380.306013	2480.247692
380.691563	2505.453462
381.077049	2424.795000
381.462474	2497.891731
381.847835	2477.727115
382.233134	2439.918462
382.618371	2361.780577
383.003545	2447.480192
383.388657	2487.809423
383.773706	2492.850577
384.158693	2444.959615
384.543618	2535.700385
384.928480	2437.397885
385.313280	2381.945192
385.698017	2409.671538
386.082692	2492.850577
386.467305	2462.603654
386.851856	2507.974038
387.236344	2510.494615
387.620770	2480.247692
388.005133	2439.918462
388.389435	2510.494615
388.773674	2507.974038
389.157851	2455.041923
389.541965	2394.548077
389.926018	2409.671538
390.310008	2434.877308
390.693936	2482.768269
391.077802	2402.109808
391.461606	2538.220962
391.845348	2460.083077
392.229027	2477.727115
392.612645	2444.959615
392.996200	2475.206538
393.379694	2482.768269
393.763125	2520.576923
394.146494	2533.179808
394.529801	2452.521346
394.913047	2518.056346
395.296230	2520.576923
395.679351	2424.795000
396.062410	2404.630385
396.445408	2439.918462
396.828343	2457.562500
397.211217	2500.412308
397.594028	2462.603654
397.976778	2452.521346
398.359466	2520.576923
398.742092	2447.480192
399.124656	2480.247692
399.507158	2495.371154
399.889598	2404.630385
400.271977	2545.782692
400.654294	2492.850577
401.036549	2505.453462
401.418742	2422.274423
401.800874	2502.932885
402.182944	2462.603654
402.564952	2399.589231
402.946898	2427.315577
403.328783	2550.823846
403.710606	2444.959615
404.092367	2490.330000
404.474067	2495.371154
404.855705	2487.809423
405.237282	2535.700385
405.618797	2452.521346
406.000250	2455.041923
406.381642	2422.274423
406.762972	2507.974038
407.144240	2502.932885
407.525447	2434.877308
407.906593	2432.356731
408.287677	2455.041923
408.668700	2432.356731
409.049661	2510.494615
409.430560	2437.397885
409.811399	2460.083077
410.192176	2507.974038
410.572891	2389.506923
410.953545	2535.700385
411.334138	2442.439038
411.714669	2475.206538
412.095139	2422.274423
412.475547	2480.247692
412.855894	2432.356731
413.236180	2525.618077
413.616405	2452.521346
413.996568	2530.659231
414.376670	2434.877308
414.756711	2490.330000
415.136691	2442.439038
415.516609	2369.342308
415.896466	2550.823846
416.276262	2533.179808
416.655997	2419.753846
417.035670	2450.000769
417.415283	2455.041923
417.794834	2465.124231
418.174324	2505.453462
418.553753	2490.330000
418.933121	2460.083077
419.312428	2472.685962
419.691674	2402.109808
420.070859	2452.521346
420.449983	2409.671538
420.829045	2434.877308
421.208047	2540.741538
421.586988	2470.165385
421.965867	2434.877308
422.344686	2485.288846
422.723444	2467.644808
423.102141	2545.782692
423.480777	2555.865000
423.859352	2492.850577
424.237866	2467.644808
424.616319	2477.727115
424.994712	2447.480192
425.373044	2407.150962
425.751314	2500.412308
426.129524	2553.344423
426.507673	2513.015192
426.885762	2502.932885
427.263789	2472.685962
427.641756	2470.165385
428.019662	2424.795000
428.397508	2465.124231
428.775292	2495.371154
429.153016	2520.576923
429.530679	2545.782692
429.908282	2437.397885
430.285824	2487.809423
430.663305	2492.850577
431.040726	2460.083077
431.418086	2457.562500
431.795385	2467.644808
432.172624	2523.097500
432.549802	2384.465769
432.926920	2495.371154
433.303977	2472.685962
433.680974	2528.138654
434.057910	2560.906154
434.434786	2482.768269
434.811601	2482.768269
435.188355	2434.877308
435.565050	2447.480192
435.941683	2525.618077
436.318257	2450.000769
436.694770	2450.000769
437.071222	2492.850577
437.447614	2432.356731
437.823946	2487.809423
438.200218	2465.124231
438.576429	2520.576923
438.952580	2520.576923
439.328670	2480.247692
439.704700	2447.480192
440.080670	2513.015192
440.456580	2424.795000
440.832429	2535.700385
441.208218	2545.782692
441.583947	2538.220962
441.959616	2505.453462
442.335224	2563.426731
442.710773	2447.480192
443.086261	2543.262115
443.461689	2523.097500
443.837057	2492.850577
444.212365	2500.412308
444.587612	2543.262115
444.962800	2560.906154
445.337927	2540.741538
445.712995	2505.453462
446.088002	2540.741538
446.462949	2450.000769
446.837837	2545.782692
447.212664	2439.918462
447.587431	2402.109808
447.962139	2520.576923
448.336786	2414.712692
448.711374	2492.850577
449.085901	2424.795000
449.460369	2480.247692
449.834776	2485.288846
450.209124	2538.220962
450.583412	2439.918462
450.957640	2467.644808
451.331808	2480.247692
451.705917	2507.974038
452.079965	2452.521346
452.453954	2515.535769
452.827883	2467.644808
453.201752	2535.700385
453.575562	2497.891731
453.949311	2520.576923
454.323001	2437.397885
454.696632	2497.891731
455.070202	2518.056346
455.443713	2497.891731
455.817164	2384.465769
456.190556	2523.097500
456.563888	2452.521346
456.937160	2528.138654
457.310373	2462.603654
457.683526	2563.426731
458.056619	2500.412308
458.429653	2485.288846
458.802628	2477.727115
459.175542	2495.371154
459.548398	2581.070769
459.921194	2510.494615
460.293930	2452.521346
460.666607	2492.850577
461.039224	2407.150962
461.411782	2591.153077
461.784280	2545.782692
462.156719	2439.918462
462.529099	2515.535769
462.901419	2487.809423
463.273680	2570.988462
463.645882	2397.068654
464.018024	2404.630385
464.390106	2452.521346
464.762130	2502.932885
465.134094	2505.453462
465.505999	2437.397885
465.877845	2528.138654
466.249631	2560.906154
466.621358	2490.330000
466.993026	2402.109808
467.364634	2442.439038
467.736184	2482.768269
468.107674	2550.823846
468.479105	2540.741538
468.850477	2465.124231
469.221790	2470.165385
469.593043	2434.877308
469.964238	2460.083077
470.335373	2450.000769
470.706449	2442.439038
471.077467	2535.700385
471.448425	2518.056346
471.819324	2465.124231
472.190164	2525.618077
472.560945	2444.959615
472.931667	2533.179808
473.302330	2548.303269
473.672934	2543.262115
474.043479	2502.932885
474.413965	2502.932885
474.784393	2470.165385
475.154761	2392.027500
475.525070	2465.124231
475.895321	2465.124231
476.265513	2525.618077
476.635645	2485.288846
477.005719	2470.165385
477.375734	2507.974038
477.745691	2502.932885
478.115588	2462.603654
478.485427	2487.809423
478.855207	2530.659231
479.224928	2513.015192
479.594591	2490.330000
479.964194	2480.247692
480.333739	2497.891731
480.703226	2495.371154
481.072653	2500.412308
481.442022	2475.206538
481.811333	2480.247692
482.180584	2386.986346
482.549777	2442.439038
482.918912	2485.288846
483.287988	2427.315577
483.657005	2439.918462
484.025964	2482.768269
484.394864	2450.000769
484.763706	2558.385577
485.132489	2533.179808
485.501213	2434.877308
485.869879	2510.494615
486.238487	2525.618077
486.607036	2588.632500
486.975527	2444.959615
487.343959	2518.056346
487.712333	2530.659231
488.080648	2568.467885
488.448905	2492.850577
488.817104	2533.179808
489.185244	2487.809423
489.553326	2505.453462
489.921350	2513.015192
490.289315	2460.083077
490.657222	2510.494615
491.025070	2462.603654
491.392861	2528.138654
491.760593	2404.630385
492.128267	2429.836154
492.495883	2480.247692
492.863440	2439.918462
493.230939	2487.809423
493.598380	2502.932885
493.965763	2530.659231
494.333088	2550.823846
494.700354	2616.358846
495.067563	2482.768269
495.434713	2444.959615
495.801805	2520.576923
496.168839	2505.453462
496.535815	2462.603654
496.902733	2616.358846
497.269593	2548.303269
497.636395	2450.000769
498.003139	2487.809423
498.369825	2419.753846
498.736453	2523.097500
499.103023	2437.397885
499.469535	2520.576923
499.835989	2482.768269
500.202385	2475.206538
500.568723	2611.317692
500.935003	2533.179808
501.301226	2500.412308
501.667390	2455.041923
502.033497	2507.974038
502.399546	2500.412308
502.765537	2480.247692
503.131470	2475.206538
503.497345	2492.850577
503.863163	2482.768269
504.228923	2490.330000
504.594625	2450.000769
504.960269	2533.179808
505.325856	2515.535769
505.691385	2515.535769
506.056856	2525.618077
506.422270	2429.836154
506.787625	2545.782692
507.152924	2437.397885
507.518164	2457.562500
507.883347	2518.056346
508.248472	2455.041923
508.613540	2518.056346
508.978550	2548.303269
509.343503	2482.768269
509.708398	2492.850577
510.073236	2543.262115
510.438016	2497.891731
510.802738	2462.603654
511.167403	2485.288846
511.532010	2475.206538
511.896561	2606.276538
512.261053	2482.768269
512.625488	2505.453462
512.989866	2467.644808
513.354186	2513.015192
513.718449	2402.109808
514.082655	2530.659231
514.446803	2543.262115
514.810894	2427.315577
515.174927	2495.371154
515.538904	2520.576923
515.902822	2505.453462
516.266684	2576.029615
516.630488	2507.974038
516.994235	2558.385577
517.357925	2480.247692
517.721558	2553.344423
518.085133	2513.015192
518.448651	2442.439038
518.812112	2437.397885
519.175516	2470.165385
519.538863	2475.206538
519.902152	2550.823846
520.265385	2540.741538
520.628560	2497.891731
520.991678	2485.288846
521.354739	2467.644808
521.717743	2450.000769
522.080690	2510.494615
522.443580	2507.974038
522.806413	2452.521346
523.169189	2543.262115
523.531908	2434.877308
523.894569	2515.535769
524.257174	2417.233269
524.619722	2540.741538
524.982213	2505.453462
525.344647	2502.932885
525.707025	2492.850577
526.069345	2472.685962
526.431608	2555.865000
526.793815	2563.426731
527.155964	2576.029615
527.518057	2460.083077
527.880093	2460.083077
528.242072	2538.220962
528.603995	2424.795000
528.965860	2492.850577
529.327669	2450.000769
529.689421	2510.494615
530.051117	2502.932885
530.412755	2427.315577
530.774337	2505.453462
531.135862	2525.618077
531.497331	2586.111923
531.858743	2460.083077
532.220098	2502.932885
532.581396	2442.439038
532.942638	2457.562500
533.303824	2553.344423
533.664953	2545.782692
534.026025	2460.083077
534.387040	2520.576923
534.747999	2477.727115
535.108902	2480.247692
535.469748	2543.262115
535.830537	2565.947308
536.191270	2475.206538
536.551947	2533.179808
536.912567	2525.618077
537.273131	2419.753846
537.633638	2502.932885
537.994089	2427.315577
538.354483	2470.165385
538.714821	2492.850577
539.075103	2550.823846
539.435328	2565.947308
539.795497	2513.015192
540.155609	2460.083077
540.515665	2520.576923
540.875665	2500.412308
541.235609	2427.315577
541.595496	2500.412308
541.955328	2460.083077
542.315102	2535.700385
542.674821	2455.041923
543.034483	2467.644808
543.394090	2465.124231
543.753640	2485.288846
544.113134	2462.603654
544.472571	2497.891731
544.831953	2487.809423
545.191278	2472.685962
545.550548	2558.385577
545.909761	2495.371154
546.268918	2477.727115
546.628019	2487.809423
546.987064	2500.412308
547.346053	2513.015192
547.704986	2568.467885
548.063863	2477.727115
548.422684	2482.768269
548.781449	2515.535769
549.140158	2500.412308
549.498811	2507.974038
549.857408	2497.891731
550.215949	2525.618077
550.574434	2492.850577
550.932864	2550.823846
551.291237	2417.233269
551.649555	2487.809423
552.007817	2412.192115
552.366022	2525.618077
552.724173	2414.712692
553.082267	2528.138654
553.440305	2497.891731
553.798288	2555.865000
554.156215	2462.603654
554.514086	2427.315577
554.871902	2533.179808
555.229661	2432.356731
555.587365	2538.220962
555.945014	2530.659231
556.302606	2447.480192
556.660143	2515.535769
557.017625	2460.083077
557.375050	2492.850577
557.732421	2535.700385
558.089735	2472.685962
558.446994	2523.097500
558.804197	2470.165385
559.161345	2444.959615
559.518437	2432.356731
559.875474	2444.959615
560.232455	2545.782692
560.589381	2434.877308
560.946251	2492.850577
561.303065	2525.618077
561.659825	2518.056346
562.016528	2563.426731
562.373177	2487.809423
562.729770	2490.330000
563.086307	2507.974038
563.442789	2528.138654
563.799216	2455.041923
564.155587	2533.179808
564.511904	2455.041923
564.868164	2518.056346
565.224370	2533.179808
565.580520	2467.644808
565.936615	2444.959615
566.292654	2548.303269
566.648638	2533.179808
567.004567	2480.247692
567.360441	2427.315577
567.716260	2502.932885
568.072023	2437.397885
568.427732	2530.659231
568.783385	2419.753846
569.138982	2507.974038
569.494525	2434.877308
569.850013	2457.562500
570.205445	2505.453462
570.560823	2540.741538
570.916145	2462.603654
571.271412	2437.397885
571.626625	2472.685962
571.981782	2452.521346
572.336884	2475.206538
572.691931	2485.288846
573.046923	2457.562500
573.401860	2475.206538
573.756743	2515.535769
574.111570	2502.932885
574.466342	2432.356731
574.821059	2482.768269
575.175722	2457.562500
575.530330	2467.644808
575.884882	2439.918462
576.239380	2500.412308
576.593823	2596.194231
576.948211	2487.809423
577.302544	2462.603654
577.656823	2520.576923
578.011047	2485.288846
578.365216	2513.015192
578.719330	2472.685962
579.073389	2515.535769
579.427394	2444.959615
579.781344	2578.550192
580.135239	2465.124231
580.489080	2480.247692
580.842866	2472.685962
581.196597	2548.303269
581.550273	2376.904038
581.903895	2462.603654
582.257463	2460.083077
582.610975	2530.659231
582.964434	2583.591346
583.317837	2472.685962
583.671186	2525.618077
584.024481	2460.083077
584.377721	2495.371154
584.730906	2530.659231
585.084037	2475.206538
585.437113	2523.097500
585.790135	2424.795000
586.143103	2417.233269
586.496016	2525.618077
586.848874	2497.891731
587.201679	2540.741538
587.554428	2482.768269
587.907124	2538.220962
588.259765	2482.768269
588.612352	2432.356731
588.964884	2475.206538
589.317362	2460.083077
589.669786	2427.315577
590.022155	2490.330000
590.374470	2510.494615
590.726731	2548.303269
591.078937	2485.288846
591.431090	2523.097500
591.783188	2505.453462
592.135232	2490.330000
592.487222	2432.356731
592.839157	2523.097500
593.191038	2570.988462
593.542866	2472.685962
593.894639	2555.865000
594.246358	2490.330000
594.598022	2434.877308
594.949633	2540.741538
595.301190	2570.988462
595.652692	2649.126346
596.004141	2525.618077
596.355535	2518.056346
596.706876	2424.795000
597.058162	2434.877308
597.409395	2513.015192
597.760573	2502.932885
598.111698	2437.397885
598.462768	2467.644808
598.813785	2543.262115
599.164748	2495.371154
599.515657	2525.618077
599.866511	2472.685962
600.217312	2467.644808
600.568060	2550.823846
600.918753	2467.644808
601.269392	2477.727115
601.619978	2490.330000
601.970510	2608.797115
602.320988	2500.412308
602.671412	2513.015192
603.021783	2538.220962
603.372100	2515.535769
603.722363	2492.850577
604.072572	2510.494615
604.422728	2475.206538
604.772830	2437.397885
605.122878	2482.768269
605.472872	2530.659231
605.822813	2515.535769
606.172701	2502.932885
606.522534	2457.562500
606.872314	2565.947308
607.222041	2414.712692
607.571714	2598.714808
607.921333	2455.041923
608.270899	2543.262115
608.620411	2452.521346
608.969870	2538.220962
609.319276	2528.138654
609.668627	2487.809423
610.017926	2470.165385
610.367171	2465.124231
610.716362	2507.974038
611.065500	2502.932885
611.414585	2477.727115
611.763616	2480.247692
612.112594	2548.303269
612.461518	2482.768269
612.810389	2495.371154
613.159207	2543.262115
613.507971	2515.535769
613.856682	2507.974038
614.205340	2540.741538
614.553945	2487.809423
614.902496	2530.659231
615.250994	2477.727115
615.599439	2457.562500
615.947830	2530.659231
616.296169	2502.932885
616.644454	2535.700385
616.992686	2412.192115
617.340864	2492.850577
617.688990	2540.741538
618.037063	2485.288846
618.385082	2487.809423
618.733048	2525.618077
619.080961	2515.535769
619.428821	2520.576923
619.776628	2513.015192
620.124382	2553.344423
620.472083	2513.015192
620.819731	2543.262115
621.167326	2480.247692
621.514868	2535.700385
621.862357	2495.371154
622.209793	2505.453462
622.557176	2560.906154
622.904506	2389.506923
623.251783	2518.056346
623.599007	2467.644808
623.946179	2422.274423
624.293297	2545.782692
624.640363	2555.865000
624.987376	2497.891731
625.334336	2523.097500
625.681243	2460.083077
626.028097	2422.274423
626.374899	2533.179808
626.721647	2397.068654
627.068343	2540.741538
627.414987	2570.988462
627.761577	2510.494615
628.108115	2495.371154
628.454600	2507.974038
628.801032	2535.700385
629.147412	2510.494615
629.493739	2530.659231
629.840014	2492.850577
630.186236	2492.850577
630.532405	2462.603654
630.878521	2444.959615
631.224585	2520.576923
631.570597	2465.124231
631.916556	2545.782692
632.262462	2485.288846
632.608316	2442.439038
632.954117	2560.906154
633.299866	2533.179808
633.645562	2462.603654
633.991206	2467.644808
634.336797	2560.906154
634.682336	2475.206538
635.027823	2525.618077
635.373257	2450.000769
635.718639	2502.932885
636.063968	2490.330000
636.409245	2472.685962
636.754470	2553.344423
637.099642	2520.576923
637.444762	2450.000769
637.789829	2455.041923
638.134845	2555.865000
638.479808	2570.988462
638.824719	2515.535769
639.169577	2520.576923
639.514383	2507.974038
639.859137	2563.426731
640.203839	2490.330000
640.548489	2472.685962
640.893086	2520.576923
641.237632	2457.562500
641.582125	2540.741538
641.926566	2525.618077
642.270955	2530.659231
642.615292	2465.124231
642.959576	2507.974038
643.303809	2540.741538
643.647990	2533.179808
643.992118	2555.865000
644.336195	2417.233269
644.680219	2457.562500
645.024192	2465.124231
645.368112	2550.823846
645.711981	2553.344423
646.055797	2497.891731
646.399562	2548.303269
646.743274	2472.685962
647.086935	2500.412308
647.430544	2510.494615
647.774101	2618.879423
648.117606	2482.768269
648.461059	2475.206538
648.804460	2530.659231
649.147810	2565.947308
649.491108	2583.591346
649.834354	2429.836154
650.177548	2533.179808
650.520690	2455.041923
650.863781	2528.138654
651.206820	2540.741538
651.549807	2495.371154
651.892742	2530.659231
652.235626	2492.850577
652.578458	2497.891731
652.921238	2460.083077
653.263967	2452.521346
653.606644	2555.865000
653.949269	2409.671538
654.291843	2528.138654
654.634365	2439.918462
654.976836	2389.506923
655.319255	2523.097500
655.661622	2475.206538
656.003938	2573.509038
656.346203	2510.494615
656.688416	2470.165385
657.030577	2550.823846
657.372687	2427.315577
657.714746	2460.083077
658.056753	2581.070769
658.398708	2510.494615
658.740612	2475.206538
659.082465	2507.974038
659.424266	2439.918462
659.766016	2525.618077
660.107715	2545.782692
660.449362	2518.056346
660.790958	2497.891731
661.132503	2485.288846
661.473996	2457.562500
661.815438	2543.262115
662.156829	2513.015192
662.498168	2477.727115
662.839456	2543.262115
663.180693	2462.603654
663.521879	2525.618077
663.863013	2455.041923
664.204097	2482.768269
664.545129	2495.371154
664.886110	2429.836154
665.227040	2538.220962
665.567918	2477.727115
665.908746	2570.988462
666.249522	2452.521346
666.590248	2520.576923
666.930922	2407.150962
667.271545	2518.056346
667.612118	2565.947308
667.952639	2510.494615
668.293109	2535.700385
668.633528	2497.891731
668.973896	2518.056346
669.314213	2492.850577
669.654480	2611.317692
669.994695	2487.809423
670.334859	2598.714808
670.674973	2507.974038
671.015035	2485.288846
671.355047	2470.165385
671.695008	2477.727115
672.034918	2487.809423
672.374777	2462.603654
672.714585	2513.015192
673.054342	2485.288846
673.394049	2467.644808
673.733705	2543.262115
674.073310	2510.494615
674.412864	2530.659231
674.752368	2482.768269
675.091820	2492.850577
675.431223	2500.412308
675.770574	2505.453462
676.109875	2444.959615
676.449125	2530.659231
676.788324	2450.000769
677.127473	2490.330000
677.466571	2487.809423
677.805619	2563.426731
678.144616	2530.659231
678.483562	2515.535769
678.822458	2540.741538
679.161303	2467.644808
679.500098	2475.206538
679.838842	2505.453462
680.177535	2392.027500
680.516179	2545.782692
680.854771	2492.850577
681.193314	2507.974038
681.531805	2523.097500
681.870247	2429.836154
682.208638	2467.644808
682.546978	2495.371154
682.885268	2568.467885
683.223508	2470.165385
683.561697	2510.494615
683.899836	2477.727115
684.237925	2563.426731
684.575963	2492.850577
684.913951	2450.000769
685.251889	2505.453462
685.589776	2507.974038
685.927614	2444.959615
686.265401	2465.124231
686.603137	2490.330000
686.940824	2548.303269
687.278460	2422.274423
687.616046	2553.344423
687.953582	2528.138654
688.291068	2530.659231
688.628504	2583.591346
688.965889	2520.576923
689.303224	2475.206538
689.640510	2467.644808
689.977745	2419.753846
690.314930	2510.494615
690.652065	2530.659231
690.989150	2553.344423
691.326185	2457.562500
691.663170	2515.535769
692.000105	2565.947308
692.336990	2510.494615
692.673825	2530.659231
693.010610	2513.015192
693.347345	2472.685962
693.684030	2437.397885
694.020665	2480.247692
694.357251	2495.371154
694.693786	2550.823846
695.030272	2414.712692
695.366707	2457.562500
695.703093	2555.865000
696.039429	2507.974038
696.375716	2520.576923
696.711952	2492.850577
697.048139	2482.768269
697.384276	2457.562500
697.720363	2543.262115
698.056400	2490.330000
698.392388	2424.795000
698.728326	2500.412308
699.064214	2472.685962
699.400053	2480.247692
699.735842	2490.330000
700.071581	2563.426731
700.407270	2460.083077
700.742910	2414.712692
701.078501	2480.247692
701.414042	2485.288846
701.749533	2450.000769
702.084974	2480.247692
702.420366	2482.768269
702.755709	2505.453462
703.091002	2543.262115
703.426246	2485.288846
703.761440	2500.412308
704.096584	2409.671538
704.431679	2513.015192
704.766725	2480.247692
705.101721	2518.056346
705.436668	2515.535769
705.771565	2505.453462
706.106413	2505.453462
706.441212	2455.041923
706.775961	2492.850577
707.110661	2548.303269
707.445311	2507.974038
707.779913	2538.220962
708.114465	2472.685962
708.448967	2475.206538
708.783421	2442.439038
709.117825	2442.439038
709.452180	2518.056346
709.786485	2429.836154
710.120742	2492.850577
710.454949	2495.371154
710.789107	2510.494615
711.123216	2533.179808
711.457275	2515.535769
711.791286	2460.083077
712.125247	2518.056346
712.459159	2439.918462
712.793023	2520.576923
713.126837	2533.179808
713.460602	2455.041923
713.794318	2467.644808
714.127985	2520.576923
714.461602	2485.288846
714.795171	2414.712692
715.128691	2573.509038
715.462162	2523.097500
715.795584	2414.712692
716.128957	2492.850577
716.462281	2477.727115
716.795556	2515.535769
717.128782	2424.795000
717.461960	2507.974038
717.795088	2475.206538
718.128167	2528.138654
718.461198	2457.562500
718.794180	2477.727115
719.127113	2558.385577
719.459997	2462.603654
719.792833	2472.685962
720.125619	2528.138654
720.458357	2432.356731
720.791046	2472.685962
721.123686	2490.330000
721.456278	2525.618077
721.788821	2467.644808
722.121315	2525.618077
722.453761	2545.782692
722.786158	2500.412308
723.118506	2467.644808
723.450805	2528.138654
723.783056	2442.439038
724.115259	2477.727115
724.447412	2429.836154
724.779518	2528.138654
725.111574	2548.303269
725.443582	2444.959615
725.775542	2528.138654
726.107453	2455.041923
726.439315	2588.632500
726.771129	2492.850577
727.102895	2523.097500
727.434612	2518.056346
727.766281	2507.974038
728.097901	2467.644808
728.429473	2409.671538
728.760996	2581.070769
729.092471	2513.015192
729.423897	2573.509038
729.755276	2568.467885
730.086606	2480.247692
730.417887	2545.782692
730.749120	2465.124231
731.080305	2535.700385
731.411442	2467.644808
731.742530	2510.494615
732.073570	2533.179808
732.404562	2437.397885
732.735506	2513.015192
733.066401	2407.150962
733.397249	2424.795000
733.728048	2515.535769
734.058798	2513.015192
734.389501	2399.589231
734.720156	2457.562500
735.050762	2452.521346
735.381320	2523.097500
735.711831	2490.330000
736.042293	2500.412308
736.372707	2422.274423
736.703073	2495.371154
737.033391	2550.823846
737.363661	2404.630385
737.693883	2581.070769
738.024056	2495.371154
738.354182	2513.015192
738.684260	2455.041923
739.014290	2492.850577
739.344272	2450.000769
739.674207	2528.138654
740.004093	2485.288846
740.333931	2513.015192
740.663722	2505.453462
740.993464	2369.342308
741.323159	2402.109808
741.652806	2502.932885
741.982405	2404.630385
742.311956	2558.385577
742.641460	2414.712692
742.970915	2470.165385
743.300323	2495.371154
743.629683	2507.974038
743.958996	2523.097500
744.288260	2487.809423
744.617477	2460.083077
744.946647	2472.685962
745.275768	2533.179808
745.604842	2510.494615
745.933869	2482.768269
746.262847	2500.412308
746.591778	2576.029615
746.920662	2515.535769
747.249498	2530.659231
747.578286	2505.453462
747.907027	2485.288846
748.235720	2533.179808
748.564365	2518.056346
748.892963	2450.000769
749.221514	2492.850577
749.550017	2502.932885
749.878473	2540.741538
750.206881	2472.685962
750.535242	2444.959615
750.863555	2475.206538
751.191821	2565.947308
751.520039	2455.041923
751.848210	2540.741538
752.176334	2528.138654
752.504411	2452.521346
752.832440	2467.644808
753.160421	2538.220962
753.488356	2515.535769
753.816243	2462.603654
754.144082	2450.000769
754.471875	2518.056346
754.799620	2437.397885
755.127318	2548.303269
755.454969	2485.288846
755.782572	2525.618077
756.110129	2513.015192
756.437638	2568.467885
756.765100	2462.603654
757.092515	2497.891731
757.419882	2497.891731
757.747203	2490.330000
758.074477	2482.768269
758.401703	2490.330000
758.728882	2487.809423
759.056014	2412.192115
759.383099	2555.865000
759.710138	2480.247692
760.037129	2470.165385
760.364073	2578.550192
760.690970	2460.083077
761.017820	2543.262115
761.344623	2520.576923
761.671379	2565.947308
761.998088	2533.179808
762.324751	2581.070769
762.651366	2414.712692
762.977935	2515.535769
763.304456	2533.179808
763.630931	2515.535769
763.957359	2439.918462
764.283740	2492.850577
764.610074	2477.727115
764.936362	2475.206538
765.262602	2563.426731
765.588796	2530.659231
765.914943	2570.988462
766.241044	2507.974038
766.567097	2513.015192
766.893104	2480.247692
767.219064	2485.288846
767.544978	2505.453462
767.870845	2538.220962
768.196665	2434.877308
768.522438	2510.494615
768.848165	2533.179808
769.173846	2437.397885
769.499479	2477.727115
769.825066	2457.562500
770.150607	2550.823846
770.476101	2555.865000
770.801548	2467.644808
771.126949	2462.603654
771.452303	2457.562500
771.777611	2555.865000
772.102872	2533.179808
772.428087	2507.974038
772.753256	2510.494615
773.078378	2563.426731
773.403453	2533.179808
773.728482	2505.453462
774.053465	2447.480192
774.378401	2545.782692
774.703291	2591.153077
775.028135	2510.494615
775.352932	2528.138654
775.677683	2482.768269
776.002388	2502.932885
776.327046	2465.124231
776.651658	2560.906154
776.976224	2462.603654
777.300743	2550.823846
777.625216	2525.618077
777.949643	2437.397885
778.274024	2455.041923
778.598359	2515.535769
778.922647	2515.535769
779.246889	2457.562500
779.571086	2447.480192
779.895236	2482.768269
780.219339	2538.220962
780.543397	2472.685962
780.867409	2543.262115
781.191374	2492.850577
781.515294	2429.836154
781.839167	2543.262115
782.162995	2439.918462
782.486776	2525.618077
782.810511	2525.618077
783.134201	2495.371154
783.457844	2485.288846
783.781441	2535.700385
784.104993	2467.644808
784.428498	2432.356731
784.751958	2462.603654
785.075372	2472.685962
785.398739	2553.344423
785.722061	2447.480192
786.045337	2475.206538
786.368568	2485.288846
786.691752	2515.535769
787.014891	2530.659231
787.337983	2417.233269
787.661030	2452.521346
787.984031	2437.397885
788.306987	2543.262115
788.629897	2535.700385
788.952760	2578.550192
789.275579	2424.795000
789.598351	2472.685962
789.921078	2581.070769
790.243759	2452.521346
790.566395	2477.727115
790.888984	2497.891731
791.211529	2485.288846
791.534027	2460.083077
791.856480	2530.659231
792.178888	2492.850577
792.501249	2407.150962
792.823566	2513.015192
793.145836	2510.494615
793.468062	2540.741538
793.790241	2404.630385
794.112375	2533.179808
794.434464	2364.301154
794.756507	2520.576923
795.078505	2520.576923
795.400457	2502.932885
795.722364	2490.330000
796.044226	2548.303269
796.366042	2490.330000
796.687812	2490.330000
797.009538	2530.659231
797.331218	2540.741538
797.652852	2452.521346
797.974442	2520.576923
798.295986	2530.659231
798.617484	2510.494615
798.938938	2510.494615
799.260346	2399.589231
799.581709	2510.494615
799.903026	2525.618077
800.224299	2535.700385
800.545526	2520.576923
800.866708	2500.412308
801.187845	2495.371154
801.508936	2513.015192
801.829983	2513.015192
802.150984	2586.111923
802.471940	2399.589231
802.792851	2487.809423
803.113717	2510.494615
803.434538	2535.700385
803.755314	2467.644808
804.076045	2510.494615
804.396731	2538.220962
804.717372	2505.453462
805.037967	2497.891731
805.358518	2497.891731
805.679024	2596.194231
805.999485	2487.809423
806.319901	2528.138654
806.640272	2487.809423
806.960598	2513.015192
807.280879	2452.521346
807.601115	2497.891731
807.921306	2502.932885
808.241453	2507.974038
808.561554	2455.041923
808.881611	2555.865000
809.201623	2538.220962
809.521590	2515.535769
809.841513	2553.344423
810.161390	2462.603654
810.481223	2583.591346
810.801011	2407.150962
811.120755	2487.809423
811.440453	2525.618077
811.760107	2525.618077
812.079716	2520.576923
812.399281	2528.138654
812.718801	2497.891731
813.038276	2497.891731
813.357707	2467.644808
813.677093	2545.782692
813.996434	2492.850577
814.315731	2462.603654
814.634983	2528.138654
814.954191	2568.467885
815.273354	2543.262115
815.592473	2475.206538
815.911547	2470.165385
816.230577	2497.891731
816.549562	2507.974038
816.868502	2480.247692
817.187399	2482.768269
817.506250	2560.906154
817.825058	2523.097500
818.143821	2462.603654
818.462539	2500.412308
818.781213	2475.206538
819.099843	2540.741538
819.418429	2535.700385
819.736970	2515.535769
820.055466	2460.083077
820.373919	2518.056346
820.692327	2505.453462
821.010691	2462.603654
821.329011	2462.603654
821.647286	2495.371154
821.965517	2533.179808
822.283704	2457.562500
822.601847	2525.618077
822.919945	2450.000769
823.237999	2533.179808
823.556010	2515.535769
823.873976	2568.467885
824.191897	2513.015192
824.509775	2510.494615
824.827609	2475.206538
825.145398	2528.138654
825.463144	2538.220962
825.780845	2490.330000
826.098502	2535.700385
826.416116	2563.426731
826.733685	2507.974038
827.051210	2538.220962
827.368692	2475.206538
827.686129	2437.397885
828.003522	2525.618077
828.320872	2523.097500
828.638177	2518.056346
828.955439	2558.385577
829.272656	2523.097500
829.589830	2518.056346
829.906960	2465.124231
830.224046	2523.097500
830.541088	2427.315577
830.858086	2510.494615
831.175041	2558.385577
831.491952	2462.603654
831.808819	2535.700385
832.125642	2462.603654
832.442421	2530.659231
832.759157	2482.768269
833.075849	2515.535769
833.392497	2452.521346
833.709101	2500.412308
834.025662	2455.041923
834.342179	2419.753846
834.658653	2457.562500
834.975083	2545.782692
835.291469	2439.918462
835.607811	2477.727115
835.924110	2444.959615
836.240366	2538.220962
836.556578	2588.632500
836.872746	2505.453462
837.188871	2427.315577
837.504952	2487.809423
837.820990	2502.932885
838.136984	2381.945192
838.452935	2563.426731
838.768842	2381.945192
839.084706	2472.685962
839.400526	2455.041923
839.716303	2429.836154
840.032037	2500.412308
840.347727	2555.865000
840.663373	2515.535769
840.978977	2477.727115
841.294537	2465.124231
841.610054	2450.000769
841.925527	2477.727115
842.240957	2497.891731
842.556344	2497.891731
842.871687	2507.974038
843.186987	2460.083077
843.502244	2528.138654
843.817458	2507.974038
844.132629	2467.644808
844.447756	2497.891731
844.762840	2450.000769
845.077881	2462.603654
845.392879	2482.768269
845.707833	2548.303269
846.022745	2487.809423
846.337613	2480.247692
846.652438	2455.041923
846.967221	2515.535769
847.281960	2507.974038
847.596656	2442.439038
847.911309	2450.000769
848.225919	2477.727115
848.540485	2432.356731
848.855009	2528.138654
849.169490	2525.618077
849.483928	2439.918462
849.798323	2518.056346
850.112675	2510.494615
850.426984	2528.138654
850.741251	2497.891731
851.055474	2429.836154
851.369654	2467.644808
851.683792	2530.659231
851.997887	2472.685962
852.311938	2513.015192
852.625947	2520.576923
852.939914	2513.015192
853.253837	2434.877308
853.567718	2455.041923
853.881555	2555.865000
854.195350	2500.412308
854.509103	2490.330000
854.822812	2452.521346
855.136479	2507.974038
855.450103	2417.233269
855.763685	2540.741538
856.077224	2495.371154
856.390720	2465.124231
856.704173	2497.891731
857.017584	2502.932885
857.330953	2379.424615
857.644278	2598.714808
857.957561	2518.056346
858.270802	2518.056346
858.584000	2399.589231
858.897155	2525.618077
859.210268	2533.179808
859.523339	2487.809423
859.836367	2528.138654
860.149352	2480.247692
860.462295	2583.591346
860.775195	2530.659231
861.088054	2482.768269
861.400869	2563.426731
861.713642	2470.165385
862.026373	2550.823846
862.339062	2439.918462
862.651708	2505.453462
862.964312	2465.124231
863.276873	2485.288846
863.589392	2540.741538
863.901869	2530.659231
864.214303	2482.768269
864.526696	2467.644808
864.839045	2452.521346
865.151353	2510.494615
865.463619	2429.836154
865.775842	2455.041923
866.088023	2452.521346
866.400162	2470.165385
866.712258	2515.535769
867.024313	2455.041923
867.336325	2442.439038
867.648296	2510.494615
867.960224	2455.041923
868.272110	2487.809423
868.583954	2538.220962
868.895755	2475.206538
869.207515	2535.700385
869.519233	2472.685962
869.830909	2573.509038
870.142542	2452.521346
870.454134	2502.932885
870.765684	2462.603654
871.077191	2520.576923
871.388657	2510.494615
871.700081	2535.700385
872.011463	2555.865000
872.322803	2439.918462
872.634101	2490.330000
872.945357	2525.618077
873.256571	2487.809423
873.567744	2487.809423
873.878874	2490.330000
874.189963	2515.535769
874.501010	2492.850577
874.812015	2467.644808
875.122979	2533.179808
875.433900	2419.753846
875.744780	2447.480192
876.055618	2535.700385
876.366415	2513.015192
876.677169	2450.000769
876.987882	2530.659231
877.298554	2447.480192
877.609183	2558.385577
877.919771	2475.206538
878.230317	2394.548077
878.540822	2460.083077
878.851285	2502.932885
879.161707	2457.562500
879.472087	2492.850577
879.782425	2568.467885
880.092722	2429.836154
880.402977	2439.918462
880.713191	2553.344423
881.023363	2434.877308
881.333494	2513.015192
881.643583	2500.412308
881.953631	2470.165385
882.263637	2485.288846
882.573602	2386.986346
882.883526	2460.083077
883.193408	2495.371154
883.503248	2460.083077
883.813048	2533.179808
884.122806	2402.109808
884.432522	2480.247692
884.742197	2472.685962
885.051831	2465.124231
885.361424	2510.494615
885.670975	2460.083077
885.980485	2515.535769
886.289954	2565.947308
886.599382	2432.356731
886.908768	2540.741538
887.218113	2455.041923
887.527417	2523.097500
887.836680	2492.850577
888.145901	2505.453462
888.455082	2434.877308
888.764221	2492.850577
889.073319	2480.247692
889.382376	2480.247692
889.691392	2507.974038
890.000366	2487.809423
890.309300	2470.165385
890.618193	2404.630385
890.927044	2500.412308
891.235855	2447.480192
891.544625	2487.809423
891.853353	2470.165385
892.162041	2507.974038
892.470687	2434.877308
892.779293	2568.467885
893.087858	2442.439038
893.396381	2475.206538
893.704864	2472.685962
894.013306	2477.727115
894.321707	2427.315577
894.630068	2505.453462
894.938387	2528.138654
895.246665	2460.083077
895.554903	2528.138654
895.863100	2472.685962
896.171256	2472.685962
896.479371	2492.850577
896.787446	2530.659231
897.095480	2548.303269
897.403473	2404.630385
897.711425	2480.247692
898.019336	2520.576923
898.327207	2475.206538
898.635038	2487.809423
898.942827	2427.315577
899.250576	2455.041923
899.558284	2429.836154
899.865952	2523.097500
900.173579	2467.644808
900.481165	2482.768269
900.788711	2452.521346
901.096216	2444.959615
901.403681	2510.494615
901.711105	2467.644808
902.018489	2500.412308
902.325832	2475.206538
902.633135	2492.850577
902.940397	2465.124231
903.247619	2492.850577
903.554800	2485.288846
903.861941	2482.768269
904.169041	2500.412308
904.476101	2558.385577
904.783121	2500.412308
905.090100	2497.891731
905.397039	2500.412308
905.703938	2560.906154
906.010796	2538.220962
906.317614	2450.000769
906.624391	2492.850577
906.931129	2515.535769
907.237826	2555.865000
907.544483	2467.644808
907.851099	2505.453462
908.157675	2636.523462
908.464211	2563.426731
908.770707	2533.179808
909.077163	2482.768269
909.383578	2442.439038
909.689954	2422.274423
909.996289	2490.330000
910.302584	2470.165385
910.608839	2460.083077
910.915054	2505.453462
911.221229	2455.041923
911.527363	2465.124231
911.833458	2530.659231
912.139513	2480.247692
912.445527	2578.550192
912.751502	2528.138654
913.057436	2487.809423
913.363331	2485.288846
913.669186	2495.371154
913.975000	2412.192115
914.280775	2523.097500
914.586510	2477.727115
914.892205	2507.974038
915.197859	2462.603654
915.503475	2560.906154
915.809050	2460.083077
916.114585	2497.891731
916.420081	2518.056346
916.725536	2505.453462
917.030952	2495.371154
917.336328	2545.782692
917.641665	2482.768269
917.946961	2452.521346
918.252218	2513.015192
918.557435	2502.932885
918.862612	2543.262115
919.167750	2434.877308
919.472848	2490.330000
919.777906	2510.494615
920.082925	2505.453462
920.387904	2515.535769
920.692843	2492.850577
920.997743	2399.589231
921.302603	2505.453462
921.607423	2492.850577
921.912204	2497.891731
922.216946	2510.494615
922.521647	2490.330000
922.826310	2482.768269
923.130932	2470.165385
923.435516	2462.603654
923.740059	2475.206538
924.044564	2495.371154
924.349028	2470.165385
924.653454	2530.659231
924.957840	2520.576923
925.262186	2518.056346
925.566493	2467.644808
925.870761	2419.753846
926.174989	2505.453462
926.479178	2444.959615
926.783328	2467.644808
927.087438	2502.932885
927.391509	2485.288846
927.695541	2523.097500
927.999533	2507.974038
928.303486	2568.467885
928.607400	2540.741538
928.911275	2412.192115
929.215110	2485.288846
929.518906	2502.932885
929.822663	2487.809423
930.126381	2495.371154
930.430060	2389.506923
930.733699	2573.509038
931.037299	2495.371154
931.340861	2543.262115
931.644383	2533.179808
931.947866	2520.576923
932.251309	2470.165385
932.554714	2487.809423
932.858080	2444.959615
933.161407	2495.371154
933.464694	2429.836154
933.767943	2500.412308
934.071153	2467.644808
934.374323	2573.509038
934.677455	2482.768269
934.980548	2545.782692
935.283602	2434.877308
935.586617	2422.274423
935.889593	2455.041923
936.192530	2414.712692
936.495428	2523.097500
936.798287	2487.809423
937.101108	2525.618077
937.403890	2543.262115
937.706632	2487.809423
938.009336	2475.206538
938.312002	2457.562500
938.614628	2482.768269
938.917216	2505.453462
939.219765	2462.603654
939.522275	2533.179808
939.824747	2573.509038
940.127179	2480.247692
940.429573	2482.768269
940.731929	2545.782692
941.034246	2455.041923
941.336524	2565.947308
941.638763	2586.111923
941.940964	2450.000769
942.243126	2538.220962
942.545250	2608.797115
942.847335	2437.397885
943.149381	2487.809423
943.451389	2535.700385
943.753359	2507.974038
944.055290	2457.562500
944.357182	2407.150962
944.659036	2407.150962
944.960851	2452.521346
945.262628	2543.262115
945.564367	2477.727115
945.866067	2482.768269
946.167729	2427.315577
946.469352	2500.412308
946.770937	2525.618077
947.072484	2538.220962
947.373992	2450.000769
947.675462	2462.603654
947.976893	2540.741538
948.278286	2558.385577
948.579641	2482.768269
948.880958	2495.371154
949.182236	2424.795000
949.483476	2510.494615
949.784678	2528.138654
950.085841	2545.782692
950.386967	2548.303269
950.688054	2507.974038
950.989103	2455.041923
951.290114	2457.562500
951.591087	2513.015192
951.892021	2402.109808
952.192917	2467.644808
952.493776	2548.303269
952.794596	2452.521346
953.095378	2450.000769
953.396122	2470.165385
953.696828	2477.727115
953.997496	2538.220962
954.298126	2450.000769
954.598718	2550.823846
954.899272	2540.741538
955.199788	2437.397885
955.500266	2482.768269
955.800706	2394.548077
956.101108	2394.548077
956.401472	2455.041923
956.701798	2528.138654
957.002087	2470.165385
957.302337	2477.727115
957.602550	2487.809423
957.902724	2437.397885
958.202861	2432.356731
958.502960	2520.576923
958.803022	2548.303269
959.103045	2442.439038
959.403031	2528.138654
959.702979	2500.412308
960.002889	2470.165385
960.302762	2472.685962
960.602596	2520.576923
960.902393	2447.480192
961.202153	2460.083077
961.501875	2510.494615
961.801559	2369.342308
962.101205	2485.288846
962.400814	2513.015192
962.700385	2515.535769
962.999918	2560.906154
963.299414	2535.700385
963.598873	2553.344423
963.898293	2525.618077
964.197677	2487.809423
964.497022	2490.330000
964.796331	2583.591346
965.095601	2581.070769
965.394835	2487.809423
965.694030	2487.809423
965.993189	2470.165385
966.292309	2510.494615
966.591393	2525.618077
966.890439	2482.768269
967.189447	2497.891731
967.488419	2540.741538
967.787353	2505.453462
968.086249	2528.138654
968.385108	2530.659231
968.683930	2442.439038
968.982714	2495.371154
969.281462	2452.521346
969.580172	2583.591346
969.878844	2419.753846
970.177480	2530.659231
970.476078	2462.603654
970.774639	2465.124231
971.073162	2505.453462
971.371649	2490.330000
971.670098	2419.753846
971.968510	2550.823846
972.266885	2513.015192
972.565223	2507.974038
972.863524	2490.330000
973.161788	2485.288846
973.460014	2475.206538
973.758204	2530.659231
974.056356	2361.780577
974.354471	2510.494615
974.652550	2407.150962
974.950591	2477.727115
975.248595	2540.741538
975.546563	2485.288846
975.844493	2465.124231
976.142386	2447.480192
976.440243	2452.521346
976.738062	2525.618077
977.035845	2467.644808
977.333590	2523.097500
977.631299	2543.262115
977.928971	2505.453462
978.226606	2472.685962
978.524204	2513.015192
978.821765	2555.865000
979.119290	2480.247692
979.416777	2518.056346
979.714228	2530.659231
980.011642	2455.041923
980.309020	2538.220962
980.606360	2450.000769
980.903664	2452.521346
981.200931	2500.412308
981.498162	2543.262115
981.795356	2457.562500
982.092513	2374.383462
982.389633	2545.782692
982.686717	2439.918462
982.983764	2480.247692
983.280775	2507.974038
983.577749	2588.632500
983.874686	2528.138654
984.171587	2429.836154
984.468451	2535.700385
984.765279	2548.303269
985.062070	2467.644808
985.358824	2518.056346
985.655543	2495.371154
985.952224	2502.932885
986.248869	2502.932885
986.545478	2502.932885
986.842050	2518.056346
987.138586	2467.644808
987.435086	2500.412308
987.731549	2490.330000
988.027975	2505.453462
988.324366	2502.932885
988.620719	2583.591346
988.917037	2581.070769
989.213318	2439.918462
989.509563	2442.439038
989.805772	2465.124231
990.101944	2439.918462
990.398080	2460.083077
990.694180	2389.506923
990.990244	2444.959615
991.286271	2507.974038
991.582262	2379.424615
991.878217	2505.453462
992.174136	2525.618077
992.470019	2523.097500
992.765865	2533.179808
993.061676	2490.330000
993.357450	2442.439038
993.653188	2472.685962
993.948890	2525.618077
994.244556	2460.083077
994.540186	2495.371154
994.835780	2455.041923
995.131337	2434.877308
995.426859	2462.603654
995.722345	2505.453462
996.017795	2437.397885
996.313208	2533.179808
996.608586	2497.891731
996.903928	2434.877308
997.199234	2432.356731
997.494504	2412.192115
997.789738	2550.823846
998.084936	2457.562500
998.380099	2507.974038
998.675225	2535.700385
998.970316	2475.206538
999.265371	2490.330000
999.560390	2442.439038
999.855373	2518.056346
1000.150320	2467.644808
1000.445232	2452.521346
1000.740108	2525.618077
1001.034948	2470.165385
1001.329752	2497.891731
1001.624521	2553.344423
1001.919254	2490.330000
1002.213951	2356.739423
1002.508613	2384.465769
1002.803239	2548.303269
1003.097829	2455.041923
1003.392384	2485.288846
1003.686903	2497.891731
1003.981386	2482.768269
1004.275834	2432.356731
1004.570246	2523.097500
1004.864623	2513.015192
1005.158964	2513.015192
1005.453270	2455.041923
1005.747540	2460.083077
1006.041775	2419.753846
1006.335974	2434.877308
1006.630138	2500.412308
1006.924266	2518.056346
1007.218359	2505.453462
1007.512416	2450.000769
1007.806438	2472.685962
1008.100425	2429.836154
1008.394376	2487.809423
1008.688292	2477.727115
1008.982172	2510.494615
1009.276017	2470.165385
1009.569827	2354.218846
1009.863602	2467.644808
1010.157341	2477.727115
1010.451045	2439.918462
1010.744714	2480.247692
1011.038347	2513.015192
1011.331945	2548.303269
1011.625508	2538.220962
1011.919036	2540.741538
1012.212528	2404.630385
1012.505986	2414.712692
1012.799408	2507.974038
1013.092795	2457.562500
1013.386147	2520.576923
1013.679464	2497.891731
1013.972745	2568.467885
1014.265992	2472.685962
1014.559204	2513.015192
1014.852380	2530.659231
1015.145521	2412.192115
1015.438628	2538.220962
1015.731699	2439.918462
1016.024736	2414.712692
1016.317737	2389.506923
1016.610703	2520.576923
1016.903635	2523.097500
1017.196531	2550.823846
1017.489393	2492.850577
1017.782219	2540.741538
1018.075011	2480.247692
1018.367768	2455.041923
1018.660490	2515.535769
1018.953177	2515.535769
1019.245829	2515.535769
