Dividing Wavelength (nm)	Counts (n)	Blue Motor Position (mm): 17.700000	Red Motor Position (mm): 0.000000	
326.493990	2133.282717
326.888308	2133.282717
327.282561	2133.282717
327.676750	2101.699888
328.070874	2101.105032
328.464933	2104.706937
328.858929	2112.679521
329.252859	2121.471294
329.646726	2130.855402
330.040528	2143.823770
330.434265	2161.465288
330.827938	2178.262412
331.221547	2194.885617
331.615091	2215.922352
332.008571	2237.606875
332.401986	2258.540267
332.795338	2274.296393
333.188625	2294.108128
333.581847	2316.009421
333.975006	2331.543736
334.368100	2349.409585
334.761129	2368.777698
335.154095	2384.344782
335.546996	2402.702143
335.939833	2422.677715
336.332606	2438.441403
336.725315	2451.145111
337.117960	2456.244238
337.510540	2470.467854
337.903056	2477.838021
338.295508	2487.461583
338.687896	2493.914260
339.080220	2503.847854
339.472480	2509.264574
339.864676	2516.816222
340.256807	2516.480986
340.648875	2520.818898
341.040879	2525.124044
341.432818	2523.957017
341.824694	2527.327028
342.216506	2527.034641
342.608253	2528.047913
342.999937	2526.091945
343.391557	2525.907943
343.783113	2526.414579
344.174605	2524.566996
344.566033	2524.211595
344.957397	2521.338137
345.348697	2519.969464
345.739934	2520.327386
346.131106	2515.490399
346.522215	2516.362518
346.913260	2513.471417
347.304241	2511.084430
347.695159	2509.272136
348.086012	2507.570746
348.476802	2508.568895
348.867528	2504.702330
349.258191	2500.447596
349.648789	2502.902638
350.039324	2500.538337
350.429796	2502.101094
350.820203	2499.822493
351.210548	2499.043634
351.600828	2495.648417
351.991045	2496.034066
352.381198	2493.803355
352.771288	2495.832419
353.161314	2494.113386
353.551276	2493.727738
353.941175	2492.351503
354.331010	2492.238077
354.720782	2492.573313
355.110490	2492.132213
355.500135	2495.003150
355.889717	2492.986688
356.279235	2494.849394
356.668689	2493.558859
357.058080	2493.858808
357.447408	2493.135402
357.836672	2490.657675
358.225873	2494.388129
358.615010	2492.734630
359.004084	2498.355517
359.393095	2497.584220
359.782043	2498.418531
360.170927	2497.301916
360.559748	2498.368120
360.948505	2499.356186
361.337199	2500.500528
361.725830	2500.397184
362.114398	2499.283089
362.502903	2502.758965
362.891344	2503.129490
363.279722	2502.373317
363.668037	2499.991371
364.056289	2503.152175
364.444478	2502.035559
364.832603	2505.060252
365.220665	2503.212669
365.608665	2506.144100
365.996601	2507.318688
366.384474	2504.039418
366.772284	2508.886487
367.160031	2504.311640
367.547715	2504.057062
367.935336	2508.321878
368.322893	2507.235509
368.710388	2507.984121
369.097820	2508.924296
369.485189	2507.918586
369.872495	2508.213493
370.259738	2508.803308
370.646918	2506.287772
371.034035	2508.916734
371.421090	2510.308093
371.808081	2507.827845
372.195010	2510.050994
372.581875	2508.994872
372.968678	2511.094513
373.355418	2510.108967
373.742096	2511.371776
374.128710	2510.504698
374.515262	2512.601818
374.901751	2509.531755
375.288177	2510.066117
375.674540	2511.122239
376.060841	2514.509894
376.447079	2510.998731
376.833254	2511.694410
377.219367	2509.108298
377.605417	2509.277177
377.991404	2506.363390
378.377329	2507.865654
378.763191	2512.828670
379.148991	2513.688186
379.534727	2513.007631
379.920402	2514.827487
380.306013	2512.150634
380.691563	2513.720954
381.077049	2513.904956
381.462474	2512.939575
381.847835	2513.239524
382.233134	2514.575429
382.618371	2516.110461
383.003545	2513.058042
383.388657	2515.187930
383.773706	2517.557272
384.158693	2515.699607
384.543618	2517.010307
384.928480	2517.012827
385.313280	2516.158352
385.698017	2517.368229
386.082692	2518.003414
386.467305	2519.475431
386.851856	2518.270595
387.236344	2518.593229
387.620770	2519.059536
388.005133	2517.471572
388.389435	2514.651047
388.773674	2518.631038
389.157851	2518.305883
389.541965	2520.929804
389.926018	2522.303518
390.310008	2519.263703
390.693936	2519.856038
391.077802	2519.916532
391.461606	2519.588857
391.845348	2517.968126
392.229027	2521.358302
392.612645	2517.501819
392.996200	2519.848476
393.379694	2521.862417
393.763125	2520.748322
394.146494	2519.009124
394.529801	2523.402490
394.913047	2521.297808
395.296230	2526.470032
395.679351	2522.784948
396.062410	2522.142201
396.445408	2523.009280
396.828343	2521.857376
397.211217	2520.692870
397.594028	2521.224711
397.976778	2521.501975
398.359466	2521.668333
398.742092	2516.952333
399.124656	2524.448529
399.507158	2524.093128
399.889598	2523.412572
400.271977	2526.114631
400.654294	2524.866945
401.036549	2524.630011
401.418742	2525.320649
401.800874	2525.315608
402.182944	2523.712521
402.564952	2523.508354
402.946898	2523.830988
403.328783	2524.519105
403.710606	2527.130423
404.092367	2526.880886
404.474067	2525.771832
404.855705	2525.171935
405.237282	2528.395753
405.618797	2524.143539
406.000250	2527.589168
406.381642	2526.286030
406.762972	2527.818541
407.144240	2528.710825
407.525447	2529.734179
407.906593	2528.814168
408.287677	2529.250228
408.668700	2526.447347
409.049661	2529.945908
409.430560	2526.885927
409.811399	2529.971113
410.192176	2529.267872
410.572891	2527.110258
410.953545	2526.679240
411.334138	2526.734692
411.714669	2530.810465
412.095139	2531.417924
412.475547	2529.343490
412.855894	2529.073788
413.236180	2528.972965
413.616405	2532.340456
413.996568	2531.838861
414.376670	2531.871628
414.756711	2531.554036
415.136691	2531.647297
415.516609	2529.421628
415.896466	2532.942873
416.276262	2531.337266
416.655997	2527.407687
417.035670	2526.908612
417.415283	2528.675537
417.794834	2528.168901
418.174324	2530.644107
418.553753	2528.191586
418.933121	2534.039324
419.312428	2534.969417
419.691674	2532.043028
420.070859	2532.937832
420.449983	2532.564787
420.829045	2532.607637
421.208047	2532.849612
421.586988	2533.446989
421.965867	2532.133768
422.344686	2534.296423
422.723444	2533.714170
423.102141	2532.302647
423.480777	2532.877338
423.859352	2534.727442
424.237866	2533.525127
424.616319	2533.585621
424.994712	2535.355066
425.373044	2533.220137
425.751314	2535.075282
426.129524	2536.199459
426.507673	2536.038142
426.885762	2534.485467
427.263789	2535.471012
427.641756	2535.241640
428.019662	2533.744417
428.397508	2534.210724
428.775292	2535.680220
429.153016	2534.092257
429.530679	2534.624098
429.908282	2535.523944
430.285824	2534.661907
430.663305	2533.512524
431.040726	2537.283307
431.418086	2535.854140
431.795385	2537.028729
432.172624	2534.586290
432.549802	2537.064017
432.926920	2536.307844
433.303977	2537.099305
433.680974	2537.850437
434.057910	2539.100643
434.434786	2536.887576
434.811601	2536.113759
435.188355	2536.380940
435.565050	2535.072761
435.941683	2537.616023
436.318257	2537.333718
436.694770	2534.314067
437.071222	2537.333718
437.447614	2533.361289
437.823946	2536.113759
438.200218	2539.395550
438.576429	2540.151723
438.952580	2537.210210
439.328670	2538.906558
439.704700	2538.984696
440.080670	2538.651980
440.456580	2537.273225
440.832429	2540.474357
441.208218	2541.825387
441.583947	2539.967721
441.959616	2538.160468
442.335224	2539.788760
442.710773	2538.437731
443.086261	2541.243133
443.461689	2539.488812
443.837057	2541.215407
444.212365	2539.259439
444.587612	2540.428987
444.962800	2538.823379
445.337927	2539.738349
445.712995	2540.590304
446.088002	2542.838658
446.462949	2539.319933
446.837837	2541.306148
447.212664	2542.674821
447.587431	2541.159954
447.962139	2542.342105
448.336786	2542.954605
448.711374	2539.970242
449.085901	2541.717002
449.460369	2542.972249
449.834776	2541.641384
450.209124	2541.356559
450.583412	2542.047197
450.957640	2543.607434
451.331808	2542.518545
451.705917	2542.503422
452.079965	2541.684234
452.453954	2543.365459
452.827883	2541.686755
453.201752	2543.108360
453.575562	2538.105015
453.949311	2542.097609
454.323001	2544.363607
454.696632	2542.158103
455.070202	2545.092054
455.443713	2542.387475
455.817164	2541.462423
456.190556	2542.669780
456.563888	2540.900335
456.937160	2539.718184
457.310373	2542.551313
457.683526	2543.884698
458.056619	2543.310006
458.429653	2545.064328
458.802628	2546.122970
459.175542	2546.029709
459.548398	2544.267826
459.921194	2545.059287
460.293930	2544.600542
460.666607	2541.840510
461.039224	2544.880326
461.411782	2545.704554
461.784280	2543.042825
462.156719	2544.897970
462.529099	2545.570964
462.901419	2545.848227
463.273680	2545.747404
463.645882	2543.912424
464.018024	2545.449976
464.390106	2545.331509
464.762130	2547.370656
465.134094	2543.735984
465.505999	2546.899308
465.877845	2546.785882
466.249631	2548.905687
466.621358	2548.381407
466.993026	2549.361912
467.364634	2551.446429
467.736184	2547.597508
468.107674	2550.234031
468.479105	2544.751776
468.850477	2549.918959
469.221790	2546.072559
469.593043	2547.874771
469.964238	2547.605069
470.335373	2545.069369
470.706449	2549.329144
471.077467	2546.354863
471.448425	2548.174720
471.819324	2549.427447
472.190164	2550.672612
472.560945	2547.423588
472.931667	2549.699669
473.302330	2549.553475
473.672934	2549.074566
474.043479	2548.540203
474.413965	2547.408464
474.784393	2547.733619
475.154761	2546.458207
475.525070	2544.250182
475.895321	2547.912580
476.265513	2544.713968
476.635645	2549.891233
477.005719	2547.741181
477.375734	2548.058773
477.745691	2551.799309
478.115588	2551.615307
478.485427	2548.908208
478.855207	2553.800647
479.224928	2551.358208
479.594591	2550.254196
479.964194	2551.481717
480.333739	2550.670091
480.703226	2551.973229
481.072653	2551.978270
481.442022	2550.022303
481.811333	2551.537169
482.180584	2551.494320
482.549777	2554.254351
482.918912	2552.542880
483.287988	2555.436502
483.657005	2554.440874
484.025964	2552.147149
484.394864	2552.855431
484.763706	2553.944320
485.132489	2554.024979
485.501213	2552.000956
485.869879	2552.041285
486.238487	2551.890050
486.607036	2555.111347
486.975527	2555.406255
487.343959	2552.714279
487.712333	2553.833415
488.080648	2555.638148
488.448905	2553.115051
488.817104	2553.621687
489.185244	2553.931718
489.553326	2553.941800
489.921350	2556.805175
490.289315	2556.560679
490.657222	2556.790052
491.025070	2558.872048
491.392861	2557.755433
491.760593	2554.619835
492.128267	2557.485731
492.495883	2556.696790
492.863440	2555.670916
493.230939	2559.421534
493.598380	2557.747871
493.965763	2552.983981
494.333088	2556.502706
494.700354	2555.496996
495.067563	2555.116389
495.434713	2550.387786
495.801805	2557.188303
496.168839	2558.713252
496.535815	2557.556307
496.902733	2559.020762
497.269593	2559.804662
497.636395	2556.752243
498.003139	2560.596123
498.369825	2559.542522
498.736453	2564.172822
499.103023	2560.759960
499.469535	2561.687533
499.835989	2560.505382
500.202385	2563.462019
500.568723	2560.225598
500.935003	2565.914540
501.301226	2562.610064
501.667390	2561.876576
502.033497	2565.604509
502.399546	2562.836916
502.765537	2563.620815
503.131470	2566.229612
503.497345	2564.671896
503.863163	2566.857236
504.228923	2567.018553
504.594625	2569.410580
504.960269	2567.295816
505.325856	2569.483677
505.691385	2567.164746
506.056856	2569.846640
506.422270	2572.450396
506.787625	2572.621795
507.152924	2575.341498
507.518164	2575.810325
507.883347	2576.299317
508.248472	2576.488360
508.613540	2579.649164
508.978550	2581.625296
509.343503	2582.855338
509.708398	2589.043354
510.073236	2592.526791
510.438016	2590.840525
510.802738	2591.813468
511.167403	2598.215733
511.532010	2597.595672
511.896561	2602.102463
512.261053	2603.748400
512.625488	2603.942484
512.989866	2604.159254
513.354186	2611.479009
513.718449	2615.065790
514.082655	2620.054012
514.446803	2626.110958
514.810894	2630.678244
515.174927	2632.540950
515.538904	2635.542957
515.902822	2646.104174
516.266684	2646.467137
516.630488	2652.395534
516.994235	2659.170845
517.357925	2668.736435
517.721558	2672.469409
518.085133	2681.447704
518.448651	2689.057326
518.812112	2690.420958
519.175516	2700.180632
519.538863	2710.250337
519.902152	2714.414330
520.265385	2727.775908
520.628560	2731.952504
520.991678	2744.147055
521.354739	2751.237438
521.717743	2760.119951
522.080690	2766.827206
522.443580	2783.284053
522.806413	2795.934828
523.169189	2804.388843
523.531908	2819.819815
523.894569	2824.815599
524.257174	2837.123576
524.619722	2852.708303
524.982213	2860.874972
525.344647	2882.246944
525.707025	2892.336813
526.069345	2912.440935
526.431608	2925.789910
526.793815	2939.779112
527.155964	2952.533232
527.518057	2966.719038
527.880093	2980.957778
528.242072	3001.079543
528.603995	3016.525638
528.965860	3026.265148
529.327669	3049.640978
529.689421	3065.749985
530.051117	3080.230700
530.412755	3112.418467
530.774337	3119.302163
531.135862	3151.215187
531.497331	3163.850839
531.858743	3177.721574
532.220098	3213.869167
532.581396	3226.887947
532.942638	3244.869743
533.303824	3267.459153
533.664953	3303.518527
534.026025	3311.483550
534.387040	3348.775486
534.747999	3373.025956
535.108902	3407.814959
535.469748	3410.638005
535.830537	3446.135290
536.191270	3476.046976
536.551947	3506.485463
536.912567	3533.069988
537.273131	3556.160993
537.633638	3581.943974
537.994089	3612.248871
538.354483	3639.093015
538.714821	3687.412475
539.075103	3717.775344
539.435328	3747.157709
539.795497	3752.173658
540.155609	3818.802588
540.515665	3859.348588
540.875665	3858.252137
541.235609	3902.505906
541.595496	3940.664920
541.955328	4003.079446
542.315102	4015.800798
542.674821	4048.580901
543.034483	4082.477619
543.394090	4120.591263
543.753640	4151.942199
544.113134	4234.569231
544.472571	4239.469232
544.831953	4311.214934
545.191278	4313.690140
545.550548	4356.764279
545.909761	4422.405144
546.268918	4464.718068
546.628019	4524.196122
546.987064	4534.860683
547.346053	4549.931213
547.704986	4627.580105
548.063863	4658.890712
548.422684	4692.215259
548.781449	4723.336822
549.140158	4789.519611
549.498811	4803.672650
549.857408	4798.679387
550.215949	4913.068209
550.574434	4911.823044
550.932864	4996.106095
551.291237	5040.301891
551.649555	5088.886011
552.007817	5133.270850
552.366022	5162.859903
552.724173	5208.925967
553.082267	5241.237242
553.440305	5348.762533
553.798288	5304.143281
554.156215	5422.078554
554.514086	5457.059121
554.871902	5451.314726
555.229661	5511.017111
555.587365	5548.349376
555.945014	5546.370723
556.302606	5655.214276
556.660143	5646.934180
557.017625	5771.554024
557.375050	5769.340958
557.732421	5868.949116
558.089735	5891.137755
558.446994	5933.652326
558.804197	5998.347974
559.161345	6042.886568
559.518437	6013.292474
559.875474	6118.418176
560.232455	6176.610736
560.589381	6190.733528
560.946251	6259.041163
561.303065	6333.781310
561.659825	6364.204673
562.016528	6372.724223
562.373177	6351.740420
562.729770	6473.300283
563.086307	6472.586960
563.442789	6550.465225
563.799216	6560.653397
564.155587	6618.732531
564.511904	6649.675133
564.868164	6683.763415
565.224370	6734.875674
565.580520	6761.167812
565.936615	6784.473066
566.292654	6776.006448
566.648638	6883.390587
567.004567	6911.941162
567.360441	6943.992818
567.716260	6940.489216
568.072023	7032.724687
568.427732	7051.578603
568.783385	7030.115890
569.138982	7125.769264
569.494525	7176.148035
569.850013	7143.088148
570.205445	7238.282777
570.560823	7200.758948
570.916145	7203.145934
571.271412	7286.405631
571.626625	7298.078423
571.981782	7313.567368
572.336884	7341.165165
572.691931	7370.373610
573.046923	7389.081332
573.401860	7398.339411
573.756743	7399.418218
574.111570	7464.496994
574.466342	7479.277657
574.821059	7546.720734
575.175722	7506.026019
575.530330	7560.614154
575.884882	7586.848318
576.239380	7572.304589
576.593823	7592.844771
576.948211	7637.065772
577.302544	7579.266423
577.656823	7639.601473
578.011047	7667.968045
578.365216	7685.627207
578.719330	7656.844739
579.073389	7705.691000
579.427394	7687.376488
579.781344	7706.921041
580.135239	7700.879218
580.489080	7735.091009
580.842866	7698.313271
581.196597	7728.192190
581.550273	7783.493648
581.903895	7788.769215
582.257463	7867.504476
582.610975	7809.972308
582.964434	7844.826846
583.317837	7815.515057
583.671186	7825.846902
584.024481	7850.258689
584.377721	7806.506515
584.730906	7818.333062
585.084037	7864.915844
585.437113	7836.302255
585.790135	7881.672639
586.143103	7819.941190
586.496016	7822.875141
586.848874	7891.417190
587.201679	7898.328612
587.554428	7832.186153
587.907124	7891.369299
588.259765	7883.094245
588.612352	7913.182371
588.964884	7821.219122
589.317362	7860.532561
589.669786	7879.754480
590.022155	7934.352697
590.374470	7977.063873
590.726731	7932.699198
591.078937	7828.498548
591.431090	7949.748381
591.783188	7850.798093
592.135232	7870.405660
592.487222	7875.172071
592.839157	7942.244623
593.191038	7900.927326
593.542866	7866.138324
593.894639	7796.257849
594.246358	7860.910647
594.598022	7887.716983
594.949633	7807.217317
595.301190	7805.591545
595.652692	7843.281732
596.004141	7956.811037
596.355535	7773.565095
596.706876	7757.778722
597.058162	7716.602577
597.409395	7806.483830
597.760573	7871.555043
598.111698	7790.130327
598.462768	7793.762478
598.813785	7779.236393
599.164748	7763.535719
599.515657	7764.518744
599.866511	7686.862290
600.217312	7819.583268
600.568060	7699.324022
600.918753	7805.135321
601.269392	7785.220243
601.619978	7713.529994
601.970510	7786.258720
602.320988	7785.479862
602.671412	7850.588885
603.021783	7800.749517
603.372100	7778.099613
603.722363	7798.002088
604.072572	7774.275898
604.422728	7797.747510
604.772830	7735.249805
605.122878	7749.387721
605.472872	7752.092300
605.822813	7787.062784
606.172701	7736.444559
606.522534	7815.956158
606.872314	7823.948907
607.222041	7802.808828
607.571714	7863.448868
607.921333	7827.954104
608.270899	7835.634302
608.620411	7927.791635
608.969870	7845.928338
609.319276	7841.156886
609.668627	7861.833178
610.017926	7904.738439
610.367171	7952.137888
610.716362	7935.534848
611.065500	7931.025535
611.414585	7962.741955
611.763616	7953.067981
612.112594	7945.138246
612.461518	7959.830688
612.810389	8020.642127
613.159207	7967.263870
613.507971	7920.892816
613.856682	8040.174078
614.205340	7997.107501
614.553945	8079.492557
614.902496	7984.187023
615.250994	8041.618368
615.599439	8025.141357
615.947830	8043.218935
616.296169	8010.980756
616.644454	8029.088581
616.992686	8031.301647
617.340864	8090.305832
617.688990	8004.293665
618.037063	8085.995646
618.385082	8041.709109
618.733048	8129.684806
619.080961	8075.638595
619.428821	8082.910460
619.776628	8093.025535
620.124382	8051.884678
620.472083	8035.747945
620.819731	8061.304074
621.167326	7968.551885
621.514868	7969.708829
621.862357	7863.685802
622.209793	7885.428299
622.557176	7827.081984
622.904506	7795.783981
623.251783	7733.298879
623.599007	7690.265069
623.946179	7691.028804
624.293297	7653.429358
624.640363	7570.971204
624.987376	7561.324956
625.334336	7511.200764
625.681243	7464.373486
626.028097	7446.762215
626.374899	7433.420801
626.721647	7422.123575
627.068343	7357.735438
627.414987	7331.954977
627.761577	7288.822865
628.108115	7321.386198
628.454600	7225.261476
628.801032	7268.998527
629.147412	7232.714822
629.493739	7213.497944
629.840014	7159.618092
630.186236	7217.689663
630.532405	7099.822445
630.878521	7154.004767
631.224585	7109.125895
631.570597	7037.339864
631.916556	7072.892601
632.262462	7070.082158
632.608316	7024.121958
632.954117	7007.408013
633.299866	6995.263873
633.645562	6986.930846
633.991206	6910.025523
634.336797	6854.330856
634.682336	6810.669422
635.027823	6782.638086
635.373257	6772.480161
635.718639	6708.654113
636.063968	6716.977058
636.409245	6617.696574
636.754470	6608.294822
637.099642	6568.414254
637.444762	6516.414752
637.789829	6525.277100
638.134845	6466.472041
638.479808	6450.118537
638.824719	6460.483150
639.169577	6388.591255
639.514383	6410.336272
639.859137	6335.833059
640.203839	6348.355285
640.548489	6331.684190
640.893086	6310.579399
641.237632	6281.693587
641.582125	6300.532379
641.926566	6267.301093
642.270955	6289.073837
642.615292	6282.510254
642.959576	6297.311082
643.303809	6287.647190
643.647990	6293.129445
643.992118	6286.822962
644.336195	6233.200208
644.680219	6255.522437
645.024192	6245.520788
645.368112	6342.436971
645.711981	6366.992431
646.055797	6438.496157
646.399562	6396.347070
646.743274	6528.929416
647.086935	6577.891623
647.430544	6563.574746
647.774101	6590.005516
648.117606	6597.872236
648.461059	6596.664880
648.804460	6552.968158
649.147810	6460.649508
649.491108	6428.781854
649.834354	6404.861579
650.177548	6320.835627
650.520690	6238.427885
650.863781	6217.486932
651.206820	6237.346557
651.549807	6158.054248
651.892742	6101.200115
652.235626	6104.368480
652.578458	6093.797181
652.921238	6003.742008
653.263967	6043.395725
653.606644	5985.225850
653.949269	5987.328012
654.291843	5925.599083
654.634365	5975.584644
654.976836	5932.578560
655.319255	5928.908600
655.661622	5910.019397
656.003938	5903.140742
656.346203	5869.193612
656.688416	5895.500874
657.030577	5851.264749
657.372687	5820.054965
657.714746	5808.354447
658.056753	5852.139389
658.398708	5793.309123
658.740612	5787.035408
659.082465	5830.182643
659.424266	5820.135624
659.766016	5824.889432
660.107715	5800.127284
660.449362	5810.305374
660.790958	5808.235980
661.132503	5795.794412
661.473996	5831.551317
661.815438	5818.635880
662.156829	5814.671013
662.498168	5809.171114
662.839456	5782.009377
663.180693	5820.022198
663.521879	5816.692516
663.863013	5807.830167
664.204097	5832.105843
664.545129	5864.013827
664.886110	5862.067941
665.227040	5900.468931
665.567918	5862.501481
665.908746	5888.670110
666.249522	5890.008537
666.590248	5880.715169
666.930922	5907.912194
667.271545	5922.770995
667.612118	5925.422642
667.952639	5893.824690
668.293109	5918.720428
668.633528	5878.245004
668.973896	5881.173914
669.314213	5867.635896
669.654480	5852.424214
669.994695	5846.405076
670.334859	5838.324107
670.674973	5829.648281
671.015035	5832.766235
671.355047	5832.413354
671.695008	5820.420449
672.034918	5795.018075
672.374777	5799.892870
672.714585	5787.012722
673.054342	5790.289472
673.394049	5788.520027
673.733705	5814.572710
674.073310	5802.660464
674.412864	5763.828456
674.752368	5752.974852
675.091820	5757.211941
675.431223	5696.188774
675.770574	5695.740111
676.109875	5647.899561
676.449125	5651.085571
676.788324	5619.386795
677.127473	5562.479730
677.466571	5554.388678
677.805619	5550.292741
678.144616	5528.134349
678.483562	5509.983674
678.822458	5479.766998
679.161303	5471.640658
679.500098	5463.557168
679.838842	5451.312205
680.177535	5451.302123
680.516179	5466.405420
680.854771	5480.223223
681.193314	5558.149379
681.531805	5669.231204
681.870247	5818.444317
682.208638	5917.049286
682.546978	5926.443476
682.885268	5906.818264
683.223508	5818.769471
683.561697	5765.734012
683.899836	5740.916412
684.237925	5694.351273
684.575963	5656.010778
684.913951	5619.971569
685.251889	5681.612278
685.589776	5650.049613
685.927614	5621.771261
686.265401	5692.904462
686.603137	5672.979302
686.940824	5750.386219
687.278460	5772.733654
687.616046	5782.291682
687.953582	5854.024780
688.291068	5832.952757
688.628504	5898.008848
688.965889	5855.305233
689.303224	5804.687008
689.640510	5753.811683
689.977745	5681.392987
690.314930	5582.193162
690.652065	5525.253329
690.989150	5434.754536
691.326185	5363.729719
691.663170	5307.909023
692.000105	5231.177620
692.336990	5155.504859
692.673825	5130.694821
693.010610	5062.636723
693.347345	4995.158358
693.684030	4980.181090
694.020665	4939.299853
694.357251	4849.600082
694.693786	4859.679869
695.030272	4828.548224
695.366707	4794.039005
695.703093	4758.251854
696.039429	4781.224392
696.375716	4765.332155
696.711952	4738.009101
697.048139	4726.192636
697.384276	4707.305953
697.720363	4717.403384
698.056400	4728.942586
698.392388	4676.920398
698.728326	4659.281401
699.064214	4633.057319
699.400053	4629.291577
699.735842	4596.327472
700.071581	4573.871652
700.407270	4543.748237
700.742910	4530.432029
701.078501	4476.998319
701.414042	4474.533195
701.749533	4442.869708
702.084974	4376.384450
702.420366	4433.152884
702.755709	4379.288155
703.091002	4323.006193
703.426246	4373.465622
703.761440	4324.536183
704.096584	4290.518477
704.431679	4315.124349
704.766725	4295.685659
705.101721	4288.053353
705.436668	4311.918175
705.771565	4260.972274
706.106413	4291.441008
706.441212	4321.319927
706.775961	4331.409796
707.110661	4308.033966
707.445311	4336.443388
707.779913	4359.085731
708.114465	4374.882186
708.448967	4393.947830
708.783421	4459.344198
709.117825	4498.087986
709.452180	4501.626876
709.786485	4542.702198
710.120742	4629.934324
710.454949	4613.943784
710.789107	4681.386861
711.123216	4754.705402
711.457275	4749.041666
711.791286	4822.836597
712.125247	4834.043082
712.459159	4734.565993
712.793023	4813.938960
713.126837	4774.829688
713.460602	4764.102113
713.794318	4683.483981
714.127985	4694.692986
714.461602	4608.489256
714.795171	4578.607816
715.128691	4514.917878
715.462162	4458.464517
715.795584	4407.929470
716.128957	4390.829877
716.462281	4339.263914
716.795556	4316.024195
717.128782	4278.086991
717.461960	4207.901527
717.795088	4222.127663
718.128167	4181.407743
718.461198	4121.922128
718.794180	4120.709730
719.127113	4097.081842
719.459997	4076.952515
719.792833	4033.500289
720.125619	4022.366901
720.458357	3988.646623
720.791046	3995.875637
721.123686	3966.697439
721.456278	3928.795524
721.788821	3942.119293
722.121315	3916.588370
722.453761	3893.250348
722.786158	3906.606885
723.118506	3927.688990
723.450805	3879.419942
723.783056	3904.643356
724.115259	3915.771703
724.447412	3923.134308
724.779518	3915.605345
725.111574	3918.292280
725.443582	3952.284780
725.775542	3932.294084
726.107453	3983.721415
726.439315	3985.679904
726.771129	3998.484434
727.102895	4035.143705
727.434612	4085.124225
727.766281	4094.757870
728.097901	4094.099999
728.429473	4096.597891
728.760996	4109.440231
729.092471	4101.051751
729.423897	4084.816715
729.755276	4092.711162
730.086606	4093.797530
730.417887	4127.661481
730.749120	4192.236141
731.080305	4256.803240
731.411442	4281.320892
731.742530	4248.389554
732.073570	4255.628651
732.404562	4308.079336
732.735506	4302.526505
733.066401	4263.230711
733.397249	4202.880538
733.728048	4122.335502
734.058798	4042.743245
734.389501	3972.008294
734.720156	3907.491607
735.050762	3866.038199
735.381320	3860.490410
735.711831	3809.826813
736.042293	3782.793626
736.372707	3802.471770
736.703073	3773.490177
737.033391	3764.524484
737.363661	3785.513328
737.693883	3806.681133
738.024056	3813.675734
738.354182	3814.389058
738.684260	3876.964900
739.014290	3896.464083
739.344272	3892.032909
739.674207	3934.323149
740.004093	3938.149385
740.333931	3932.341975
740.663722	3935.301133
740.993464	3932.987243
741.323159	3908.046134
741.652806	3876.029766
741.982405	3850.191332
742.311956	3819.276456
742.641460	3811.447544
742.970915	3785.536014
743.300323	3746.615785
743.629683	3711.443655
743.958996	3703.176163
744.288260	3678.051052
744.617477	3644.648367
744.946647	3632.912560
745.275768	3602.988271
745.604842	3604.591358
745.933869	3556.029923
746.262847	3545.975342
746.591778	3588.696600
746.920662	3554.129408
747.249498	3521.739995
747.578286	3572.227150
747.907027	3589.230962
748.235720	3585.697113
748.564365	3613.930096
748.892963	3611.152420
749.221514	3591.444029
749.550017	3571.294537
749.878473	3569.202458
750.206881	3541.095505
750.535242	3538.479146
750.863555	3540.561142
751.191821	3534.965462
751.520039	3514.183305
751.848210	3495.828464
752.176334	3527.209647
752.504411	3531.983619
752.832440	3490.590705
753.160421	3475.250474
753.488356	3484.926969
753.816243	3495.425172
754.144082	3454.496043
754.471875	3439.359979
754.799620	3461.246148
755.127318	3450.589149
755.454969	3449.167544
755.782572	3456.237762
756.110129	3430.734565
756.437638	3426.588216
756.765100	3434.888476
757.092515	3443.624795
757.419882	3450.581588
757.747203	3425.310283
758.074477	3430.951334
758.401703	3444.116308
758.728882	3463.738999
759.056014	3474.022953
759.383099	3475.515134
759.710138	3469.559011
760.037129	3488.513750
760.364073	3521.165303
760.690970	3504.194259
761.017820	3482.328254
761.344623	3502.765092
761.671379	3547.470044
761.998088	3596.893516
762.324751	3720.512691
762.651366	3964.754074
762.977935	4436.192699
763.304456	4870.851066
763.630931	4954.718222
763.957359	4597.260085
764.283740	4260.621914
764.610074	4077.590221
764.936362	3882.641240
765.262602	3725.301787
765.588796	3616.929582
765.914943	3532.901109
766.241044	3440.920216
766.567097	3414.350815
766.893104	3369.156871
767.219064	3337.659741
767.544978	3311.460865
767.870845	3254.757966
768.196665	3240.171388
768.522438	3246.240937
768.848165	3240.793970
769.173846	3203.996068
769.499479	3188.625590
769.825066	3172.340142
770.150607	3155.643841
770.476101	3173.378620
770.801548	3165.857218
771.126949	3120.713686
771.452303	3104.818927
771.777611	3113.378807
772.102872	3115.604476
772.428087	3094.411465
772.753256	3083.522573
773.078378	3075.003023
773.403453	3040.304761
773.728482	3029.093235
774.053465	3050.001421
774.378401	3039.299051
774.703291	3004.825120
775.028135	3009.876357
775.352932	3004.096674
775.677683	2992.461691
776.002388	2988.385918
776.327046	2989.424395
776.651658	2981.963488
776.976224	2967.167701
777.300743	2970.245326
777.625216	2961.196454
777.949643	2953.748150
778.274024	2955.966257
778.598359	2948.369238
778.922647	2950.703293
779.246889	2951.824949
779.571086	2936.832558
779.895236	2929.527926
780.219339	2939.900100
780.543397	2952.891153
780.867409	2954.716051
781.191374	2948.376800
781.515294	2944.056531
781.839167	2945.026953
782.162995	2938.980089
782.486776	2946.614917
782.810511	2943.103753
783.134201	2933.205448
783.457844	2934.574121
783.781441	2927.692946
784.104993	2907.404822
784.428498	2909.348187
784.751958	2921.174734
785.075372	2916.761204
785.398739	2900.269069
785.722061	2918.780186
786.045337	2925.880651
786.368568	2915.024526
786.691752	2907.931623
787.014891	2954.476596
787.337983	2982.722181
787.661030	3007.887621
787.984031	3076.094433
788.306987	3118.278808
788.629897	3110.369238
788.952760	3095.056733
789.275579	3079.968560
789.598351	3023.318593
789.921078	2977.716316
790.243759	2970.290696
790.566395	2953.816205
790.888984	2931.294850
791.211529	2916.413364
791.534027	2905.075809
791.856480	2895.245559
792.178888	2879.108826
792.501249	2872.061293
792.823566	2868.713967
793.145836	2869.545757
793.468062	2862.306660
793.790241	2864.696167
794.112375	2867.914944
794.434464	2878.443393
794.756507	2884.891029
795.078505	2890.058212
795.400457	2900.755540
795.722364	2937.525717
796.044226	2962.577731
796.366042	2964.861373
796.687812	2955.084055
797.009538	2974.449648
797.331218	2960.258800
797.652852	2947.809670
797.974442	2931.070519
798.295986	2925.368974
798.617484	2921.477203
798.938938	2904.697723
799.260346	2890.774056
799.581709	2887.063767
799.903026	2877.833414
800.224299	2875.519524
800.545526	2862.175590
800.866708	2847.752849
801.187845	2837.461333
801.508936	2837.993175
801.829983	2846.900894
802.150984	2837.148782
802.471940	2823.222594
802.792851	2820.071873
803.113717	2820.598674
803.434538	2828.896413
803.755314	2819.114054
804.076045	2814.743373
804.396731	2814.319917
804.717372	2816.805205
805.037967	2807.368165
805.358518	2817.601708
805.679024	2827.373984
805.999485	2823.220074
806.319901	2828.341886
806.640272	2819.348467
806.960598	2824.412307
807.280879	2832.447906
807.601115	2840.392764
807.921306	2828.631752
808.241453	2823.194868
808.561554	2832.095025
808.881611	2832.432782
809.201623	2828.813234
809.521590	2825.949858
809.841513	2820.737305
810.161390	2826.620332
810.481223	2819.056081
810.801011	2811.874957
811.120755	2805.712146
811.440453	2809.982004
811.760107	2808.744400
812.079716	2806.233906
812.399281	2794.417441
812.718801	2789.489713
813.038276	2786.833025
813.357707	2790.785290
813.677093	2801.202834
813.996434	2794.697225
814.315731	2787.478293
814.634983	2782.169958
814.954191	2784.057870
815.273354	2798.709984
815.592473	2807.564770
815.911547	2808.482260
816.230577	2815.250009
816.549562	2828.914057
816.868502	2820.525577
817.187399	2834.595437
817.506250	2851.006914
817.825058	2841.390913
818.143821	2857.177286
818.462539	2871.446272
818.781213	2899.701939
819.099843	2932.492124
819.418429	2989.018583
819.736970	3049.900598
820.055466	3118.782924
820.373919	3223.896023
820.692327	3362.492465
821.010691	3523.348123
821.329011	3958.994556
821.647286	4842.812169
821.965517	6189.042221
822.283704	6902.655357
822.601847	6872.567230
822.919945	6257.780874
823.237999	5763.636892
823.556010	5200.035892
823.873976	4658.585722
824.191897	4264.380094
824.509775	3976.600786
824.827609	3713.737380
825.145398	3592.364039
825.463144	3581.833069
825.780845	3672.682223
826.098502	3776.015795
826.416116	4055.938465
826.733685	4361.024054
827.051210	4414.941715
827.368692	4306.350220
827.686129	4046.937485
828.003522	3728.540728
828.320872	3478.000423
828.638177	3284.205867
828.955439	3154.353305
829.272656	3069.311560
829.589830	3005.873680
829.906960	2959.850466
830.224046	2916.791451
830.541088	2884.218035
830.858086	2865.487628
831.175041	2850.386852
831.491952	2850.875844
831.808819	2862.977133
832.125642	2887.703993
832.442421	2933.129830
832.759157	3013.289218
833.075849	3183.536545
833.392497	3461.432671
833.709101	3657.747805
834.025662	3604.994650
834.342179	3451.438584
834.658653	3280.014147
834.975083	3132.020994
835.291469	3033.784029
835.607811	2957.256793
835.924110	2900.468195
836.240366	2853.764425
836.556578	2810.292035
836.872746	2787.627007
837.188871	2762.920312
837.504952	2749.266347
837.820990	2743.353073
838.136984	2728.325394
838.452935	2720.206615
838.768842	2717.227293
839.084706	2736.250087
839.400526	2814.791264
839.716303	2941.987138
840.032037	3020.964374
840.347727	3003.292610
840.663373	2947.857561
840.978977	2873.500542
841.294537	2804.043524
841.610054	2757.773294
841.925527	2734.727659
842.240957	2716.899618
842.556344	2690.612522
842.871687	2675.852023
843.186987	2669.845488
843.502244	2663.327277
843.817458	2660.978099
844.132629	2647.233393
844.447756	2639.157464
844.762840	2633.229067
845.077881	2637.609830
845.392879	2634.237298
845.707833	2630.627832
846.022745	2624.459980
846.337613	2623.363529
846.652438	2627.056175
846.967221	2625.276647
847.281960	2625.132974
847.596656	2620.868158
847.911309	2621.314300
848.225919	2618.372787
848.540485	2613.124946
848.855009	2613.147631
849.169490	2616.447066
849.483928	2614.294494
849.798323	2613.077055
850.112675	2615.073352
850.426984	2613.135028
850.741251	2614.102930
851.055474	2612.630913
851.369654	2614.914556
851.683792	2616.326079
851.997887	2611.015223
852.311938	2610.793412
852.625947	2617.094855
852.939914	2615.242231
853.253837	2617.150307
853.567718	2611.617641
853.881555	2610.163268
854.195350	2615.259875
854.509103	2613.840790
854.822812	2611.781478
855.136479	2613.742487
855.450103	2611.912548
855.763685	2614.659977
856.077224	2610.324585
856.390720	2608.837445
856.704173	2613.061932
857.017584	2617.656943
857.330953	2617.094855
857.644278	2619.254989
857.957561	2618.639968
858.270802	2617.992180
858.584000	2611.786520
858.897155	2618.564351
859.210268	2617.707355
859.523339	2613.724843
859.836367	2610.165789
860.149352	2609.765017
860.462295	2613.946654
860.775195	2610.241406
861.088054	2610.067486
861.400869	2608.187136
861.713642	2606.694954
862.026373	2606.493308
862.339062	2608.350973
862.651708	2614.423043
862.964312	2614.997735
863.276873	2612.693927
863.589392	2617.104937
863.901869	2619.617952
864.214303	2624.530557
864.526696	2624.815382
864.839045	2630.998357
865.151353	2633.327370
865.463619	2628.923922
865.775842	2630.882410
866.088023	2632.225878
866.400162	2632.679582
866.712258	2631.688995
867.024313	2631.389046
867.336325	2625.493417
867.648296	2629.339817
867.960224	2633.569345
868.272110	2631.918367
868.583954	2626.509209
868.895755	2626.597430
869.207515	2631.036166
869.519233	2639.215438
869.830909	2634.990951
870.142542	2633.254273
870.454134	2633.367699
870.765684	2637.882052
871.077191	2636.881383
871.388657	2645.448824
871.700081	2639.671662
872.011463	2642.356077
872.322803	2641.862043
872.634101	2648.723054
872.945357	2651.180616
873.256571	2657.701349
873.567744	2657.282933
873.878874	2655.261430
874.189963	2654.936276
874.501010	2658.341575
874.812015	2662.508089
875.122979	2664.771567
875.433900	2654.336379
875.744780	2654.772438
876.055618	2658.397028
876.366415	2666.556136
876.677169	2664.471618
876.987882	2654.863179
877.298554	2655.296718
877.609183	2668.456651
877.919771	2672.907989
878.230317	2683.580112
878.540822	2689.712676
878.851285	2702.915458
879.161707	2727.922101
879.472087	2765.982813
879.782425	2810.455872
880.092722	2918.444949
880.402977	3102.522682
880.713191	3351.810260
881.023363	3632.284937
881.333494	3811.258501
881.643583	3983.547496
881.953631	3980.474912
882.263637	3803.371616
882.573602	3593.775562
882.883526	3463.920481
883.193408	3358.149511
883.503248	3262.659975
883.813048	3149.234013
884.122806	3041.149154
884.432522	2958.433902
884.742197	2897.350241
885.051831	2861.195086
885.361424	2828.946824
885.670975	2793.013480
885.980485	2763.303440
886.289954	2748.464803
886.599382	2734.899058
886.908768	2722.896071
887.218113	2706.532486
887.527417	2693.483459
887.836680	2685.853672
888.145901	2680.492405
888.455082	2672.250119
888.764221	2661.212512
889.073319	2652.420740
889.382376	2654.797644
889.691392	2655.803354
890.000366	2656.216729
890.309300	2651.513332
890.618193	2653.388642
890.927044	2657.799651
891.235855	2657.441729
891.544625	2657.870227
891.853353	2658.366781
892.162041	2664.199396
892.470687	2681.419978
892.779293	2693.233922
893.087858	2703.313709
893.396381	2723.412789
893.704864	2763.326125
894.013306	2833.718277
894.321707	2922.954261
894.630068	2967.424800
894.938387	2985.091524
895.246665	2979.528610
895.554903	2939.048145
895.863100	2896.881414
896.171256	2842.832683
896.479371	2781.804474
896.787446	2747.544793
897.095480	2729.258007
897.403473	2722.601163
897.711425	2709.297558
898.019336	2688.946420
898.327207	2675.486540
898.635038	2675.736077
898.942827	2674.112825
899.250576	2667.594613
899.558284	2654.890906
899.865952	2648.990235
900.173579	2647.185502
900.481165	2646.993938
900.788711	2641.131076
901.096216	2634.161681
901.403681	2631.510034
901.711105	2629.438120
902.018489	2626.640279
902.325832	2630.600106
902.633135	2632.127575
902.940397	2647.498053
903.247619	2682.523990
903.554800	2747.527149
903.861941	2871.413504
904.169041	2987.271823
904.476101	3045.638302
904.783121	3038.124462
905.090100	2984.952892
905.397039	2913.950761
905.703938	2844.040039
906.010796	2786.313786
906.317614	2734.851167
906.624391	2699.283306
906.931129	2676.814884
907.237826	2652.818991
907.544483	2637.143523
907.851099	2625.395114
908.157675	2614.778444
908.464211	2609.031529
908.770707	2599.314705
909.077163	2594.558376
909.383578	2593.106524
909.689954	2589.224836
909.996289	2589.615525
910.302584	2590.318766
910.608839	2586.089238
910.915054	2587.024372
911.221229	2590.560741
911.527363	2589.544949
911.833458	2586.792479
912.139513	2591.064857
912.445527	2590.250710
912.751502	2595.425455
913.057436	2602.604058
913.363331	2606.084975
913.669186	2620.532922
913.975000	2631.837709
914.280775	2644.894297
914.586510	2663.352482
914.892205	2697.289530
915.197859	2761.622215
915.503475	2840.294462
915.809050	2901.617578
916.114585	2913.040832
916.420081	2923.196237
916.725536	2933.928853
917.030952	2912.163672
917.336328	2866.163143
917.641665	2821.720330
917.946961	2774.414143
918.252218	2741.129924
918.557435	2719.168138
918.862612	2696.573686
919.167750	2680.487364
919.472848	2666.858605
919.777906	2650.699186
920.082925	2636.357103
920.387904	2630.305198
920.692843	2623.527367
920.997743	2622.138529
921.302603	2614.554113
921.607423	2608.557661
921.912204	2601.951228
922.216946	2601.152206
922.521647	2599.415528
922.826310	2596.766402
923.130932	2589.676019
923.435516	2587.258786
923.740059	2584.105544
924.044564	2583.150245
924.349028	2577.332754
924.653454	2572.586507
924.957840	2570.275138
925.262186	2567.837740
925.566493	2573.725808
925.870761	2564.508058
926.174989	2569.105591
926.479178	2566.083419
926.783328	2564.192986
927.087438	2563.794735
927.391509	2563.925805
927.695541	2558.922460
927.999533	2560.989333
928.303486	2558.272151
928.607400	2557.667212
928.911275	2557.284085
929.215110	2556.613611
929.518906	2557.339537
929.822663	2557.243756
930.126381	2555.212171
930.430060	2559.663509
930.733699	2556.023796
931.037299	2557.926832
931.340861	2558.103272
931.644383	2560.538150
931.947866	2560.127296
932.251309	2558.546894
932.554714	2558.007490
932.858080	2559.426575
933.161407	2556.888354
933.464694	2555.696121
933.767943	2552.313507
934.071153	2555.915412
934.374323	2555.323076
934.677455	2555.625545
934.980548	2556.114537
935.283602	2556.384239
935.586617	2552.411810
935.889593	2554.836605
936.192530	2552.366439
936.495428	2556.454815
936.798287	2554.685370
937.101108	2556.157387
937.403890	2559.908005
937.706632	2563.908161
938.009336	2566.206927
938.312002	2568.853533
938.614628	2573.274625
938.917216	2573.277145
939.219765	2576.372414
939.522275	2576.044739
939.824747	2578.459452
940.127179	2570.930488
940.429573	2567.187432
940.731929	2568.074675
941.034246	2565.019735
941.336524	2568.155333
941.638763	2565.677606
941.940964	2565.859087
942.243126	2563.358675
942.545250	2564.024108
942.847335	2564.066957
943.149381	2562.070660
943.451389	2561.198541
943.753359	2558.572100
944.055290	2558.793910
944.357182	2556.664023
944.659036	2559.678633
944.960851	2555.630586
945.262628	2557.059753
945.564367	2558.287274
945.866067	2557.465566
946.167729	2558.130999
946.469352	2560.119734
946.770937	2560.328942
947.072484	2556.096893
947.373992	2558.103272
947.675462	2557.032027
947.976893	2555.365926
948.278286	2556.608570
948.579641	2552.051367
948.880958	2555.892726
949.182236	2556.994218
949.483476	2554.118240
949.784678	2557.011863
950.085841	2554.516491
950.386967	2554.191337
950.688054	2558.456153
950.989103	2554.723179
951.290114	2555.857438
951.591087	2559.159394
951.892021	2559.235011
952.192917	2560.089487
952.493776	2560.210475
952.794596	2562.441185
953.095378	2560.984292
953.396122	2563.078891
953.696828	2561.206103
953.997496	2558.683005
954.298126	2558.430947
954.598718	2559.202244
954.899272	2555.454146
955.199788	2553.959444
955.500266	2552.106820
955.800706	2550.347457
956.101108	2546.932075
956.401472	2546.221273
956.701798	2545.376879
957.002087	2544.892929
957.302337	2548.028526
957.602550	2548.031047
957.902724	2545.104657
958.202861	2544.524924
958.502960	2543.534338
958.803022	2545.664225
959.103045	2545.215563
959.403031	2544.587939
959.702979	2544.817311
960.002889	2543.983000
960.302762	2543.342774
960.602596	2546.596839
960.902393	2543.735984
961.202153	2542.664739
961.501875	2543.698175
961.801559	2544.643392
962.101205	2542.185829
962.400814	2542.011909
962.700385	2540.585263
962.999918	2542.599204
963.299414	2542.107691
963.598873	2542.634492
963.898293	2540.562577
964.197677	2541.530479
964.497022	2543.846889
964.796331	2541.553164
965.095601	2540.570139
965.394835	2542.415202
965.694030	2539.355221
965.993189	2539.511497
966.292309	2539.486291
966.591393	2542.276570
966.890439	2539.627443
967.189447	2540.489481
967.488419	2540.857485
967.787353	2541.107022
968.086249	2540.060983
968.385108	2541.744728
968.683930	2540.096271
968.982714	2540.799512
969.281462	2542.823535
969.580172	2542.758000
969.878844	2542.218597
970.177480	2542.145500
970.476078	2542.566436
970.774639	2540.794471
971.073162	2541.827907
971.371649	2538.379758
971.670098	2539.761034
971.968510	2537.429500
972.266885	2537.399253
972.565223	2540.570139
972.863524	2542.808412
973.161788	2541.863195
973.460014	2544.245140
973.758204	2539.410674
974.056356	2542.750438
974.354471	2543.496529
974.652550	2541.376724
974.950591	2541.875798
975.248595	2543.340253
975.546563	2543.425953
975.844493	2541.689275
976.142386	2538.553678
976.440243	2542.639533
976.738062	2541.313709
977.035845	2539.289686
977.333590	2538.591486
977.631299	2541.623740
977.928971	2539.534182
978.226606	2538.180632
978.524204	2540.739018
978.821765	2536.368338
979.119290	2542.241282
979.416777	2541.376724
979.714228	2542.115253
980.011642	2539.884542
980.309020	2540.963349
980.606360	2540.413863
980.903664	2540.134079
981.200931	2540.121477
981.498162	2542.664739
981.795356	2544.890408
982.092513	2545.845707
982.389633	2549.387117
982.686717	2551.789227
982.983764	2552.517674
983.280775	2556.996739
983.577749	2554.750905
983.874686	2555.219732
984.171587	2549.374514
984.468451	2549.278733
984.765279	2546.556509
985.062070	2546.586756
985.358824	2545.414688
985.655543	2541.182639
985.952224	2540.517207
986.248869	2541.069213
986.545478	2536.025539
986.842050	2537.989068
987.138586	2537.653832
987.435086	2533.681403
987.731549	2536.083512
988.027975	2538.697351
988.324366	2537.507638
988.620719	2540.305479
988.917037	2536.242309
989.213318	2541.717002
989.509563	2537.986548
989.805772	2537.225334
990.101944	2538.646939
990.398080	2536.748945
990.694180	2539.950077
990.990244	2540.900335
991.286271	2537.593338
991.582262	2539.435880
991.878217	2537.316074
992.174136	2535.327339
992.470019	2537.968904
992.765865	2537.061496
993.061676	2540.812115
993.357450	2537.295910
993.653188	2538.581404
993.948890	2536.764068
994.244556	2536.733821
994.540186	2539.531662
994.835780	2538.956970
995.131337	2538.878832
995.426859	2539.657690
995.722345	2541.144831
996.017795	2538.074768
996.313208	2539.869419
996.608586	2541.069213
996.903928	2543.864533
997.199234	2540.310520
997.494504	2539.440921
997.789738	2542.362269
998.084936	2540.474357
998.380099	2541.149872
998.675225	2538.359593
998.970316	2539.466127
999.265371	2537.537885
999.560390	2538.704912
999.855373	2537.442103
1000.150320	2538.289017
1000.445232	2537.953780
1000.740108	2537.663914
1001.034948	2538.868750
1001.329752	2534.838347
1001.624521	2539.801363
1001.919254	2535.614685
1002.213951	2534.858512
1002.508613	2532.950435
1002.803239	2533.381454
1003.097829	2530.139992
1003.392384	2534.760209
1003.686903	2538.026877
1003.981386	2537.343801
1004.275834	2534.646783
1004.570246	2538.132741
1004.864623	2536.774150
1005.158964	2537.026208
1005.453270	2537.510159
1005.747540	2535.395395
1006.041775	2537.139634
1006.335974	2537.613502
1006.630138	2535.675179
1006.924266	2537.621064
1007.218359	2536.184335
1007.512416	2534.924047
1007.806438	2531.480939
1008.100425	2538.271373
1008.394376	2535.833975
1008.688292	2537.641229
1008.982172	2536.048224
1009.276017	2535.997813
1009.569827	2535.332380
1009.863602	2537.984027
1010.157341	2537.164840
1010.451045	2535.473533
1010.744714	2534.639222
1011.038347	2535.312216
1011.331945	2535.377751
1011.625508	2537.656352
1011.919036	2535.954963
1012.212528	2534.145189
1012.505986	2534.366999
1012.799408	2535.723070
1013.092795	2534.493028
1013.386147	2532.879859
1013.679464	2537.225334
1013.972745	2536.118800
1014.265992	2535.140817
1014.559204	2537.333718
1014.852380	2534.487987
1015.145521	2534.818183
1015.438628	2533.583100
1015.731699	2536.655683
1016.024736	2532.877338
1016.317737	2536.204500
1016.610703	2536.358255
1016.903635	2533.578059
1017.196531	2532.360620
1017.489393	2534.114942
1017.782219	2530.230733
1018.075011	2535.430683
1018.367768	2534.266176
1018.660490	2534.145189
1018.953177	2534.145189
1019.245829	2534.145189
