Dividing Wavelength (nm)	Counts (n)	Blue Motor Position (mm): 10.000000	Red Motor Position (mm): 0.000000	
326.493990	2106.050404
326.888308	2106.050404
327.282561	2106.050404
327.676750	2081.053843
328.070874	2082.611559
328.464933	2090.382498
328.858929	2097.608992
329.252859	2113.221445
329.646726	2126.671244
330.040528	2139.669859
330.434265	2163.834630
330.827938	2180.737619
331.221547	2204.057997
331.615091	2218.694987
332.008571	2238.161402
332.401986	2261.638056
332.795338	2282.861313
333.188625	2300.144909
333.581847	2319.306335
333.975006	2340.166630
334.368100	2356.174814
334.761129	2376.115098
335.154095	2389.882489
335.546996	2417.581109
335.939833	2461.350927
336.332606	2473.893318
336.725315	2485.997128
337.117960	2495.711432
337.510540	2500.049345
337.903056	2511.376817
338.295508	2517.005266
338.687896	2522.943745
339.080220	2529.797193
339.472480	2537.162319
339.864676	2541.414532
340.256807	2540.204656
340.648875	2541.719522
341.040879	2542.783206
341.432818	2545.901159
341.824694	2548.089020
342.216506	2544.414019
342.608253	2543.622558
342.999937	2545.785213
343.391557	2543.317568
343.783113	2541.966539
344.174605	2539.098122
344.566033	2538.493184
344.957397	2539.324974
345.348697	2535.491177
345.739934	2533.759540
346.131106	2532.461443
346.522215	2531.473377
346.913260	2527.669827
347.304241	2527.057326
347.695159	2528.345341
348.086012	2526.109589
348.476802	2521.035668
348.867528	2522.958868
349.258191	2518.505009
349.648789	2522.994156
350.039324	2514.754390
350.429796	2517.902591
350.820203	2516.622138
351.210548	2514.845131
351.600828	2517.915194
351.991045	2515.684483
352.381198	2512.100223
352.771288	2510.300531
353.161314	2513.710872
353.551276	2512.385048
353.941175	2511.384379
354.331010	2513.478978
354.720782	2516.929648
355.110490	2516.312107
355.500135	2513.489061
355.889717	2512.621982
356.279235	2511.989318
356.668689	2514.570388
357.058080	2516.259175
357.447408	2516.067611
357.836672	2514.111643
358.225873	2515.371932
358.615010	2514.469565
359.004084	2517.111130
359.393095	2517.214473
359.782043	2519.906450
360.170927	2519.218332
360.559748	2521.423837
360.948505	2519.969464
361.337199	2520.952489
361.725830	2522.908457
362.114398	2520.508867
362.502903	2524.382994
362.891344	2521.534742
363.279722	2523.936852
363.668037	2525.020700
364.056289	2522.240504
364.444478	2522.096831
364.832603	2524.259486
365.220665	2523.664630
365.608665	2522.938704
365.996601	2526.464991
366.384474	2524.851822
366.772284	2526.187727
367.160031	2525.870135
367.547715	2525.991122
367.935336	2525.413910
368.322893	2525.907943
368.710388	2527.473222
369.097820	2529.968593
369.485189	2528.715866
369.872495	2526.989271
370.259738	2530.913809
370.646918	2528.330218
371.034035	2527.692512
371.421090	2530.591175
371.808081	2529.625794
372.195010	2525.010618
372.581875	2528.819210
372.968678	2530.729807
373.355418	2531.546474
373.742096	2531.871628
374.128710	2530.210568
374.515262	2533.716691
374.901751	2531.130579
375.288177	2533.268028
375.674540	2529.333407
376.060841	2532.731145
376.447079	2531.054961
376.833254	2530.273583
377.219367	2528.546987
377.605417	2530.031607
377.991404	2528.461288
378.377329	2529.968593
378.763191	2528.660413
379.148991	2532.748789
379.534727	2533.893131
379.920402	2534.873635
380.306013	2534.979500
380.691563	2535.468492
381.077049	2532.279962
381.462474	2534.964376
381.847835	2534.427493
382.233134	2535.471012
382.618371	2535.776002
383.003545	2534.014119
383.388657	2537.918492
383.773706	2537.946219
384.158693	2535.097967
384.543618	2535.425642
384.928480	2535.443286
385.313280	2538.551157
385.698017	2536.799356
386.082692	2539.960160
386.467305	2535.062679
386.851856	2536.638039
387.236344	2535.715508
387.620770	2538.591486
388.005133	2540.436549
388.389435	2541.066693
388.773674	2538.964532
389.157851	2536.685930
389.541965	2540.446631
389.926018	2540.958308
390.310008	2541.359080
390.693936	2539.229192
391.077802	2541.689275
391.461606	2541.170037
391.845348	2544.403937
392.229027	2541.066693
392.612645	2543.660367
392.996200	2541.434697
393.379694	2543.970397
393.763125	2543.055428
394.146494	2541.298586
394.529801	2544.129194
394.913047	2543.539379
395.296230	2541.754810
395.679351	2541.149872
396.062410	2544.834955
396.445408	2544.751776
396.828343	2545.583567
397.211217	2541.598535
397.594028	2542.052238
397.976778	2542.142979
398.359466	2543.753628
398.742092	2540.403781
399.124656	2542.775644
399.507158	2542.904193
399.889598	2547.529452
400.271977	2545.215562
400.654294	2545.593649
401.036549	2548.227652
401.418742	2548.454504
401.800874	2545.384441
402.182944	2544.507280
402.564952	2545.001313
402.946898	2545.412168
403.328783	2547.133722
403.710606	2547.882333
404.092367	2546.982487
404.474067	2548.928372
404.855705	2548.003321
405.237282	2547.287477
405.618797	2546.110367
406.000250	2551.869886
406.381642	2548.819987
406.762972	2548.951058
407.144240	2547.421067
407.525447	2551.975750
407.906593	2548.199926
408.287677	2546.717826
408.668700	2550.077755
409.049661	2552.792417
409.430560	2550.886861
409.811399	2550.292004
410.192176	2549.787889
410.572891	2549.629093
410.953545	2552.855431
411.334138	2550.982643
411.714669	2551.393497
412.095139	2550.065152
412.475547	2549.576161
412.855894	2552.245452
413.236180	2550.506253
413.616405	2552.253013
413.996568	2549.064483
414.376670	2553.384752
414.756711	2551.121274
415.136691	2553.069680
415.516609	2549.707231
415.896466	2552.401727
416.276262	2553.692263
416.655997	2548.653629
417.035670	2550.463404
417.415283	2552.129505
417.794834	2546.795964
418.174324	2551.592622
418.553753	2551.857283
418.933121	2554.924825
419.312428	2552.666388
419.691674	2553.697304
420.070859	2555.149156
420.449983	2552.701676
420.829045	2551.247303
421.208047	2554.640000
421.586988	2554.723179
421.965867	2555.547407
422.344686	2552.673950
422.723444	2551.539690
423.102141	2552.525236
423.480777	2555.620504
423.859352	2555.076059
424.237866	2555.910370
424.616319	2554.597150
424.994712	2555.234856
425.373044	2557.384908
425.751314	2554.473642
426.129524	2554.975236
426.507673	2554.624876
426.885762	2555.315514
427.263789	2553.170503
427.641756	2557.447922
428.019662	2555.214691
428.397508	2555.343241
428.775292	2556.308622
429.153016	2554.614794
429.530679	2556.681667
429.908282	2557.019424
430.285824	2557.563869
430.663305	2557.407593
431.040726	2558.917419
431.418086	2557.329455
431.795385	2557.601677
432.172624	2556.149825
432.549802	2559.048489
432.926920	2557.861297
433.303977	2556.543035
433.680974	2559.487069
434.057910	2556.689229
434.434786	2559.033365
434.811601	2559.134188
435.188355	2554.589588
435.565050	2556.565720
435.941683	2559.141750
436.318257	2557.573951
436.694770	2555.658313
437.071222	2554.685370
437.447614	2555.118909
437.823946	2556.376677
438.200218	2557.447922
438.576429	2557.997408
438.952580	2557.533622
439.328670	2561.044786
439.704700	2555.766698
440.080670	2553.251162
440.456580	2558.960268
440.832429	2562.312636
441.208218	2560.278530
441.583947	2561.339693
441.959616	2558.531770
442.335224	2558.861966
442.710773	2556.611091
443.086261	2558.239383
443.461689	2562.098387
443.837057	2557.803324
444.212365	2558.186451
444.587612	2560.649055
444.962800	2560.386915
445.337927	2558.677964
445.712995	2560.069322
446.088002	2561.337173
446.462949	2559.792059
446.837837	2560.790207
447.212664	2561.891699
447.587431	2560.656617
447.962139	2558.141081
448.336786	2564.724828
448.711374	2560.994374
449.085901	2563.393963
449.460369	2559.696277
449.834776	2560.896072
450.209124	2559.161915
450.583412	2563.094015
450.957640	2561.153170
451.331808	2560.336503
451.705917	2563.451937
452.079965	2559.507234
452.453954	2562.415979
452.827883	2561.967317
453.201752	2562.446226
453.575562	2561.901782
453.949311	2562.201730
454.323001	2563.590568
454.696632	2561.304405
455.070202	2563.673747
455.443713	2562.317677
455.817164	2559.466904
456.190556	2560.157543
456.563888	2562.448747
456.937160	2556.046482
457.310373	2561.687533
457.683526	2563.363716
458.056619	2565.743141
458.429653	2566.872359
458.802628	2565.327246
459.175542	2563.784653
459.548398	2564.692060
459.921194	2567.358831
460.293930	2564.966803
460.666607	2564.049313
461.039224	2569.987793
461.411782	2568.230950
461.784280	2567.988975
462.156719	2566.761454
462.529099	2566.879921
462.901419	2567.497462
463.273680	2566.900086
463.645882	2569.574418
464.018024	2565.849005
464.390106	2568.278841
464.762130	2568.891342
465.134094	2571.590879
465.505999	2572.876374
465.877845	2576.758062
466.249631	2575.845613
466.621358	2574.116497
466.993026	2576.919379
467.364634	2578.840059
467.736184	2574.398802
468.107674	2572.268915
468.479105	2572.730180
468.850477	2575.074317
469.221790	2575.235634
469.593043	2570.249932
469.964238	2575.467527
470.335373	2572.243709
470.706449	2574.487022
471.077467	2575.391909
471.448425	2576.989955
471.819324	2575.931313
472.190164	2576.931982
472.560945	2574.318144
472.931667	2575.054152
473.302330	2574.184553
473.672934	2574.965932
474.043479	2574.630695
474.413965	2570.509552
474.784393	2569.531568
475.154761	2571.114490
475.525070	2570.635581
475.895321	2572.606672
476.265513	2570.693554
476.635645	2574.839903
477.005719	2576.125397
477.375734	2576.243864
477.745691	2578.782085
478.115588	2578.963567
478.485427	2577.937692
478.855207	2578.356108
479.224928	2580.596901
479.594591	2581.562282
479.964194	2582.595718
480.333739	2576.884091
480.703226	2583.218301
481.072653	2581.075810
481.442022	2582.517580
481.811333	2584.072776
482.180584	2580.823753
482.549777	2581.610173
482.918912	2580.344843
483.287988	2580.972467
483.657005	2581.887436
484.025964	2581.837025
484.394864	2582.837694
484.763706	2581.847107
485.132489	2581.615214
485.501213	2582.199988
485.869879	2580.934658
486.238487	2581.282498
486.607036	2582.603280
486.975527	2584.027406
487.343959	2583.470358
487.712333	2580.722930
488.080648	2581.322827
488.448905	2584.244176
488.817104	2583.130081
489.185244	2582.999011
489.553326	2586.699218
489.921350	2585.993456
490.289315	2586.096800
490.657222	2587.523446
491.025070	2588.070411
491.392861	2587.833477
491.760593	2589.217274
492.128267	2587.251224
492.495883	2585.759042
492.863440	2587.654516
493.230939	2586.263158
493.598380	2586.230390
493.965763	2581.685790
494.333088	2584.700400
494.700354	2580.198650
495.067563	2583.513208
495.434713	2578.484657
495.801805	2586.636203
496.168839	2587.470514
496.535815	2584.965061
496.902733	2585.630493
497.269593	2587.122674
497.636395	2584.070256
498.003139	2587.634352
498.369825	2587.712489
498.736453	2586.709300
499.103023	2587.715010
499.469535	2590.979157
499.835989	2589.328179
500.202385	2590.913622
500.568723	2588.544280
500.935003	2591.354723
501.301226	2590.149887
501.667390	2592.138622
502.033497	2593.315732
502.399546	2593.104003
502.765537	2595.072574
503.131470	2596.297574
503.497345	2595.947214
503.863163	2599.168512
504.228923	2598.634149
504.594625	2600.547267
504.960269	2601.086671
505.325856	2604.285283
505.691385	2603.677824
506.056856	2603.652618
506.422270	2608.610593
506.787625	2608.406426
507.152924	2609.089502
507.518164	2611.196705
507.883347	2611.234513
508.248472	2615.388424
508.613540	2613.238372
508.978550	2617.180554
509.343503	2620.737088
509.708398	2622.589712
510.073236	2620.689197
510.438016	2624.782614
510.802738	2624.152470
511.167403	2627.618263
511.532010	2630.474077
511.896561	2632.775364
512.261053	2636.359624
512.625488	2638.073616
512.989866	2636.379789
513.354186	2639.220479
513.718449	2640.011940
514.082655	2644.725419
514.446803	2648.481078
514.810894	2652.080462
515.174927	2653.565082
515.538904	2653.870072
515.902822	2659.485917
516.266684	2658.303767
516.630488	2661.557832
516.994235	2665.729386
517.357925	2666.780467
517.721558	2671.398164
518.085133	2672.108967
518.448651	2675.282373
518.812112	2676.656087
519.175516	2680.016016
519.538863	2683.451563
519.902152	2683.277643
520.265385	2687.766790
520.628560	2691.771987
520.991678	2692.404652
521.354739	2694.887420
521.717743	2697.423121
522.080690	2700.236084
522.443580	2704.024512
522.806413	2705.068030
523.169189	2709.279914
523.531908	2710.351160
523.894569	2712.065152
524.257174	2716.027499
524.619722	2718.391800
524.982213	2722.568396
525.344647	2725.169631
525.707025	2724.471432
526.069345	2728.723645
526.431608	2729.641135
526.793815	2733.237998
527.155964	2733.900910
527.518057	2735.740931
527.880093	2741.134966
528.242072	2740.136817
528.603995	2743.000192
528.965860	2743.554719
529.327669	2744.956160
529.689421	2748.104361
530.051117	2750.209042
530.412755	2753.077459
530.774337	2753.269023
531.135862	2752.560741
531.497331	2755.640886
531.858743	2755.076277
532.220098	2761.541556
532.581396	2760.495517
532.942638	2761.944849
533.303824	2765.317381
533.664953	2767.543050
534.026025	2763.873090
534.387040	2773.244595
534.747999	2772.276693
535.108902	2777.090995
535.469748	2775.981942
535.830537	2777.179216
536.191270	2781.496964
536.551947	2782.081738
536.912567	2781.345729
537.273131	2785.408899
537.633638	2784.927469
537.994089	2787.319497
538.354483	2788.398303
538.714821	2794.228398
539.075103	2794.112451
539.435328	2794.798048
539.795497	2796.416259
540.155609	2799.062864
540.515665	2800.865077
540.875665	2801.341466
541.235609	2802.468164
541.595496	2806.581745
541.955328	2810.239102
542.315102	2810.365131
542.674821	2809.329174
543.034483	2812.469813
543.394090	2813.256233
543.753640	2815.068528
544.113134	2820.102120
544.472571	2817.586584
544.831953	2824.172852
545.191278	2822.531956
545.550548	2823.492296
545.909761	2828.435147
546.268918	2830.996053
546.628019	2837.181549
546.987064	2833.766167
547.346053	2832.011846
547.704986	2840.196159
548.063863	2839.117352
548.422684	2843.677076
548.781449	2842.555419
549.140158	2846.243023
549.498811	2848.377952
549.857408	2844.738239
550.215949	2852.126050
550.574434	2852.083200
550.932864	2856.874817
551.291237	2858.114941
551.649555	2864.386136
552.007817	2869.142465
552.366022	2868.461909
552.724173	2871.920140
553.082267	2876.079092
553.440305	2883.648385
553.798288	2882.806512
554.156215	2884.795247
554.514086	2891.810013
554.871902	2889.213819
555.229661	2892.152811
555.587365	2894.338152
555.945014	2899.936353
556.302606	2901.783936
556.660143	2907.818197
557.017625	2910.794998
557.375050	2911.767941
557.732421	2915.591656
558.089735	2919.594332
558.446994	2919.730443
558.804197	2927.481218
559.161345	2931.098245
559.518437	2929.588420
559.875474	2933.414656
560.232455	2936.106632
560.589381	2940.205090
560.946251	2943.065945
561.303065	2949.465689
561.659825	2952.545834
562.016528	2949.705144
562.373177	2951.751853
562.729770	2958.527163
563.086307	2956.024231
563.442789	2960.783080
563.799216	2967.182825
564.155587	2965.884728
564.511904	2969.209368
564.868164	2971.054431
565.224370	2974.051397
565.580520	2975.485605
565.936615	2979.642036
566.292654	2979.142962
566.648638	2982.434836
567.004567	2989.101762
567.360441	2987.919611
567.716260	2992.136536
568.072023	2997.412104
568.427732	2996.492093
568.783385	2997.155005
569.138982	3000.772033
569.494525	3007.048269
569.850013	3003.458968
570.205445	3013.831142
570.560823	3015.726616
570.916145	3017.954806
571.271412	3019.376411
571.626625	3022.242307
571.981782	3028.745395
572.336884	3027.764891
572.691931	3037.879966
573.046923	3039.709905
573.401860	3039.846016
573.756743	3045.983621
574.111570	3052.549724
574.466342	3055.072821
574.821059	3063.269737
575.175722	3062.667320
575.530330	3068.502455
575.884882	3072.847930
576.239380	3079.325813
576.593823	3082.925196
576.948211	3091.303594
577.302544	3093.236877
577.656823	3099.339193
578.011047	3110.570884
578.365216	3113.499794
578.719330	3123.425826
579.073389	3128.000673
579.427394	3137.566263
579.781344	3148.959271
580.135239	3150.464055
580.489080	3165.980727
580.842866	3169.237312
581.196597	3186.072245
581.550273	3198.750747
581.903895	3211.824980
582.257463	3229.728637
582.610975	3235.977148
582.964434	3255.531783
583.317837	3260.653596
583.671186	3271.532406
584.024481	3290.161990
584.377721	3294.005870
584.730906	3310.863488
585.084037	3327.774039
585.437113	3333.064730
585.790135	3350.678521
586.143103	3357.632793
586.496016	3378.107439
586.848874	3395.698546
587.201679	3411.923499
587.554428	3422.192330
587.907124	3444.570012
588.259765	3458.869244
588.612352	3486.681290
588.964884	3495.246211
589.317362	3517.936444
589.669786	3536.233312
590.022155	3551.971794
590.374470	3581.792740
590.726731	3589.926642
591.078937	3598.514247
591.431090	3620.314717
591.783188	3631.271665
592.135232	3643.176350
592.487222	3670.126358
592.839157	3694.344061
593.191038	3710.208572
593.542866	3724.727095
593.894639	3732.414855
594.246358	3760.791510
594.598022	3782.092906
594.949633	3795.623362
595.301190	3816.587001
595.652692	3833.805062
596.004141	3864.334289
596.355535	3855.981097
596.706876	3877.123697
597.058162	3897.401738
597.409395	3936.110238
597.760573	3961.618476
598.111698	3971.441165
598.462768	3995.043847
598.813785	4023.115512
599.164748	4033.475083
599.515657	4071.480342
599.866511	4080.987958
600.217312	4127.933703
600.568060	4117.007003
600.918753	4177.463040
601.269392	4202.557904
601.619978	4214.500397
601.970510	4255.575719
602.320988	4295.252120
602.671412	4337.144109
603.021783	4355.078013
603.372100	4372.515365
603.722363	4407.732865
604.072572	4445.125624
604.422728	4478.576200
604.772830	4495.073376
605.122878	4532.531670
605.472872	4564.245569
605.822813	4609.021097
606.172701	4635.187206
606.522534	4690.702913
606.872314	4738.772836
607.222041	4761.553810
607.571714	4821.001617
607.921333	4824.290969
608.270899	4877.694433
608.620411	4935.811375
608.969870	4963.893122
609.319276	5002.515923
609.668627	5045.338004
610.017926	5117.328201
610.367171	5175.775339
610.716362	5225.287032
611.065500	5260.789357
611.414585	5318.223223
611.763616	5387.256784
612.112594	5426.635757
612.461518	5488.276466
612.810389	5559.109719
613.159207	5599.209577
613.507971	5653.464995
613.856682	5739.391463
614.205340	5780.963338
614.553945	5891.180605
614.902496	5896.950205
615.250994	5988.885728
615.599439	6053.407456
615.947830	6121.314319
616.296169	6191.603127
616.644454	6261.609631
616.992686	6343.568710
617.340864	6454.524506
617.688990	6497.097050
618.037063	6619.680268
618.385082	6687.640063
618.733048	6775.577950
619.080961	6844.692170
619.428821	6901.301807
619.776628	6973.198743
620.124382	7009.018662
620.472083	7070.682055
620.819731	7139.090513
621.167326	7141.353991
621.514868	7187.415014
621.862357	7185.116248
622.209793	7230.426138
622.557176	7233.130718
622.904506	7245.499188
623.251783	7250.971361
623.599007	7274.503467
623.946179	7291.446785
624.293297	7337.255750
624.640363	7322.281003
624.987376	7372.097685
625.334336	7396.582569
625.681243	7399.332519
626.028097	7452.380581
626.374899	7495.643763
626.721647	7550.070580
627.068343	7597.843075
627.414987	7622.993391
627.761577	7652.063205
628.108115	7762.315760
628.454600	7750.050633
628.801032	7843.369952
629.147412	7902.885815
629.493739	7964.443344
629.840014	7979.702917
630.186236	8096.014939
630.532405	8104.189170
630.878521	8207.298410
631.224585	8259.849918
631.570597	8286.197509
631.916556	8382.561685
632.262462	8442.463196
632.608316	8510.281839
632.954117	8556.504178
633.299866	8610.988969
633.645562	8651.585381
633.991206	8627.231567
634.336797	8611.104916
634.682336	8659.220208
635.027823	8663.888317
635.373257	8686.936472
635.718639	8692.436371
636.063968	8724.155311
636.409245	8675.114967
636.754470	8731.558246
637.099642	8744.700534
637.444762	8714.118374
637.789829	8798.726579
638.134845	8793.773646
638.479808	8845.120318
638.824719	8884.648006
639.169577	8864.937094
639.514383	8936.355121
639.859137	8940.282179
640.203839	9036.429586
640.548489	9031.295171
640.893086	9101.662117
641.237632	9111.845248
641.582125	9187.134880
641.926566	9237.732942
642.270955	9297.947004
642.615292	9363.764308
642.959576	9419.085931
643.303809	9485.162855
643.647990	9571.648890
643.992118	9631.633580
644.336195	9697.881903
644.680219	9780.783678
645.024192	9914.301158
645.368112	10103.137740
645.711981	10185.321151
646.055797	10464.429674
646.399562	10547.344052
646.743274	10848.560556
647.086935	11041.024248
647.430544	11097.570871
647.774101	11198.809843
648.117606	11330.013434
648.461059	11456.543875
648.804460	11417.038873
649.147810	11329.027888
649.491108	11319.467340
649.834354	11283.017277
650.177548	11136.440688
650.520690	11085.323388
650.863781	11140.518981
651.206820	11164.091417
651.549807	11117.269180
651.892742	11063.086858
652.235626	11073.073384
652.578458	11096.421488
652.921238	11005.516881
653.263967	11155.029943
653.606644	11144.945114
653.949269	11193.040243
654.291843	11137.280040
654.634365	11318.638070
654.976836	11279.097780
655.319255	11347.042452
655.661622	11405.499672
656.003938	11402.391800
656.346203	11423.705799
656.688416	11552.033411
657.030577	11556.661190
657.372687	11572.334138
657.714746	11710.136598
658.056753	11806.173100
658.398708	11709.203985
658.740612	11783.974379
659.082465	11925.731625
659.424266	11952.943773
659.766016	12050.394318
660.107715	12077.301477
660.449362	12177.905264
660.790958	12235.790313
661.132503	12311.654637
661.473996	12385.825134
661.815438	12485.087973
662.156829	12616.495731
662.498168	12609.750667
662.839456	12677.564268
663.180693	12794.511476
663.521879	12929.211107
663.863013	12978.372439
664.204097	13044.724106
664.545129	13262.091098
664.886110	13324.001508
665.227040	13421.847784
665.567918	13527.185214
665.908746	13620.524698
666.249522	13748.607815
666.590248	13817.583402
666.930922	13921.418568
667.271545	13978.933093
667.612118	14067.962390
667.952639	14055.271285
668.293109	14142.460562
668.633528	14163.530064
668.973896	14206.563874
669.314213	14287.696204
669.654480	14257.706380
669.994695	14326.961751
670.334859	14354.005021
670.674973	14381.875040
671.015035	14497.579603
671.355047	14544.386717
671.695008	14593.172483
672.034918	14623.069046
672.374777	14727.708276
672.714585	14733.165325
673.054342	14887.137287
673.394049	14854.246279
673.733705	15037.003229
674.073310	14969.013187
674.412864	15051.627617
674.752368	14974.848323
675.091820	15139.981400
675.431223	15029.988464
675.770574	14979.161030
676.109875	14978.818232
676.449125	14936.553198
676.788324	14958.313338
677.127473	14802.166119
677.466571	14832.672661
677.805619	14749.002110
678.144616	14798.377692
678.483562	14836.241798
678.822458	14760.324542
679.161303	14784.108706
679.500098	14813.259178
679.838842	14818.350743
680.177535	14942.836996
680.516179	15137.831348
680.854771	15325.067363
681.193314	15770.002122
681.531805	16338.402301
681.870247	16738.818630
682.208638	17120.290303
682.546978	17274.075742
682.885268	17371.914456
683.223508	17196.109257
683.561697	17113.026001
683.899836	17076.185248
684.237925	16914.727173
684.575963	16910.873211
684.913951	16755.714057
685.251889	16890.312865
685.589776	16953.009695
685.927614	17012.321391
686.265401	17140.941390
686.603137	17255.030263
686.940824	17562.921255
687.278460	17811.150191
687.616046	17927.121935
687.953582	18284.731307
688.291068	18259.911186
688.628504	18459.296382
688.965889	18479.816399
689.303224	18352.980968
689.640510	18234.816322
689.977745	17930.078572
690.314930	17572.915342
690.652065	17370.918828
690.989150	17068.157211
691.326185	16674.846388
691.663170	16385.131276
692.000105	16061.234621
692.336990	15781.841272
692.673825	15606.066320
693.010610	15401.397994
693.347345	15161.030738
693.684030	14880.177974
694.020665	14786.460404
694.357251	14490.418644
694.693786	14514.240617
695.030272	14441.897538
695.366707	14207.647722
695.703093	14103.255508
696.039429	14138.409995
696.375716	14047.959092
696.711952	14070.293924
697.048139	14025.762891
697.384276	13971.300786
697.720363	14073.008585
698.056400	14010.707485
698.392388	13924.493672
698.728326	13949.550728
699.064214	13878.220921
699.400053	13880.597825
699.735842	13736.171288
700.071581	13625.845636
700.407270	13501.661852
700.742910	13439.557357
701.078501	13339.460207
701.414042	13220.458729
701.749533	13098.382148
702.084974	12933.286880
702.420366	13082.626021
702.755709	12877.821584
703.091002	12750.025814
703.426246	12791.302782
703.761440	12771.072631
704.096584	12644.728713
704.431679	12660.996516
704.766725	12629.716157
705.101721	12640.847024
705.436668	12729.233575
705.771565	12577.880492
706.106413	12814.880258
706.441212	12839.239113
706.775961	12953.418727
707.110661	13019.765353
707.445311	13270.046039
707.779913	13193.337321
708.114465	13375.005382
708.448967	13572.205239
708.783421	14003.420497
709.117825	14189.471842
709.452180	14336.958359
709.786485	14594.460498
710.120742	15084.684983
710.454949	15111.458551
710.789107	15388.500202
711.123216	15817.630944
711.457275	15904.444654
711.791286	16237.493524
712.125247	16302.388297
712.459159	16138.094573
712.793023	16569.299750
713.126837	15941.834892
713.460602	16141.328473
713.794318	15959.529342
714.127985	15768.812410
714.461602	15275.883346
714.795171	15299.629701
715.128691	14732.454523
715.462162	14442.280666
715.795584	14222.645155
716.128957	14106.005458
716.462281	13901.311926
716.795556	13787.964103
717.128782	13507.212163
717.461960	13200.770503
717.795088	13176.005834
718.128167	12948.629631
718.461198	12677.551666
718.794180	12616.866256
719.127113	12405.914132
719.459997	12318.850884
719.792833	12106.489758
720.125619	12115.326901
720.458357	11934.568768
720.791046	11847.868483
721.123686	11761.785740
721.456278	11627.275153
721.788821	11624.346242
722.121315	11469.459311
722.453761	11544.033100
722.786158	11503.824857
723.118506	11529.307889
723.450805	11460.231479
723.783056	11576.543501
724.115259	11528.466017
724.447412	11507.487255
724.779518	11678.147957
725.111574	11710.602905
725.443582	11863.435566
725.775542	11865.935979
726.107453	12196.426463
726.439315	12123.223868
726.771129	12401.326682
727.102895	12678.411182
727.434612	12819.785301
727.766281	12909.759815
728.097901	13100.537241
728.429473	13135.346408
728.760996	13152.572031
729.092471	13231.715626
729.423897	13176.956092
729.755276	13119.081125
730.086606	13231.372827
730.417887	13604.879477
730.749120	13980.710099
731.080305	14119.495585
731.411442	14374.341036
731.742530	14441.625316
732.073570	14529.739644
732.404562	14735.287651
732.735506	14619.620897
733.066401	14442.119349
733.397249	14103.149644
733.728048	13709.889233
734.058798	13161.126869
734.389501	12699.367259
734.720156	12398.117987
735.050762	12054.520503
735.381320	11826.642705
735.711831	11666.681852
736.042293	11435.766759
736.372707	11459.573608
736.703073	11323.001189
737.033391	11477.273099
737.363661	11458.981273
737.693883	11534.926255
738.024056	11662.850575
738.354182	11791.105091
738.684260	11995.027326
739.014290	12154.078250
739.344272	12285.024742
739.674207	12492.160712
740.004093	12579.344948
740.333931	12585.981627
740.663722	12629.247329
740.993464	12631.467958
741.323159	12519.579548
741.652806	12336.492402
741.982405	12205.674460
742.311956	11979.170376
742.641460	11922.701892
742.970915	11712.384953
743.300323	11486.533699
743.629683	11353.598472
743.958996	11171.559886
744.288260	10985.221196
744.617477	10782.138313
744.946647	10746.943498
745.275768	10551.586183
745.604842	10433.391290
745.933869	10322.740484
746.262847	10291.175299
746.591778	10253.069217
746.920662	10196.691473
747.249498	10196.807420
747.578286	10292.317120
747.907027	10399.736547
748.235720	10571.281971
748.564365	10587.779147
748.892963	10520.898159
749.221514	10579.488970
749.550017	10478.151695
749.878473	10464.449839
750.206881	10302.341455
750.535242	10245.283155
750.863555	10194.566627
751.191821	10129.220670
751.520039	10152.173043
751.848210	10085.826418
752.176334	10122.475606
752.504411	10055.670235
752.832440	9937.888717
753.160421	9975.208379
753.488356	9898.774404
753.816243	9837.731072
754.144082	9723.866530
754.471875	9684.583339
754.799620	9655.657198
755.127318	9629.730544
755.454969	9609.626423
755.782572	9570.852388
756.110129	9592.582281
756.437638	9528.415955
756.765100	9533.177324
757.092515	9538.868787
757.419882	9552.381600
757.747203	9558.005007
758.074477	9615.895097
758.401703	9586.825284
758.728882	9714.459737
759.056014	9754.393237
759.383099	9843.951856
759.710138	9930.619373
760.037129	10001.482873
760.364073	10011.303040
760.690970	10010.526703
761.017820	10023.482468
761.344623	10185.994145
761.671379	10467.696342
761.998088	10998.247538
762.324751	12281.735389
762.651366	14583.851390
762.977935	17370.744909
763.304456	19041.894970
763.630931	19353.990284
763.957359	18416.920443
764.283740	16903.684525
764.610074	15445.974397
764.936362	13824.003312
765.262602	12625.058131
765.588796	11474.928963
765.914943	10703.158556
766.241044	10048.524400
766.567097	9555.877640
766.893104	9123.081980
767.219064	8847.101492
767.544978	8552.040237
767.870845	8307.574522
768.196665	8164.471288
768.522438	8012.722475
768.848165	7886.116416
769.173846	7751.986436
769.499479	7661.033938
769.825066	7533.522993
770.150607	7389.827423
770.476101	7346.556679
770.801548	7259.727845
771.126949	7149.676936
771.452303	7087.857267
771.777611	6951.657893
772.102872	6943.047602
772.428087	6849.307346
772.753256	6757.780157
773.078378	6685.903385
773.403453	6574.924904
773.728482	6489.961297
774.053465	6436.341064
774.378401	6373.661878
774.703291	6294.276307
775.028135	6220.521706
775.352932	6188.195307
775.677683	6125.455627
776.002388	6053.541047
776.327046	6059.217386
776.651658	5987.733824
776.976224	5928.633857
777.300743	5914.954686
777.625216	5862.055338
777.949643	5834.712120
778.274024	5832.075597
778.598359	5781.354027
778.922647	5782.455519
779.246889	5747.497638
779.571086	5760.150934
779.895236	5767.468169
780.219339	5766.737202
780.543397	5763.019351
780.867409	5808.263706
781.191374	5806.698428
781.515294	5778.074757
781.839167	5821.224513
782.162995	5798.403209
782.486776	5761.053301
782.810511	5732.858127
783.134201	5671.139281
783.457844	5664.714330
783.781441	5626.015912
784.104993	5591.231951
784.428498	5565.993414
784.751958	5553.327515
785.075372	5540.197830
785.398739	5506.101986
785.722061	5531.947982
786.045337	5532.494947
786.368568	5626.882991
786.691752	5649.807638
787.014891	5866.501636
787.337983	6098.871102
787.661030	6465.758717
787.984031	6811.841491
788.306987	7014.775659
788.629897	7084.320897
788.952760	7012.038313
789.275579	6874.553444
789.598351	6629.387009
789.921078	6410.215284
790.243759	6178.337331
790.566395	6013.413462
790.888984	5850.062433
791.211529	5735.673612
791.534027	5606.236945
791.856480	5490.739070
792.178888	5440.254434
792.501249	5384.786619
792.823566	5302.053722
793.145836	5297.360408
793.468062	5284.636536
793.790241	5254.316516
794.112375	5286.814314
794.434464	5375.291605
794.756507	5404.938631
795.078505	5505.865052
795.400457	5685.768709
795.722364	5882.529985
796.044226	6044.199789
796.366042	6175.577299
796.687812	6125.611903
797.009538	6150.464791
797.331218	6078.177166
797.652852	6020.453433
797.974442	5916.469553
798.295986	5862.473754
798.617484	5753.148771
798.938938	5665.394886
799.260346	5605.145536
799.581709	5493.776365
799.903026	5450.702226
800.224299	5385.154623
800.545526	5288.520745
800.866708	5236.803548
801.187845	5192.181774
801.508936	5129.293380
801.829983	5103.717086
802.150984	5015.280124
802.471940	4988.395651
802.792851	4980.042459
803.113717	4957.662256
803.434538	4938.526036
803.755314	4911.003857
804.076045	4903.321138
804.396731	4874.367271
804.717372	4885.951843
805.037967	4887.504518
805.358518	4910.161984
805.679024	4963.199964
805.999485	4966.887568
806.319901	4982.426924
806.640272	4998.954347
806.960598	5035.532960
807.280879	5032.846025
807.601115	5057.038522
807.921306	5030.751425
808.241453	5026.501733
808.561554	5032.777969
808.881611	5010.937170
809.201623	5006.634545
809.521590	4966.325479
809.841513	4952.666473
810.161390	4967.868072
810.481223	4894.443666
810.801011	4884.827665
811.120755	4861.056104
811.440453	4816.227644
811.760107	4796.660405
812.079716	4773.496303
812.399281	4731.195981
812.718801	4725.943099
813.038276	4698.133574
813.357707	4664.786341
813.677093	4690.166030
813.996434	4637.962362
814.315731	4654.585566
814.634983	4655.097243
814.954191	4664.017565
815.273354	4714.025811
815.592473	4753.412346
815.911547	4817.787881
816.230577	4856.733315
816.549562	4936.686015
816.868502	4984.445907
817.187399	5030.199419
817.506250	5103.533084
817.825058	5127.176095
818.143821	5266.533752
818.462539	5417.594448
818.781213	5623.102126
819.099843	5945.264624
819.418429	6500.056207
819.736970	7028.104470
820.055466	7645.935683
820.373919	8468.853636
820.692327	9783.226117
821.010691	12193.976462
821.329011	17533.049898
821.647286	25377.095365
821.965517	33627.331803
822.283704	37748.825432
822.601847	38855.154535
822.919945	35057.287859
823.237999	30911.919325
823.556010	26672.979414
823.873976	22837.840967
824.191897	19389.951355
824.509775	16855.213831
824.827609	14628.092556
825.145398	13405.406061
825.463144	12830.147393
825.780845	13176.036081
826.098502	14324.131143
826.416116	16377.529216
826.733685	18250.048168
827.051210	18557.719870
827.368692	17244.763953
827.686129	15099.112765
828.003522	13007.187674
828.320872	11157.782413
828.638177	9774.799828
828.955439	8728.644459
829.272656	7829.353024
829.589830	7112.538756
829.906960	6496.794581
830.224046	6047.416045
830.541088	5705.028437
830.858086	5485.413091
831.175041	5320.648018
831.491952	5281.004384
831.808819	5325.941230
832.125642	5557.988062
832.442421	6074.108954
832.759157	7076.113899
833.075849	8639.090881
833.392497	10190.291728
833.709101	11069.708414
834.025662	10767.942424
834.342179	9834.590433
834.658653	8713.289104
834.975083	7775.389993
835.291469	7012.053436
835.607811	6382.778804
835.924110	5931.981183
836.240366	5517.384088
836.556578	5130.359584
836.872746	4824.797605
837.188871	4588.861523
837.504952	4405.020725
837.820990	4262.799692
838.136984	4165.268489
838.452935	4129.977891
838.768842	4165.303777
839.084706	4439.282927
839.400526	5112.339980
839.716303	5880.652155
840.032037	6332.692420
840.347727	6155.178270
840.663373	5624.493484
840.978977	5130.122650
841.294537	4760.848048
841.610054	4480.912775
841.925527	4277.492135
842.240957	4099.975464
842.556344	3939.268521
842.871687	3799.684012
843.186987	3671.641225
843.502244	3572.766554
843.817458	3500.436078
844.132629	3438.140020
844.447756	3396.358937
844.762840	3354.439222
845.077881	3323.587360
845.392879	3290.565282
845.707833	3271.033332
846.022745	3247.654981
846.337613	3237.542426
846.652438	3218.630537
846.967221	3208.888507
847.281960	3195.229501
847.596656	3185.830270
847.911309	3178.197963
848.225919	3162.429234
848.540485	3155.802637
848.855009	3150.932882
849.169490	3138.937457
849.483928	3130.740541
849.798323	3129.344141
850.112675	3118.581278
850.426984	3121.069087
850.741251	3113.724126
851.055474	3108.360338
851.369654	3109.703806
851.683792	3107.387395
851.997887	3111.427880
852.311938	3112.161368
852.625947	3112.650360
852.939914	3104.723146
853.253837	3112.236985
853.567718	3108.088116
853.881555	3103.626695
854.195350	3108.957715
854.509103	3105.847323
854.822812	3106.958897
855.136479	3100.458329
855.450103	3103.452775
855.763685	3098.330963
856.077224	3101.393463
856.390720	3109.149279
856.704173	3114.694548
857.017584	3121.195116
857.330953	3123.627472
857.644278	3130.130561
857.957561	3134.662558
858.270802	3133.946714
858.584000	3130.647279
858.897155	3127.453708
859.210268	3117.799899
859.523339	3108.803960
859.836367	3105.799432
860.149352	3103.939246
860.462295	3098.686364
860.775195	3090.078594
861.088054	3082.960484
861.400869	3087.079107
861.713642	3084.757656
862.026373	3090.978440
862.339062	3097.461363
862.651708	3102.479832
862.964312	3119.433232
863.276873	3127.249542
863.589392	3153.201402
863.901869	3176.385668
864.214303	3197.029193
864.526696	3212.908828
864.839045	3226.093966
865.151353	3233.456571
865.463619	3237.849936
865.775842	3237.096284
866.088023	3242.878487
866.400162	3234.384143
866.712258	3236.917323
867.024313	3234.794997
867.336325	3231.969430
867.648296	3232.793659
867.960224	3234.290882
868.272110	3236.781212
868.583954	3235.445306
868.895755	3241.782036
869.207515	3240.632653
869.519233	3256.124119
869.830909	3264.689039
870.142542	3270.756068
870.454134	3280.392234
870.765684	3290.459418
871.077191	3307.889207
871.388657	3315.360197
871.700081	3332.598423
872.011463	3350.386134
872.322803	3366.918598
872.634101	3380.721278
872.945357	3400.611150
873.256571	3424.453287
873.567744	3436.612550
873.878874	3439.400308
874.189963	3456.346147
874.501010	3456.567958
874.812015	3451.345322
875.122979	3467.131696
875.433900	3465.132878
875.744780	3464.764874
876.055618	3473.773416
876.366415	3470.975575
876.677169	3475.179898
876.987882	3490.683966
877.298554	3508.234743
877.609183	3542.171791
877.919771	3583.983121
878.230317	3644.464364
878.540822	3740.828541
878.851285	3875.432390
879.161707	4075.130137
879.472087	4421.636368
879.782425	4996.126260
880.092722	6067.653757
880.402977	7760.760564
880.713191	9731.168642
881.023363	11631.870164
881.333494	12655.138696
881.643583	13012.571627
881.953631	12652.976041
882.263637	11952.979062
882.573602	11115.855136
882.883526	10321.886008
883.193408	9518.111836
883.503248	8745.499557
883.813048	8041.318420
884.122806	7382.880713
884.432522	6738.817857
884.742197	6183.698598
885.051831	5706.679415
885.361424	5293.539213
885.670975	4959.708965
885.980485	4690.657543
886.289954	4457.141214
886.599382	4272.942494
886.908768	4124.669556
887.218113	3982.849296
887.527417	3869.829147
887.836680	3762.165224
888.145901	3676.722708
888.455082	3611.815332
888.764221	3549.461300
889.073319	3500.781398
889.382376	3473.372644
889.691392	3454.808595
890.000366	3449.661577
890.309300	3447.761062
890.618193	3450.296762
890.927044	3442.004064
891.235855	3450.982359
891.544625	3467.698825
891.853353	3495.326869
892.162041	3549.607493
892.470687	3632.209319
892.779293	3738.673448
893.087858	3893.908218
893.396381	4148.340294
893.704864	4519.018857
894.013306	5025.531310
894.321707	5515.781001
894.630068	5800.346574
894.938387	5804.664323
895.246665	5630.694103
895.554903	5355.890725
895.863100	5060.900046
896.171256	4827.925641
896.479371	4622.400320
896.787446	4428.691462
897.095480	4265.428654
897.403473	4138.903254
897.711425	4008.816279
898.019336	3905.659148
898.327207	3799.462201
898.635038	3712.368707
898.942827	3616.775827
899.250576	3543.878222
899.558284	3472.881132
899.865952	3423.679470
900.173579	3369.640821
900.481165	3330.473577
900.788711	3295.553504
901.096216	3266.831530
901.403681	3243.793457
901.711105	3235.112590
902.018489	3231.273751
902.325832	3265.798093
902.633135	3320.025785
902.940397	3481.940085
903.247619	3862.554762
903.554800	4535.367319
903.861941	5367.402200
904.169041	5935.247851
904.476101	6067.570578
904.783121	5808.011649
905.090100	5458.687413
905.397039	5108.788487
905.703938	4798.119819
906.010796	4527.825753
906.317614	4310.461281
906.624391	4110.456023
906.931129	3942.610806
907.237826	3783.607772
907.544483	3639.319867
907.851099	3489.930314
908.157675	3351.936289
908.464211	3230.999008
908.770707	3144.482726
909.077163	3080.754980
909.383578	3026.451670
909.689954	2988.627893
909.996289	2967.318936
910.302584	2947.955864
910.608839	2935.877259
910.915054	2927.506423
911.221229	2922.004004
911.527363	2929.311156
911.833458	2934.178390
912.139513	2945.722633
912.445527	2957.012297
912.751502	2989.376504
913.057436	3026.713810
913.363331	3079.787078
913.669186	3158.986126
913.975000	3260.706528
914.280775	3433.943259
914.586510	3673.584590
914.892205	4008.662524
915.197859	4446.925316
915.503475	4952.366524
915.809050	5368.614597
916.114585	5598.934834
916.420081	5633.517149
916.725536	5567.667077
917.030952	5359.941292
917.336328	5181.585269
917.641665	4997.510057
917.946961	4801.078977
918.252218	4630.261999
918.557435	4435.451650
918.862612	4265.063170
919.167750	4121.380203
919.472848	3953.814770
919.777906	3807.926298
920.082925	3667.714166
920.387904	3541.224054
920.692843	3444.900207
920.997743	3363.553628
921.302603	3280.286369
921.607423	3226.333420
921.912204	3169.532219
922.216946	3127.569655
922.521647	3085.775969
922.826310	3049.635937
923.130932	3019.051257
923.435516	2983.720330
923.740059	2959.583285
924.044564	2932.386260
924.349028	2912.690472
924.653454	2886.640310
924.957840	2864.371012
925.262186	2846.694207
925.566493	2829.977740
925.870761	2805.066879
926.174989	2796.630508
926.479178	2786.331430
926.783328	2768.231167
927.087438	2760.382091
927.391509	2754.045361
927.695541	2738.120356
927.999533	2731.037534
928.303486	2726.923953
928.607400	2717.935576
928.911275	2714.368959
929.215110	2710.099102
929.518906	2707.344111
929.822663	2704.858822
930.126381	2708.599359
930.430060	2711.760162
930.733699	2713.317879
931.037299	2714.832745
931.340861	2712.758311
931.644383	2719.737788
931.947866	2716.302242
932.251309	2715.306614
932.554714	2712.992724
932.858080	2711.379555
933.161407	2708.526262
933.464694	2706.696323
933.767943	2703.311188
934.071153	2700.805735
934.374323	2694.451360
934.677455	2693.327183
934.980548	2690.599919
935.283602	2687.570185
935.586617	2687.940710
935.889593	2690.415917
936.192530	2689.153108
936.495428	2695.557894
936.798287	2706.517362
937.101108	2718.033878
937.403890	2734.226064
937.706632	2760.729931
938.009336	2790.949127
938.312002	2812.497539
938.614628	2837.597444
938.917216	2851.768128
939.219765	2857.431864
939.522275	2867.042824
939.824747	2864.560056
940.127179	2860.017976
940.429573	2855.548993
940.731929	2853.396421
941.034246	2844.052642
941.336524	2840.576766
941.638763	2837.244564
941.940964	2830.532267
942.243126	2817.095072
942.545250	2809.951757
942.847335	2795.077832
943.149381	2783.679783
943.451389	2770.739142
943.753359	2764.059613
944.055290	2754.872110
944.357182	2746.213928
944.659036	2744.923393
944.960851	2740.807291
945.262628	2736.393760
945.564367	2739.073134
945.866067	2736.678586
946.167729	2735.556929
946.469352	2734.616754
946.770937	2734.044583
947.072484	2725.464539
947.373992	2728.401011
947.675462	2724.264744
947.976893	2717.292828
948.278286	2717.015565
948.579641	2714.530276
948.880958	2709.917620
949.182236	2708.435521
949.483476	2708.314533
949.784678	2705.171374
950.085841	2706.945860
950.386967	2711.485419
950.688054	2714.784854
950.989103	2725.333469
951.290114	2733.086763
951.591087	2743.794174
951.892021	2753.115268
952.192917	2763.729417
952.493776	2770.633277
952.794596	2777.892539
953.095378	2775.573608
953.396122	2775.319030
953.696828	2774.313320
953.997496	2768.485746
954.298126	2758.247162
954.598718	2754.688108
954.899272	2743.332909
955.199788	2732.698595
955.500266	2723.826164
955.800706	2711.636654
956.101108	2697.259283
956.401472	2685.021882
956.701798	2674.289266
957.002087	2663.342400
957.302337	2658.366781
957.602550	2647.586274
957.902724	2640.384985
958.202861	2631.973820
958.502960	2622.221708
958.803022	2615.842128
959.103045	2610.879112
959.403031	2609.507918
959.702979	2600.728749
960.002889	2596.272369
960.302762	2594.792790
960.602596	2589.171903
960.902393	2587.899012
961.202153	2585.461614
961.501875	2583.019175
961.801559	2581.554720
962.101205	2578.429205
962.400814	2576.339646
962.700385	2578.020871
962.999918	2576.324523
963.299414	2574.751683
963.598873	2572.168092
963.898293	2569.846640
964.197677	2569.138358
964.497022	2569.511403
964.796331	2567.598286
965.095601	2567.774726
965.394835	2568.394788
965.694030	2564.034190
965.993189	2567.454613
966.292309	2566.471588
966.591393	2568.530899
966.890439	2564.389591
967.189447	2567.119376
967.488419	2565.402863
967.787353	2566.980744
968.086249	2567.149623
968.385108	2565.566701
968.683930	2567.399160
968.982714	2568.372103
969.281462	2569.415622
969.580172	2571.313616
969.878844	2573.761096
970.177480	2574.295458
970.476078	2578.146900
970.774639	2582.469689
971.073162	2581.332909
971.371649	2583.263671
971.670098	2584.234093
971.968510	2585.081007
972.266885	2583.843404
972.565223	2589.270206
972.863524	2589.728951
973.161788	2592.615012
973.460014	2594.076946
973.758204	2594.230701
974.056356	2594.961669
974.354471	2595.851432
974.652550	2594.979313
974.950591	2593.353541
975.248595	2595.034765
975.546563	2592.622573
975.844493	2594.563418
976.142386	2590.182655
976.440243	2587.266347
976.738062	2586.686615
977.035845	2584.980184
977.333590	2582.797364
977.631299	2580.753177
977.928971	2579.230748
978.226606	2578.610686
978.524204	2574.852506
978.821765	2572.843606
979.119290	2572.077351
979.416777	2577.340315
979.714228	2575.283525
980.011642	2577.463824
980.309020	2580.435584
980.606360	2583.533373
980.903664	2591.228694
981.200931	2604.116404
981.498162	2616.384052
981.795356	2647.614000
982.092513	2677.419822
982.389633	2713.164123
982.686717	2747.638054
982.983764	2772.193514
983.280775	2788.743622
983.577749	2785.277829
983.874686	2779.593928
984.171587	2763.721855
984.468451	2748.242992
984.765279	2735.811507
985.062070	2721.459342
985.358824	2702.123997
985.655543	2684.424505
985.952224	2668.633091
986.248869	2646.494864
986.545478	2622.340175
986.842050	2609.684358
987.138586	2593.177100
987.435086	2582.878023
987.731549	2571.792526
988.027975	2567.613409
988.324366	2564.263562
988.620719	2561.047306
988.917037	2557.195865
989.213318	2558.272151
989.509563	2553.157900
989.805772	2553.251162
990.101944	2553.125133
990.398080	2551.045657
990.694180	2551.300235
990.990244	2553.225956
991.286271	2553.062118
991.582262	2550.977601
991.878217	2552.167314
992.174136	2554.082952
992.470019	2554.488765
992.765865	2555.174362
993.061676	2555.721327
993.357450	2560.535629
993.653188	2563.348593
993.948890	2569.365210
994.244556	2569.468554
994.540186	2579.729822
994.835780	2589.693663
995.131337	2605.180087
995.426859	2614.722992
995.722345	2629.322173
996.017795	2650.880668
996.313208	2660.168994
996.608586	2666.417504
996.903928	2668.050838
997.199234	2666.664520
997.494504	2662.082112
997.789738	2661.058757
998.084936	2651.510812
998.380099	2642.305665
998.675225	2631.555404
998.970316	2623.459311
999.265371	2606.384923
999.560390	2598.165322
999.855373	2588.796337
1000.150320	2581.133784
1000.445232	2573.123390
1000.740108	2567.051320
1001.034948	2565.445713
1001.329752	2559.703839
1001.624521	2557.553787
1001.919254	2548.935934
1002.213951	2548.504915
1002.508613	2545.225645
1002.803239	2547.224462
1003.097829	2541.787578
1003.392384	2543.902342
1003.686903	2543.587270
1003.981386	2541.149872
1004.275834	2542.077444
1004.570246	2539.461085
1004.864623	2540.560057
1005.158964	2538.924202
1005.453270	2541.404450
1005.747540	2538.677186
1006.041775	2537.890766
1006.335974	2538.709953
1006.630138	2537.908410
1006.924266	2536.176774
1007.218359	2537.905889
1007.512416	2537.288348
1007.806438	2538.775488
1008.100425	2538.709953
1008.394376	2538.296579
1008.688292	2536.943029
1008.982172	2535.264325
1009.276017	2535.733152
1009.569827	2536.655683
1009.863602	2533.888090
1010.157341	2536.141486
1010.451045	2537.921013
1010.744714	2535.952442
1011.038347	2535.975128
1011.331945	2534.878677
1011.625508	2533.777184
1011.919036	2535.234078
1012.212528	2533.721732
1012.505986	2534.142668
1012.799408	2533.378933
1013.092795	2534.084695
1013.386147	2534.520755
1013.679464	2533.751979
1013.972745	2533.668800
1014.265992	2533.555374
1014.559204	2534.664428
1014.852380	2535.922195
1015.145521	2534.437576
1015.438628	2533.837678
1015.731699	2533.832637
1016.024736	2531.894313
1016.317737	2533.845240
1016.610703	2535.130734
1016.903635	2529.580424
1017.196531	2530.565969
1017.489393	2534.228368
1017.782219	2529.955990
1018.075011	2536.166691
1018.367768	2536.038142
1018.660490	2535.052596
1018.953177	2535.052596
1019.245829	2535.052596
