Dividing Wavelength (nm)	Counts (n)	Blue Motor Position (mm): 31.000000	Red Motor Position (mm): 0.000000	
326.493990	2132.584517
326.888308	2132.584517
327.282561	2132.584517
327.676750	2102.274580
328.070874	2097.072109
328.464933	2100.280803
328.858929	2107.852617
329.252859	2117.148504
329.646726	2130.421862
330.040528	2140.635240
330.434265	2157.271048
330.827938	2174.791578
331.221547	2193.350586
331.615091	2212.847248
332.008571	2230.337532
332.401986	2250.855028
332.795338	2271.846392
333.188625	2288.787190
333.581847	2308.251085
333.975006	2328.181287
334.368100	2344.227279
334.761129	2362.728314
335.154095	2379.016282
335.546996	2401.860271
335.939833	2423.680905
336.332606	2438.675817
336.725315	2450.663681
337.117960	2464.042903
337.510540	2468.811835
337.903056	2481.308855
338.295508	2487.733806
338.687896	2498.899962
339.080220	2505.650067
339.472480	2511.611231
339.864676	2515.092148
340.256807	2522.545494
340.648875	2522.101872
341.040879	2526.202851
341.432818	2528.075639
341.824694	2530.439941
342.216506	2527.435413
342.608253	2530.452543
342.999937	2529.648479
343.391557	2527.213602
343.783113	2527.276617
344.174605	2528.942718
344.566033	2526.601102
344.957397	2525.232429
345.348697	2522.164887
345.739934	2524.067922
346.131106	2517.930317
346.522215	2517.769000
346.913260	2514.615759
347.304241	2514.439318
347.695159	2509.725839
348.086012	2506.433966
348.476802	2507.727022
348.867528	2505.617299
349.258191	2506.648215
349.648789	2502.327946
350.039324	2504.344408
350.429796	2500.921464
350.820203	2502.985817
351.210548	2499.920795
351.600828	2496.838130
351.991045	2496.127327
352.381198	2497.548932
352.771288	2496.979282
353.161314	2494.607419
353.551276	2497.385095
353.941175	2495.242604
354.331010	2495.202275
354.720782	2497.284272
355.110490	2494.569610
355.500135	2497.528768
355.889717	2495.524909
356.279235	2497.148161
356.668689	2498.743686
357.058080	2497.349807
357.447408	2493.954590
357.836672	2494.617501
358.225873	2492.971565
358.615010	2492.898468
359.004084	2500.926505
359.393095	2500.203100
359.782043	2500.732421
360.170927	2499.605723
360.559748	2502.769047
360.948505	2502.980776
361.337199	2500.447596
361.725830	2502.648059
362.114398	2502.562360
362.502903	2504.775426
362.891344	2506.673421
363.279722	2503.371465
363.668037	2504.397340
364.056289	2504.125117
364.444478	2507.323730
364.832603	2506.131497
365.220665	2510.509739
365.608665	2506.169305
365.996601	2507.326250
366.384474	2507.437156
366.772284	2508.818432
367.160031	2506.771723
367.547715	2509.488905
367.935336	2507.316168
368.322893	2509.672907
368.710388	2510.413957
369.097820	2510.202228
369.485189	2510.348422
369.872495	2512.979904
370.259738	2509.854389
370.646918	2510.852537
371.034035	2511.873371
371.421090	2512.039729
371.808081	2510.950840
372.195010	2511.482682
372.581875	2513.264729
372.968678	2511.875892
373.355418	2513.781448
373.742096	2513.103413
374.128710	2511.921262
374.515262	2513.146262
374.901751	2513.451252
375.288177	2512.664832
375.674540	2513.005110
376.060841	2515.737415
376.447079	2514.245234
376.833254	2515.291273
377.219367	2512.564009
377.605417	2516.208763
377.991404	2512.148114
378.377329	2515.984432
378.763191	2513.005110
379.148991	2515.777745
379.534727	2514.429236
379.920402	2516.299504
380.306013	2517.514422
380.691563	2517.736233
381.077049	2516.332272
381.462474	2518.769669
381.847835	2517.229597
382.233134	2519.367046
382.618371	2515.011489
383.003545	2520.697911
383.388657	2520.087931
383.773706	2523.578930
384.158693	2519.684639
384.543618	2522.197654
384.928480	2520.251769
385.313280	2518.840246
385.698017	2518.270595
386.082692	2521.133971
386.467305	2521.955679
386.851856	2521.703621
387.236344	2522.268230
387.620770	2523.616739
388.005133	2523.478107
388.389435	2523.967099
388.773674	2520.196316
389.157851	2520.430730
389.541965	2521.522139
389.926018	2526.444826
390.310008	2523.014321
390.693936	2523.344517
391.077802	2521.386028
391.461606	2524.609846
391.845348	2525.572707
392.229027	2524.264527
392.612645	2524.045237
392.996200	2524.909795
393.379694	2528.133613
393.763125	2528.665454
394.146494	2528.723428
394.529801	2528.325177
394.913047	2526.480114
395.296230	2526.212933
395.679351	2526.802748
396.062410	2526.946421
396.445408	2527.266534
396.828343	2529.046062
397.211217	2526.396935
397.594028	2526.855680
397.976778	2526.742254
398.359466	2528.216792
398.742092	2524.990453
399.124656	2530.293747
399.507158	2528.877183
399.889598	2527.954652
400.271977	2529.469518
400.654294	2533.068902
401.036549	2528.572193
401.418742	2531.357431
401.800874	2530.742410
402.182944	2533.000847
402.564952	2531.785929
402.946898	2533.683923
403.328783	2531.085208
403.710606	2532.070754
404.092367	2531.480939
404.474067	2533.600744
404.855705	2534.273738
405.237282	2536.325488
405.618797	2534.611495
406.000250	2532.905065
406.381642	2535.251722
406.762972	2535.140817
407.144240	2536.910262
407.525447	2539.166178
407.906593	2535.176105
408.287677	2536.138965
408.668700	2535.496218
409.049661	2538.657021
409.430560	2535.738193
409.811399	2538.757844
410.192176	2539.826569
410.572891	2537.855478
410.953545	2539.007382
411.334138	2537.512679
411.714669	2542.097609
412.095139	2539.277083
412.475547	2538.241126
412.855894	2543.675490
413.236180	2541.270860
413.616405	2543.302445
413.996568	2541.298586
414.376670	2542.614327
414.756711	2542.994934
415.136691	2539.088040
415.516609	2542.629451
415.896466	2546.627086
416.276262	2547.234545
416.655997	2542.238761
417.035670	2543.604914
417.415283	2545.452497
417.794834	2545.800336
418.174324	2548.661191
418.553753	2551.927859
418.933121	2557.095042
419.312428	2556.759805
419.691674	2559.540001
420.070859	2565.788511
420.449983	2568.808162
420.829045	2574.166909
421.208047	2580.223855
421.586988	2587.677201
421.965867	2595.236412
422.344686	2606.450458
422.723444	2607.493977
423.102141	2613.475306
423.480777	2630.889972
423.859352	2634.199490
424.237866	2654.598519
424.616319	2662.868532
424.994712	2681.104906
425.373044	2688.591019
425.751314	2710.610779
426.129524	2712.778475
426.507673	2739.937692
426.885762	2757.876637
427.263789	2777.043104
427.641756	2782.951337
428.019662	2811.900163
428.397508	2831.825323
428.775292	2853.020855
429.153016	2882.483878
429.530679	2898.116496
429.908282	2930.694953
430.285824	2940.063938
430.663305	3000.819924
431.040726	2997.717093
431.418086	3020.976977
431.795385	3069.160326
432.172624	3107.021912
432.549802	3132.101652
432.926920	3169.920388
433.303977	3207.537478
433.680974	3248.585073
434.057910	3290.540076
434.434786	3329.203206
434.811601	3359.094728
435.188355	3460.424440
435.565050	3466.151191
435.941683	3505.061337
436.318257	3611.888428
436.694770	3653.379645
437.071222	3709.102039
437.447614	3737.065319
437.823946	3746.106629
438.200218	3849.193184
438.576429	3853.352136
438.952580	3943.019139
439.328670	4011.336856
439.704700	4021.724154
440.080670	4060.541038
440.456580	4240.868153
440.832429	4238.397987
441.208218	4216.973083
441.583947	4340.816589
441.959616	4391.074372
442.335224	4408.872166
442.710773	4534.782545
443.086261	4602.081949
443.461689	4534.802710
443.837057	4676.083567
444.212365	4818.118077
444.587612	4800.940345
444.962800	4949.520793
445.337927	4986.830372
445.712995	4785.607675
446.088002	5211.489393
446.462949	5149.652080
446.837837	5152.974200
447.212664	5309.141585
447.587431	5474.002439
447.962139	5912.035858
448.336786	6638.738350
448.711374	6503.776579
449.085901	5864.651533
449.460369	5858.410584
449.834776	5851.163926
450.209124	6199.379107
450.583412	6371.184151
450.957640	6522.620412
451.331808	6376.540377
451.705917	6055.154216
452.079965	6018.631056
452.453954	6233.641309
452.827883	6165.517677
453.201752	6280.854235
453.575562	6131.202542
453.949311	6349.703794
454.323001	6272.798472
454.696632	6368.396392
455.070202	6519.378950
455.443713	6683.808786
455.817164	6803.901673
456.190556	6904.404637
456.563888	7001.686303
456.937160	7063.137969
457.310373	6766.536641
457.683526	6804.390665
458.056619	6722.156843
458.429653	6733.570015
458.802628	6680.912643
459.175542	6799.911600
459.548398	7156.744634
459.921194	7316.156001
460.293930	7332.060841
460.666607	7856.968465
461.039224	8166.727204
461.411782	8302.399778
461.784280	8328.790218
462.156719	8237.111794
462.529099	8134.778892
462.901419	7736.046308
463.273680	7642.570712
463.645882	7663.995616
464.018024	7541.767800
464.390106	7707.457924
464.762130	8098.041483
465.134094	8560.937873
465.505999	9574.247605
465.877845	10777.447520
466.249631	11425.802919
466.621358	11055.530169
466.993026	10441.610892
467.364634	10193.621410
467.736184	9841.285086
468.107674	9510.935754
468.479105	9544.325836
468.850477	9309.995361
469.221790	9090.785828
469.593043	8758.210826
469.964238	8627.581927
470.335373	8636.610633
470.706449	8700.862660
471.077467	8681.860030
471.448425	9990.863682
471.819324	11056.046887
472.190164	11070.825029
472.560945	9828.150359
472.931667	9051.918531
473.302330	8912.321420
473.672934	8569.205365
474.043479	8923.898429
474.413965	8857.299746
474.784393	8741.164164
475.154761	8901.251046
475.525070	8995.916353
475.895321	8819.652409
476.265513	8993.536929
476.635645	9167.423969
477.005719	9162.884410
477.375734	9279.786247
477.745691	9515.195529
478.115588	9644.949787
478.485427	9889.763342
478.855207	10423.140104
479.224928	11245.105280
479.594591	11859.150586
479.964194	11678.762978
480.333739	11612.023142
480.703226	11530.681604
481.072653	11617.623864
481.442022	11859.448014
481.811333	12046.338710
482.180584	11849.579955
482.549777	11556.222610
482.918912	11384.553677
483.287988	11411.148284
483.657005	11421.928792
484.025964	11105.987077
484.394864	11235.973229
484.763706	11197.675584
485.132489	10964.262599
485.501213	10931.220356
485.869879	11001.695687
486.238487	10849.384785
486.607036	10954.359252
486.975527	10740.931922
487.343959	10930.106261
487.712333	10976.336162
488.080648	10907.884855
488.448905	10948.007398
488.817104	10884.534230
489.185244	11153.845272
489.553326	11311.446864
489.921350	11849.864780
490.289315	12901.509966
490.657222	13240.020927
491.025070	13146.247903
491.392861	13019.493131
491.760593	12649.709373
492.128267	12291.984055
492.495883	11974.565282
492.863440	11632.071811
493.230939	11301.558641
493.598380	11233.248486
493.965763	11104.068918
494.333088	11003.936480
494.700354	10926.393451
495.067563	10995.008596
495.434713	10814.215175
495.801805	10943.999681
496.168839	10865.360202
496.535815	10808.833743
496.902733	10811.553446
497.269593	10745.786553
497.636395	10842.062509
498.003139	10825.131794
498.369825	10702.009173
498.736453	10856.780158
499.103023	10785.422625
499.469535	10815.372120
499.835989	10799.000973
500.202385	10767.909657
500.568723	10608.732703
500.935003	10835.400624
501.301226	10642.949535
501.667390	10906.390153
502.033497	11002.698876
502.399546	10854.715805
502.765537	10765.258010
503.131470	10838.959679
503.497345	11009.166677
503.863163	10629.840014
504.228923	10933.748495
504.594625	11003.560914
504.960269	10747.054403
505.325856	10968.444236
505.691385	10766.465366
506.056856	10916.994220
506.422270	10942.999012
506.787625	10830.155304
507.152924	10945.675865
507.518164	10928.281363
507.883347	10849.901503
508.248472	10768.534760
508.613540	10999.351550
508.978550	10886.883408
509.343503	10859.220076
509.708398	10968.056067
510.073236	11089.376476
510.438016	11102.705286
510.802738	11045.853674
511.167403	11103.158990
511.532010	10996.117650
511.896561	11224.171888
512.261053	11289.356528
512.625488	11164.351036
512.989866	11147.445527
513.354186	11135.659309
513.718449	11039.804289
514.082655	11233.074566
514.446803	11132.211160
514.810894	11251.512586
515.174927	11118.383275
515.538904	11142.742130
515.902822	11291.574636
516.266684	11179.484580
516.630488	11116.807914
516.994235	11175.880155
517.357925	11235.320400
517.721558	11322.854995
518.085133	11338.694301
518.448651	11346.218223
518.812112	11227.710778
519.175516	11245.982440
519.538863	11369.730164
519.902152	11283.773450
520.265385	11441.122985
520.628560	11353.812721
520.991678	11334.263127
521.354739	11390.726570
521.717743	11334.999135
522.080690	11312.409725
522.443580	11446.448964
522.806413	11400.236707
523.169189	11434.420771
523.531908	11483.919861
523.894569	11309.032152
524.257174	11314.595065
524.619722	11433.520925
524.982213	11381.846578
525.344647	11427.252250
525.707025	11378.494210
526.069345	11478.233439
526.431608	11392.551468
526.793815	11502.675474
527.155964	11292.532455
527.518057	11345.444406
527.880093	11294.201077
528.242072	11354.127793
528.603995	11264.309555
528.965860	11185.228975
529.327669	11238.047664
529.689421	11182.282420
530.051117	11163.589822
530.412755	11263.129925
530.774337	11150.387040
531.135862	11130.792075
531.497331	11153.603296
531.858743	11007.213230
532.220098	11177.188334
532.581396	11045.508355
532.942638	11028.416323
533.303824	10997.037661
533.664953	11007.094762
534.026025	10925.239027
534.387040	11015.205979
534.747999	11017.469457
535.108902	11074.880638
535.469748	10840.151912
535.830537	10941.564804
536.191270	10913.314178
536.551947	10945.880031
536.912567	10937.501634
537.273131	10859.434325
537.633638	10850.294713
537.994089	10831.697897
538.354483	10780.182346
538.714821	10927.205077
539.075103	10934.933166
539.435328	10903.483928
539.795497	10732.772814
540.155609	10882.583304
540.515665	10971.519340
540.875665	10709.412107
541.235609	10777.467684
541.595496	10774.387539
541.955328	10929.035016
542.315102	10811.692078
542.674821	10766.568710
543.034483	10765.535273
543.394090	10771.191448
543.753640	10698.745026
544.113134	10920.008830
544.472571	10767.541652
544.831953	10914.108159
545.191278	10724.858203
545.550548	10744.236398
545.909761	10882.414425
546.268918	10860.213183
546.628019	10942.406676
546.987064	10806.673609
547.346053	10729.949768
547.704986	10826.840745
548.063863	10820.682976
548.422684	10806.313167
548.781449	10725.069931
549.140158	10824.236989
549.498811	10697.668739
549.857408	10555.167923
550.215949	10782.292068
550.574434	10642.778136
550.932864	10740.253887
551.291237	10793.125508
551.649555	10749.237223
552.007817	10760.446228
552.366022	10717.760258
552.724173	10716.893180
553.082267	10701.474811
553.440305	10831.009779
553.798288	10637.343772
554.156215	10791.532503
554.514086	10764.746333
554.871902	10614.439289
555.229661	10649.281224
555.587365	10632.169028
555.945014	10527.512153
556.302606	10649.215689
556.660143	10547.636439
557.017625	10699.849038
557.375050	10599.235169
557.732421	10733.402958
558.089735	10636.212033
558.446994	10641.802672
558.804197	10676.130410
559.161345	10683.671976
559.518437	10527.033243
559.875474	10620.493715
560.232455	10652.875567
560.589381	10599.721641
560.946251	10599.232649
561.303065	10704.471777
561.659825	10637.293360
562.016528	10570.913967
562.373177	10443.075347
562.729770	10562.192771
563.086307	10480.140430
563.442789	10572.973278
563.799216	10447.002406
564.155587	10497.930662
564.511904	10446.241191
564.868164	10439.901940
565.224370	10461.581422
565.580520	10383.627540
565.936615	10386.604341
566.292654	10260.144477
566.648638	10389.898735
567.004567	10338.234470
567.360441	10329.336834
567.716260	10238.631353
568.072023	10340.944090
568.427732	10282.290265
568.783385	10196.134426
569.138982	10269.324418
569.494525	10274.158884
569.850013	10161.390793
570.205445	10242.447506
570.560823	10135.640579
570.916145	10052.743846
571.271412	10127.872161
571.626625	10070.738244
571.981782	10046.117249
572.336884	10010.650211
572.691931	10020.016675
573.046923	9969.489190
573.401860	9930.203478
573.756743	9865.898519
574.111570	9903.369416
574.466342	9890.960616
574.821059	9917.729143
575.175722	9809.644284
575.530330	9815.139141
575.884882	9812.159819
576.239380	9740.358665
576.593823	9713.713647
576.948211	9731.357685
577.302544	9614.458368
577.656823	9624.858269
578.011047	9632.609043
578.365216	9600.411193
578.719330	9530.855873
579.073389	9538.926760
579.427394	9480.724119
579.781344	9474.301689
580.135239	9413.679293
580.489080	9420.971322
580.842866	9320.793513
581.196597	9329.431530
581.550273	9363.802117
581.903895	9340.461575
582.257463	9403.725535
582.610975	9280.373541
582.964434	9309.886977
583.317837	9231.091221
583.671186	9213.225372
584.024481	9207.057520
584.377721	9127.319069
584.730906	9099.018032
585.084037	9135.576479
585.437113	9069.872601
585.790135	9090.004449
586.143103	8990.492072
586.496016	8964.406621
586.848874	9026.737968
587.201679	9013.734312
587.554428	8892.577741
587.907124	8943.879043
588.259765	8908.475019
588.612352	8912.518025
588.964884	8793.355230
589.317362	8795.787587
589.669786	8806.439545
590.022155	8855.716824
590.374470	8866.847691
590.726731	8811.765524
591.078937	8659.169797
591.431090	8774.919730
591.783188	8649.566399
592.135232	8638.178432
592.487222	8635.945201
592.839157	8690.341772
593.191038	8629.207699
593.542866	8569.911127
593.894639	8469.183832
594.246358	8518.955144
594.598022	8539.714615
594.949633	8431.286958
595.301190	8413.320286
595.652692	8436.343235
596.004141	8550.543014
596.355535	8325.800814
596.706876	8312.328330
597.058162	8248.756859
597.409395	8320.275709
597.760573	8383.738795
598.111698	8294.568345
598.462768	8276.916745
598.813785	8244.461796
599.164748	8211.835449
599.515657	8198.418418
599.866511	8111.070345
600.217312	8235.949808
600.568060	8093.207016
600.918753	8199.247687
601.269392	8171.483533
601.619978	8077.881909
601.970510	8143.169892
602.320988	8137.133110
602.671412	8197.997481
603.021783	8132.296123
603.372100	8104.957946
603.722363	8108.557330
604.072572	8087.407169
604.422728	8098.631298
604.772830	8021.980554
605.122878	8033.461782
605.472872	8028.201337
605.822813	8052.469452
606.172701	7998.592120
606.522534	8080.762928
606.872314	8071.393944
607.222041	8049.464924
607.571714	8097.028211
607.921333	8054.541366
608.270899	8064.033859
608.620411	8155.374526
608.969870	8057.281233
609.319276	8051.468783
609.668627	8067.570228
610.017926	8104.965508
610.367171	8152.110378
610.716362	8122.085266
611.065500	8119.980584
611.414585	8146.081158
611.763616	8130.173797
612.112594	8113.490099
612.461518	8131.275290
612.810389	8189.596398
613.159207	8129.253787
613.507971	8084.024555
613.856682	8193.276441
614.205340	8149.577199
614.553945	8234.281186
614.902496	8133.657235
615.250994	8180.605501
615.599439	8163.886514
615.947830	8178.909152
616.296169	8151.681880
616.644454	8167.317019
616.992686	8165.300557
617.340864	8222.094197
617.688990	8123.224567
618.037063	8212.977270
618.385082	8163.649580
618.733048	8250.934638
619.080961	8186.884258
619.428821	8206.945529
619.776628	8205.407978
620.124382	8163.851226
620.472083	8143.895818
620.819731	8176.559975
621.167326	8064.399343
621.514868	8077.420643
621.862357	7962.994012
622.209793	7980.635530
622.557176	7911.155827
622.904506	7879.378914
623.251783	7815.320972
623.599007	7771.329343
623.946179	7773.925538
624.293297	7733.616471
624.640363	7655.019842
624.987376	7634.159547
625.334336	7580.456135
625.681243	7533.951491
626.028097	7522.805500
626.374899	7500.064855
626.721647	7489.985068
627.068343	7422.773884
627.414987	7395.539050
627.761577	7349.901485
628.108115	7388.047896
628.454600	7285.296577
628.801032	7331.445820
629.147412	7287.504603
629.493739	7280.199971
629.840014	7217.682102
630.186236	7275.012624
630.532405	7159.923081
630.878521	7205.996707
631.224585	7163.807290
631.570597	7095.713905
631.916556	7123.349510
632.262462	7116.964889
632.608316	7080.431647
632.954117	7060.408184
633.299866	7043.232973
633.645562	7037.677621
633.991206	6958.163502
634.336797	6902.315079
634.682336	6858.721701
635.027823	6825.951680
635.373257	6814.228477
635.718639	6745.888075
636.063968	6759.559684
636.409245	6655.588407
636.754470	6658.308109
637.099642	6611.357323
637.444762	6558.944446
637.789829	6563.915024
638.134845	6509.248752
638.479808	6491.856771
638.824719	6501.165261
639.169577	6426.815804
639.514383	6444.684174
639.859137	6373.878647
640.203839	6385.753085
640.548489	6364.852461
640.893086	6345.980902
641.237632	6318.042827
641.582125	6339.936558
641.926566	6311.280119
642.270955	6321.112890
642.615292	6320.727242
642.959576	6334.378686
643.303809	6321.861501
643.647990	6329.662687
643.992118	6320.976779
644.336195	6267.137256
644.680219	6290.908817
645.024192	6278.066477
645.368112	6379.023145
645.711981	6399.830507
646.055797	6473.683411
646.399562	6436.396517
646.743274	6555.017387
647.086935	6610.034020
647.430544	6603.364573
647.774101	6626.422811
648.117606	6628.335929
648.461059	6621.187573
648.804460	6587.197593
649.147810	6493.220403
649.491108	6467.928934
649.834354	6442.060253
650.177548	6358.898859
650.520690	6273.423575
650.863781	6249.601602
651.206820	6272.569099
651.549807	6187.907961
651.892742	6133.776051
652.235626	6142.043544
652.578458	6121.805832
652.921238	6035.660074
653.263967	6082.089101
653.606644	6013.078225
653.949269	6017.055696
654.291843	5955.150327
654.634365	6005.186299
654.976836	5958.754752
655.319255	5959.578980
655.661622	5939.757163
656.003938	5937.065187
656.346203	5894.948867
656.688416	5928.691831
657.030577	5880.684923
657.372687	5847.483883
657.714746	5836.284960
658.056753	5883.225664
658.398708	5817.993133
658.740612	5809.259334
659.082465	5857.309092
659.424266	5850.768195
659.766016	5848.620663
660.107715	5824.380275
660.449362	5843.377863
660.790958	5831.742880
661.132503	5820.697712
661.473996	5856.563001
661.815438	5839.261761
662.156829	5843.133368
662.498168	5831.485782
662.839456	5806.801772
663.180693	5844.108831
663.521879	5845.164953
663.863013	5832.345298
664.204097	5849.754923
664.545129	5892.438373
664.886110	5891.029370
665.227040	5924.003558
665.567918	5890.679010
665.908746	5916.151960
666.249522	5922.886942
666.590248	5908.600312
666.930922	5935.441936
667.271545	5949.232012
667.612118	5951.823165
667.952639	5927.055976
668.293109	5945.370488
668.633528	5905.300877
668.973896	5911.733389
669.314213	5898.969188
669.654480	5882.101487
669.994695	5874.358274
670.334859	5863.638261
670.674973	5856.830183
671.015035	5860.530389
671.355047	5856.187435
671.695008	5847.002453
672.034918	5815.341486
672.374777	5826.560574
672.714585	5812.644469
673.054342	5823.142672
673.394049	5811.817720
673.733705	5844.902813
674.073310	5829.504608
674.412864	5791.290141
674.752368	5781.719511
675.091820	5787.557167
675.431223	5725.724894
675.770574	5723.100974
676.109875	5674.587430
676.449125	5677.687739
676.788324	5641.643489
677.127473	5587.453606
677.466571	5580.884983
677.805619	5573.149332
678.144616	5559.621396
678.483562	5536.104413
678.822458	5505.040823
679.161303	5499.518239
679.500098	5487.180015
679.838842	5471.068487
680.177535	5481.022246
680.516179	5492.248895
680.854771	5503.258775
681.193314	5584.741465
681.531805	5693.796747
681.870247	5843.680333
682.208638	5942.731444
682.546978	5958.563188
682.885268	5934.874806
683.223508	5848.484552
683.561697	5797.883971
683.899836	5765.678559
684.237925	5724.721705
684.575963	5686.887845
684.913951	5643.861597
685.251889	5706.949117
685.589776	5672.800341
685.927614	5645.739427
686.265401	5716.933122
686.603137	5703.579106
686.940824	5775.125682
687.278460	5798.672911
687.616046	5809.314787
687.953582	5873.531525
688.291068	5855.983269
688.628504	5926.750986
688.965889	5884.753134
689.303224	5826.210214
689.640510	5782.211023
689.977745	5709.489858
690.314930	5609.488490
690.652065	5554.255087
690.989150	5464.391479
691.326185	5384.547164
691.663170	5333.881047
692.000105	5252.070682
692.336990	5177.000339
692.673825	5155.938399
693.010610	5083.250001
693.347345	5015.829610
693.684030	5002.722610
694.020665	4964.006548
694.357251	4875.516654
694.693786	4883.509404
695.030272	4848.599413
695.366707	4815.468950
695.703093	4778.502169
696.039429	4800.022855
696.375716	4783.046769
696.711952	4762.100775
697.048139	4748.630812
697.384276	4724.929827
697.720363	4739.897013
698.056400	4748.948405
698.392388	4700.707083
698.728326	4675.992826
699.064214	4656.513808
699.400053	4648.324453
699.735842	4617.023929
700.071581	4587.313889
700.407270	4567.202206
700.742910	4552.494639
701.078501	4495.963140
701.414042	4492.787213
701.749533	4467.825940
702.084974	4399.959406
702.420366	4456.208601
702.755709	4395.823139
703.091002	4340.483873
703.426246	4387.018764
703.761440	4344.574769
704.096584	4306.130930
704.431679	4327.964168
704.766725	4313.768278
705.101721	4298.695228
705.436668	4333.733768
705.771565	4279.606899
706.106413	4308.273421
706.441212	4342.021425
706.775961	4346.129965
707.110661	4323.674146
707.445311	4352.154144
707.779913	4376.422259
708.114465	4389.153693
708.448967	4410.172784
708.783421	4474.606292
709.117825	4515.802601
709.452180	4521.310062
709.786485	4565.042071
710.120742	4646.819669
710.454949	4631.101351
710.789107	4701.939645
711.123216	4774.446561
711.457275	4763.116567
711.791286	4842.484494
712.125247	4855.846072
712.459159	4759.575157
712.793023	4832.457639
713.126837	4795.778203
713.460602	4787.508190
713.794318	4711.507755
714.127985	4718.520000
714.461602	4632.200323
714.795171	4597.744036
715.128691	4533.499572
715.462162	4476.973113
715.795584	4429.162810
716.128957	4412.922733
716.462281	4361.460114
716.795556	4336.592102
717.128782	4299.693377
717.461960	4229.560844
717.795088	4238.440837
718.128167	4200.072615
718.461198	4139.452740
718.794180	4131.122233
719.127113	4115.071199
719.459997	4093.991615
719.792833	4049.904204
720.125619	4037.641597
720.458357	4005.970548
720.791046	4012.148482
721.123686	3983.991117
721.456278	3942.164664
721.788821	3959.670070
722.121315	3930.970782
722.453761	3905.341555
722.786158	3917.122732
723.118506	3942.197431
723.450805	3893.552817
723.783056	3918.927465
724.115259	3933.531688
724.447412	3935.991771
724.779518	3931.613529
725.111574	3936.087553
725.443582	3963.271975
725.775542	3950.406950
726.107453	3999.754805
726.439315	4001.494003
726.771129	4017.678628
727.102895	4049.437897
727.434612	4098.163169
727.766281	4109.173049
728.097901	4105.790435
728.429473	4118.171509
728.760996	4120.452631
729.092471	4117.685038
729.423897	4099.856997
729.755276	4108.331177
730.086606	4108.106845
730.417887	4146.338956
730.749120	4216.136252
731.080305	4273.698667
731.411442	4302.624808
731.742530	4270.757154
732.073570	4272.476187
732.404562	4328.062470
732.735506	4321.380421
733.066401	4282.450110
733.397249	4220.728743
733.728048	4140.521465
734.058798	4057.339906
734.389501	3987.575377
734.720156	3929.080349
735.050762	3883.571333
735.381320	3873.675547
735.711831	3824.264678
736.042293	3794.902478
736.372707	3817.648164
736.703073	3786.773617
737.033391	3779.990744
737.363661	3800.621667
737.693883	3822.865758
738.024056	3832.925380
738.354182	3828.302642
738.684260	3890.187847
739.014290	3913.750200
739.344272	3904.073705
739.674207	3947.470478
740.004093	3952.607414
740.333931	3944.952422
740.663722	3951.364769
740.993464	3944.256742
741.323159	3920.754883
741.652806	3894.472828
741.982405	3867.427037
742.311956	3834.583920
742.641460	3828.247190
742.970915	3807.054179
743.300323	3760.670522
743.629683	3728.371850
743.958996	3711.801577
744.288260	3689.413813
744.617477	3658.836694
744.946647	3645.064262
745.275768	3618.184829
745.604842	3617.310189
745.933869	3567.647262
746.262847	3560.113258
746.591778	3596.568362
746.920662	3568.098445
747.249498	3538.900082
747.578286	3583.282401
747.907027	3601.962396
748.235720	3602.970627
748.564365	3623.440232
748.892963	3624.844194
749.221514	3606.635546
749.550017	3582.518666
749.878473	3583.282401
750.206881	3556.488668
750.535242	3549.738563
750.863555	3550.892987
751.191821	3546.068603
751.520039	3527.285264
751.848210	3504.002695
752.176334	3539.452089
752.504411	3547.260836
752.832440	3506.855988
753.160421	3485.337823
753.488356	3497.353413
753.816243	3510.747759
754.144082	3467.303095
754.471875	3450.054787
754.799620	3469.692602
755.127318	3460.472331
755.454969	3462.675316
755.782572	3468.470122
756.110129	3443.420628
756.437638	3436.226902
756.765100	3449.124694
757.092515	3459.161631
757.419882	3461.888896
757.747203	3432.251952
758.074477	3438.132458
758.401703	3452.933286
758.728882	3474.983293
759.056014	3483.772544
759.383099	3486.882936
759.710138	3480.894046
760.037129	3501.736696
760.364073	3531.209802
760.690970	3518.246475
761.017820	3489.209429
761.344623	3512.789426
761.671379	3555.205694
761.998088	3608.765433
762.324751	3737.556832
762.651366	3980.865602
762.977935	4450.358342
763.304456	4897.836363
763.630931	4989.842462
763.957359	4628.079179
764.283740	4287.730719
764.610074	4095.940021
764.936362	3901.006163
765.262602	3742.676124
765.588796	3632.300060
765.914943	3541.644991
766.241044	3454.856486
766.567097	3424.866662
766.893104	3379.471071
767.219064	3347.711802
767.544978	3320.411433
767.870845	3263.781632
768.196665	3246.145155
768.522438	3255.546907
768.848165	3250.951895
769.173846	3216.684652
769.499479	3199.214533
769.825066	3182.460258
770.150607	3165.070798
770.476101	3177.053621
770.801548	3175.689989
771.126949	3127.088225
771.452303	3112.347891
771.777611	3122.924232
772.102872	3124.328193
772.428087	3100.425562
772.753256	3090.625559
773.078378	3082.325299
773.403453	3050.210628
773.728482	3035.278731
774.053465	3058.352092
774.378401	3047.301883
774.703291	3014.763755
775.028135	3014.942716
775.352932	3010.750997
775.677683	3000.288082
776.002388	2995.614932
776.327046	2994.566372
776.651658	2986.140084
776.976224	2973.224648
777.300743	2973.038125
777.625216	2965.186528
777.949643	2959.505147
778.274024	2961.584623
778.598359	2951.063735
778.922647	2954.443829
779.246889	2955.968778
779.571086	2940.258022
779.895236	2934.057403
780.219339	2948.192798
780.543397	2960.629325
780.867409	2960.841053
781.191374	2954.108592
781.515294	2949.090123
781.839167	2951.139353
782.162995	2941.034360
782.486776	2952.364353
782.810511	2951.250258
783.134201	2935.771395
783.457844	2943.118877
783.781441	2932.663524
784.104993	2913.381110
784.428498	2915.624424
784.751958	2929.008687
785.075372	2920.045516
785.398739	2907.172929
785.722061	2923.594488
786.045337	2935.358020
786.368568	2919.740526
786.691752	2910.719381
787.014891	2959.575723
787.337983	2987.717965
787.661030	3013.410205
787.984031	3083.840166
788.306987	3128.194758
788.629897	3121.179992
788.952760	3104.823969
789.275579	3091.051536
789.598351	3030.461908
789.921078	2986.319045
790.243759	2978.848055
790.566395	2959.691670
790.888984	2937.505552
791.211529	2919.954775
791.534027	2909.179308
791.856480	2901.168915
792.178888	2887.552758
792.501249	2879.615462
792.823566	2876.810060
793.145836	2870.001981
793.468062	2864.802031
793.790241	2866.379912
794.112375	2870.493494
794.434464	2882.574619
794.756507	2888.669374
795.078505	2894.983419
795.400457	2908.055131
795.722364	2947.108950
796.044226	2967.235757
796.366042	2972.274390
796.687812	2958.469190
797.009538	2982.066831
797.331218	2968.128041
797.652852	2953.453242
797.974442	2933.205448
798.295986	2930.460539
798.617484	2924.771597
798.938938	2914.296080
799.260346	2898.005591
799.581709	2890.862276
799.903026	2884.709548
800.224299	2876.242930
800.545526	2870.627084
800.866708	2853.504805
801.187845	2844.100533
801.508936	2846.626151
801.829983	2851.606811
802.150984	2840.649863
802.471940	2827.152174
802.792851	2825.957420
803.113717	2823.729230
803.434538	2834.025787
803.755314	2824.409786
804.076045	2819.250165
804.396731	2816.671615
804.717372	2819.376194
805.037967	2812.447128
805.358518	2819.527428
805.679024	2830.131496
805.999485	2828.046978
806.319901	2830.396156
806.640272	2822.090855
806.960598	2829.952535
807.280879	2839.187928
807.601115	2844.990297
807.921306	2831.061588
808.241453	2829.145950
808.561554	2834.459326
808.881611	2834.708863
809.201623	2831.265755
809.521590	2828.757781
809.841513	2824.452636
810.161390	2831.114521
810.481223	2822.665547
810.801011	2813.034422
811.120755	2810.092909
811.440453	2812.159782
811.760107	2812.729432
812.079716	2811.499391
812.399281	2802.838689
812.718801	2795.886937
813.038276	2788.819240
813.357707	2796.564973
813.677093	2802.175777
813.996434	2796.065898
814.315731	2794.503141
814.634983	2786.364198
814.954191	2791.659930
815.273354	2804.877835
815.592473	2812.414360
815.911547	2813.752787
816.230577	2819.721513
816.549562	2828.878769
816.868502	2833.337669
817.187399	2837.373113
817.506250	2857.021010
817.825058	2849.245030
818.143821	2861.177442
818.462539	2878.100595
818.781213	2903.490366
819.099843	2940.973866
819.418429	2998.574090
819.736970	3058.180693
820.055466	3131.539563
820.373919	3237.698702
820.692327	3376.113663
821.010691	3543.172460
821.329011	3989.296932
821.647286	4885.964446
821.965517	6263.689107
822.283704	7013.822881
822.601847	6992.173646
822.919945	6357.779722
823.237999	5853.558474
823.556010	5269.175317
823.873976	4717.552098
824.191897	4306.740910
824.509775	4010.058924
824.827609	3743.502873
825.145398	3617.748770
825.463144	3605.844085
825.780845	3698.878579
826.098502	3800.798107
826.416116	4083.969801
826.733685	4400.672729
827.051210	4463.457780
827.368692	4347.675079
827.686129	4081.481991
828.003522	3758.964092
828.320872	3499.107734
828.638177	3304.320070
828.955439	3168.377795
829.272656	3085.876792
829.589830	3018.279960
829.906960	2969.509317
830.224046	2925.081628
830.541088	2888.266082
830.858086	2874.564226
831.175041	2856.101000
831.491952	2857.883047
831.808819	2871.342928
832.125642	2895.137174
832.442421	2937.959256
832.759157	3019.383973
833.075849	3200.013556
833.392497	3480.415136
833.709101	3686.116898
834.025662	3634.278713
834.342179	3474.118735
834.658653	3297.978299
834.975083	3149.357522
835.291469	3053.386555
835.607811	2965.995633
835.924110	2907.067065
836.240366	2857.530167
836.556578	2815.171872
836.872746	2793.076494
837.188871	2771.346601
837.504952	2754.327665
837.820990	2744.958681
838.136984	2732.716239
838.452935	2722.016390
838.768842	2723.019579
839.084706	2740.530027
839.400526	2818.148673
839.716303	2952.656740
840.032037	3031.873431
840.347727	3018.433715
840.663373	2957.463480
840.978977	2883.666029
841.294537	2807.968063
841.610054	2764.286465
841.925527	2737.666652
842.240957	2718.011193
842.556344	2695.033614
842.871687	2681.634227
843.186987	2672.575273
843.502244	2667.735766
843.817458	2663.165960
844.132629	2649.625420
844.447756	2641.355407
844.762840	2632.863584
845.077881	2638.791981
845.392879	2635.769809
845.707833	2629.798562
846.022745	2625.039713
846.337613	2626.448716
846.652438	2625.732872
846.967221	2625.170783
847.281960	2623.214815
847.596656	2623.595422
847.911309	2622.440998
848.225919	2618.392952
848.540485	2615.743825
848.855009	2615.635441
849.169490	2614.692745
849.483928	2615.816922
849.798323	2613.298866
850.112675	2615.259875
850.426984	2615.123763
850.741251	2611.607559
851.055474	2611.698299
851.369654	2616.918414
851.683792	2615.940430
851.997887	2611.796602
852.311938	2611.015223
852.625947	2613.293825
852.939914	2615.920266
853.253837	2619.590226
853.567718	2613.871037
853.881555	2610.148145
854.195350	2614.813732
854.509103	2613.606376
854.822812	2612.020933
855.136479	2610.468258
855.450103	2615.932869
855.763685	2613.293825
856.077224	2612.754421
856.390720	2608.582866
856.704173	2614.707868
857.017584	2616.361367
857.330953	2618.957561
857.644278	2623.131636
857.957561	2620.984105
858.270802	2614.523866
858.584000	2615.766511
858.897155	2621.069804
859.210268	2618.899588
859.523339	2615.708537
859.836367	2609.079420
860.149352	2612.890532
860.462295	2612.278032
860.775195	2609.659153
861.088054	2610.327106
861.400869	2607.584718
861.713642	2603.385437
862.026373	2607.894749
862.339062	2612.172168
862.651708	2613.397168
862.964312	2617.576285
863.276873	2612.774586
863.589392	2618.554269
863.901869	2622.546862
864.214303	2626.219343
864.526696	2628.210599
864.839045	2633.433234
865.151353	2635.185035
865.463619	2633.050107
865.775842	2632.707308
866.088023	2636.503297
866.400162	2635.603451
866.712258	2635.043883
867.024313	2632.157822
867.336325	2627.104066
867.648296	2626.809158
867.960224	2633.466002
868.272110	2632.979530
868.583954	2627.981226
868.895755	2628.606329
869.207515	2635.202679
869.519233	2638.176960
869.830909	2637.216620
870.142542	2635.905920
870.454134	2634.738893
870.765684	2638.625623
871.077191	2640.475726
871.388657	2648.251706
871.700081	2643.074441
872.011463	2644.052425
872.322803	2644.130563
872.634101	2647.916469
872.945357	2655.420227
873.256571	2664.625374
873.567744	2656.922491
873.878874	2655.573982
874.189963	2655.715134
874.501010	2663.556649
874.812015	2667.120745
875.122979	2666.914057
875.433900	2657.255207
875.744780	2656.985505
876.055618	2663.312153
876.366415	2667.292144
876.677169	2666.780467
876.987882	2661.373829
877.298554	2658.845691
877.609183	2669.041424
877.919771	2677.445028
878.230317	2685.268899
878.540822	2696.566124
878.851285	2709.637836
879.161707	2731.667679
879.472087	2769.718308
879.782425	2820.288643
880.092722	2935.783998
880.402977	3121.076649
880.713191	3383.483830
881.023363	3675.427131
881.333494	3866.353272
881.643583	4039.892472
881.953631	4039.484139
882.263637	3860.354298
882.573602	3639.312305
882.883526	3507.042511
883.193408	3398.161149
883.503248	3293.022845
883.813048	3177.724094
884.122806	3064.217474
884.432522	2979.400061
884.742197	2914.013775
885.051831	2874.811242
885.361424	2842.172292
885.670975	2805.623926
885.980485	2774.182250
886.289954	2754.128540
886.599382	2741.165212
886.908768	2730.551063
887.218113	2710.134390
887.527417	2700.195755
887.836680	2688.401976
888.145901	2685.838549
888.455082	2673.631395
888.764221	2667.314829
889.073319	2655.402583
889.382376	2655.508447
889.691392	2657.177069
890.000366	2657.746719
890.309300	2658.228149
890.618193	2658.139929
890.927044	2661.368788
891.235855	2660.355516
891.544625	2663.622184
891.853353	2662.434992
892.162041	2668.663338
892.470687	2689.395083
892.779293	2703.472505
893.087858	2708.576673
893.396381	2733.275807
893.704864	2774.076385
894.013306	2844.692868
894.321707	2938.528906
894.630068	2986.434991
894.938387	3008.185049
895.246665	2999.050479
895.554903	2955.840228
895.863100	2912.100657
896.171256	2855.591843
896.479371	2794.563635
896.787446	2755.469487
897.095480	2734.641959
897.403473	2729.638614
897.711425	2713.917776
898.019336	2696.825744
898.327207	2682.713034
898.635038	2684.225380
898.942827	2679.806808
899.250576	2671.294820
899.558284	2659.251504
899.865952	2655.384939
900.173579	2653.378559
900.481165	2652.314876
900.788711	2643.565953
901.096216	2635.558081
901.403681	2632.793008
901.711105	2631.378964
902.018489	2629.659931
902.325832	2636.432721
902.633135	2638.171919
902.940397	2651.977119
903.247619	2688.396935
903.554800	2755.492172
903.861941	2885.538818
904.169041	3013.677387
904.476101	3072.323650
904.783121	3070.256777
905.090100	3011.925586
905.397039	2933.578493
905.703938	2863.203985
906.010796	2796.328038
906.317614	2746.889443
906.624391	2712.511294
906.931129	2684.858045
907.237826	2660.615136
907.544483	2642.519914
907.851099	2626.446195
908.157675	2618.876902
908.464211	2612.424226
908.770707	2600.171701
909.077163	2596.587441
909.383578	2591.785742
909.689954	2593.613160
909.996289	2588.047726
910.302584	2590.626276
910.608839	2585.572520
910.915054	2588.335072
911.221229	2588.607294
911.527363	2590.038982
911.833458	2590.797676
912.139513	2589.456729
912.445527	2592.420927
912.751502	2599.705394
913.057436	2605.439707
913.363331	2610.130501
913.669186	2618.466048
913.975000	2636.125210
914.280775	2649.333033
914.586510	2671.866991
914.892205	2706.048535
915.197859	2772.816097
915.503475	2856.569827
915.809050	2924.264961
916.114585	2938.569235
916.420081	2950.173972
916.725536	2959.767287
917.030952	2938.468412
917.336328	2888.934035
917.641665	2839.001406
917.946961	2789.651030
918.252218	2753.130391
918.557435	2730.235991
918.862612	2706.320757
919.167750	2691.766946
919.472848	2673.253308
919.777906	2656.756132
920.082925	2646.948568
920.387904	2635.981537
920.692843	2627.938377
920.997743	2624.402007
921.302603	2618.697942
921.607423	2611.748711
921.912204	2603.917278
922.216946	2603.902155
922.521647	2602.813266
922.826310	2596.526947
923.130932	2592.851946
923.435516	2585.333065
923.740059	2586.358940
924.044564	2583.384659
924.349028	2581.519432
924.653454	2572.150447
924.957840	2573.171281
925.262186	2567.794891
925.566493	2569.884449
925.870761	2566.544684
926.174989	2566.383367
926.479178	2566.340518
926.783328	2565.445713
927.087438	2563.817420
927.391509	2563.625856
927.695541	2558.811554
927.999533	2558.332645
928.303486	2556.013714
928.607400	2559.955896
928.911275	2557.069836
929.215110	2558.020093
929.518906	2555.779300
929.822663	2555.658313
930.126381	2557.047151
930.430060	2553.268806
930.733699	2555.723848
931.037299	2556.326266
931.340861	2557.712583
931.644383	2557.921791
931.947866	2559.396328
932.251309	2554.834084
932.554714	2556.462377
932.858080	2558.405742
933.161407	2556.631255
933.464694	2555.633107
933.767943	2556.994218
934.071153	2552.449618
934.374323	2553.546069
934.677455	2554.791234
934.980548	2555.239897
935.283602	2554.322407
935.586617	2554.037582
935.889593	2556.066646
936.192530	2552.600853
936.495428	2554.352654
936.798287	2553.364588
937.101108	2557.558828
937.403890	2559.298026
937.706632	2559.686195
938.009336	2566.388409
938.312002	2569.082905
938.614628	2570.630540
938.917216	2573.650191
939.219765	2576.732856
939.522275	2577.045408
939.824747	2579.676890
940.127179	2569.050138
940.429573	2567.414283
940.731929	2569.892011
941.034246	2565.594427
941.336524	2567.278172
941.638763	2568.228430
941.940964	2566.375806
942.243126	2565.682647
942.545250	2565.856567
942.847335	2560.228119
943.149381	2559.653427
943.451389	2559.509754
943.753359	2562.471432
944.055290	2559.852553
944.357182	2556.757284
944.659036	2558.151163
944.960851	2558.844322
945.262628	2558.259548
945.564367	2557.238714
945.866067	2556.628735
946.167729	2556.573282
946.469352	2556.966492
946.770937	2556.918601
947.072484	2555.948179
947.373992	2559.867676
947.675462	2555.620504
947.976893	2553.858621
948.278286	2555.310473
948.579641	2556.273333
948.880958	2554.839125
949.182236	2555.726368
949.483476	2553.316697
949.784678	2555.930535
950.085841	2553.223435
950.386967	2556.227963
950.688054	2555.660833
950.989103	2557.952038
951.290114	2556.863148
951.591087	2556.757284
951.892021	2558.541853
952.192917	2561.178376
952.493776	2560.470094
952.794596	2562.899930
953.095378	2562.791545
953.396122	2561.518654
953.696828	2561.243911
953.997496	2559.834909
954.298126	2556.744681
954.598718	2555.096224
954.899272	2556.384239
955.199788	2554.521532
955.500266	2551.093548
955.800706	2548.467107
956.101108	2543.148689
956.401472	2543.602393
956.701798	2544.358566
957.002087	2541.631302
957.302337	2543.345294
957.602550	2546.170861
957.902724	2543.030222
958.202861	2545.805377
958.502960	2542.884029
958.803022	2545.197918
959.103045	2545.079451
959.403031	2543.884698
959.702979	2544.587939
960.002889	2542.364790
960.302762	2544.358566
960.602596	2541.490150
960.902393	2542.001827
961.202153	2543.420912
961.501875	2539.130890
961.801559	2542.717671
962.101205	2540.383617
962.400814	2540.250026
962.700385	2539.506456
962.999918	2539.229192
963.299414	2538.407484
963.598873	2538.261291
963.898293	2537.842875
964.197677	2542.019471
964.497022	2538.551157
964.796331	2538.599048
965.095601	2539.289686
965.394835	2541.502753
965.694030	2536.426311
965.993189	2537.734490
966.292309	2538.720036
966.591393	2536.201979
966.890439	2539.577032
967.189447	2537.079140
967.488419	2536.512010
967.787353	2539.788760
968.086249	2536.229706
968.385108	2539.067875
968.683930	2539.282124
968.982714	2540.066024
969.281462	2539.859337
969.580172	2537.232895
969.878844	2538.949408
970.177480	2542.168185
970.476078	2538.533513
970.774639	2539.972763
971.073162	2539.766075
971.371649	2537.691640
971.670098	2537.729449
971.968510	2538.112577
972.266885	2534.374561
972.565223	2539.624923
972.863524	2542.208514
973.161788	2539.574511
973.460014	2539.871939
973.758204	2540.880170
974.056356	2540.436549
974.354471	2537.389171
974.652550	2541.505273
974.950591	2540.711292
975.248595	2538.263811
975.546563	2540.368493
975.844493	2536.844727
976.142386	2540.552495
976.440243	2535.581918
976.738062	2537.923533
977.035845	2538.951929
977.333590	2536.869932
977.631299	2538.157947
977.928971	2537.918492
978.226606	2538.205838
978.524204	2538.599048
978.821765	2537.575694
979.119290	2536.738862
979.416777	2539.786240
979.714228	2536.907741
980.011642	2537.696682
980.309020	2538.213400
980.606360	2538.115097
980.903664	2538.223482
981.200931	2536.194418
981.498162	2539.544264
981.795356	2541.469985
982.092513	2544.323278
982.389633	2548.015923
982.686717	2548.998948
982.983764	2551.799309
983.280775	2553.132695
983.577749	2551.900133
983.874686	2552.253013
984.171587	2550.685214
984.468451	2545.510470
984.765279	2543.635161
985.062070	2542.246323
985.358824	2542.798329
985.655543	2540.791950
985.952224	2539.473688
986.248869	2540.975952
986.545478	2534.959335
986.842050	2533.618388
987.138586	2530.530681
987.435086	2533.605785
987.731549	2532.673172
988.027975	2536.015457
988.324366	2537.006043
988.620719	2537.190046
988.917037	2535.274407
989.213318	2536.882535
989.509563	2538.533513
989.805772	2535.231557
990.101944	2533.570497
990.398080	2536.910262
990.694180	2534.649304
990.990244	2535.339942
991.286271	2534.624098
991.582262	2535.135775
991.878217	2532.796680
992.174136	2535.609644
992.470019	2533.648635
992.765865	2532.577390
993.061676	2534.913965
993.357450	2535.985210
993.653188	2534.062010
993.948890	2536.494366
994.244556	2531.543953
994.540186	2537.772299
994.835780	2534.987061
995.131337	2535.655014
995.426859	2534.692154
995.722345	2536.222144
996.017795	2538.435211
996.313208	2538.536034
996.608586	2539.405633
996.903928	2537.041332
997.199234	2540.239944
997.494504	2536.779192
997.789738	2538.404964
998.084936	2537.426980
998.380099	2537.406815
998.675225	2535.803728
998.970316	2533.764582
999.265371	2536.756506
999.560390	2533.835158
999.855373	2535.017308
1000.150320	2534.125024
1000.445232	2537.331198
1000.740108	2533.507483
1001.034948	2535.856660
1001.329752	2534.455220
1001.624521	2534.598892
1001.919254	2527.730320
1002.213951	2530.896165
1002.508613	2530.893644
1002.803239	2528.791483
1003.097829	2526.084384
1003.392384	2534.755168
1003.686903	2533.346166
1003.981386	2535.987730
1004.275834	2530.732327
1004.570246	2533.865405
1004.864623	2533.126876
1005.158964	2533.946063
1005.453270	2530.087060
1005.747540	2530.437420
1006.041775	2533.086546
1006.335974	2532.607637
1006.630138	2532.242153
1006.924266	2533.005888
1007.218359	2533.081505
1007.512416	2531.155784
1007.806438	2530.359282
1008.100425	2532.592513
1008.394376	2533.567977
1008.688292	2535.312216
1008.982172	2532.433717
1009.276017	2533.782226
1009.569827	2532.305167
1009.863602	2533.320960
1010.157341	2532.587472
1010.451045	2534.482946
1010.744714	2531.496062
1011.038347	2534.873635
1011.331945	2532.153933
1011.625508	2534.009077
1011.919036	2533.585621
1012.212528	2533.268028
1012.505986	2531.851464
1012.799408	2530.815507
1013.092795	2532.216947
1013.386147	2534.208203
1013.679464	2530.936494
1013.972745	2532.063192
1014.265992	2534.424973
1014.559204	2531.385157
1014.852380	2533.268028
1015.145521	2533.303316
1015.438628	2533.257946
1015.731699	2532.290044
1016.024736	2529.971113
1016.317737	2534.379602
1016.610703	2530.351720
1016.903635	2528.068078
1017.196531	2528.799045
1017.489393	2529.310722
1017.782219	2528.143695
1018.075011	2530.671834
1018.367768	2534.588810
1018.660490	2532.242153
1018.953177	2532.242153
1019.245829	2532.242153
