Dividing Wavelength (nm)	Counts (n)	Blue Motor Position (mm): 49.400000	Red Motor Position (mm): 0.000000	
326.493990	2130.497480
326.888308	2130.497480
327.282561	2130.497480
327.676750	2097.926585
328.070874	2094.090267
328.464933	2098.670155
328.858929	2106.138624
329.252859	2115.326127
329.646726	2123.719648
330.040528	2138.616258
330.434265	2153.676705
330.827938	2171.764365
331.221547	2189.849504
331.615091	2208.557226
332.008571	2229.233519
332.401986	2252.032137
332.795338	2268.516710
333.188625	2287.461366
333.581847	2305.975004
333.975006	2325.007880
334.368100	2340.358194
334.761129	2362.314939
335.154095	2375.842876
335.546996	2400.985630
335.939833	2421.251069
336.332606	2440.593976
336.725315	2451.051850
337.117960	2461.633232
337.510540	2469.787298
337.903056	2478.899184
338.295508	2488.177427
338.687896	2497.637153
339.080220	2505.808863
339.472480	2510.290449
339.864676	2516.281860
340.256807	2520.473579
340.648875	2524.841739
341.040879	2524.130937
341.432818	2531.460774
341.824694	2530.883562
342.216506	2530.444982
342.608253	2533.310878
342.999937	2528.178983
343.391557	2529.479601
343.783113	2529.973634
344.174605	2527.198479
344.566033	2524.937521
344.957397	2527.097656
345.348697	2521.144053
345.739934	2521.789321
346.131106	2520.057684
346.522215	2518.232787
346.913260	2517.489216
347.304241	2515.392096
347.695159	2512.969822
348.086012	2510.678617
348.476802	2511.333968
348.867528	2506.834738
349.258191	2507.437156
349.648789	2506.512104
350.039324	2504.125118
350.429796	2503.671414
350.820203	2501.992709
351.210548	2500.835765
351.600828	2501.886845
351.991045	2498.721001
352.381198	2500.593789
352.771288	2500.213182
353.161314	2499.746875
353.551276	2496.326453
353.941175	2497.438027
354.331010	2499.547750
354.720782	2498.232009
355.110490	2498.388284
355.500135	2496.228150
355.889717	2498.670589
356.279235	2497.992554
356.668689	2500.039262
357.058080	2499.338542
357.447408	2498.859632
357.836672	2496.742348
358.225873	2497.395177
358.615010	2495.862666
359.004084	2502.670745
359.393095	2503.348780
359.782043	2503.389109
360.170927	2503.835251
360.559748	2503.109325
360.948505	2505.075375
361.337199	2505.085457
361.725830	2505.037566
362.114398	2508.672238
362.502903	2508.279028
362.891344	2506.469254
363.279722	2506.401198
363.668037	2507.865654
364.056289	2507.366579
364.444478	2513.337826
364.832603	2510.078720
365.220665	2513.771365
365.608665	2510.708864
365.996601	2512.198525
366.384474	2512.919410
366.772284	2514.358660
367.160031	2516.697755
367.547715	2515.908815
367.935336	2515.203053
368.322893	2520.859228
368.710388	2521.469207
369.097820	2528.231915
369.485189	2529.950949
369.872495	2535.937319
370.259738	2541.081816
370.646918	2549.349309
371.034035	2551.169165
371.421090	2561.687533
371.808081	2572.604151
372.195010	2578.272929
372.581875	2594.339086
372.968678	2603.715632
373.355418	2613.717282
373.742096	2633.229067
374.128710	2645.000162
374.515262	2658.475166
374.901751	2674.579132
375.288177	2686.990453
375.674540	2712.022302
376.060841	2729.850343
376.447079	2744.643609
376.833254	2765.977772
377.219367	2778.371448
377.605417	2814.025009
377.991404	2827.293326
378.377329	2851.327027
378.763191	2866.768081
379.148991	2902.000705
379.534727	2927.945004
379.920402	2960.410034
380.306013	2971.493011
380.691563	3024.871269
381.077049	3043.324412
381.462474	3063.673030
381.847835	3102.885645
382.233134	3129.681898
382.618371	3127.509161
383.003545	3198.286961
383.388657	3203.534802
383.773706	3235.657034
384.158693	3257.018924
384.543618	3280.697223
384.928480	3316.900270
385.313280	3364.909698
385.698017	3367.193341
386.082692	3422.020930
386.467305	3421.869696
386.851856	3457.535859
387.236344	3482.063593
387.620770	3512.401257
388.005133	3537.526368
388.389435	3565.091397
388.773674	3574.551122
389.157851	3621.201960
389.541965	3637.815082
389.926018	3601.750668
390.310008	3669.781039
390.693936	3691.291642
391.077802	3730.075760
391.461606	3722.209039
391.845348	3785.079789
392.229027	3785.462917
392.612645	3797.523877
392.996200	3875.470198
393.379694	3917.591559
393.763125	3976.734376
394.146494	3948.705561
394.529801	4008.385261
394.913047	4055.835121
395.296230	4022.850852
395.679351	4077.202052
396.062410	4100.134261
396.445408	4082.389399
396.828343	4115.214872
397.211217	4140.992813
397.594028	4060.646902
397.976778	4126.587715
398.359466	4150.979338
398.742092	4182.143751
399.124656	4105.525775
399.507158	4181.367414
399.889598	4210.124676
400.271977	4271.820837
400.654294	4241.183225
401.036549	4249.470882
401.418742	4218.929051
401.800874	4323.938806
402.182944	4342.875901
402.564952	4407.367382
402.946898	4391.946492
403.328783	4387.250657
403.710606	4303.214623
404.092367	4497.157893
404.474067	4462.023572
404.855705	4469.499603
405.237282	4400.884458
405.618797	4506.252135
406.000250	4540.713463
406.381642	4622.435608
406.762972	4582.176953
407.144240	4595.828398
407.525447	4591.785392
407.906593	4652.556502
408.287677	4698.655333
408.668700	4627.262512
409.049661	4675.098021
409.430560	4716.085123
409.811399	4642.937980
410.192176	4807.183814
410.572891	4743.985389
410.953545	4847.139999
411.334138	4728.609869
411.714669	4793.590342
412.095139	4693.543603
412.475547	4834.927804
412.855894	4811.804031
413.236180	4822.718129
413.616405	4775.462353
413.996568	4857.844889
414.376670	4806.848577
414.756711	4761.609262
415.136691	4793.517246
415.516609	4869.114389
415.896466	4909.413373
416.276262	4940.224905
416.655997	4918.610958
417.035670	5104.770687
417.415283	5196.746539
417.794834	5138.450636
418.174324	5092.016568
418.553753	5001.633721
418.933121	5186.235733
419.312428	5252.610085
419.691674	5190.636661
420.070859	5318.966793
420.449983	5227.532866
420.829045	5343.386143
421.208047	5252.932719
421.586988	5323.463503
421.965867	5333.646633
422.344686	5467.474145
422.723444	5325.555582
423.102141	5142.365092
423.480777	5438.358961
423.859352	5211.224733
424.237866	5468.439526
424.616319	5458.556343
424.994712	5565.275050
425.373044	5441.791986
425.751314	5585.343883
426.129524	5387.435745
426.507673	5587.070478
426.885762	5663.524618
427.263789	5596.255461
427.641756	5479.000743
428.019662	5602.350216
428.397508	5605.846256
428.775292	5554.854985
429.153016	5652.809645
429.530679	5581.031176
429.908282	5666.748436
430.285824	5534.839083
430.663305	5814.446682
431.040726	5546.403490
431.418086	5543.504827
431.795385	5652.119007
432.172624	5664.343805
432.549802	5660.895656
432.926920	5673.841339
433.303977	5678.138923
433.680974	5718.180808
434.057910	5733.337037
434.434786	5739.179734
434.811601	5705.696390
435.188355	5944.692453
435.565050	5818.318288
435.941683	5800.822963
436.318257	6017.015367
436.694770	5997.821173
437.071222	6032.128746
437.447614	5964.468899
437.823946	5878.118975
438.200218	6034.281318
438.576429	5896.625051
438.952580	5996.049208
439.328670	6042.223656
439.704700	5953.930367
440.080670	5934.020330
440.456580	6206.973605
440.832429	6083.556077
441.208218	5936.361946
441.583947	6087.089926
441.959616	6091.480771
442.335224	6022.616088
442.710773	6154.359082
443.086261	6182.009811
443.461689	5975.269572
443.837057	6122.796418
444.212365	6285.295492
444.587612	6173.510426
444.962800	6326.948026
445.337927	6307.862217
445.712995	5919.784112
446.088002	6496.968501
446.462949	6322.358055
446.837837	6259.373879
447.212664	6425.643736
447.587431	6576.278454
447.962139	7117.032944
448.336786	8047.367804
448.711374	7787.070346
449.085901	6858.905703
449.460369	6782.406193
449.834776	6710.809206
450.209124	7107.628672
450.583412	7255.984788
450.957640	7403.614979
451.331808	7165.773340
451.705917	6716.011677
452.079965	6641.135418
452.453954	6850.678540
452.827883	6727.185394
453.201752	6818.659651
453.575562	6619.834023
453.949311	6822.753068
454.323001	6714.557304
454.696632	6792.846423
455.070202	6927.939264
455.443713	7082.682522
455.817164	7183.682039
456.190556	7267.082889
456.563888	7340.842531
456.937160	7381.794344
457.310373	7037.602004
457.683526	7065.323309
458.056619	6957.593851
458.429653	6942.437622
458.802628	6881.762294
459.175542	6990.613409
459.548398	7340.822367
459.921194	7505.627768
460.293930	7505.758838
460.666607	8028.629836
461.039224	8344.644647
461.411782	8468.226013
461.784280	8488.304928
462.156719	8377.971715
462.529099	8257.568796
462.901419	7847.024789
463.273680	7740.492605
463.645882	7750.017865
464.018024	7624.624205
464.390106	7786.662013
464.762130	8169.565374
465.134094	8645.412488
465.505999	9661.575513
465.877845	10887.546320
466.249631	11531.223528
466.621358	11147.848819
466.993026	10524.666422
467.364634	10270.065467
467.736184	9902.845136
468.107674	9575.795239
468.479105	9605.313715
468.850477	9374.380978
469.221790	9143.390268
469.593043	8810.283425
469.964238	8674.522631
470.335373	8686.795320
470.706449	8738.439421
471.077467	8729.871980
471.448425	10031.538232
471.819324	11106.082859
472.190164	11128.573967
472.560945	9881.541220
472.931667	9092.414120
473.302330	8958.090055
473.672934	8606.703988
474.043479	8963.441240
474.413965	8900.315912
474.784393	8785.475907
475.154761	8936.355121
475.525070	9031.002784
475.895321	8853.914611
476.265513	9032.598309
476.635645	9200.715749
477.005719	9201.940749
477.375734	9319.485333
477.745691	9552.270695
478.115588	9686.708185
478.485427	9931.040309
478.855207	10470.872269
479.224928	11287.201435
479.594591	11919.571335
479.964194	11722.855430
480.333739	11659.483085
480.703226	11577.970147
481.072653	11670.921463
481.442022	11906.912998
481.811333	12093.818818
482.180584	11904.594067
482.549777	11615.521703
482.918912	11432.966398
483.287988	11458.764503
483.657005	11467.415123
484.025964	11152.751341
484.394864	11285.653801
484.763706	11251.807494
485.132489	11008.649958
485.501213	10970.952210
485.869879	11044.452233
486.238487	10888.988090
486.607036	11001.594864
486.975527	10780.293251
487.343959	10968.837446
487.712333	11024.713595
488.080648	10946.101842
488.448905	10995.817701
488.817104	10935.712024
489.185244	11201.413599
489.553326	11360.910666
489.921350	11894.161399
490.289315	12963.075058
490.657222	13301.470071
491.025070	13201.614896
491.392861	13082.111823
491.760593	12699.077393
492.128267	12347.708969
492.495883	12015.320491
492.863440	11682.246415
493.230939	11342.061792
493.598380	11272.269537
493.965763	11148.453757
494.333088	11043.766636
494.700354	10959.828904
495.067563	11022.117401
495.434713	10855.779489
495.801805	10981.785650
496.168839	10914.652604
496.535815	10839.080667
496.902733	10851.618016
497.269593	10777.197983
497.636395	10881.963242
498.003139	10871.147446
498.369825	10730.433719
498.736453	10897.656354
499.103023	10820.075517
499.469535	10847.292706
499.835989	10834.473052
500.202385	10799.356374
500.568723	10654.375310
500.935003	10877.645493
501.301226	10681.148878
501.667390	10938.658578
502.033497	11034.989987
502.399546	10892.809284
502.765537	10801.423247
503.131470	10874.514937
503.497345	11052.807946
503.863163	10663.348564
504.228923	10968.202261
504.594625	11032.587877
504.960269	10780.633529
505.325856	10999.407003
505.691385	10795.658688
506.056856	10950.565784
506.422270	10975.269958
506.787625	10864.407423
507.152924	10981.916720
507.518164	10966.314348
507.883347	10888.436083
508.248472	10807.250821
508.613540	11035.410924
508.978550	10927.260530
509.343503	10894.601414
509.708398	11014.066678
510.073236	11127.464913
510.438016	11137.791717
510.802738	11084.191649
511.167403	11135.369443
511.532010	11030.289111
511.896561	11261.355439
512.261053	11336.151039
512.625488	11213.376257
512.989866	11188.767865
513.354186	11169.180462
513.718449	11079.992368
514.082655	11264.317117
514.446803	11164.986222
514.810894	11282.634149
515.174927	11149.998871
515.538904	11175.696153
515.902822	11326.769451
516.266684	11212.000022
516.630488	11152.572380
516.994235	11211.206041
517.357925	11269.592684
517.721558	11362.498629
518.085133	11372.585978
518.448651	11386.131558
518.812112	11269.859866
519.175516	11282.878645
519.538863	11407.571586
519.902152	11322.267701
520.265385	11479.617236
520.628560	11391.240768
520.991678	11369.344516
521.354739	11436.016296
521.717743	11370.468693
522.080690	11360.535100
522.443580	11486.294244
522.806413	11439.308170
523.169189	11470.994342
523.531908	11532.917356
523.894569	11352.275169
524.257174	11353.409429
524.619722	11472.995680
524.982213	11419.267063
525.344647	11475.044909
525.707025	11425.434914
526.069345	11508.820640
526.431608	11428.706623
526.793815	11549.235571
527.155964	11333.068373
527.518057	11381.428162
527.880093	11331.883702
528.242072	11402.885833
528.603995	11307.325721
528.965860	11223.067876
529.327669	11276.370516
529.689421	11226.999976
530.051117	11197.000069
530.412755	11302.758436
530.774337	11189.075375
531.135862	11171.759012
531.497331	11191.671569
531.858743	11049.132944
532.220098	11214.697040
532.581396	11087.496125
532.942638	11063.442260
533.303824	11028.282732
533.664953	11045.669672
534.026025	10956.521907
534.387040	11056.656867
534.747999	11063.129708
535.108902	11118.121135
535.469748	10873.418486
535.830537	10984.858233
536.191270	10955.564088
536.551947	10979.272634
536.912567	10976.444547
537.273131	10899.440922
537.633638	10878.860412
537.994089	10877.736234
538.354483	10825.179685
538.714821	10973.049330
539.075103	10978.685340
539.435328	10936.717734
539.795497	10768.474266
540.155609	10920.260888
540.515665	11011.054589
540.875665	10746.673796
541.235609	10813.897583
541.595496	10813.466564
541.955328	10971.090842
542.315102	10852.452327
542.674821	10798.350664
543.034483	10797.854110
543.394090	10808.090173
543.753640	10730.431198
544.113134	10959.423091
544.472571	10808.017077
544.831953	10948.735845
545.191278	10762.732392
545.550548	10785.515886
545.909761	10925.246589
546.268918	10903.330172
546.628019	10980.091822
546.987064	10843.148878
547.346053	10764.963102
547.704986	10867.054029
548.063863	10858.446259
548.422684	10846.894455
548.781449	10765.038719
549.140158	10866.413803
549.498811	10746.701522
549.857408	10602.559810
550.215949	10827.511218
550.574434	10680.579228
550.932864	10780.741914
551.291237	10837.664102
551.649555	10790.211721
552.007817	10804.079935
552.366022	10760.345405
552.724173	10753.670917
553.082267	10747.251008
553.440305	10870.116530
553.798288	10674.000522
554.156215	10833.994142
554.514086	10806.592951
554.871902	10658.967801
555.229661	10696.070694
555.587365	10667.257979
555.945014	10564.108409
556.302606	10688.715650
556.660143	10578.440410
557.017625	10739.525440
557.375050	10638.220933
557.732421	10768.436457
558.089735	10679.679382
558.446994	10681.380771
558.804197	10715.534589
559.161345	10717.790505
559.518437	10568.559748
559.875474	10660.127267
560.232455	10684.576863
560.589381	10636.448967
560.946251	10631.269182
561.303065	10746.666234
561.659825	10683.087202
562.016528	10605.282033
562.373177	10493.131484
562.729770	10606.501993
563.086307	10522.730619
563.442789	10606.721283
563.799216	10493.247430
564.155587	10540.230984
564.511904	10491.031843
564.868164	10485.685700
565.224370	10500.010138
565.580520	10424.627244
565.936615	10431.974726
566.292654	10302.664089
566.648638	10430.106978
567.004567	10393.004086
567.360441	10366.618687
567.716260	10283.006109
568.072023	10374.349296
568.427732	10329.833387
568.783385	10234.583306
569.138982	10301.655858
569.494525	10318.165637
569.850013	10190.884064
570.205445	10280.167940
570.560823	10176.400829
570.916145	10093.849414
571.271412	10161.743674
571.626625	10109.671075
571.981782	10083.852806
572.336884	10055.423219
572.691931	10055.972705
573.046923	10008.321198
573.401860	9964.846287
573.756743	9903.066947
574.111570	9942.834089
574.466342	9929.696842
574.821059	9956.851017
575.175722	9844.982772
575.530330	9853.424184
575.884882	9846.333801
576.239380	9773.446278
576.593823	9756.586139
576.948211	9773.572307
577.302544	9646.734356
577.656823	9662.432509
578.011047	9666.742696
578.365216	9644.183532
578.719330	9561.034741
579.073389	9574.222399
579.427394	9522.331282
579.781344	9499.046192
580.135239	9445.466289
580.489080	9458.948855
580.842866	9361.543680
581.196597	9365.725317
581.550273	9406.286441
581.903895	9377.214107
582.257463	9440.515876
582.610975	9314.751690
582.964434	9341.225309
583.317837	9264.294781
583.671186	9250.245085
584.024481	9245.070341
584.377721	9160.983895
584.730906	9132.032548
585.084037	9168.233074
585.437113	9102.383002
585.790135	9127.419893
586.143103	9023.025158
586.496016	9002.885748
586.848874	9051.205208
587.201679	9041.075009
587.554428	8931.903782
587.907124	8971.287796
588.259765	8944.060524
588.612352	8941.227396
588.964884	8823.410589
589.317362	8839.454061
589.669786	8839.827107
590.022155	8888.012976
590.374470	8906.506449
590.726731	8840.893311
591.078937	8695.282102
591.431090	8806.477353
591.783188	8673.123711
592.135232	8671.145058
592.487222	8670.570366
592.839157	8722.849652
593.191038	8655.991349
593.542866	8599.583358
593.894639	8505.104574
594.246358	8551.279022
594.598022	8565.976506
594.949633	8468.374727
595.301190	8439.836755
595.652692	8473.297413
596.004141	8583.020647
596.355535	8362.888583
596.706876	8336.601486
597.058162	8272.324254
597.409395	8350.371398
597.760573	8411.956653
598.111698	8321.306625
598.462768	8306.518400
598.813785	8273.035056
599.164748	8244.517249
599.515657	8236.307730
599.866511	8147.301118
600.217312	8270.101105
600.568060	8129.747820
600.918753	8226.880772
601.269392	8206.234727
601.619978	8113.371632
601.970510	8174.818256
602.320988	8168.320209
602.671412	8227.919250
603.021783	8161.696132
603.372100	8132.089436
603.722363	8141.851630
604.072572	8109.885674
604.422728	8121.500492
604.772830	8051.302425
605.122878	8059.091008
605.472872	8057.230822
605.822813	8085.000018
606.172701	8029.927933
606.522534	8102.729756
606.872314	8106.445086
607.222041	8074.574912
607.571714	8124.860421
607.921333	8087.059329
608.270899	8097.807069
608.620411	8181.626334
608.969870	8089.988240
609.319276	8084.324503
609.668627	8097.103828
610.017926	8132.147409
610.367171	8184.391407
610.716362	8154.308322
611.065500	8149.650295
611.414585	8176.045777
611.763616	8164.035228
612.112594	8148.407651
612.461518	8161.335690
612.810389	8228.075526
613.159207	8160.594640
613.507971	8109.283256
613.856682	8234.497956
614.205340	8178.578957
614.553945	8261.694981
614.902496	8161.781832
615.250994	8212.170685
615.599439	8198.436062
615.947830	8213.967857
616.296169	8181.603649
616.644454	8199.250208
616.992686	8191.922891
617.340864	8251.514371
617.688990	8155.069536
618.037063	8250.387673
618.385082	8192.164866
618.733048	8281.400851
619.080961	8219.170327
619.428821	8237.777226
619.776628	8242.495746
620.124382	8189.324176
620.472083	8172.494284
620.819731	8202.736166
621.167326	8094.129547
621.514868	8105.762010
621.862357	7991.965524
622.209793	8008.808019
622.557176	7943.278060
622.904506	7906.951505
623.251783	7846.719799
623.599007	7802.889487
623.946179	7805.982235
624.293297	7756.296623
624.640363	7680.122267
624.987376	7662.634505
625.334336	7608.391689
625.681243	7554.912609
626.028097	7552.429840
626.374899	7526.548557
626.721647	7513.771752
627.068343	7453.466949
627.414987	7421.241373
627.761577	7374.414095
628.108115	7411.847183
628.454600	7305.130997
628.801032	7356.250818
629.147412	7319.420148
629.493739	7305.967829
629.840014	7244.243941
630.186236	7301.428270
630.532405	7184.410486
630.878521	7230.058134
631.224585	7192.297371
631.570597	7114.393900
631.916556	7144.787017
632.262462	7143.889692
632.608316	7102.101047
632.954117	7081.341575
633.299866	7069.757004
633.645562	7057.040693
633.991206	6980.485731
634.336797	6924.367606
634.682336	6882.500823
635.027823	6846.035637
635.373257	6841.289391
635.718639	6770.803978
636.063968	6785.975330
636.409245	6676.413413
636.754470	6677.267889
637.099642	6634.269367
637.444762	6579.288023
637.789829	6589.060299
638.134845	6529.801536
638.479808	6515.903075
638.824719	6517.107910
639.169577	6446.350275
639.514383	6469.035467
639.859137	6390.945474
640.203839	6402.514922
640.548489	6391.192490
640.893086	6368.275405
641.237632	6333.083110
641.582125	6355.571697
641.926566	6332.639488
642.270955	6346.338824
642.615292	6336.944634
642.959576	6353.335945
643.303809	6340.521332
643.647990	6348.022569
643.992118	6336.735426
644.336195	6286.275996
644.680219	6307.287526
645.024192	6300.401309
645.368112	6395.880763
645.711981	6420.494197
646.055797	6496.461865
646.399562	6452.707170
646.743274	6575.328196
647.086935	6632.232741
647.430544	6626.009436
647.774101	6648.064484
648.117606	6659.094529
648.461059	6649.907026
648.804460	6608.670388
649.147810	6519.704105
649.491108	6487.738148
649.834354	6462.363500
650.177548	6382.705708
650.520690	6296.912831
650.863781	6271.195385
651.206820	6289.950997
651.549807	6213.640531
651.892742	6149.363299
652.235626	6158.946532
652.578458	6148.929760
652.921238	6056.326284
653.263967	6092.241985
653.606644	6032.678232
653.949269	6031.037336
654.291843	5977.457432
654.634365	6026.127252
654.976836	5978.629501
655.319255	5975.645138
655.661622	5957.244926
656.003938	5950.741838
656.346203	5909.454788
656.688416	5940.972081
657.030577	5897.161934
657.372687	5866.872161
657.714746	5854.549060
658.056753	5897.456841
658.398708	5840.421227
658.740612	5827.722560
659.082465	5876.546135
659.424266	5867.910639
659.766016	5867.025916
660.107715	5842.901474
660.449362	5859.128949
660.790958	5853.566035
661.132503	5837.189847
661.473996	5875.840374
661.815438	5858.524010
662.156829	5859.809504
662.498168	5853.162743
662.839456	5827.092416
663.180693	5866.889805
663.521879	5866.904928
663.863013	5851.584862
664.204097	5869.556575
664.545129	5910.316825
664.886110	5905.817595
665.227040	5944.551301
665.567918	5906.092338
665.908746	5940.515857
666.249522	5940.684736
666.590248	5922.307209
666.930922	5955.956911
667.271545	5965.290608
667.612118	5969.240352
667.952639	5943.772442
668.293109	5962.586028
668.633528	5922.231592
668.973896	5925.528507
669.314213	5918.034831
669.654480	5899.763169
669.994695	5891.674638
670.334859	5880.112752
670.674973	5874.670826
671.015035	5877.440940
671.355047	5880.397577
671.695008	5864.772520
672.034918	5839.901988
672.374777	5848.474470
672.714585	5832.879661
673.054342	5838.084652
673.394049	5829.590308
673.733705	5856.237847
674.073310	5847.398184
674.412864	5804.500485
674.752368	5798.718282
675.091820	5802.872192
675.431223	5740.644189
675.770574	5741.392801
676.109875	5691.548392
676.449125	5696.700451
676.788324	5664.484957
677.127473	5608.944045
677.466571	5597.639257
677.805619	5590.289255
678.144616	5575.679991
678.483562	5556.987393
678.822458	5519.682854
679.161303	5518.271331
679.500098	5509.872769
679.838842	5491.351570
680.177535	5493.584801
680.516179	5508.567110
680.854771	5522.765520
681.193314	5605.296770
681.531805	5711.150919
681.870247	5862.630030
682.208638	5963.614424
682.546978	5976.149253
682.885268	5950.794770
683.223508	5867.814857
683.561697	5812.566331
683.899836	5785.399553
684.237925	5738.809209
684.575963	5701.217325
684.913951	5667.015617
685.251889	5720.958483
685.589776	5692.498649
685.927614	5663.862375
686.265401	5733.697479
686.603137	5719.738524
686.940824	5791.897600
687.278460	5818.852650
687.616046	5827.725081
687.953582	5896.677983
688.291068	5878.411362
688.628504	5943.853101
688.965889	5905.187451
689.303224	5850.531261
689.640510	5802.501668
689.977745	5725.515687
690.314930	5624.586745
690.652065	5574.359209
690.989150	5479.973686
691.326185	5402.503754
691.663170	5347.305640
692.000105	5274.332417
692.336990	5195.103123
692.673825	5170.041027
693.010610	5098.459163
693.347345	5032.183113
693.684030	5018.463613
694.020665	4978.162108
694.357251	4886.496287
694.693786	4896.281167
695.030272	4863.286815
695.366707	4824.908511
695.703093	4792.456083
696.039429	4815.854598
696.375716	4799.460766
696.711952	4773.390439
697.048139	4756.295886
697.384276	4739.042537
697.720363	4749.114763
698.056400	4757.896453
698.392388	4708.082291
698.728326	4692.129560
699.064214	4670.316487
699.400053	4660.544210
699.735842	4625.946771
700.071581	4603.755612
700.407270	4574.960541
700.742910	4561.200712
701.078501	4505.536291
701.414042	4502.607381
701.749533	4473.527485
702.084974	4409.104059
702.420366	4462.900733
702.755709	4409.577928
703.091002	4350.583825
703.426246	4404.849325
703.761440	4356.025750
704.096584	4319.784895
704.431679	4341.242567
704.766725	4323.122139
705.101721	4310.491528
705.436668	4341.746682
705.771565	4292.620638
706.106413	4316.896314
706.441212	4348.101057
706.775961	4359.670505
707.110661	4337.360878
707.445311	4368.495044
707.779913	4387.633785
708.114465	4402.961413
708.448967	4425.051749
708.783421	4484.416377
709.117825	4524.876678
709.452180	4531.372205
709.786485	4577.430707
710.120742	4662.021268
710.454949	4647.477539
710.789107	4714.212334
711.123216	4792.478768
711.457275	4779.495276
711.791286	4852.082851
712.125247	4873.091859
712.459159	4774.035707
712.793023	4851.959342
713.126837	4805.537877
713.460602	4800.209377
713.794318	4723.830856
714.127985	4730.248244
714.461602	4646.686078
714.795171	4613.419504
715.128691	4546.465419
715.462162	4491.693283
715.795584	4443.439358
716.128957	4423.423457
716.462281	4374.189028
716.795556	4345.925799
717.128782	4308.790139
717.461960	4240.038883
717.795088	4251.908279
718.128167	4209.020663
718.461198	4147.243843
718.794180	4146.545643
719.127113	4125.221563
719.459997	4101.049230
719.792833	4058.683373
720.125619	4053.054925
720.458357	4015.679810
720.791046	4021.157024
721.123686	3993.760873
721.456278	3953.847538
721.788821	3968.507213
722.121315	3939.873459
722.453761	3915.804470
722.786158	3929.592026
723.118506	3952.620017
723.450805	3902.606729
723.783056	3924.961726
724.115259	3941.030404
724.447412	3945.481743
724.779518	3937.327677
725.111574	3940.775826
725.443582	3971.310095
725.775542	3957.696459
726.107453	4007.775281
726.439315	4011.306609
726.771129	4024.098537
727.102895	4056.581212
727.434612	4107.348152
727.766281	4120.964308
728.097901	4120.866006
728.429473	4127.858086
728.760996	4132.271616
729.092471	4129.481338
729.423897	4109.152885
729.755276	4117.188484
730.086606	4114.637660
730.417887	4155.440759
730.749120	4223.418198
731.080305	4285.285759
731.411442	4316.215758
731.742530	4279.168319
732.073570	4285.953712
732.404562	4340.017566
732.735506	4334.205116
733.066401	4295.055515
733.397249	4231.320207
733.728048	4152.458917
734.058798	4070.207451
734.389501	4000.112727
734.720156	3936.599230
735.050762	3889.184657
735.381320	3885.973442
735.711831	3834.001667
736.042293	3806.968479
736.372707	3824.345337
736.703073	3800.966986
737.033391	3789.581540
737.363661	3805.075526
737.693883	3830.268692
738.024056	3841.704550
738.354182	3838.722707
738.684260	3898.795617
739.014290	3920.046601
739.344272	3914.841610
739.674207	3956.279894
740.004093	3965.414465
740.333931	3958.926500
740.663722	3960.375832
740.993464	3956.547076
741.323159	3932.243673
741.652806	3902.458015
741.982405	3877.295096
742.311956	3845.009026
742.641460	3835.110721
742.970915	3809.670538
743.300323	3770.999847
743.629683	3737.113210
743.958996	3723.280284
744.288260	3698.750030
744.617477	3665.894309
744.946647	3653.241013
745.275768	3624.622383
745.604842	3624.375366
745.933869	3576.045824
746.262847	3567.793456
746.591778	3608.636884
746.920662	3574.682192
747.249498	3545.662790
747.578286	3591.111313
747.907027	3612.468161
748.235720	3606.905248
748.564365	3634.858446
748.892963	3634.566059
749.221514	3614.285497
749.550017	3592.439657
749.878473	3587.322886
750.206881	3562.974112
750.535242	3556.634862
750.863555	3557.731312
751.191821	3554.431877
751.520039	3534.252138
751.848210	3512.547451
752.176334	3546.812173
752.504411	3555.714851
752.832440	3510.352028
753.160421	3491.790500
753.488356	3505.164681
753.816243	3519.244623
754.144082	3469.526244
754.471875	3457.198102
754.799620	3477.133345
755.127318	3471.260401
755.454969	3469.632108
755.782572	3472.230823
756.110129	3453.505457
756.437638	3442.755196
756.765100	3455.194243
757.092515	3463.965851
757.419882	3468.407108
757.747203	3442.858540
758.074477	3449.979170
758.401703	3465.846201
758.728882	3486.033502
759.056014	3492.995335
759.383099	3494.979029
759.710138	3490.633555
760.037129	3508.650639
760.364073	3538.741286
760.690970	3524.419368
761.017820	3502.109742
761.344623	3520.492309
761.671379	3564.070563
761.998088	3615.336577
762.324751	3746.520003
762.651366	3994.144001
762.977935	4467.503306
763.304456	4915.019136
763.630931	5014.045041
763.957359	4647.341428
764.283740	4306.859377
764.610074	4111.088688
764.936362	3913.236002
765.262602	3753.378493
765.588796	3638.583858
765.914943	3553.022875
766.241044	3461.054585
766.567097	3430.353958
766.893104	3384.592884
767.219064	3351.674149
767.544978	3325.921415
767.870845	3272.293620
768.196665	3253.684201
768.522438	3261.480345
768.848165	3255.131012
769.173846	3219.616083
769.499479	3203.202086
769.825066	3186.031916
770.150607	3168.960048
770.476101	3182.636699
770.801548	3178.739887
771.126949	3134.619708
771.452303	3119.234107
771.777611	3124.935652
772.102872	3130.175931
772.428087	3104.340018
772.753256	3093.667895
773.078378	3086.968202
773.403453	3053.686504
773.728482	3037.834596
774.053465	3062.616908
774.378401	3048.297511
774.703291	3017.730474
775.028135	3018.065711
775.352932	3014.383148
775.677683	2998.992505
776.002388	2995.824140
776.327046	2998.075015
776.651658	2988.544714
776.976224	2974.018629
777.300743	2978.275884
777.625216	2967.422279
777.949643	2962.920529
778.274024	2965.534367
778.598359	2954.655557
778.922647	2959.868110
779.246889	2960.415076
779.571086	2943.375976
779.895236	2936.116714
780.219339	2948.207922
780.543397	2961.294757
780.867409	2965.793987
781.191374	2957.592029
781.515294	2950.899898
781.839167	2953.793520
782.162995	2945.775565
782.486776	2953.634724
782.810511	2953.047429
783.134201	2937.273659
783.457844	2946.156172
783.781441	2936.041097
784.104993	2916.360432
784.428498	2916.788930
784.751958	2931.259562
785.075372	2925.868048
785.398739	2907.553536
785.722061	2926.296546
786.045337	2934.765685
786.368568	2925.021134
786.691752	2915.150555
787.014891	2961.927422
787.337983	2992.859942
787.661030	3018.862213
787.984031	3087.610949
788.306987	3133.629122
788.629897	3129.215592
788.952760	3111.493415
789.275579	3095.964141
789.598351	3036.052548
789.921078	2987.856597
790.243759	2980.781337
790.566395	2964.397587
790.888984	2939.474123
791.211529	2921.517533
791.534027	2913.708785
791.856480	2905.088412
792.178888	2888.066956
792.501249	2880.308620
792.823566	2877.165461
793.145836	2873.694627
793.468062	2870.150695
793.790241	2867.892258
794.112375	2872.096581
794.434464	2888.898747
794.756507	2891.978892
795.078505	2898.010632
795.400457	2911.427663
795.722364	2948.674228
796.044226	2969.978144
796.366042	2976.526603
796.687812	2961.428348
797.009538	2983.296873
797.331218	2970.532671
797.652852	2956.919035
797.974442	2942.650049
798.295986	2936.991354
798.617484	2931.990530
798.938938	2916.317582
799.260346	2899.139851
799.581709	2895.217833
799.903026	2885.939589
800.224299	2882.723333
800.545526	2874.849051
800.866708	2857.172245
801.187845	2847.747808
801.508936	2847.546162
801.829983	2854.870958
802.150984	2840.123062
802.471940	2828.903975
802.792851	2830.625529
803.113717	2828.178048
803.434538	2834.572752
803.755314	2827.900785
804.076045	2820.046667
804.396731	2818.115905
804.717372	2821.445587
805.037967	2813.286480
805.358518	2819.872747
805.679024	2835.316322
805.999485	2829.955055
806.319901	2833.403204
806.640272	2827.641166
806.960598	2832.256342
807.280879	2840.450737
807.601115	2848.491378
807.921306	2833.549398
808.241453	2831.525375
808.561554	2836.415294
808.881611	2841.559791
809.201623	2834.950839
809.521590	2831.485045
809.841513	2830.590241
810.161390	2834.461847
810.481223	2825.574292
810.801011	2815.481902
811.120755	2810.297076
811.440453	2816.565751
811.760107	2814.125832
812.079716	2817.894095
812.399281	2804.466981
812.718801	2798.105045
813.038276	2791.213788
813.357707	2801.333904
813.677093	2803.892290
813.996434	2798.094963
814.315731	2795.294602
814.634983	2790.772687
814.954191	2791.173459
815.273354	2807.174081
815.592473	2812.230358
815.911547	2815.403765
816.230577	2824.727379
816.549562	2832.901610
816.868502	2833.511589
817.187399	2844.450893
817.506250	2859.017307
817.825058	2850.248220
818.143821	2867.743544
818.462539	2882.456152
818.781213	2907.460275
819.099843	2946.433435
819.418429	3003.247239
819.736970	3066.281827
820.055466	3138.100625
820.373919	3243.813621
820.692327	3389.127402
821.010691	3558.479924
821.329011	4006.764530
821.647286	4917.022994
821.965517	6312.603422
822.283704	7077.147335
822.601847	7061.797022
822.919945	6415.420276
823.237999	5902.434981
823.556010	5306.820133
823.873976	4749.291203
824.191897	4333.509437
824.509775	4033.258314
824.827609	3757.786982
825.145398	3635.591934
825.463144	3621.481744
825.780845	3713.157647
826.098502	3822.265861
826.416116	4104.658696
826.733685	4428.109209
827.051210	4501.410107
827.368692	4380.251015
827.686129	4109.704891
828.003522	3776.613171
828.320872	3516.323275
828.638177	3320.121567
828.955439	3180.206863
829.272656	3094.141764
829.589830	3026.194572
829.906960	2974.061479
830.224046	2932.058585
830.541088	2894.494427
830.858086	2877.951881
831.175041	2861.961341
831.491952	2862.578882
831.808819	2870.906868
832.125642	2898.900396
832.442421	2942.224072
832.759157	3027.026362
833.075849	3205.669731
833.392497	3490.068946
833.709101	3699.939742
834.025662	3650.657422
834.342179	3487.185406
834.658653	3309.361224
834.975083	3157.395642
835.291469	3060.958368
835.607811	2971.157774
835.924110	2913.592839
836.240366	2861.167359
836.556578	2817.231183
836.872746	2796.698563
837.188871	2772.362393
837.504952	2755.464445
837.820990	2747.060842
838.136984	2733.001064
838.452935	2725.777090
838.768842	2724.998232
839.084706	2744.315934
839.400526	2821.715289
839.716303	2953.969960
840.032037	3041.086140
840.347727	3024.089890
840.663373	2961.884572
840.978977	2886.615104
841.294537	2814.133394
841.610054	2763.142123
841.925527	2741.661766
842.240957	2718.898436
842.556344	2695.678881
842.871687	2681.730009
843.186987	2671.967814
843.502244	2667.082936
843.817458	2660.262255
844.132629	2651.858652
844.447756	2641.728453
844.762840	2633.617236
845.077881	2638.434059
845.392879	2634.738893
845.707833	2632.603964
846.022745	2623.040896
846.337613	2628.613891
846.652438	2625.561472
846.967221	2624.674229
847.281960	2624.623818
847.596656	2624.459980
847.911309	2619.650720
848.225919	2622.057871
848.540485	2614.377673
848.855009	2617.916563
849.169490	2617.707355
849.483928	2615.292642
849.798323	2616.890688
850.112675	2613.729884
850.426984	2616.048815
850.741251	2613.795419
851.055474	2611.983125
851.369654	2616.028651
851.683792	2617.021758
851.997887	2614.110492
852.311938	2612.837600
852.625947	2616.510081
852.939914	2617.682149
853.253837	2615.945472
853.567718	2613.404730
853.881555	2611.282404
854.195350	2617.036881
854.509103	2615.544700
854.822812	2612.162086
855.136479	2610.899277
855.450103	2613.979422
855.763685	2614.856582
856.077224	2612.058742
856.390720	2608.724019
856.704173	2612.787189
857.017584	2619.686008
857.330953	2618.612242
857.644278	2622.418313
857.957561	2620.621142
858.270802	2615.038064
858.584000	2617.225925
858.897155	2619.696090
859.210268	2622.816564
859.523339	2615.287601
859.836367	2612.439349
860.149352	2609.702003
860.462295	2615.038064
860.775195	2611.794081
861.088054	2609.248299
861.400869	2608.557661
861.713642	2606.173195
862.026373	2608.335850
862.339062	2608.361056
862.651708	2613.145111
862.964312	2615.879937
863.276873	2616.951182
863.589392	2616.658795
863.901869	2620.391769
864.214303	2627.461987
864.526696	2631.152112
864.839045	2630.471556
865.151353	2634.244860
865.463619	2634.254942
865.775842	2634.262504
866.088023	2633.554222
866.400162	2635.724439
866.712258	2632.619088
867.024313	2630.481639
867.336325	2631.711680
867.648296	2632.621608
867.960224	2636.936836
868.272110	2636.248719
868.583954	2627.630866
868.895755	2628.835702
869.207515	2634.325518
869.519233	2642.502270
869.830909	2638.492032
870.142542	2633.967597
870.454134	2636.916672
870.765684	2638.333236
871.077191	2643.908752
871.388657	2645.189205
871.700081	2642.494708
872.011463	2643.301293
872.322803	2645.610141
872.634101	2650.714310
872.945357	2655.911739
873.256571	2662.528254
873.567744	2660.040444
873.878874	2658.833088
874.189963	2659.516164
874.501010	2662.966834
874.812015	2670.200890
875.122979	2666.382216
875.433900	2659.536329
875.744780	2659.400218
876.055618	2664.595127
876.366415	2669.870694
876.677169	2669.273317
876.987882	2663.569252
877.298554	2659.924498
877.609183	2673.780109
877.919771	2679.927796
878.230317	2688.608663
878.540822	2699.600899
878.851285	2710.741849
879.161707	2734.042062
879.472087	2777.890018
879.782425	2827.847853
880.092722	2944.653908
880.402977	3139.247488
880.713191	3400.028897
881.023363	3703.864280
881.333494	3902.279054
881.643583	4078.298503
881.953631	4074.925971
882.263637	3896.527098
882.573602	3674.494518
882.883526	3537.037376
883.193408	3417.856937
883.503248	3314.006648
883.813048	3195.867207
884.122806	3079.343457
884.432522	2991.975219
884.742197	2925.099272
885.051831	2883.721482
885.361424	2849.441635
885.670975	2812.840338
885.980485	2780.536624
886.289954	2759.910743
886.599382	2748.361460
886.908768	2734.173132
887.218113	2717.910370
887.527417	2701.594675
887.836680	2691.030937
888.145901	2688.948941
888.455082	2678.644822
888.764221	2668.824655
889.073319	2660.398366
889.382376	2659.705207
889.691392	2660.476504
890.000366	2660.829385
890.309300	2659.410300
890.618193	2661.799807
890.927044	2665.328615
891.235855	2664.509427
891.544625	2661.928356
891.853353	2662.742503
892.162041	2670.470592
892.470687	2690.562110
892.779293	2703.316229
893.087858	2711.041798
893.396381	2738.125397
893.704864	2780.846655
894.013306	2850.225535
894.321707	2948.439815
894.630068	3001.603823
894.938387	3024.455373
895.246665	3018.342974
895.554903	2968.836323
895.863100	2925.545414
896.171256	2864.802031
896.479371	2801.102011
896.787446	2760.175404
897.095480	2742.964904
897.403473	2736.567680
897.711425	2717.239896
898.019336	2698.552339
898.327207	2685.677232
898.635038	2686.627490
898.942827	2681.079700
899.250576	2672.517300
899.558284	2661.600681
899.865952	2655.427788
900.173579	2655.437871
900.481165	2651.498209
900.788711	2643.729791
901.096216	2635.144706
901.403681	2634.683440
901.711105	2632.760240
902.018489	2633.072792
902.325832	2637.052783
902.633135	2639.217958
902.940397	2650.444608
903.247619	2691.356092
903.554800	2763.333687
903.861941	2891.754560
904.169041	3026.817154
904.476101	3092.006835
904.783121	3086.108685
905.090100	3028.987371
905.397039	2947.948302
905.703938	2872.893083
906.010796	2805.520582
906.317614	2750.022520
906.624391	2715.747715
906.931129	2685.604135
907.237826	2662.021618
907.544483	2645.181643
907.851099	2631.157153
908.157675	2620.172479
908.464211	2613.087137
908.770707	2601.462237
909.077163	2598.810590
909.383578	2595.876638
909.689954	2591.904209
909.996289	2585.688466
910.302584	2593.030907
910.608839	2586.787438
910.915054	2586.280802
911.221229	2591.112748
911.527363	2591.125351
911.833458	2592.259610
912.139513	2592.360433
912.445527	2593.340938
912.751502	2599.498707
913.057436	2606.291662
913.363331	2612.540172
913.669186	2624.311266
913.975000	2636.808287
914.280775	2653.885195
914.586510	2674.193484
914.892205	2711.341746
915.197859	2781.912859
915.503475	2863.463605
915.809050	2935.481529
916.114585	2956.359467
916.420081	2967.399594
916.725536	2979.372335
917.030952	2950.519291
917.336328	2903.891138
917.641665	2850.109588
917.946961	2801.608647
918.252218	2766.088677
918.557435	2734.896538
918.862612	2713.615307
919.167750	2696.339272
919.472848	2677.618948
919.777906	2662.215702
920.082925	2648.453352
920.387904	2637.012453
920.692843	2633.844088
920.997743	2626.383181
921.302603	2621.319342
921.607423	2613.354318
921.912204	2608.527414
922.216946	2603.100612
922.521647	2601.487442
922.826310	2598.404777
923.130932	2593.741709
923.435516	2588.201481
923.740059	2584.118147
924.044564	2583.898857
924.349028	2582.227714
924.653454	2573.488874
924.957840	2572.281518
925.262186	2569.024932
925.566493	2570.645663
925.870761	2565.886814
926.174989	2566.839592
926.479178	2564.692060
926.783328	2562.983109
927.087438	2560.709549
927.391509	2559.988664
927.695541	2560.316339
927.999533	2558.078067
928.303486	2557.309291
928.607400	2557.785680
928.911275	2556.384239
929.215110	2553.566234
929.518906	2557.654610
929.822663	2557.309291
930.126381	2556.391801
930.430060	2552.779814
930.733699	2557.228632
931.037299	2558.133519
931.340861	2558.146122
931.644383	2555.862479
931.947866	2556.359033
932.251309	2555.774259
932.554714	2556.467418
932.858080	2558.317521
933.161407	2556.888354
933.464694	2554.251831
933.767943	2553.389793
934.071153	2553.636810
934.374323	2553.218394
934.677455	2553.480534
934.980548	2552.656306
935.283602	2551.998435
935.586617	2553.299053
935.889593	2552.913404
936.192530	2553.208312
936.495428	2553.321738
936.798287	2553.437684
937.101108	2556.122099
937.403890	2558.642676
937.706632	2561.518654
938.009336	2563.676268
938.312002	2568.906465
938.614628	2571.739593
938.917216	2576.138000
939.219765	2576.498443
939.522275	2578.023392
939.824747	2577.930130
940.127179	2572.034501
940.429573	2568.329253
940.731929	2568.840930
941.034246	2563.542677
941.336524	2567.121897
941.638763	2567.709191
941.940964	2565.796073
942.243126	2566.809345
942.545250	2564.475291
942.847335	2560.013870
943.149381	2561.614436
943.451389	2561.415310
943.753359	2557.115206
944.055290	2558.907336
944.357182	2560.533108
944.659036	2556.326266
944.960851	2558.607388
945.262628	2553.614125
945.564367	2558.007490
945.866067	2555.295350
946.167729	2556.628735
946.469352	2554.919784
946.770937	2556.880792
947.072484	2557.730227
947.373992	2557.125288
947.675462	2553.941800
947.976893	2555.297870
948.278286	2552.938610
948.579641	2553.041954
948.880958	2551.948023
949.182236	2553.059598
949.483476	2552.764690
949.784678	2555.554969
950.085841	2551.514484
950.386967	2553.611604
950.688054	2551.186809
950.989103	2554.428271
951.290114	2555.025648
951.591087	2557.158056
951.892021	2556.674105
952.192917	2560.747357
952.493776	2560.250804
952.794596	2562.529405
953.095378	2559.663509
953.396122	2561.543860
953.696828	2560.510423
953.997496	2559.880279
954.298126	2557.236194
954.598718	2554.340051
954.899272	2553.135215
955.199788	2552.646223
955.500266	2553.578837
955.800706	2546.659853
956.101108	2544.008206
956.401472	2546.153217
956.701798	2544.398896
957.002087	2542.878988
957.302337	2544.842517
957.602550	2544.124153
957.902724	2541.974101
958.202861	2543.269677
958.502960	2540.113915
958.803022	2541.830428
959.103045	2539.347659
959.403031	2541.495191
959.702979	2537.681558
960.002889	2540.713812
960.302762	2540.260108
960.602596	2538.130221
960.902393	2538.868750
961.202153	2535.755837
961.501875	2538.059645
961.801559	2537.290869
962.101205	2537.258101
962.400814	2539.398071
962.700385	2537.517721
962.999918	2538.241126
963.299414	2534.785415
963.598873	2538.226003
963.898293	2538.170550
964.197677	2538.314223
964.497022	2535.889428
964.796331	2537.706764
965.095601	2536.806918
965.394835	2537.598379
965.694030	2535.680220
965.993189	2538.704912
966.292309	2534.843388
966.591393	2534.374561
966.890439	2533.779705
967.189447	2536.814480
967.488419	2536.149047
967.787353	2538.510828
968.086249	2537.313554
968.385108	2538.518390
968.683930	2534.515713
968.982714	2537.311033
969.281462	2535.236598
969.580172	2536.254912
969.878844	2537.212731
970.177480	2535.995292
970.476078	2538.704912
970.774639	2536.844727
971.073162	2537.285827
971.371649	2533.820034
971.670098	2531.168387
971.968510	2534.011598
972.266885	2533.552853
972.565223	2537.714326
972.863524	2538.132741
973.161788	2541.270860
973.460014	2537.787422
973.758204	2537.434542
974.056356	2537.716846
974.354471	2535.859181
974.652550	2537.268183
974.950591	2535.498738
975.248595	2538.541075
975.546563	2537.951260
975.844493	2535.241640
976.142386	2536.138965
976.440243	2537.074099
976.738062	2537.069058
977.035845	2532.731145
977.333590	2536.895138
977.631299	2536.698533
977.928971	2534.777853
978.226606	2534.485467
978.524204	2535.460930
978.821765	2534.979500
979.119290	2535.108049
979.416777	2536.030580
979.714228	2533.527647
980.011642	2538.682227
980.309020	2535.642411
980.606360	2536.527134
980.903664	2536.297761
981.200931	2534.258615
981.498162	2538.079809
981.795356	2538.669624
982.092513	2547.216901
982.389633	2543.851930
982.686717	2550.090358
982.983764	2551.217056
983.280775	2551.133877
983.577749	2553.571275
983.874686	2551.189330
984.171587	2546.853938
984.468451	2544.255223
984.765279	2545.444935
985.062070	2542.947043
985.358824	2541.462423
985.655543	2539.060314
985.952224	2536.779192
986.248869	2537.903369
986.545478	2533.814993
986.842050	2533.719211
987.138586	2530.881042
987.435086	2532.065713
987.731549	2532.405991
988.027975	2534.908923
988.324366	2533.630991
988.620719	2534.719880
988.917037	2532.327853
989.213318	2533.419263
989.509563	2533.147040
989.805772	2533.404139
990.101944	2533.081505
990.398080	2532.027904
990.694180	2531.717873
990.990244	2531.364992
991.286271	2529.477080
991.582262	2534.188038
991.878217	2532.978162
992.174136	2533.424304
992.470019	2532.763913
992.765865	2534.046886
993.061676	2533.056299
993.357450	2532.988244
993.653188	2531.954807
993.948890	2535.660055
994.244556	2531.916999
994.540186	2533.724252
994.835780	2531.024714
995.131337	2535.312216
995.426859	2536.385982
995.722345	2535.503780
996.017795	2534.813142
996.313208	2535.339942
996.608586	2535.574356
996.903928	2537.046373
997.199234	2535.355066
997.494504	2536.181815
997.789738	2534.470343
998.084936	2535.201310
998.380099	2535.317257
998.675225	2536.698533
998.970316	2533.953625
999.265371	2535.700385
999.560390	2531.702750
999.855373	2532.879859
1000.150320	2533.542771
1000.445232	2534.114942
1000.740108	2531.866587
1001.034948	2533.472195
1001.329752	2531.659900
1001.624521	2531.175949
1001.919254	2524.806451
1002.213951	2530.656710
1002.508613	2528.869621
1002.803239	2532.602596
1003.097829	2525.623118
1003.392384	2531.707791
1003.686903	2530.311391
1003.981386	2533.434386
1004.275834	2530.639066
1004.570246	2533.136958
1004.864623	2529.018335
1005.158964	2531.380116
1005.453270	2530.036648
1005.747540	2530.578572
1006.041775	2530.714683
1006.335974	2529.514889
1006.630138	2528.199148
1006.924266	2528.413397
1007.218359	2528.723428
1007.512416	2530.780218
1007.806438	2530.780218
1008.100425	2533.411701
1008.394376	2530.603778
1008.688292	2531.022194
1008.982172	2527.430372
1009.276017	2530.928933
1009.569827	2528.761236
1009.863602	2531.385157
1010.157341	2528.181504
1010.451045	2530.046731
1010.744714	2530.886083
1011.038347	2528.816689
1011.331945	2529.545136
1011.625508	2534.167874
1011.919036	2531.924560
1012.212528	2529.275434
1012.505986	2531.072605
1012.799408	2530.918850
1013.092795	2528.219312
1013.386147	2529.850126
1013.679464	2530.991947
1013.972745	2530.049251
1014.265992	2533.681402
1014.559204	2531.964890
1014.852380	2531.879190
1015.145521	2528.844415
1015.438628	2529.114117
1015.731699	2526.951462
1016.024736	2528.141174
1016.317737	2530.540764
1016.610703	2532.600075
1016.903635	2529.172090
1017.196531	2528.733510
1017.489393	2528.436082
1017.782219	2524.788807
1018.075011	2528.814168
1018.367768	2528.993129
1018.660490	2530.434899
1018.953177	2530.434899
1019.245829	2530.434899
