Dividing Wavelength (nm)	Counts (n)	Blue Motor Position (mm): 15.300000	Red Motor Position (mm): 0.000000	
326.493990	2172.316371
326.888308	2172.316371
327.282561	2172.316371
327.676750	2131.888838
328.070874	2129.184259
328.464933	2130.225257
328.858929	2132.224075
329.252859	2138.767493
329.646726	2144.811836
330.040528	2157.853301
330.434265	2172.160096
330.827938	2191.480318
331.221547	2208.605117
331.615091	2223.040461
332.008571	2242.456465
332.401986	2260.934815
332.795338	2280.728905
333.188625	2298.617440
333.581847	2315.913639
333.975006	2337.066320
334.368100	2352.706500
334.761129	2371.998996
335.154095	2393.058416
335.546996	2411.468710
335.939833	2438.249840
336.332606	2453.547221
336.725315	2464.199179
337.117960	2478.105202
337.510540	2489.974599
337.903056	2500.462719
338.295508	2507.956394
338.687896	2520.702952
339.080220	2526.727131
339.472480	2533.716691
339.864676	2536.368338
340.256807	2542.853782
340.648875	2548.182282
341.040879	2549.349309
341.432818	2552.893240
341.824694	2558.579661
342.216506	2557.200906
342.608253	2557.919270
342.999937	2559.502193
343.391557	2557.939435
343.783113	2555.859959
344.174605	2556.180072
344.566033	2554.720658
344.957397	2553.535987
345.348697	2553.288970
345.739934	2552.734443
346.131106	2549.523228
346.522215	2547.342929
346.913260	2546.143135
347.304241	2544.575336
347.695159	2540.197094
348.086012	2543.529297
348.476802	2539.882022
348.867528	2533.366330
349.258191	2531.564118
349.648789	2531.112935
350.039324	2527.228726
350.429796	2533.141999
350.820203	2528.075639
351.210548	2526.782583
351.600828	2526.228057
351.991045	2525.484486
352.381198	2524.788807
352.771288	2525.119003
353.161314	2524.970289
353.551276	2521.892664
353.941175	2522.631193
354.331010	2521.302849
354.720782	2522.169928
355.110490	2521.668333
355.500135	2522.111954
355.889717	2523.462984
356.279235	2519.213291
356.668689	2521.401152
357.058080	2520.022396
357.447408	2520.546676
357.836672	2522.827798
358.225873	2521.779238
358.615010	2524.844260
359.004084	2522.795031
359.393095	2524.728313
359.782043	2524.425844
360.170927	2523.997346
360.559748	2526.712007
360.948505	2529.270393
361.337199	2526.520443
361.725830	2527.730320
362.114398	2530.076978
362.502903	2526.815351
362.891344	2528.519261
363.279722	2531.909437
363.668037	2531.828778
364.056289	2530.651669
364.444478	2532.254756
364.832603	2530.921371
365.220665	2534.903882
365.608665	2531.417924
365.996601	2531.720394
366.384474	2531.228881
366.772284	2536.060827
367.160031	2533.847761
367.547715	2535.889428
367.935336	2535.468492
368.322893	2534.248532
368.710388	2533.504962
369.097820	2534.225847
369.485189	2533.371372
369.872495	2537.285828
370.259738	2538.215920
370.646918	2536.214582
371.034035	2540.456713
371.421090	2536.766589
371.808081	2533.434386
372.195010	2538.339429
372.581875	2538.296579
372.968678	2538.415046
373.355418	2541.326312
373.742096	2538.772968
374.128710	2538.800694
374.515262	2540.300438
374.901751	2540.428987
375.288177	2540.670962
375.674540	2542.072403
376.060841	2540.189532
376.447079	2536.756506
376.833254	2541.580891
377.219367	2539.491332
377.605417	2543.420912
377.991404	2539.783719
378.377329	2542.132897
378.763191	2540.688606
379.148991	2544.487116
379.534727	2542.142979
379.920402	2543.320089
380.306013	2540.834800
380.691563	2541.971580
381.077049	2542.362269
381.462474	2543.201622
381.847835	2542.528627
382.233134	2544.615665
382.618371	2543.239430
383.003545	2544.913093
383.388657	2543.703216
383.773706	2545.359235
384.158693	2545.447456
384.543618	2546.748073
384.928480	2546.531304
385.313280	2543.728422
385.698017	2545.487785
386.082692	2547.814277
386.467305	2544.676159
386.851856	2548.998948
387.236344	2548.676315
387.620770	2547.451314
388.005133	2541.785057
388.389435	2545.374359
388.773674	2543.632640
389.157851	2547.955430
389.541965	2547.224462
389.926018	2549.843342
390.310008	2548.598177
390.693936	2547.658002
391.077802	2551.002807
391.461606	2546.952240
391.845348	2548.767055
392.229027	2549.314021
392.612645	2551.222097
392.996200	2549.548434
393.379694	2551.401058
393.763125	2550.844011
394.146494	2549.059442
394.529801	2550.488609
394.913047	2549.256047
395.296230	2552.137067
395.679351	2547.930224
396.062410	2551.189330
396.445408	2549.215718
396.828343	2552.089176
397.211217	2554.093034
397.594028	2551.025492
397.976778	2551.695966
398.359466	2550.218908
398.742092	2552.933569
399.124656	2555.214691
399.507158	2550.733105
399.889598	2554.708055
400.271977	2552.820143
400.654294	2553.490617
401.036549	2552.966337
401.418742	2554.866852
401.800874	2554.256872
402.182944	2554.287119
402.564952	2554.705535
402.946898	2552.996583
403.328783	2553.999773
403.710606	2553.553631
404.092367	2555.716286
404.474067	2554.561862
404.855705	2556.210319
405.237282	2556.081770
405.618797	2556.474980
406.000250	2558.163766
406.381642	2552.774773
406.762972	2553.064639
407.144240	2550.912066
407.525447	2554.413148
407.906593	2551.615307
408.287677	2557.130330
408.668700	2556.197716
409.049661	2557.120247
409.430560	2556.311142
409.811399	2557.851215
410.192176	2559.177038
410.572891	2556.505227
410.953545	2560.190310
411.334138	2560.240722
411.714669	2558.914898
412.095139	2558.700649
412.475547	2557.939435
412.855894	2559.224929
413.236180	2557.034548
413.616405	2557.768036
413.996568	2558.292316
414.376670	2557.747871
414.756711	2561.501010
415.136691	2559.396328
415.516609	2560.545711
415.896466	2558.733417
416.276262	2560.424724
416.655997	2563.136864
417.035670	2561.042265
417.415283	2559.015721
417.794834	2559.850032
418.174324	2561.858932
418.553753	2559.272820
418.933121	2564.124931
419.312428	2558.027655
419.691674	2562.393294
420.070859	2560.795248
420.449983	2562.244580
420.829045	2562.804148
421.208047	2560.928839
421.586988	2562.063099
421.965867	2562.231977
422.344686	2563.613253
422.723444	2561.871535
423.102141	2561.281720
423.480777	2562.408418
423.859352	2562.811710
424.237866	2565.100394
424.616319	2561.133006
424.994712	2567.126938
425.373044	2562.085784
425.751314	2561.569066
426.129524	2559.847512
426.507673	2561.556463
426.885762	2557.957079
427.263789	2563.104097
427.641756	2564.182904
428.019662	2565.594427
428.397508	2566.317832
428.775292	2565.299519
429.153016	2566.549726
429.530679	2565.728017
429.908282	2564.414797
430.285824	2563.328428
430.663305	2564.820610
431.040726	2565.463357
431.418086	2563.797256
431.795385	2564.591237
432.172624	2563.933367
432.549802	2565.869170
432.926920	2566.547205
433.303977	2565.130641
433.680974	2566.189283
434.057910	2567.189952
434.434786	2565.816238
434.811601	2564.944118
435.188355	2567.769685
435.565050	2567.263049
435.941683	2567.318502
436.318257	2567.908317
436.694770	2566.025446
437.071222	2567.562998
437.447614	2566.907647
437.823946	2568.392267
438.200218	2566.655590
438.576429	2567.857905
438.952580	2570.101218
439.328670	2565.891855
439.704700	2565.735579
440.080670	2565.899417
440.456580	2568.011660
440.832429	2568.488049
441.208218	2567.968810
441.583947	2567.583162
441.959616	2572.266394
442.335224	2566.675754
442.710773	2570.111301
443.086261	2569.491239
443.461689	2570.812021
443.837057	2567.066444
444.212365	2571.311095
444.587612	2568.515776
444.962800	2567.880590
445.337927	2568.717422
445.712995	2563.545198
446.088002	2570.527196
446.462949	2570.076013
446.837837	2569.680282
447.212664	2569.471074
447.587431	2571.207752
447.962139	2570.544840
448.336786	2574.892835
448.711374	2571.106929
449.085901	2575.006261
449.460369	2572.321847
449.834776	2570.655745
450.209124	2572.498287
450.583412	2573.768658
450.957640	2572.846127
451.331808	2572.659604
451.705917	2572.246229
452.079965	2572.213462
452.453954	2571.094326
452.827883	2573.224213
453.201752	2572.447876
453.575562	2574.706312
453.949311	2573.251940
454.323001	2573.851837
454.696632	2571.298492
455.070202	2574.436611
455.443713	2572.175653
455.817164	2572.785633
456.190556	2574.681107
456.563888	2575.260839
456.937160	2572.526013
457.310373	2575.480130
457.683526	2574.648339
458.056619	2575.371745
458.429653	2572.765468
458.802628	2574.986097
459.175542	2572.699933
459.548398	2576.800912
459.921194	2576.826118
460.293930	2576.153124
460.666607	2577.645305
461.039224	2576.947105
461.411782	2579.959195
461.784280	2577.408371
462.156719	2577.660429
462.529099	2578.073803
462.901419	2577.380645
463.273680	2574.421487
463.645882	2570.869994
464.018024	2574.734039
464.390106	2574.192115
464.762130	2577.572208
465.134094	2580.463310
465.505999	2579.399627
465.877845	2579.873495
466.249631	2582.585636
466.621358	2581.073290
466.993026	2583.127560
467.364634	2587.004207
467.736184	2582.983887
468.107674	2584.801223
468.479105	2585.310380
468.850477	2581.279977
469.221790	2580.959864
469.593043	2581.811819
469.964238	2581.418609
470.335373	2576.934502
470.706449	2582.270564
471.077467	2581.199319
471.448425	2583.422467
471.819324	2585.683425
472.190164	2586.182499
472.560945	2585.045719
472.931667	2582.933476
473.302330	2583.311562
473.672934	2583.016655
474.043479	2580.009606
474.413965	2584.080338
474.784393	2584.523960
475.154761	2584.884402
475.525070	2581.053125
475.895321	2584.382807
476.265513	2582.946078
476.635645	2584.816347
477.005719	2585.764083
477.375734	2586.242993
477.745691	2588.178796
478.115588	2584.581933
478.485427	2587.445308
478.855207	2589.272727
479.224928	2588.352716
479.594591	2589.630648
479.964194	2591.001842
480.333739	2587.394897
480.703226	2592.806575
481.072653	2590.086873
481.442022	2589.471852
481.811333	2589.804568
482.180584	2587.508323
482.549777	2592.269693
482.918912	2588.284660
483.287988	2592.539394
483.657005	2591.125351
484.025964	2593.673654
484.394864	2590.974116
484.763706	2592.501586
485.132489	2591.062336
485.501213	2589.141657
485.869879	2593.386308
486.238487	2592.249528
486.607036	2592.163828
486.975527	2594.283633
487.343959	2593.451843
487.712333	2590.278437
488.080648	2591.168200
488.448905	2592.907398
488.817104	2593.900506
489.185244	2594.805393
489.553326	2593.623242
489.921350	2594.487800
490.289315	2597.825044
490.657222	2595.977461
491.025070	2597.593151
491.392861	2597.600713
491.760593	2599.541557
492.128267	2599.415528
492.495883	2596.559714
492.863440	2593.613160
493.230939	2593.653489
493.598380	2595.208685
493.965763	2594.291195
494.333088	2594.543253
494.700354	2595.959817
495.067563	2596.451330
495.434713	2596.479056
495.801805	2592.867069
496.168839	2595.080136
496.535815	2597.288161
496.902733	2595.319591
497.269593	2598.692122
497.636395	2595.816144
498.003139	2594.679364
498.369825	2595.362440
498.736453	2595.448140
499.103023	2598.356886
499.469535	2598.913933
499.835989	2595.473346
500.202385	2594.951586
500.568723	2595.748089
500.935003	2596.083325
501.301226	2594.460074
501.667390	2598.326639
502.033497	2601.686568
502.399546	2599.730600
502.765537	2600.564911
503.131470	2604.131527
503.497345	2601.805035
503.863163	2603.990375
504.228923	2603.201435
504.594625	2604.580190
504.960269	2602.316712
505.325856	2604.444079
505.691385	2603.619850
506.056856	2604.144130
506.422270	2605.946343
506.787625	2603.125817
507.152924	2605.724532
507.518164	2606.899121
507.883347	2610.682507
508.248472	2606.919286
508.613540	2610.677466
508.978550	2610.692589
509.343503	2610.327106
509.708398	2611.990686
510.073236	2614.672580
510.438016	2614.405399
510.802738	2614.453290
511.167403	2615.234669
511.532010	2617.707355
511.896561	2620.757253
512.261053	2618.705503
512.625488	2622.183899
512.989866	2619.065946
513.354186	2619.713734
513.718449	2623.328241
514.082655	2625.269086
514.446803	2626.552059
514.810894	2627.550208
515.174927	2626.423510
515.538904	2624.636421
515.902822	2626.940228
516.266684	2631.356279
516.630488	2633.723101
516.994235	2633.287041
517.357925	2633.191259
517.721558	2636.198307
518.085133	2636.233595
518.448651	2638.207207
518.812112	2633.380302
519.175516	2638.360962
519.538863	2638.066055
519.902152	2642.928247
520.265385	2648.534011
520.628560	2646.288177
520.991678	2646.578043
521.354739	2648.455873
521.717743	2648.581902
522.080690	2652.783703
522.443580	2655.268992
522.806413	2658.540701
523.169189	2657.797131
523.531908	2662.838285
523.894569	2664.154026
524.257174	2664.075888
524.619722	2668.149140
524.982213	2668.786846
525.344647	2670.561332
525.707025	2675.340346
526.069345	2676.613237
526.431608	2678.601973
526.793815	2679.872343
527.155964	2682.725637
527.518057	2683.048270
527.880093	2685.462983
528.242072	2693.054961
528.603995	2696.094777
528.965860	2695.237780
529.327669	2700.634336
529.689421	2703.545602
530.051117	2705.637681
530.412755	2707.671786
530.774337	2714.310986
531.135862	2715.989690
531.497331	2721.686194
531.858743	2721.918087
532.220098	2731.143399
532.581396	2734.420149
532.942638	2737.316292
533.303824	2742.455748
533.664953	2748.051429
534.026025	2751.262644
534.387040	2760.228336
534.747999	2768.016918
535.108902	2771.376847
535.469748	2774.898093
535.830537	2782.076697
536.191270	2793.131947
536.551947	2794.094807
536.912567	2797.497586
537.273131	2809.916469
537.633638	2814.889567
537.994089	2827.336176
538.354483	2831.606033
538.714821	2847.982221
539.075103	2857.227697
539.435328	2864.403780
539.795497	2872.454503
540.155609	2886.771380
540.515665	2895.815210
540.875665	2901.862074
541.235609	2912.476223
541.595496	2927.014911
541.955328	2944.777416
542.315102	2959.981536
542.674821	2964.049748
543.034483	2972.758341
543.394090	2987.574292
543.753640	2997.132320
544.113134	3023.661392
544.472571	3034.215047
544.831953	3057.873182
545.191278	3069.107394
545.550548	3084.697162
545.909761	3097.017742
546.268918	3127.741054
546.628019	3142.995586
546.987064	3168.004750
547.346053	3183.140814
547.704986	3197.596323
548.063863	3232.909606
548.422684	3243.352356
548.781449	3263.811879
549.140158	3299.803197
549.498811	3323.189109
549.857408	3326.894357
550.215949	3370.069319
550.574434	3387.274778
550.932864	3422.300714
551.291237	3453.434881
551.649555	3485.864623
552.007817	3517.074407
552.366022	3541.708005
552.724173	3567.569124
553.082267	3603.860391
553.440305	3658.042712
553.798288	3663.265348
554.156215	3722.443453
554.514086	3757.224894
554.871902	3761.696397
555.229661	3810.525013
555.587365	3859.235162
555.945014	3883.659553
556.302606	3953.892908
556.660143	3977.767813
557.017625	4047.257598
557.375050	4067.676792
557.732421	4121.770893
558.089735	4167.902492
558.446994	4204.304664
558.804197	4270.177421
559.161345	4322.557530
559.518437	4322.431501
559.875474	4407.627001
560.232455	4454.209783
560.589381	4512.142723
560.946251	4548.938105
561.303065	4636.661744
561.659825	4703.446950
562.016528	4721.171647
562.373177	4756.931072
562.729770	4821.266277
563.086307	4898.305190
563.442789	4966.668278
563.799216	5012.941029
564.155587	5058.024068
564.511904	5136.260255
564.868164	5168.218649
565.224370	5252.458851
565.580520	5284.225682
565.936615	5382.853336
566.292654	5393.049070
566.648638	5518.006671
567.004567	5550.232247
567.360441	5615.232884
567.716260	5636.844311
568.072023	5779.685405
568.427732	5815.623791
568.783385	5849.969172
569.138982	5945.357885
569.494525	6039.849273
569.850013	6091.531182
570.205445	6162.223283
570.560823	6183.290264
570.916145	6251.068578
571.271412	6324.440052
571.626625	6402.441825
571.981782	6469.781558
572.336884	6500.676269
572.691931	6610.167610
573.046923	6608.420851
573.401860	6701.747732
573.756743	6793.219468
574.111570	6838.967939
574.466342	6891.637915
574.821059	6998.999368
575.175722	7001.275449
575.530330	7110.217304
575.884882	7179.066863
576.239380	7261.066272
576.593823	7305.004968
576.948211	7362.635439
577.302544	7403.972901
577.656823	7460.151519
578.011047	7580.700631
578.365216	7627.578321
578.719330	7691.227929
579.073389	7724.522230
579.427394	7878.141311
579.781344	7865.351904
580.135239	7955.825492
580.489080	8011.351281
580.842866	7999.265114
581.196597	8197.077471
581.550273	8215.863331
581.903895	8325.793252
582.257463	8476.801015
582.610975	8444.386396
582.964434	8605.484029
583.317837	8616.496430
583.671186	8728.745282
584.024481	8810.651429
584.377721	8798.328328
584.730906	8900.262980
585.084037	9015.312193
585.437113	9056.054798
585.790135	9197.106283
586.143103	9113.397923
586.496016	9170.993106
586.848874	9395.251355
587.201679	9418.208770
587.554428	9374.073468
587.907124	9584.271939
588.259765	9582.031146
588.612352	9721.532476
588.964884	9641.173963
589.317362	9780.622361
589.669786	9871.973110
590.022155	9967.565990
590.374470	10137.505806
590.726731	10151.363938
591.078937	10120.398651
591.431090	10230.656247
591.783188	10195.524446
592.135232	10256.976111
592.487222	10409.087887
592.839157	10485.302572
593.191038	10535.157063
593.542866	10535.099090
593.894639	10526.418223
594.246358	10693.371156
594.598022	10714.722963
594.949633	10688.226658
595.301190	10724.669159
595.652692	10890.563450
596.004141	11093.956364
596.355535	10840.565286
596.706876	10923.295662
597.058162	10959.256733
597.409395	11116.049221
597.760573	11266.683939
598.111698	11236.565565
598.462768	11266.394072
598.813785	11313.095322
599.164748	11299.469083
599.515657	11377.818696
599.866511	11354.979748
600.217312	11606.198088
600.568060	11427.985738
600.918753	11680.545025
601.269392	11717.685726
601.619978	11645.947587
601.970510	11867.080321
602.320988	11876.663554
602.671412	12074.014645
603.021783	12078.617218
603.372100	11998.389775
603.722363	12162.007985
604.072572	12199.345291
604.422728	12319.682675
604.772830	12288.034311
605.122878	12283.214968
605.472872	12376.350285
605.822813	12448.206892
606.172701	12491.296154
606.522534	12686.756812
606.872314	12781.129733
607.222041	12705.094010
607.571714	12935.341150
607.921333	12898.144996
608.270899	13024.362886
608.620411	13241.485382
608.969870	13096.985748
609.319276	13180.487420
609.668627	13286.734779
610.017926	13440.225310
610.367171	13573.591556
610.716362	13689.712014
611.065500	13592.027056
611.414585	13743.803595
611.763616	13808.267350
612.112594	13836.127287
612.461518	13852.538763
612.810389	14055.271285
613.159207	13988.440709
613.507971	13994.530423
613.856682	14282.493733
614.205340	14278.475934
614.553945	14461.648779
614.902496	14289.465649
615.250994	14566.555191
615.599439	14561.962700
615.947830	14593.769860
616.296169	14656.272606
616.644454	14719.682759
616.992686	14717.457090
617.340864	14932.089256
617.688990	14818.247399
618.037063	14998.501417
618.385082	14924.535087
618.733048	15177.016236
619.080961	15107.836482
619.428821	15203.769640
619.776628	15188.202557
620.124382	15159.004194
620.472083	15244.078706
620.819731	15326.579709
621.167326	15121.891219
621.514868	15209.597214
621.862357	15083.543162
622.209793	15151.908770
622.557176	15071.134362
622.904506	14968.090656
623.251783	14949.934941
623.599007	14838.953939
623.946179	14833.595192
624.293297	14839.944526
624.640363	14693.383060
624.987376	14734.229009
625.334336	14601.545840
625.681243	14515.942006
626.028097	14553.092789
626.374899	14567.341611
626.721647	14466.470643
627.068343	14353.294218
627.414987	14350.400596
627.761577	14372.284245
628.108115	14446.046408
628.454600	14225.180855
628.801032	14320.662830
629.147412	14299.202638
629.493739	14353.574003
629.840014	14218.622314
630.186236	14332.859901
630.532405	14158.836750
630.878521	14357.362430
631.224585	14277.450059
631.570597	14174.633206
631.916556	14204.723853
632.262462	14213.440008
632.608316	14172.936857
632.954117	14140.187001
633.299866	14163.966124
633.645562	14132.549653
633.991206	13926.646245
634.336797	13826.763343
634.682336	13848.107589
635.027823	13767.547430
635.373257	13706.385631
635.718639	13616.665695
636.063968	13598.066358
636.409245	13419.203699
636.754470	13463.333960
637.099642	13341.020444
637.444762	13146.636072
637.789829	13225.061303
638.134845	13088.395622
638.479808	13124.374337
638.824719	13108.535031
639.169577	12965.971201
639.514383	13044.905587
639.859137	12875.164896
640.203839	12972.186943
640.548489	12830.336436
640.893086	12838.382117
641.237632	12716.534908
641.582125	12900.763876
641.926566	12747.046492
642.270955	12763.112649
642.615292	12756.846495
642.959576	12778.200823
643.303809	12832.244513
643.647990	12776.443981
643.992118	12843.662726
644.336195	12631.084830
644.680219	12836.700892
645.024192	12786.148202
645.368112	13027.942105
645.711981	13104.905401
646.055797	13266.129062
646.399562	13240.252820
646.743274	13505.004137
647.086935	13779.620993
647.430544	13751.904729
647.774101	13783.447229
648.117606	13953.356799
648.461059	13919.339093
648.804460	13932.756123
649.147810	13694.816183
649.491108	13598.820010
649.834354	13629.573569
650.177548	13364.227396
650.520690	13191.005788
650.863781	13115.275054
651.206820	13176.797296
651.549807	12994.620078
651.892742	12827.273935
652.235626	12775.302159
652.578458	12791.822020
652.921238	12478.325266
653.263967	12674.600070
653.606644	12517.061492
653.949269	12491.245743
654.291843	12325.543016
654.634365	12465.291362
654.976836	12340.149759
655.319255	12359.089374
655.661622	12312.441057
656.003938	12259.130855
656.346203	12191.733149
656.688416	12252.675658
657.030577	12221.917057
657.372687	12161.524034
657.714746	12133.860703
658.056753	12315.846357
658.398708	12154.998261
658.740612	12166.582832
659.082465	12259.760999
659.424266	12218.728528
659.766016	12246.280954
660.107715	12158.030515
660.449362	12232.632030
660.790958	12201.150024
661.132503	12155.696461
661.473996	12221.919578
661.815438	12242.656364
662.156829	12251.594330
662.498168	12238.724264
662.839456	12235.765107
663.180693	12266.228800
663.521879	12352.845905
663.863013	12336.515087
664.204097	12318.923981
664.545129	12434.404213
664.886110	12401.402299
665.227040	12484.553611
665.567918	12497.063234
665.908746	12538.098227
666.249522	12519.468643
666.590248	12563.026732
666.930922	12677.372705
667.271545	12661.939212
667.612118	12750.469435
667.952639	12663.363338
668.293109	12663.658246
668.633528	12629.174233
668.973896	12603.580295
669.314213	12703.569061
669.654480	12442.631376
669.994695	12503.001714
670.334859	12530.372658
670.674973	12479.840132
671.015035	12521.142306
671.355047	12463.756331
671.695008	12436.375304
672.034918	12433.070827
672.374777	12474.660347
672.714585	12393.175136
673.054342	12424.147985
673.394049	12386.367058
673.733705	12465.200622
674.073310	12402.594532
674.412864	12410.209195
674.752368	12295.633850
675.091820	12293.425825
675.431223	12293.962708
675.770574	12172.329748
676.109875	12092.185484
676.449125	12063.692882
676.788324	11989.073723
677.127473	11836.583860
677.466571	11821.246150
677.805619	11737.744478
678.144616	11645.141002
678.483562	11613.848039
678.822458	11485.202834
679.161303	11461.970677
679.500098	11461.096037
679.838842	11411.075188
680.177535	11427.335429
680.516179	11483.637556
680.854771	11436.485124
681.193314	11649.942701
681.531805	11794.724639
681.870247	12184.985564
682.208638	12590.778284
682.546978	12915.504209
682.885268	12979.678098
683.223508	12675.822550
683.561697	12512.307684
683.899836	12406.758525
684.237925	12223.452089
684.575963	12137.349181
684.913951	12073.107237
685.251889	12020.215451
685.589776	12108.791045
685.927614	12046.421889
686.265401	12002.190805
686.603137	12044.627238
686.940824	12198.382431
687.278460	12309.118937
687.616046	12360.594159
687.953582	12537.992363
688.291068	12457.827934
688.628504	12688.518696
688.965889	12695.568749
689.303224	12671.691324
689.640510	12571.957137
689.977745	12273.697269
690.314930	12042.343596
690.652065	11959.472068
690.989150	11675.130826
691.326185	11444.167842
691.663170	11247.482184
692.000105	11003.308856
692.336990	10897.469831
692.673825	10653.336833
693.010610	10525.994766
693.347345	10323.413478
693.684030	10122.694896
694.020665	10063.615094
694.357251	9870.115445
694.693786	9828.200771
695.030272	9658.999483
695.366707	9535.057675
695.703093	9471.234147
696.039429	9465.131830
696.375716	9399.478363
696.711952	9272.514383
697.048139	9303.721645
697.384276	9262.361499
697.720363	9266.492724
698.056400	9209.472233
698.392388	9164.500100
698.728326	9126.673802
699.064214	9057.867093
699.400053	9112.493036
699.735842	8928.533770
700.071581	8880.647850
700.407270	8811.944485
700.742910	8737.206858
701.078501	8644.142117
701.414042	8522.332717
701.749533	8451.007952
702.084974	8318.831418
702.420366	8425.252697
702.755709	8308.479409
703.091002	8180.499636
703.426246	8204.361938
703.761440	8161.116400
704.096584	8115.418340
704.431679	8049.701859
704.766725	8034.512862
705.101721	7985.593505
705.436668	8030.144702
705.771565	7924.933301
706.106413	8006.055549
706.441212	8055.383239
706.775961	8003.091350
707.110661	8025.463991
707.445311	8180.756735
707.779913	8079.033812
708.114465	8204.235909
708.448967	8251.360615
708.783421	8376.227476
709.117825	8558.318994
709.452180	8591.819982
709.786485	8682.265843
710.120742	8958.770611
710.454949	8958.551321
710.789107	9053.466166
711.123216	9264.027600
711.457275	9423.005428
711.791286	9593.444319
712.125247	9584.029964
712.459159	9570.333149
712.793023	9837.214354
713.126837	9409.752234
713.460602	9557.972240
713.794318	9377.486329
714.127985	9411.491432
714.461602	9111.043704
714.795171	9053.347698
715.128691	8813.880288
715.462162	8558.485352
715.795584	8502.397474
716.128957	8371.927371
716.462281	8195.179476
716.795556	8244.615552
717.128782	8051.398207
717.461960	7766.051255
717.795088	7838.573294
718.128167	7746.605004
718.461198	7585.908143
718.794180	7527.297168
719.127113	7521.512444
719.459997	7383.778038
719.792833	7145.391955
720.125619	7204.534772
720.458357	7059.828451
720.791046	7052.307050
721.123686	7055.578758
721.456278	6900.931282
721.788821	6916.205978
722.121315	6809.431819
722.453761	6871.024637
722.786158	6818.944476
723.118506	6838.221849
723.450805	6799.150386
723.783056	6871.778289
724.115259	6764.116887
724.447412	6760.462051
724.779518	6812.973230
725.111574	6812.869886
725.443582	6895.149078
725.775542	6872.622683
726.107453	7061.159316
726.439315	6973.100440
726.771129	7024.883173
727.102895	7190.180087
727.434612	7307.293652
727.766281	7328.002712
728.097901	7415.229797
728.429473	7402.581542
728.760996	7372.773200
729.092471	7355.915581
729.423897	7311.324055
729.755276	7321.799573
730.086606	7253.834736
730.417887	7351.807041
730.749120	7525.951180
731.080305	7716.652989
731.411442	7854.228598
731.742530	7848.005293
732.073570	7951.810213
732.404562	8034.701905
732.735506	7884.760346
733.066401	8028.786111
733.397249	7963.619116
733.728048	7731.905000
734.058798	7403.622541
734.389501	7185.244797
734.720156	7005.565471
735.050762	6765.576301
735.381320	6664.236506
735.711831	6627.831813
736.042293	6518.388363
736.372707	6539.979625
736.703073	6398.582822
737.033391	6437.046826
737.363661	6446.262055
737.693883	6468.811136
738.024056	6553.585700
738.354182	6603.276353
738.684260	6637.737681
739.014290	6745.709114
739.344272	6846.312901
739.674207	6878.099896
740.004093	6944.799403
740.333931	6959.743903
740.663722	6968.223124
740.993464	7049.365536
741.323159	7051.263531
741.652806	6799.084851
741.982405	6793.559746
742.311956	6858.880497
742.641460	6716.601492
742.970915	6518.927767
743.300323	6507.766652
743.629683	6448.883455
743.958996	6320.661707
744.288260	6232.834724
744.617477	6181.329256
744.946647	6187.658424
745.275768	6032.232089
745.604842	5980.237629
745.933869	5958.011181
746.262847	5913.197844
746.591778	5907.221556
746.920662	5868.613880
747.249498	5852.426735
747.578286	5898.190329
747.907027	5976.597916
748.235720	6030.618920
748.564365	6006.023131
748.892963	6023.712539
749.221514	6185.422672
749.550017	6039.002359
749.878473	5901.804837
750.206881	5951.707218
750.535242	5891.165481
750.863555	5827.122663
751.191821	5847.740982
751.520039	5848.078739
751.848210	5756.710347
752.176334	5771.700218
752.504411	5831.949568
752.832440	5754.729173
753.160421	5678.711094
753.488356	5727.695986
753.816243	5767.664774
754.144082	5616.523420
754.471875	5584.771712
754.799620	5628.349967
755.127318	5639.989991
755.454969	5589.558288
755.782572	5556.095109
756.110129	5601.972129
756.437638	5594.486016
756.765100	5531.940420
757.092515	5524.608062
757.419882	5569.232356
757.747203	5554.822217
758.074477	5618.449141
758.401703	5611.457060
758.728882	5558.023350
759.056014	5606.007573
759.383099	5745.524026
759.710138	5750.819758
760.037129	5728.222786
760.364073	5739.464559
760.690970	5821.773999
761.017820	5812.964582
761.344623	5753.967959
761.671379	5849.490263
761.998088	5964.599969
762.324751	6190.975503
762.651366	6760.008347
762.977935	8013.932352
763.304456	9610.775806
763.630931	10541.513958
763.957359	10205.964676
764.283740	9281.699365
764.610074	8480.589443
764.936362	7504.548961
765.262602	6909.813795
765.588796	6367.234407
765.914943	6021.128948
766.241044	5868.417275
766.567097	5679.694119
766.893104	5417.256691
767.219064	5237.358074
767.544978	5178.338766
767.870845	5107.631542
768.196665	4996.363194
768.522438	4919.949384
768.848165	4896.049274
769.173846	4832.992001
769.499479	4790.825270
769.825066	4736.032968
770.150607	4672.839584
770.476101	4649.367972
770.801548	4645.070388
771.126949	4579.416921
771.452303	4526.663767
771.777611	4476.882373
772.102872	4494.150845
772.428087	4461.448880
772.753256	4420.055966
773.078378	4380.999627
773.403453	4311.315757
773.728482	4300.268068
774.053465	4249.498608
774.378401	4235.756423
774.703291	4240.706836
775.028135	4177.450437
775.352932	4123.696614
775.677683	4107.718677
776.002388	4127.641317
776.327046	4146.225530
776.651658	4068.256524
776.976224	3997.720700
777.300743	4011.462885
777.625216	4029.018703
777.949643	4030.684805
778.274024	3986.126046
778.598359	3936.392542
778.922647	3953.136735
779.246889	3950.399388
779.571086	3946.999130
779.895236	3937.315074
780.219339	3914.912186
780.543397	3908.151999
780.867409	3958.984473
781.191374	3973.717246
781.515294	3919.252619
781.839167	3909.162750
782.162995	3925.289401
782.486776	3914.249274
782.810511	3918.491405
783.134201	3920.628854
783.457844	3883.674676
783.781441	3823.024554
784.104993	3828.211902
784.428498	3847.204449
784.751958	3846.786033
785.075372	3825.333403
785.398739	3787.474337
785.722061	3795.721665
786.045337	3838.959642
786.368568	3876.682596
786.691752	3788.840490
787.014891	3831.546625
787.337983	3950.669090
787.661030	4103.645424
787.984031	4268.866721
788.306987	4442.279893
788.629897	4521.078168
788.952760	4474.361796
789.275579	4408.990633
789.598351	4351.556767
789.921078	4219.246644
790.243759	4019.344729
790.566395	3989.498578
790.888984	3992.792972
791.211529	3884.740880
791.534027	3823.798371
791.856480	3823.505984
792.178888	3757.131632
792.501249	3707.882080
792.823566	3717.959346
793.145836	3748.849017
793.468062	3700.373281
793.790241	3652.255468
794.112375	3677.735980
794.434464	3738.623036
794.756507	3766.971965
795.078505	3753.043257
795.400457	3775.488994
795.722364	3909.349273
796.044226	4013.093698
796.366042	4087.002055
796.687812	4072.352462
797.009538	4079.299172
797.331218	4033.371740
797.652852	4005.940301
797.974442	3986.786437
798.295986	3993.017303
798.617484	3911.877411
798.938938	3821.295438
799.260346	3861.042416
799.581709	3862.688353
799.903026	3792.787713
800.224299	3754.802619
800.545526	3748.715426
800.866708	3710.790826
801.187845	3644.660969
801.508936	3681.214376
801.829983	3689.005479
802.150984	3608.969600
802.471940	3592.865634
802.792851	3608.805763
803.113717	3605.471039
803.434538	3612.289200
803.755314	3557.852300
804.076045	3525.067156
804.396731	3541.730690
804.717372	3569.051223
805.037967	3561.043351
805.358518	3548.357287
805.679024	3571.440730
805.999485	3584.285590
806.319901	3587.489244
806.640272	3603.328549
806.960598	3619.805560
807.280879	3589.727516
807.601115	3601.206223
807.921306	3617.005199
808.241453	3659.749143
808.561554	3637.671410
808.881611	3575.466092
809.201623	3603.477263
809.521590	3619.490488
809.841513	3591.534770
810.161390	3619.079634
810.481223	3601.536419
810.801011	3544.770506
811.120755	3534.229453
811.440453	3571.886872
811.760107	3579.650249
812.079716	3537.793549
812.399281	3503.095287
812.718801	3522.798637
813.038276	3499.339628
813.357707	3495.226046
813.677093	3518.274201
813.996434	3463.368474
814.315731	3469.206130
814.634983	3470.078250
814.954191	3483.172647
815.273354	3516.235055
815.592473	3514.952081
815.911547	3519.647916
816.230577	3555.341806
816.549562	3600.152622
816.868502	3649.495436
817.187399	3668.805576
817.506250	3664.074453
817.825058	3633.908188
818.143821	3721.871282
818.462539	3824.579750
818.781213	3873.325187
819.099843	3924.064401
819.418429	4148.879698
819.736970	4387.878281
820.055466	4622.334785
820.373919	4979.429958
820.692327	5381.882914
821.010691	5783.773781
821.329011	7052.929632
821.647286	9652.486312
821.965517	14022.576882
822.283704	18018.984361
822.601847	20325.370219
822.919945	18603.448176
823.237999	16126.759539
823.556010	13681.555427
823.873976	11657.927889
824.191897	9602.089897
824.509775	8244.847445
824.827609	7130.964173
825.145398	6580.145019
825.463144	6462.466844
825.780845	6576.459935
826.098502	6740.736016
826.416116	7539.496760
826.733685	8816.531935
827.051210	9934.657337
827.368692	10062.304394
827.686129	8877.214824
828.003522	7378.184878
828.320872	6371.441249
828.638177	5683.094377
828.955439	5145.782994
829.272656	4650.915606
829.589830	4365.281309
829.906960	4197.204198
830.224046	4013.265097
830.541088	3886.031416
830.858086	3842.024663
831.175041	3769.427007
831.491952	3744.276690
831.808819	3757.658433
832.125642	3820.388031
832.442421	3958.913897
832.759157	4219.382755
833.075849	4736.869800
833.392497	5565.632972
833.709101	6331.537996
834.025662	6688.892789
834.342179	6376.048864
834.658653	5726.702878
834.975083	5095.706693
835.291469	4534.071742
835.607811	4119.978763
835.924110	3987.061180
836.240366	3795.540183
836.556578	3587.164089
836.872746	3478.885146
837.188871	3441.348714
837.504952	3383.710682
837.820990	3300.282106
838.136984	3251.445928
838.452935	3280.125053
838.768842	3272.044083
839.084706	3295.578710
839.400526	3435.874021
839.716303	3755.790685
840.032037	4252.162858
840.347727	4532.140981
840.663373	4285.331129
840.978977	3919.958381
841.294537	3615.036629
841.610054	3385.833008
841.925527	3280.672018
842.240957	3212.051832
842.556344	3159.187772
842.871687	3104.337497
843.186987	3051.574261
843.502244	3017.246523
843.817458	2982.868375
844.132629	2949.039712
844.447756	2960.949438
844.762840	2948.379321
845.077881	2917.232552
845.392879	2898.693708
845.707833	2894.174314
846.022745	2893.907133
846.337613	2896.241187
846.652438	2883.053529
846.967221	2883.025802
847.281960	2866.861342
847.596656	2864.330683
847.911309	2865.364120
848.225919	2854.964219
848.540485	2853.625793
848.855009	2854.334075
849.169490	2843.563650
849.483928	2833.849347
849.798323	2831.903461
850.112675	2828.503203
850.426984	2840.400326
850.741251	2839.371931
851.055474	2830.842298
851.369654	2824.908860
851.683792	2824.762667
851.997887	2836.805983
852.311938	2835.278514
852.625947	2825.765856
852.939914	2830.098728
853.253837	2837.209276
853.567718	2820.671770
853.881555	2818.279743
854.195350	2835.270952
854.509103	2830.784325
854.822812	2825.952379
855.136479	2821.559013
855.450103	2820.220587
855.763685	2815.978456
856.077224	2810.869247
856.390720	2822.864672
856.704173	2833.035200
857.017584	2826.365754
857.330953	2822.307625
857.644278	2832.001764
857.957561	2840.291941
858.270802	2844.541634
858.584000	2843.639267
858.897155	2830.416321
859.210268	2829.231650
859.523339	2830.038234
859.836367	2827.363902
860.149352	2820.666729
860.462295	2816.827891
860.775195	2823.159580
861.088054	2828.210816
861.400869	2809.949236
861.713642	2806.828762
862.026373	2818.917449
862.339062	2822.867193
862.651708	2828.346927
862.964312	2831.301043
863.276873	2826.123778
863.589392	2832.112669
863.901869	2844.672704
864.214303	2863.902185
864.526696	2882.405740
864.839045	2878.899618
865.151353	2879.383569
865.463619	2875.930378
865.775842	2874.425594
866.088023	2890.930332
866.400162	2902.681261
866.712258	2873.994575
867.024313	2863.148533
867.336325	2870.939636
867.648296	2890.990825
867.960224	2886.360526
868.272110	2870.007023
868.583954	2876.247971
868.895755	2890.262379
869.207515	2875.995913
869.519233	2880.301059
869.830909	2889.985115
870.142542	2901.052968
870.454134	2899.898544
870.765684	2902.512383
871.077191	2904.995151
871.388657	2909.932961
871.700081	2923.266813
872.011463	2936.209975
872.322803	2933.938936
872.634101	2934.710232
872.945357	2951.860238
873.256571	2976.143476
873.567744	2968.480922
873.878874	2957.579427
874.189963	2981.885350
874.501010	2986.261071
874.812015	2976.682879
875.122979	2976.191367
875.433900	2974.459730
875.744780	2977.668425
876.055618	2985.648571
876.366415	2981.424084
876.677169	2992.706187
876.987882	2990.747698
877.298554	2981.240082
877.609183	3000.474605
877.919771	3023.890764
878.230317	3046.144938
878.540822	3097.668051
878.851285	3138.168681
879.161707	3173.048424
879.472087	3265.654420
879.782425	3473.170998
880.092722	3883.089902
880.402977	4391.485227
880.713191	4985.698633
881.023363	6079.717238
881.333494	7327.060017
881.643583	7900.529075
881.953631	7627.253166
882.263637	7035.192332
882.573602	6485.905689
882.883526	5916.187248
883.193408	5353.425601
883.503248	4895.308224
883.813048	4601.119089
884.122806	4321.597190
884.432522	4016.458668
884.742197	3788.938792
885.051831	3600.840740
885.361424	3459.017958
885.670975	3392.590674
885.980485	3312.786688
886.289954	3240.725915
886.599382	3198.155891
886.908768	3160.405210
887.218113	3116.708489
887.527417	3061.346537
887.836680	3015.219980
888.145901	3008.177488
888.455082	3001.140037
888.764221	2953.584312
889.073319	2923.849066
889.382376	2921.948551
889.691392	2921.870413
890.000366	2924.617842
890.309300	2908.682755
890.618193	2921.734302
890.927044	2943.086109
891.235855	2942.682817
891.544625	2925.583223
891.853353	2933.883483
892.162041	2952.412244
892.470687	2989.089159
892.779293	3041.975904
893.087858	3085.327306
893.396381	3153.188799
893.704864	3259.552104
894.013306	3483.896053
894.321707	3775.267183
894.630068	3982.128411
894.938387	3988.318948
895.246665	3938.330866
895.554903	3827.982529
895.863100	3636.194352
896.171256	3475.174857
896.479371	3341.624609
896.787446	3223.916187
897.095480	3123.803913
897.403473	3061.255797
897.711425	3022.809437
898.019336	3019.053777
898.327207	2990.430106
898.635038	2957.345013
898.942827	2943.751542
899.250576	2932.834923
899.558284	2900.332083
899.865952	2884.054198
900.173579	2862.321783
900.481165	2856.337934
900.788711	2844.224041
901.096216	2818.927531
901.403681	2808.318423
901.711105	2817.011893
902.018489	2814.816470
902.325832	2814.045174
902.633135	2821.473314
902.940397	2850.495237
903.247619	2924.088521
903.554800	3105.197014
903.861941	3420.909356
904.169041	3830.616532
904.476101	4135.056854
904.783121	4108.923512
905.090100	3878.419273
905.397039	3616.110395
905.703938	3371.233826
906.010796	3193.167669
906.317614	3082.320258
906.624391	2993.416989
906.931129	2925.444591
907.237826	2864.378574
907.544483	2821.937100
907.851099	2787.379990
908.157675	2769.299892
908.464211	2753.200967
908.770707	2739.824266
909.077163	2728.156515
909.383578	2713.083465
909.689954	2700.664582
909.996289	2701.135930
910.302584	2700.714994
910.608839	2701.491332
910.915054	2694.801721
911.221229	2690.925073
911.527363	2691.005732
911.833458	2697.518902
912.139513	2699.321115
912.445527	2703.749769
912.751502	2713.514484
913.057436	2722.422202
913.363331	2734.571383
913.669186	2749.412540
913.975000	2782.522839
914.280775	2839.354287
914.586510	2906.207548
914.892205	2983.054898
915.197859	3098.625870
915.503475	3276.031636
915.809050	3479.790033
916.114585	3624.080459
916.420081	3649.896208
916.725536	3597.962241
917.030952	3483.031495
917.336328	3363.987167
917.641665	3236.438413
917.946961	3138.934936
918.252218	3075.814649
918.557435	3001.583658
918.862612	2946.899742
919.167750	2896.082391
919.472848	2861.101824
919.777906	2836.306909
920.082925	2808.603248
920.387904	2780.942437
920.692843	2764.699839
920.997743	2752.679208
921.302603	2743.249730
921.607423	2732.325549
921.912204	2721.734085
922.216946	2710.295707
922.521647	2702.426466
922.826310	2693.196113
923.130932	2687.335772
923.435516	2680.061387
923.740059	2672.141734
924.044564	2666.694767
924.349028	2661.641011
924.653454	2654.417037
924.957840	2648.193733
925.262186	2642.877836
925.566493	2640.417753
925.870761	2636.125210
926.174989	2630.847122
926.479178	2626.032820
926.783328	2621.823457
927.087438	2621.374794
927.391509	2618.392952
927.695541	2618.009824
927.999533	2616.162241
928.303486	2611.393310
928.607400	2610.831221
928.911275	2611.539503
929.215110	2607.183946
929.518906	2609.462548
929.822663	2607.241919
930.126381	2605.719491
930.430060	2606.460541
930.733699	2608.688731
931.037299	2609.034050
931.340861	2611.055552
931.644383	2611.620162
931.947866	2609.654112
932.251309	2610.949688
932.554714	2611.594956
932.858080	2605.028853
933.161407	2604.428956
933.464694	2603.272011
933.767943	2598.639190
934.071153	2602.215889
934.374323	2599.312184
934.677455	2606.488267
934.980548	2602.104984
935.283602	2598.074581
935.586617	2601.547936
935.889593	2598.472832
936.192530	2597.719180
936.495428	2598.606423
936.798287	2602.689757
937.101108	2607.544389
937.403890	2607.199070
937.706632	2613.775255
938.009336	2619.476800
938.312002	2627.396452
938.614628	2636.256280
938.917216	2641.428504
939.219765	2642.895480
939.522275	2642.580408
939.824747	2640.533699
940.127179	2637.824079
940.429573	2636.389871
940.731929	2634.259983
941.034246	2630.204375
941.336524	2628.301340
941.638763	2625.014507
941.940964	2619.421347
942.243126	2615.617797
942.545250	2620.696759
942.847335	2615.590070
943.149381	2613.266098
943.451389	2606.082454
943.753359	2607.360387
944.055290	2606.047166
944.357182	2604.073554
944.659036	2603.196393
944.960851	2604.655807
945.262628	2600.638008
945.564367	2604.464244
945.866067	2600.209510
946.167729	2601.540374
946.469352	2601.873091
946.770937	2602.571290
947.072484	2600.489294
947.373992	2601.384099
947.675462	2599.186156
947.976893	2596.221957
948.278286	2593.814806
948.579641	2594.893613
948.880958	2593.088880
949.182236	2593.383787
949.483476	2593.356061
949.784678	2593.444281
950.085841	2594.646597
950.386967	2595.329673
950.688054	2595.095259
950.989103	2597.683892
951.290114	2597.464602
951.591087	2598.815631
951.892021	2599.110538
952.192917	2603.340066
952.493776	2605.490118
952.794596	2606.185798
953.095378	2605.974069
953.396122	2603.551795
953.696828	2603.430807
953.997496	2602.747731
954.298126	2599.438213
954.598718	2596.272369
954.899272	2592.849425
955.199788	2592.667944
955.500266	2590.233066
955.800706	2589.315576
956.101108	2586.429516
956.401472	2583.840883
956.701798	2583.034299
957.002087	2578.764441
957.302337	2579.465162
957.602550	2577.277301
957.902724	2576.763103
958.202861	2576.231262
958.502960	2573.730849
958.803022	2572.795715
959.103045	2573.413257
959.403031	2573.042732
959.702979	2569.821434
960.002889	2570.209603
960.302762	2572.951991
960.602596	2570.872515
960.902393	2571.663976
961.202153	2570.781774
961.501875	2570.844789
961.801559	2570.474264
962.101205	2570.580128
962.400814	2570.907803
962.700385	2568.435117
962.999918	2566.325394
963.299414	2565.967472
963.598873	2565.354972
963.898293	2561.173335
964.197677	2567.626012
964.497022	2566.577452
964.796331	2568.001578
965.095601	2567.986454
965.394835	2568.810683
965.694030	2567.096691
965.993189	2568.712381
966.292309	2567.041238
966.591393	2571.323698
966.890439	2566.839592
967.189447	2566.988306
967.488419	2565.254149
967.787353	2566.433779
968.086249	2567.749520
968.385108	2567.822617
968.683930	2566.955538
968.982714	2569.644994
969.281462	2564.477811
969.580172	2564.011505
969.878844	2566.058213
970.177480	2566.012843
970.476078	2568.296485
970.774639	2566.794222
971.073162	2568.329253
971.371649	2566.968141
971.670098	2570.128945
971.968510	2569.153482
972.266885	2570.249932
972.565223	2569.627350
972.863524	2570.252453
973.161788	2568.208265
973.460014	2568.465364
973.758204	2566.368244
974.056356	2568.220868
974.354471	2565.894376
974.652550	2567.731876
974.950591	2569.110632
975.248595	2567.678944
975.546563	2569.667679
975.844493	2566.337997
976.142386	2567.373954
976.440243	2563.797256
976.738062	2567.043759
977.035845	2566.184242
977.333590	2566.118707
977.631299	2564.780281
977.928971	2562.335321
978.226606	2564.528223
978.524204	2561.513613
978.821765	2560.669220
979.119290	2564.871021
979.416777	2562.045455
979.714228	2566.622822
980.011642	2564.997050
980.309020	2566.211968
980.606360	2563.812379
980.903664	2567.973852
981.200931	2565.944787
981.498162	2567.880590
981.795356	2564.414797
982.092513	2564.722307
982.389633	2570.353276
982.686717	2577.599935
982.983764	2576.637074
983.280775	2581.927765
983.577749	2583.455235
983.874686	2582.202508
984.171587	2579.649164
984.468451	2578.194791
984.765279	2576.989955
985.062070	2576.034657
985.358824	2569.040056
985.655543	2569.183728
985.952224	2568.530899
986.248869	2567.162226
986.545478	2562.967986
986.842050	2566.090981
987.138586	2563.736762
987.435086	2563.318346
987.731549	2562.756257
988.027975	2564.097204
988.324366	2562.358006
988.620719	2562.678119
988.917037	2561.826164
989.213318	2565.617112
989.509563	2560.006308
989.805772	2561.642162
990.101944	2566.020404
990.398080	2562.705846
990.694180	2562.846998
990.990244	2558.982954
991.286271	2562.912533
991.582262	2563.446895
991.878217	2561.037224
992.174136	2562.345403
992.470019	2562.763819
992.765865	2560.384394
993.061676	2560.598643
993.357450	2559.030845
993.653188	2557.858776
993.948890	2563.288099
994.244556	2559.678633
994.540186	2564.684499
994.835780	2562.128634
995.131337	2565.390260
995.426859	2566.469067
995.722345	2567.169787
996.017795	2565.629715
996.313208	2566.947977
996.608586	2566.017884
996.903928	2569.589541
997.199234	2567.580642
997.494504	2566.769016
997.789738	2564.681978
998.084936	2566.022925
998.380099	2567.295816
998.675225	2565.007132
998.970316	2562.864642
999.265371	2562.531926
999.560390	2562.138716
999.855373	2562.925136
1000.150320	2563.008315
1000.445232	2561.886658
1000.740108	2560.868345
1001.034948	2560.548232
1001.329752	2562.726010
1001.624521	2561.465722
1001.919254	2560.684343
1002.213951	2562.433623
1002.508613	2560.606205
1002.803239	2560.583520
1003.097829	2558.685526
1003.392384	2559.693756
1003.686903	2559.245094
1003.981386	2561.737944
1004.275834	2559.169476
1004.570246	2561.571586
1004.864623	2560.959086
1005.158964	2559.371123
1005.453270	2560.243242
1005.747540	2559.071174
1006.041775	2557.866338
1006.335974	2561.329611
1006.630138	2559.613098
1006.924266	2561.420352
1007.218359	2559.540001
1007.512416	2556.863148
1007.806438	2555.257541
1008.100425	2559.048489
1008.394376	2554.660164
1008.688292	2558.834240
1008.982172	2560.263407
1009.276017	2562.050496
1009.569827	2558.448591
1009.863602	2558.007490
1010.157341	2557.420196
1010.451045	2560.550752
1010.744714	2561.349775
1011.038347	2559.431616
1011.331945	2559.920608
1011.625508	2561.430434
1011.919036	2561.130485
1012.212528	2561.921946
1012.505986	2559.235011
1012.799408	2558.771225
1013.092795	2559.345917
1013.386147	2559.353478
1013.679464	2560.165104
1013.972745	2563.237687
1014.265992	2556.290977
1014.559204	2559.819785
1014.852380	2560.467573
1015.145521	2559.991184
1015.438628	2559.534960
1015.731699	2557.669733
1016.024736	2562.088304
1016.317737	2556.719476
1016.610703	2557.631924
1016.903635	2557.432799
1017.196531	2559.066133
1017.489393	2561.042265
1017.782219	2559.524878
1018.075011	2560.255845
1018.367768	2559.267779
1018.660490	2561.521175
1018.953177	2561.521175
1019.245829	2561.521175
