Dividing Wavelength (nm)	Counts (n)	Blue Motor Position (mm): 41.000000	Red Motor Position (mm): 0.000000	
326.493990	2095.063209
326.888308	2095.063209
327.282561	2095.063209
327.676750	2072.322564
328.070874	2074.011351
328.464933	2080.905129
328.858929	2091.073136
329.252859	2103.728953
329.646726	2120.475666
330.040528	2133.829682
330.434265	2154.011942
330.827938	2172.994407
331.221547	2194.426872
331.615091	2211.793647
332.008571	2233.785681
332.401986	2255.447519
332.795338	2275.385282
333.188625	2294.498817
333.581847	2316.367343
333.975006	2331.941987
334.368100	2349.321365
334.761129	2366.168901
335.154095	2382.403937
335.546996	2431.043510
335.939833	2512.132990
336.332606	2527.689991
336.725315	2539.211548
337.117960	2546.508618
337.510540	2551.138918
337.903056	2563.018397
338.295508	2570.794377
338.687896	2575.316292
339.080220	2583.886254
339.472480	2587.568817
339.864676	2591.810948
340.256807	2597.262955
340.648875	2599.869232
341.040879	2597.336052
341.432818	2601.454675
341.824694	2599.549119
342.216506	2601.600868
342.608253	2598.966865
342.999937	2597.091556
343.391557	2600.963162
343.783113	2599.516351
344.174605	2597.399067
344.566033	2595.128027
344.957397	2592.010073
345.348697	2590.089393
345.739934	2592.675505
346.131106	2589.083683
346.522215	2588.579568
346.913260	2584.218970
347.304241	2585.829618
347.695159	2582.036150
348.086012	2580.685121
348.476802	2580.657395
348.867528	2580.755697
349.258191	2578.096488
349.648789	2576.372414
350.039324	2572.039542
350.429796	2577.231931
350.820203	2574.224882
351.210548	2570.849830
351.600828	2572.725139
351.991045	2575.018864
352.381198	2571.527865
352.771288	2571.280848
353.161314	2569.665159
353.551276	2571.860581
353.941175	2568.931671
354.331010	2571.192628
354.720782	2573.451065
355.110490	2574.862588
355.500135	2570.975859
355.889717	2574.207238
356.279235	2570.776733
356.668689	2573.987948
357.058080	2574.466858
357.447408	2573.141034
357.836672	2571.989131
358.225873	2573.256981
358.615010	2570.398647
359.004084	2575.124728
359.393095	2575.152455
359.782043	2576.059862
360.170927	2576.503484
360.559748	2577.665470
360.948505	2580.917014
361.337199	2583.467838
361.725830	2579.986921
362.114398	2582.199988
362.502903	2579.306365
362.891344	2584.649988
363.279722	2583.639237
363.668037	2583.104875
364.056289	2586.651327
364.444478	2586.535380
364.832603	2586.285843
365.220665	2586.921028
365.608665	2585.580081
365.996601	2586.958837
366.384474	2589.406317
366.772284	2591.309353
367.160031	2589.252562
367.547715	2591.354723
367.935336	2593.522419
368.322893	2591.400093
368.710388	2594.034096
369.097820	2595.299426
369.485189	2594.704570
369.872495	2593.701380
370.259738	2595.521237
370.646918	2595.697677
371.034035	2595.490990
371.421090	2594.949066
371.808081	2597.724221
372.195010	2599.932246
372.581875	2599.954932
372.968678	2600.950559
373.355418	2602.097422
373.742096	2600.325456
374.128710	2600.965683
374.515262	2602.291506
374.901751	2606.765530
375.288177	2607.080603
375.674540	2605.636312
376.060841	2608.577825
376.447079	2606.095057
376.833254	2607.350304
377.219367	2607.443566
377.605417	2609.354163
377.991404	2606.561364
378.377329	2608.363576
378.763191	2606.957094
379.148991	2614.468413
379.534727	2617.977057
379.920402	2616.255502
380.306013	2612.623351
380.691563	2616.953702
381.077049	2618.093003
381.462474	2617.452777
381.847835	2617.989659
382.233134	2622.945114
382.618371	2625.276647
383.003545	2623.832357
383.388657	2624.976699
383.773706	2626.128602
384.158693	2629.362503
384.543618	2631.449540
384.928480	2634.106228
385.313280	2630.610188
385.698017	2633.256794
386.082692	2633.334932
386.467305	2637.771147
386.851856	2639.651498
387.236344	2643.482774
387.620770	2646.204997
388.005133	2649.080976
388.389435	2656.110865
388.773674	2659.667399
389.157851	2662.379540
389.541965	2673.502846
389.926018	2678.662467
390.310008	2685.152952
390.693936	2696.661906
391.077802	2708.773278
391.461606	2722.883468
391.845348	2741.051787
392.229027	2759.315887
392.612645	2786.679270
392.996200	2813.251192
393.379694	2843.903928
393.763125	2886.199209
394.146494	2920.040474
394.529801	2960.543625
394.913047	3014.617562
395.296230	3056.529715
395.679351	3102.729369
396.062410	3173.723939
396.445408	3215.578119
396.828343	3283.071607
397.211217	3354.310673
397.594028	3399.981006
397.976778	3487.132473
398.359466	3582.586722
398.742092	3644.771875
399.124656	3748.385230
399.507158	3857.944627
399.889598	3942.457051
400.271977	4071.833223
400.654294	4165.197913
401.036549	4303.885096
401.418742	4401.456629
401.800874	4581.967745
402.182944	4701.468297
402.564952	4922.603552
402.946898	4971.593485
403.328783	5093.798616
403.710606	5269.881078
404.092367	5474.264579
404.474067	5734.970371
404.855705	5777.671464
405.237282	5876.432709
405.618797	6179.136354
406.000250	6416.408342
406.381642	6708.031530
406.762972	6823.315157
407.144240	6858.502411
407.525447	7110.229907
407.906593	7212.262861
408.287677	7482.695559
408.668700	7711.324489
409.049661	7831.629105
409.430560	8059.098569
409.811399	8175.811363
410.192176	8397.929643
410.572891	8585.228673
410.953545	9020.623048
411.334138	8809.350811
411.714669	9331.768105
412.095139	8999.919029
412.475547	9461.744174
412.855894	9491.451694
413.236180	9839.782822
413.616405	9726.639165
413.996568	10046.570953
414.376670	10143.867743
414.756711	10159.659157
415.136691	10479.061623
415.516609	10729.380118
415.896466	10896.166693
416.276262	11224.746580
416.655997	11689.853516
417.035670	11825.949546
417.415283	12446.573558
417.794834	12623.651649
418.174324	12492.130465
418.553753	12494.099036
418.933121	13040.739074
419.312428	12954.565590
419.691674	12953.398563
420.070859	13453.644862
420.449983	13205.957850
420.829045	13791.621460
421.208047	13622.029483
421.586988	14104.722484
421.965867	14391.508685
422.344686	14457.315908
422.723444	15052.096444
423.102141	13866.868243
423.480777	15043.498756
423.859352	14607.844761
424.237866	15700.976123
424.616319	15471.686802
424.994712	16137.406456
425.373044	15975.681199
425.751314	16666.727609
426.129524	15847.330902
426.507673	16934.362467
426.885762	16683.000454
427.263789	16893.307310
427.641756	17093.771313
428.019662	17152.410015
428.397508	17231.732571
428.775292	17533.783386
429.153016	17522.541613
429.530679	17616.569214
429.908282	17663.111667
430.285824	17404.810506
430.663305	18122.310371
431.040726	17733.423160
431.418086	17591.003003
431.795385	18232.414212
432.172624	18666.601231
432.549802	18245.034741
432.926920	18449.138457
433.303977	18336.854317
433.680974	18601.204863
434.057910	18909.544517
434.434786	18954.010015
434.811601	18877.946565
435.188355	19928.911195
435.565050	19600.981617
435.941683	19563.893848
436.318257	20454.655651
436.694770	20260.414952
437.071222	20860.682784
437.447614	19926.708211
437.823946	19953.995977
438.200218	20142.552775
438.576429	19918.748229
438.952580	20224.516895
439.328670	20200.198369
439.704700	20621.679160
440.080670	20186.725885
440.456580	20802.124741
440.832429	20976.440279
441.208218	19990.539301
441.583947	20434.685120
441.959616	20563.635314
442.335224	20802.807817
442.710773	20950.160744
443.086261	21488.434988
443.461689	20838.068168
443.837057	20980.964715
444.212365	21639.427627
444.587612	21657.268271
444.962800	21250.217783
445.337927	21685.347498
445.712995	20404.677651
446.088002	22294.404582
446.462949	22494.059480
446.837837	22688.262370
447.212664	22728.004307
447.587431	25712.284205
447.962139	28681.606999
448.336786	30947.802258
448.711374	29228.930113
449.085901	25524.793611
449.460369	25554.586830
449.834776	25565.269035
450.209124	28135.551735
450.583412	27596.922091
450.957640	28056.211535
451.331808	26711.355197
451.705917	25346.072104
452.079965	25394.003395
452.453954	25778.585460
452.827883	25701.765837
453.201752	25491.224567
453.575562	25660.657748
453.949311	26794.075491
454.323001	26880.690076
454.696632	26652.272874
455.070202	28258.765097
455.443713	28444.463560
455.817164	29029.123981
456.190556	29594.751524
456.563888	28988.419184
456.937160	29407.669264
457.310373	27698.289612
457.683526	28154.256936
458.056619	28159.202308
458.429653	28147.514393
458.802628	28772.967830
459.175542	28915.279603
459.548398	30287.458995
459.921194	31929.070416
460.293930	32681.059335
460.666607	34765.228611
461.039224	36562.778043
461.411782	36882.021714
461.784280	35572.357671
462.156719	35009.938821
462.529099	34427.841828
462.901419	33115.188381
463.273680	32072.161047
463.645882	32206.527962
464.018024	32220.249983
464.390106	33186.772765
464.762130	36123.280169
465.134094	40527.212004
465.505999	46011.992430
465.877845	50488.388331
466.249631	51433.198865
466.621358	49541.871367
466.993026	47296.165878
467.364634	45157.209343
467.736184	43199.033625
468.107674	41937.321037
468.479105	41157.494867
468.850477	40415.303430
469.221790	38961.681677
469.593043	37189.411111
469.964238	36294.704605
470.335373	36254.539212
470.706449	38145.937285
471.077467	40985.800728
471.448425	45635.791283
471.819324	48311.973502
472.190164	46254.681138
472.560945	42635.137718
472.931667	39504.182928
473.302330	38408.251205
473.672934	37572.354801
474.043479	38119.181361
474.413965	37331.644746
474.784393	36962.624722
475.154761	37900.269256
475.525070	37933.992054
475.895321	37457.887841
476.265513	38088.173224
476.635645	39089.028785
477.005719	38947.102660
477.375734	39449.118404
477.745691	40177.734014
478.115588	41570.987949
478.485427	43721.763470
478.855207	47223.686689
479.224928	49853.623883
479.594591	51366.617825
479.964194	50242.785837
480.333739	50370.702595
480.703226	50469.327729
481.072653	51138.046869
481.442022	51608.883076
481.811333	51806.226605
482.180584	50508.903307
482.549777	49996.159987
482.918912	49481.206122
483.287988	49167.563174
483.657005	48320.614040
484.025964	47646.304260
484.394864	47644.812078
484.763706	47214.068168
485.132489	46334.638879
485.501213	46175.789601
485.869879	46321.310068
486.238487	45918.932730
486.607036	46097.853362
486.975527	45553.970836
487.343959	45768.605522
487.712333	45842.241657
488.080648	45753.666063
488.448905	46204.078036
488.817104	46013.398912
489.185244	47041.005356
489.553326	48852.196151
489.921350	51634.229998
490.289315	54424.304485
490.657222	54912.646099
491.025070	55133.526775
491.392861	54197.147572
491.760593	52932.788379
492.128267	51235.084039
492.495883	49678.569816
492.863440	48265.461296
493.230939	46910.530212
493.598380	45804.135575
493.965763	45465.884234
494.333088	44645.086085
494.700354	44162.166232
495.067563	43856.994943
495.434713	43703.053228
495.801805	43797.272393
496.168839	43395.563008
496.535815	43049.752457
496.902733	43107.410654
497.269593	42652.214626
497.636395	42580.766353
498.003139	42981.366684
498.369825	42436.372583
498.736453	42736.316196
499.103023	42252.582196
499.469535	42116.478604
499.835989	42231.127045
500.202385	41878.914229
500.568723	41901.470872
500.935003	42093.135541
501.301226	41891.988462
501.667390	42512.191537
502.033497	42752.808331
502.399546	42175.008921
502.765537	41455.631226
503.131470	41842.882582
503.497345	42207.209291
503.863163	40837.822698
504.228923	41481.935967
504.594625	41893.150448
504.960269	41149.250060
505.325856	41865.754297
505.691385	41213.819679
506.056856	41353.159692
506.422270	41789.920220
506.787625	41355.554240
507.152924	41555.345249
507.518164	41654.008191
507.883347	40839.793790
508.248472	41093.043715
508.613540	41586.512182
508.978550	41864.836807
509.343503	41635.209729
509.708398	41824.346259
510.073236	42351.048534
510.438016	42353.133051
510.802738	41808.456542
511.167403	42444.859366
511.532010	42677.811085
511.896561	42958.505052
512.261053	43817.109333
512.625488	43361.409190
512.989866	43234.044438
513.354186	43068.568563
513.718449	43065.059920
514.082655	43752.229683
514.446803	43401.546857
514.810894	43937.126604
515.174927	43841.775699
515.538904	43750.543418
515.902822	44413.074541
516.266684	43856.558883
516.630488	44279.393223
516.994235	44127.946880
517.357925	44731.095732
517.721558	44881.828752
518.085133	45192.605804
518.448651	45297.799562
518.812112	45060.888016
519.175516	45179.219020
519.538863	45513.061872
519.902152	45478.466954
520.265385	45944.897193
520.628560	45964.799668
520.991678	45744.891935
521.354739	45980.550753
521.717743	46299.479352
522.080690	46183.421908
522.443580	46716.024853
522.806413	46766.827081
523.169189	46737.701814
523.531908	46901.617452
523.894569	46741.409583
524.257174	46913.938032
524.619722	47199.726085
524.982213	47174.411931
525.344647	47103.636651
525.707025	47141.243659
526.069345	47548.316832
526.431608	47439.977395
526.793815	47769.850338
527.155964	47301.501940
527.518057	47453.848130
527.880093	47240.491375
528.242072	47773.343857
528.603995	47455.456258
528.965860	47473.372518
529.327669	47555.903769
529.689421	47456.477091
530.051117	47413.357582
530.412755	47542.995894
530.774337	47629.328174
531.135862	47417.072912
531.497331	47618.771998
531.858743	47500.917383
532.220098	47853.110035
532.581396	47537.979946
532.942638	47201.939151
533.303824	47524.278090
533.664953	47490.719129
534.026025	47198.314562
534.387040	47667.502312
534.747999	47619.026577
535.108902	47778.513561
535.469748	47260.396371
535.830537	47385.870691
536.191270	47577.411852
536.551947	47234.174810
536.912567	47554.898058
537.273131	47670.012807
537.633638	47145.009401
537.994089	47492.402874
538.354483	47055.423056
538.714821	47653.845826
539.075103	47992.092126
539.435328	47748.284282
539.795497	47615.943911
540.155609	47625.597721
540.515665	48088.310109
540.875665	47513.220319
541.235609	47851.975775
541.595496	47815.450095
541.955328	48511.154532
542.315102	47851.564921
542.674821	47611.333776
543.034483	47662.216662
543.394090	47638.916449
543.753640	47586.891741
544.113134	48594.489846
544.472571	47580.393694
544.831953	48814.896654
545.191278	48021.537505
545.550548	47749.337883
545.909761	48216.453719
546.268918	48384.855984
546.628019	48701.828614
546.987064	48254.358155
547.346053	47507.546500
547.704986	48402.091689
548.063863	47947.606464
548.422684	48129.392992
548.781449	47954.999316
549.140158	48360.272797
549.498811	48191.810038
549.857408	47602.862117
550.215949	48466.184919
550.574434	48380.528153
550.932864	48140.097882
551.291237	48859.611688
551.649555	48473.262699
552.007817	48691.988282
552.366022	48323.638732
552.724173	48485.817692
553.082267	48885.162777
553.440305	49168.687351
553.798288	48460.528744
554.156215	48775.898288
554.514086	48978.444287
554.871902	48712.437722
555.229661	48727.110001
555.587365	48550.485614
555.945014	48642.872320
556.302606	48567.796936
556.660143	48785.804155
557.017625	48849.811685
557.375050	48649.980347
557.732421	48975.659050
558.089735	48948.366243
558.446994	48869.678873
558.804197	49317.411472
559.161345	49220.318849
559.518437	48468.781113
559.875474	48797.088778
560.232455	48958.020052
560.589381	49124.620105
560.946251	48801.209921
561.303065	49465.470160
561.659825	49264.043297
562.016528	48924.904713
562.373177	48641.886774
562.729770	49111.220718
563.086307	48628.850350
563.442789	49077.049257
563.799216	49104.616806
564.155587	48885.336696
564.511904	48920.372716
564.868164	48975.868258
565.224370	49219.484538
565.580520	48947.063105
565.936615	49150.080452
566.292654	48851.513075
566.648638	49115.732551
567.004567	49068.799408
567.360441	49105.562023
567.716260	48960.185228
568.072023	49230.307895
568.427732	49196.645590
568.783385	48741.109285
569.138982	49126.797883
569.494525	49062.389581
569.850013	48819.970575
570.205445	48798.747317
570.560823	48735.621989
570.916145	48616.759143
571.271412	48645.481117
571.626625	48372.497595
571.981782	48398.754445
572.336884	48099.687993
572.691931	48393.441069
573.046923	47997.939864
573.401860	47818.986464
573.756743	47784.477246
574.111570	47881.199344
574.466342	47738.600225
574.821059	47825.913010
575.175722	47340.170110
575.530330	47355.149899
575.884882	47055.440700
576.239380	47012.898403
576.593823	46973.710993
576.948211	46896.840959
577.302544	46418.606858
577.656823	46412.197031
578.011047	46638.101217
578.365216	46352.623195
578.719330	46135.004146
579.073389	45960.597867
579.427394	46057.130922
579.781344	46019.725560
580.135239	45644.212531
580.489080	45726.151445
580.842866	45188.688828
581.196597	45626.621424
581.550273	45576.802221
581.903895	45432.776456
582.257463	45842.312233
582.610975	45208.601386
582.964434	45495.624521
583.317837	45115.483712
583.671186	44941.949553
584.024481	45148.256253
584.377721	44658.190565
584.730906	44942.123473
585.084037	44980.854658
585.437113	44705.058172
585.790135	44705.196804
586.143103	44282.599397
586.496016	44396.010235
586.848874	44419.020582
587.201679	44428.172797
587.554428	43904.863219
587.907124	44075.586935
588.259765	43840.870812
588.612352	44082.997431
588.964884	43442.670070
589.317362	43739.329371
589.669786	43662.013194
590.022155	43418.530505
590.374470	43819.488758
590.726731	43345.600132
591.078937	42843.193698
591.431090	42952.707725
591.783188	42586.162908
592.135232	42274.632203
592.487222	42515.349820
592.839157	42592.870163
593.191038	42247.107503
593.542866	41998.949143
593.894639	41397.264747
594.246358	41666.543020
594.598022	41648.601554
594.949633	41230.458007
595.301190	41176.963803
595.652692	41024.925123
596.004141	41330.703872
596.355535	40350.040652
596.706876	40294.265326
597.058162	40118.155137
597.409395	40589.916396
597.760573	40663.355926
598.111698	40238.343807
598.462768	40257.550603
598.813785	40283.815014
599.164748	39709.506603
599.515657	40109.212130
599.866511	39579.490205
600.217312	40206.027490
600.568060	39181.846510
600.918753	39931.428278
601.269392	39853.068583
601.619978	39512.049648
601.970510	39716.967511
602.320988	39885.672245
602.671412	40188.476713
603.021783	39931.657651
603.372100	39589.582595
603.722363	39680.628354
604.072572	39758.599880
604.422728	39774.734093
604.772830	39583.064383
605.122878	39669.371457
605.472872	39613.223086
605.822813	39882.607224
606.172701	39704.225995
606.522534	39948.157347
606.872314	40208.701822
607.222041	39961.103030
607.571714	40348.266166
607.921333	39798.137650
608.270899	40078.347666
608.620411	40412.803018
608.969870	40194.639523
609.319276	40211.476977
609.668627	40258.276529
610.017926	40725.815822
610.367171	40892.030226
610.716362	40975.720941
611.065500	40899.382749
611.414585	41093.694024
611.763616	41389.521534
612.112594	41339.714934
612.461518	41539.538711
612.810389	41834.952847
613.159207	41700.180119
613.507971	41776.145267
613.856682	42238.880340
614.205340	42135.395534
614.553945	42836.022657
614.902496	42267.549382
615.250994	42740.800302
615.599439	42818.620594
615.947830	43011.157383
616.296169	43082.194802
616.644454	43196.452554
616.992686	43370.707599
617.340864	43869.486922
617.688990	43575.627982
618.037063	44214.178337
618.385082	44145.628727
618.733048	44452.592146
619.080961	44450.694152
619.428821	44478.591897
619.776628	44579.172999
620.124382	44406.117749
620.472083	44541.860898
620.819731	44651.090099
621.167326	44314.162062
621.514868	44299.663703
621.862357	43848.810629
622.209793	43867.606572
622.557176	43528.871280
622.904506	43261.168367
623.251783	42926.735700
623.599007	42693.272304
623.946179	42472.656288
624.293297	42417.485900
624.640363	41829.054697
624.987376	41814.243787
625.334336	41580.051944
625.681243	41241.372105
626.028097	41191.673890
626.374899	41042.503627
626.721647	41028.832018
627.068343	40931.497419
627.414987	40682.683709
627.761577	40442.502976
628.108115	40790.211521
628.454600	40240.254404
628.801032	40440.882245
629.147412	40408.543243
629.493739	40394.584288
629.840014	40048.826669
630.186236	40372.115865
630.532405	39964.094955
630.878521	40185.814983
631.224585	40056.325385
631.570597	39777.975555
631.916556	39919.417729
632.262462	39880.736956
632.608316	39886.201566
632.954117	39785.237337
633.299866	39763.875448
633.645562	39693.377432
633.991206	39195.273623
634.336797	38759.672560
634.682336	38748.014892
635.027823	38510.011937
635.373257	38306.545926
635.718639	38084.543593
636.063968	37935.910213
636.409245	37355.128961
636.754470	37410.511077
637.099642	37174.108688
637.444762	36687.959976
637.789829	36846.398400
638.134845	36494.102405
638.479808	36434.067303
638.824719	36353.905396
639.169577	35970.724771
639.514383	36025.479264
639.859137	35730.060087
640.203839	35965.953319
640.548489	35591.337615
640.893086	35669.190674
641.237632	35420.709681
641.582125	35531.385693
641.926566	35465.207946
642.270955	35419.267911
642.615292	35442.928566
642.959576	35418.534423
643.303809	35414.504020
643.647990	35566.938430
643.992118	35526.503335
644.336195	35511.112693
644.680219	35610.839319
645.024192	35922.352379
645.368112	36431.549247
645.711981	36444.910825
646.055797	37323.841040
646.399562	37236.394664
646.743274	38202.257056
647.086935	38639.519179
647.430544	38520.981488
647.774101	38624.032754
648.117606	38856.944144
648.461059	39153.510184
648.804460	38750.585881
649.147810	38124.162021
649.491108	37864.144347
649.834354	37503.714450
650.177548	36676.123347
650.520690	36229.978711
650.863781	36243.315083
651.206820	36093.181960
651.549807	35663.025343
651.892742	35181.123803
652.235626	34993.877705
652.578458	34843.046382
652.921238	34251.129221
653.263967	34583.865539
653.606644	34254.990745
653.949269	34206.356213
654.291843	33798.582320
654.634365	34214.101946
654.976836	33809.279648
655.319255	33801.004594
655.661622	33806.965758
656.003938	33588.421657
656.346203	33459.499188
656.688416	33663.862524
657.030577	33478.373268
657.372687	33312.194152
657.714746	33559.815629
658.056753	33686.819939
658.398708	33136.204951
658.740612	33209.757906
659.082465	33471.950838
659.424266	33299.866011
659.766016	33434.152267
660.107715	33293.166317
660.449362	33424.591719
660.790958	33391.796492
661.132503	33400.164808
661.473996	33443.178453
661.815438	33549.178795
662.156829	33738.436313
662.498168	33520.633261
662.839456	33538.068092
663.180693	33678.494473
663.521879	33855.975856
663.863013	33814.111594
664.204097	33796.036537
664.545129	34249.967235
664.886110	34208.990216
665.227040	34301.530677
665.567918	34422.823359
665.908746	34465.499247
666.249522	34632.424454
666.590248	34628.457066
666.930922	34735.541256
667.271545	34696.953744
667.612118	34763.827170
667.952639	34544.005136
668.293109	34600.584526
668.633528	34493.863299
668.973896	34426.382414
669.314213	34454.912824
669.654480	34190.552196
669.994695	34227.909666
670.334859	34102.342086
670.674973	34003.543032
671.015035	34151.896628
671.355047	34102.977271
671.695008	34040.318249
672.034918	33951.646874
672.374777	34052.958943
672.714585	33868.868607
673.054342	34101.908547
673.394049	33856.056515
673.733705	34140.375071
674.073310	33786.044970
674.412864	33859.018193
674.752368	33475.966118
675.091820	33786.982625
675.431223	33334.445806
675.770574	33057.847776
676.109875	32918.769903
676.449125	32650.356187
676.788324	32558.894533
677.127473	32029.338966
677.466571	31947.422736
677.805619	31609.695676
678.144616	31618.447119
678.483562	31525.573941
678.822458	31207.686342
679.161303	31134.594652
679.500098	31052.781766
679.838842	30941.019385
680.177535	31098.106780
680.516179	31387.413558
680.854771	31654.821564
681.193314	32517.236958
681.531805	33651.047911
681.870247	34415.415384
682.208638	35104.059684
682.546978	35304.238862
682.885268	35374.638576
683.223508	34855.152713
683.561697	34533.189340
683.899836	34323.663863
684.237925	33828.476362
684.575963	33675.109338
684.913951	33209.977197
685.251889	33383.745770
685.589776	33372.229254
685.927614	33364.886813
686.265401	33510.462733
686.603137	33626.187461
686.940824	34137.673013
687.278460	34503.305380
687.616046	34644.185466
687.953582	35234.020630
688.291068	35078.536322
688.628504	35365.055342
688.965889	35274.974964
689.303224	34897.747942
689.640510	34543.473294
689.977745	33783.358035
690.314930	32980.955057
690.652065	32464.319967
690.989150	31724.092059
691.326185	30826.282724
691.663170	30113.660175
692.000105	29382.395439
692.336990	28696.848928
692.673825	28239.661644
693.010610	27729.615342
693.347345	27156.196695
693.684030	26491.588616
694.020665	26222.645579
694.357251	25556.363837
694.693786	25511.306004
695.030272	25270.545537
695.366707	24735.200204
695.703093	24461.286590
696.039429	24442.397386
696.375716	24187.748541
696.711952	24157.423480
697.048139	23993.734694
697.384276	23822.769002
697.720363	23959.520383
698.056400	23752.676799
698.392388	23519.785574
698.728326	23491.441686
699.064214	23278.389922
699.400053	23233.054825
699.735842	22853.400488
700.071581	22577.150298
700.407270	22282.487294
700.742910	22090.099220
701.078501	21835.372236
701.414042	21557.549207
701.749533	21245.617730
702.084974	20910.423849
702.420366	21106.365937
702.755709	20672.133548
703.091002	20375.620441
703.426246	20390.562421
703.761440	20283.800864
704.096584	20023.475680
704.431679	19971.322423
704.766725	19880.450583
705.101721	19825.328087
705.436668	19918.697818
705.771565	19600.222923
706.106413	19947.661767
706.441212	19941.524162
706.775961	20073.914945
707.110661	20138.550099
707.445311	20500.598206
707.779913	20344.667756
708.114465	20578.473951
708.448967	20867.616891
708.783421	21561.846790
709.117825	21826.172131
709.452180	22050.347201
709.786485	22458.531948
710.120742	23258.610955
710.454949	23280.645838
710.789107	23750.221757
711.123216	24445.495175
711.457275	24554.845364
711.791286	25087.768422
712.125247	25145.650951
712.459159	24832.128990
712.793023	25482.175696
713.126837	24378.324321
713.460602	24623.581497
713.794318	24239.107816
714.127985	23849.169525
714.461602	22955.463689
714.795171	22907.219847
715.128691	21886.862582
715.462162	21356.679391
715.795584	20932.279772
716.128957	20669.665903
716.462281	20279.495719
716.795556	20043.421005
717.128782	19535.549961
717.461960	19004.666049
717.795088	18914.409231
718.128167	18522.056227
718.461198	18058.668324
718.794180	17915.204648
719.127113	17563.886636
719.459997	17364.551851
719.792833	17013.606885
720.125619	16985.142010
720.458357	16666.858679
720.791046	16498.930283
721.123686	16337.699060
721.456278	16107.540140
721.788821	16064.428192
722.121315	15807.919161
722.453761	15892.113992
722.786158	15803.752647
723.118506	15824.628065
723.450805	15687.934658
723.783056	15847.527507
724.115259	15747.921868
724.447412	15672.082750
724.779518	15913.569142
725.111574	15936.156032
725.443582	16150.208466
725.775542	16134.228008
726.107453	16593.716578
726.439315	16484.615927
726.771129	16882.894807
727.102895	17257.939009
727.434612	17461.765462
727.766281	17579.801559
728.097901	17827.692737
728.429473	17849.397425
728.760996	17845.470366
729.092471	17929.261905
729.423897	17806.030899
729.755276	17671.212801
730.086606	17800.533521
730.417887	18325.121031
730.749120	18840.684876
731.080305	19001.210338
731.411442	19332.547737
731.742530	19404.921062
732.073570	19491.417179
732.404562	19771.221383
732.735506	19577.998997
733.066401	19272.651267
733.397249	18738.989680
733.728048	18100.693903
734.058798	17279.623532
734.389501	16598.024244
734.720156	16141.772095
735.050762	15627.040040
735.381320	15271.810093
735.711831	15040.471543
736.042293	14702.494945
736.372707	14718.087234
736.703073	14507.177960
737.033391	14704.334967
737.363661	14674.559391
737.693883	14771.016829
738.024056	14944.394713
738.354182	15136.341687
738.684260	15411.979376
739.014290	15630.329393
739.344272	15807.672144
739.674207	16088.098930
740.004093	16201.703852
740.333931	16191.908890
740.663722	16225.321658
740.993464	16210.243567
741.323159	16029.984508
741.652806	15760.706234
741.982405	15535.359096
742.311956	15197.800914
742.641460	15076.021760
742.970915	14773.035811
743.300323	14444.576912
743.629683	14237.279624
743.958996	13957.009115
744.288260	13687.448536
744.617477	13392.972055
744.946647	13328.120131
745.275768	13046.062532
745.604842	12867.643495
745.933869	12705.774565
746.262847	12653.593582
746.591778	12577.860328
746.920662	12479.265441
747.249498	12480.198054
747.578286	12598.710540
747.907027	12750.870207
748.235720	12967.188639
748.564365	12995.310716
748.892963	12886.981361
749.221514	12947.034106
749.550017	12802.549596
749.878473	12752.460691
750.206881	12531.758976
750.535242	12446.744957
750.863555	12368.329809
751.191821	12258.911565
751.520039	12283.721604
751.848210	12196.567615
752.176334	12223.668858
752.504411	12135.393213
752.832440	11972.110240
753.160421	12029.523942
753.488356	11908.924418
753.816243	11818.745738
754.144082	11680.620643
754.471875	11622.198711
754.799620	11571.857748
755.127318	11537.242666
755.454969	11500.837973
755.782572	11460.007148
756.110129	11465.207098
756.437638	11381.014787
756.765100	11378.622760
757.092515	11383.311033
757.419882	11393.063145
757.747203	11401.980946
758.074477	11470.218005
758.401703	11430.932293
758.728882	11593.002868
759.056014	11639.600774
759.383099	11750.491035
759.710138	11846.638442
760.037129	11930.329157
760.364073	11945.800458
760.690970	11938.435333
761.017820	11937.278388
761.344623	12129.762245
761.671379	12466.375210
761.998088	13130.479174
762.324751	14761.050468
762.651366	17681.534564
762.977935	21270.914240
763.304456	23372.636814
763.630931	23710.880593
763.957359	22483.208397
764.283740	20573.581511
764.610074	18710.454228
764.936362	16595.440653
765.262602	15111.143479
765.588796	13669.481864
765.914943	12661.772854
766.241044	11824.217910
766.567097	11201.474093
766.893104	10665.765797
767.219064	10311.256735
767.544978	9941.483060
767.870845	9635.810176
768.196665	9449.927710
768.522438	9260.120706
768.848165	9096.792362
769.173846	8930.378833
769.499479	8813.613107
769.825066	8651.098910
770.150607	8473.357907
770.476101	8407.439780
770.801548	8301.026063
771.126949	8163.500866
771.452303	8075.746980
771.777611	7913.346209
772.102872	7889.902323
772.428087	7771.997296
772.753256	7646.452401
773.078378	7566.378713
773.403453	7417.737771
773.728482	7317.496948
774.053465	7251.243583
774.378401	7168.283835
774.703291	7070.092240
775.028135	6978.572613
775.352932	6936.902435
775.677683	6858.338573
776.002388	6771.350943
776.327046	6774.163907
776.651658	6681.633528
776.976224	6613.252797
777.300743	6592.337049
777.625216	6525.211565
777.949643	6489.270659
778.274024	6489.026163
778.598359	6427.304796
778.922647	6433.182781
779.246889	6394.275156
779.571086	6395.459827
779.895236	6405.920221
780.219339	6403.785292
780.543397	6405.252268
780.867409	6455.444517
781.191374	6451.318332
781.515294	6420.637870
781.839167	6465.330219
782.162995	6438.919614
782.486776	6391.384054
782.810511	6347.725141
783.134201	6272.420385
783.457844	6254.347848
783.781441	6211.167845
784.104993	6172.189644
784.428498	6139.986753
784.751958	6124.084433
785.075372	6101.379076
785.398739	6060.492798
785.722061	6088.420790
786.045337	6087.384833
786.368568	6196.261153
786.691752	6225.386420
787.014891	6475.972095
787.337983	6759.206803
787.661030	7204.345729
787.984031	7621.755788
788.306987	7866.937347
788.629897	7939.081299
788.952760	7846.671908
789.275579	7667.143817
789.598351	7365.685337
789.921078	7102.683300
790.243759	6827.033008
790.566395	6626.942050
790.888984	6436.925838
791.211529	6299.045239
791.534027	6139.749819
791.856480	6004.198233
792.178888	5945.851918
792.501249	5882.204830
792.823566	5781.560714
793.145836	5771.511174
793.468062	5759.220841
793.790241	5720.653494
794.112375	5764.660246
794.434464	5859.791860
794.756507	5897.114043
795.078505	6018.341190
795.400457	6233.409416
795.722364	6470.555375
796.044226	6657.957749
796.366042	6808.988197
796.687812	6753.366627
797.009538	6780.588857
797.331218	6691.040321
797.652852	6619.546677
797.974442	6495.257029
798.295986	6427.342604
798.617484	6297.389220
798.938938	6192.956677
799.260346	6125.359845
799.581709	5992.507797
799.903026	5934.491678
800.224299	5867.915680
800.545526	5749.642649
800.866708	5688.211148
801.187845	5639.085104
801.508936	5558.119132
801.829983	5532.883116
802.150984	5430.013330
802.471940	5399.441253
802.792851	5387.773502
803.113717	5364.785841
803.434538	5343.718859
803.755314	5308.438344
804.076045	5298.948372
804.396731	5263.635089
804.717372	5281.367348
805.037967	5285.929592
805.358518	5307.931708
805.679024	5368.065111
805.999485	5381.414087
806.319901	5395.988062
806.640272	5409.936935
806.960598	5457.049038
807.280879	5451.057627
807.601115	5484.359489
807.921306	5448.317760
808.241453	5438.641265
808.561554	5450.616526
808.881611	5422.275159
809.201623	5420.218368
809.521590	5363.931365
809.841513	5351.315878
810.161390	5369.217015
810.481223	5279.345845
810.801011	5265.301190
811.120755	5241.010390
811.440453	5189.000806
811.760107	5159.167258
812.079716	5133.505264
812.399281	5082.203962
812.718801	5077.429989
813.038276	5044.864135
813.357707	5005.091952
813.677093	5035.109503
813.996434	4970.166838
814.315731	4987.223582
814.634983	4987.944467
814.954191	4995.889326
815.273354	5055.304365
815.592473	5097.410603
815.911547	5170.635883
816.230577	5224.049428
816.549562	5312.017563
816.868502	5361.297362
817.187399	5415.978758
817.506250	5501.098641
817.825058	5525.722157
818.143821	5681.052710
818.462539	5852.388926
818.781213	6091.626964
819.099843	6460.387368
819.418429	7092.893379
819.736970	7714.170220
820.055466	8411.545799
820.373919	9342.288993
820.692327	10842.342293
821.010691	13673.915559
821.329011	20100.101218
821.647286	29647.413938
821.965517	39694.204181
822.283704	44640.425538
822.601847	45764.091169
822.919945	41073.647875
823.237999	36036.146345
823.556010	30965.665587
823.873976	26381.860341
824.191897	22309.109628
824.509775	19311.412699
824.827609	16631.696631
825.145398	15143.933664
825.463144	14465.941322
825.780845	14826.562783
826.098502	16147.347611
826.416116	18591.883769
826.733685	20759.867269
827.051210	21128.000049
827.368692	19618.797055
827.686129	17068.772232
828.003522	14654.165403
828.320872	12487.764826
828.638177	10889.114118
828.955439	9688.215490
829.272656	8647.335688
829.589830	7820.062177
829.906960	7109.808971
830.224046	6586.527119
830.541088	6187.050965
830.858086	5938.217091
831.175041	5745.352627
831.491952	5691.646694
831.808819	5735.025823
832.125642	6000.422409
832.442421	6570.685293
832.759157	7717.595684
833.075849	9496.634000
833.392497	11296.540172
833.709101	12326.465547
834.025662	11978.807413
834.342179	10910.236553
834.658653	9632.004104
834.975083	8550.442191
835.291469	7674.030033
835.607811	6952.441792
835.924110	6447.721469
836.240366	5961.050997
836.556578	5520.917937
836.872746	5170.658568
837.188871	4904.215943
837.504952	4691.096123
837.820990	4533.723903
838.136984	4417.303496
838.452935	4375.514851
838.768842	4420.116460
839.084706	4724.481164
839.400526	5485.604654
839.716303	6374.251693
840.032037	6883.282202
840.347727	6695.136258
840.663373	6089.199648
840.978977	5527.988155
841.294537	5103.391932
841.610054	4779.578455
841.925527	4545.500038
842.240957	4345.603165
842.556344	4163.854445
842.871687	4005.600023
843.186987	3858.978063
843.502244	3744.818614
843.817458	3659.179492
844.132629	3588.184923
844.447756	3542.300341
844.762840	3494.900892
845.077881	3461.344451
845.392879	3425.479162
845.707833	3402.783887
846.022745	3373.792212
846.337613	3360.551621
846.652438	3336.399453
846.967221	3330.576920
847.281960	3310.679486
847.596656	3304.677992
847.911309	3287.845580
848.225919	3276.966770
848.540485	3264.988988
848.855009	3262.581837
849.169490	3248.133890
849.483928	3239.044690
849.798323	3235.536047
850.112675	3221.380487
850.426984	3224.997515
850.741251	3218.396124
851.055474	3214.196842
851.369654	3215.424363
851.683792	3213.506204
851.997887	3217.471072
852.311938	3218.965774
852.625947	3219.174982
852.939914	3213.486040
853.253837	3217.483675
853.567718	3213.012171
853.881555	3208.611244
854.195350	3213.720453
854.509103	3207.275338
854.822812	3208.858261
855.136479	3204.225440
855.450103	3205.795760
855.763685	3199.199410
856.077224	3204.497662
856.390720	3210.284907
856.704173	3224.831157
857.017584	3227.634038
857.330953	3232.027404
857.644278	3239.833630
857.957561	3241.663569
858.270802	3239.707602
858.584000	3237.333218
858.897155	3232.718042
859.210268	3226.456929
859.523339	3209.100236
859.836367	3209.720298
860.149352	3205.987323
860.462295	3201.679657
860.775195	3191.730940
861.088054	3189.192719
861.400869	3187.516536
861.713642	3185.086700
862.026373	3194.813606
862.339062	3197.934080
862.651708	3208.502859
862.964312	3225.622618
863.276873	3230.716704
863.589392	3262.677619
863.901869	3287.379273
864.214303	3307.869043
864.526696	3330.065243
864.839045	3346.554857
865.151353	3356.659850
865.463619	3358.089017
865.775842	3357.723534
866.088023	3362.452136
866.400162	3358.988863
866.712258	3357.237062
867.024313	3356.231352
867.336325	3354.600539
867.648296	3356.730426
867.960224	3354.986187
868.272110	3359.457691
868.583954	3355.694469
868.895755	3365.181921
869.207515	3363.031869
869.519233	3384.388717
869.830909	3387.103378
870.142542	3394.985222
870.454134	3404.702046
870.765684	3418.010693
871.077191	3435.584155
871.388657	3448.061011
871.700081	3469.566573
872.011463	3489.978205
872.322803	3508.577542
872.634101	3523.275026
872.945357	3545.917368
873.256571	3572.401070
873.567744	3589.551076
873.878874	3593.667178
874.189963	3602.905092
874.501010	3612.916824
874.812015	3604.828292
875.122979	3623.125160
875.433900	3620.735653
875.744780	3621.562402
876.055618	3631.521202
876.366415	3624.539204
876.677169	3633.888024
876.987882	3651.965601
877.298554	3675.880835
877.609183	3710.979869
877.919771	3762.755039
878.230317	3829.351202
878.540822	3936.848767
878.851285	4096.507150
879.161707	4320.614165
879.472087	4709.637487
879.782425	5359.701837
880.092722	6583.688950
880.402977	8540.712764
880.713191	10881.643128
881.023363	13176.164631
881.333494	14400.313060
881.643583	14790.397545
881.953631	14347.350698
882.263637	13516.765149
882.573602	12503.430212
882.883526	11573.700290
883.193408	10641.127158
883.503248	9742.191125
883.813048	8936.561808
884.122806	8179.425871
884.432522	7420.812875
884.742197	6776.923938
885.051831	6229.144600
885.361424	5744.132668
885.670975	5354.953070
885.980485	5039.553280
886.289954	4777.516623
886.599382	4563.643151
886.908768	4390.154362
887.218113	4226.100092
887.527417	4093.111933
887.836680	3971.841936
888.145901	3875.523130
888.455082	3795.020945
888.764221	3730.589957
889.073319	3669.899506
889.382376	3640.446565
889.691392	3617.095940
890.000366	3608.798201
890.309300	3606.842233
890.618193	3607.973972
890.927044	3602.368209
891.235855	3610.633181
891.544625	3624.672794
891.853353	3655.900222
892.162041	3715.307699
892.470687	3812.239006
892.779293	3937.720887
893.087858	4111.716312
893.396381	4395.704672
893.704864	4823.050846
894.013306	5395.224328
894.321707	5952.397857
894.630068	6279.646879
894.938387	6295.629857
895.246665	6114.503720
895.554903	5792.913393
895.863100	5460.673628
896.171256	5191.483574
896.479371	4959.892967
896.787446	4737.452053
897.095480	4546.157909
897.403473	4398.575609
897.711425	4258.396244
898.019336	4134.335969
898.327207	4012.362731
898.635038	3913.356990
898.942827	3810.779592
899.250576	3721.077300
899.558284	3638.180566
899.865952	3582.276691
900.173579	3520.043646
900.481165	3477.203921
900.788711	3433.696243
901.096216	3402.829258
901.403681	3376.383365
901.711105	3367.843650
902.018489	3363.208309
902.325832	3400.974113
902.633135	3467.693784
902.940397	3646.266577
903.247619	4075.490580
903.554800	4843.810317
903.861941	5795.539834
904.169041	6455.010977
904.476101	6618.873683
904.783121	6325.382747
905.090100	5929.173261
905.397039	5524.330798
905.703938	5174.482283
906.010796	4864.831929
906.317614	4614.400008
906.624391	4378.295048
906.931129	4186.423691
907.237826	4007.452647
907.544483	3836.668437
907.851099	3668.843384
908.157675	3510.092409
908.464211	3367.788197
908.770707	3270.798918
909.077163	3191.388142
909.383578	3133.102321
909.689954	3087.618511
909.996289	3061.608677
910.302584	3042.333826
910.608839	3026.796989
910.915054	3016.203005
911.221229	3013.039681
911.527363	3017.768283
911.833458	3024.334386
912.139513	3036.223947
912.445527	3049.262892
912.751502	3084.311514
913.057436	3134.254225
913.363331	3188.829756
913.669186	3280.253602
913.975000	3400.573341
914.280775	3593.279009
914.586510	3869.095659
914.892205	4253.483640
915.197859	4754.380248
915.503475	5328.000541
915.809050	5808.208254
916.114585	6072.775569
916.420081	6122.456140
916.725536	6051.769081
917.030952	5814.202186
917.336328	5610.678202
917.641665	5401.556017
917.946961	5181.943191
918.252218	4980.675123
918.557435	4761.238738
918.862612	4563.126433
919.167750	4395.434971
919.472848	4199.399621
919.777906	4036.209909
920.082925	3878.308368
920.387904	3728.011407
920.692843	3619.336733
920.997743	3520.542721
921.302603	3425.292639
921.607423	3363.183103
921.912204	3296.060140
922.216946	3248.978283
922.521647	3201.286447
922.826310	3157.539314
923.130932	3123.887092
923.435516	3084.266143
923.740059	3055.345044
924.044564	3024.954448
924.349028	3000.449399
924.653454	2969.186683
924.957840	2943.686007
925.262186	2923.929725
925.566493	2904.233937
925.870761	2877.654453
926.174989	2866.861343
926.479178	2852.123529
926.783328	2833.788853
927.087438	2823.071360
927.391509	2812.137097
927.695541	2799.403142
927.999533	2790.306380
928.303486	2778.933537
928.607400	2777.262395
928.911275	2768.742845
929.215110	2766.282762
929.518906	2760.535846
929.822663	2760.505599
930.126381	2760.561052
930.430060	2766.590272
930.733699	2768.042124
931.037299	2770.787032
931.340861	2766.670930
931.644383	2772.942126
931.947866	2769.156219
932.251309	2767.903492
932.554714	2766.532299
932.858080	2766.144130
933.161407	2763.570621
933.464694	2759.217584
933.767943	2756.732296
934.071153	2751.804568
934.374323	2746.753332
934.677455	2743.539596
934.980548	2740.313257
935.283602	2739.539440
935.586617	2736.890314
935.889593	2739.017681
936.192530	2742.029770
936.495428	2746.304669
936.798287	2757.536360
937.101108	2769.947680
937.403890	2794.477935
937.706632	2819.923159
938.009336	2849.008096
938.312002	2880.772407
938.614628	2904.932136
938.917216	2923.861669
939.219765	2933.510438
939.522275	2943.532251
939.824747	2943.784309
940.127179	2937.273659
940.429573	2929.132195
940.731929	2928.169335
941.034246	2920.847059
941.336524	2915.208528
941.638763	2910.779875
941.940964	2906.850295
942.243126	2889.886813
942.545250	2880.626213
942.847335	2862.967051
943.149381	2847.946933
943.451389	2834.965962
943.753359	2825.874241
944.055290	2813.427632
944.357182	2807.421097
944.659036	2802.291723
944.960851	2797.356434
945.262628	2791.155815
945.564367	2793.013480
945.866067	2793.144550
946.167729	2792.400980
946.469352	2789.683798
946.770937	2787.800927
947.072484	2781.680966
947.373992	2781.539814
947.675462	2779.180554
947.976893	2772.720315
948.278286	2770.439193
948.579641	2765.549274
948.880958	2765.894593
949.182236	2761.511309
949.483476	2760.394694
949.784678	2759.212543
950.085841	2758.703387
950.386967	2762.612802
950.688054	2771.210489
950.989103	2779.082251
951.290114	2785.817233
951.591087	2797.240487
951.892021	2810.314720
952.192917	2821.924497
952.493776	2832.868842
952.794596	2835.679285
953.095378	2838.051148
953.396122	2836.571570
953.696828	2830.539829
953.997496	2828.629232
954.298126	2818.267140
954.598718	2811.988383
954.899272	2796.701084
955.199788	2788.191616
955.500266	2775.054369
955.800706	2759.925867
956.101108	2743.952971
956.401472	2732.000395
956.701798	2721.083776
957.002087	2705.854450
957.302337	2696.820703
957.602550	2686.796368
957.902724	2675.864626
958.202861	2667.181239
958.502960	2662.175373
958.803022	2652.975267
959.103045	2646.421767
959.403031	2638.950777
959.702979	2638.297948
960.002889	2631.918367
960.302762	2626.594909
960.602596	2621.198354
960.902393	2621.258848
961.202153	2614.901953
961.501875	2613.543362
961.801559	2610.299379
962.101205	2607.801487
962.400814	2605.716970
962.700385	2601.263111
962.999918	2603.834099
963.299414	2601.608430
963.598873	2599.019797
963.898293	2595.410331
964.197677	2597.068871
964.497022	2595.664910
964.796331	2594.366812
965.095601	2593.804724
965.394835	2593.434199
965.694030	2593.557707
965.993189	2592.655341
966.292309	2591.206009
966.591393	2591.193406
966.890439	2589.827253
967.189447	2592.236925
967.488419	2589.981009
967.787353	2591.216091
968.086249	2591.936976
968.385108	2591.042172
968.683930	2592.667944
968.982714	2596.161463
969.281462	2595.561566
969.580172	2596.789087
969.878844	2600.343100
970.177480	2602.646908
970.476078	2605.348966
970.774639	2606.077413
971.073162	2609.041611
971.371649	2608.731580
971.670098	2612.278032
971.968510	2615.373301
972.266885	2613.235851
972.565223	2617.311624
972.863524	2617.296501
973.161788	2617.165431
973.460014	2620.749691
973.758204	2619.471759
974.056356	2618.377828
974.354471	2622.284722
974.652550	2623.292953
974.950591	2625.632049
975.248595	2621.747840
975.546563	2621.107613
975.844493	2617.082252
976.142386	2617.788013
976.440243	2613.472786
976.738062	2614.430605
977.035845	2611.171499
977.333590	2609.465068
977.631299	2605.608586
977.928971	2604.265118
978.226606	2601.487442
978.524204	2603.100612
978.821765	2600.320415
979.119290	2597.104159
979.416777	2600.885024
979.714228	2599.145826
980.011642	2602.682196
980.309020	2605.880808
980.606360	2609.102105
980.903664	2617.309104
981.200931	2631.114303
981.498162	2649.121305
981.795356	2680.792354
982.092513	2715.112529
982.389633	2758.801689
982.686717	2801.361631
982.983764	2831.195179
983.280775	2846.432067
983.577749	2844.912159
983.874686	2838.179698
984.171587	2819.729075
984.468451	2804.736683
984.765279	2786.354116
985.062070	2768.795777
985.358824	2749.896491
985.655543	2731.350086
985.952224	2707.742362
986.248869	2687.000535
986.545478	2656.801503
986.842050	2639.301137
987.138586	2619.549897
987.435086	2605.482557
987.731549	2595.818665
988.027975	2590.409507
988.324366	2584.095462
988.620719	2580.710327
988.917037	2578.570357
989.213318	2575.606158
989.509563	2572.914182
989.805772	2570.373441
990.101944	2569.178687
990.398080	2568.606516
990.694180	2568.503173
990.990244	2567.638615
991.286271	2566.882442
991.582262	2569.740776
991.878217	2568.132648
992.174136	2570.655745
992.470019	2570.202042
992.765865	2570.038204
993.061676	2572.067268
993.357450	2579.056828
993.653188	2581.222004
993.948890	2584.236614
994.244556	2592.990577
994.540186	2601.469798
994.835780	2612.933382
995.131337	2626.778911
995.426859	2644.027219
995.722345	2658.407110
996.017795	2680.010975
996.313208	2694.481607
996.608586	2706.131714
996.903928	2704.818493
997.199234	2704.785726
997.494504	2701.380426
997.789738	2693.347348
998.084936	2685.102541
998.380099	2674.271622
998.675225	2661.066319
998.970316	2650.600884
999.265371	2636.644449
999.560390	2623.683643
999.855373	2613.074534
1000.150320	2604.635643
1000.445232	2591.309353
1000.740108	2586.747108
1001.034948	2583.155286
1001.329752	2575.341498
1001.624521	2572.140365
1001.919254	2562.176525
1002.213951	2560.268448
1002.508613	2559.900444
1002.803239	2559.688715
1003.097829	2555.260062
1003.392384	2557.901626
1003.686903	2552.699155
1003.981386	2553.538508
1004.275834	2550.594474
1004.570246	2551.748898
1004.864623	2552.953734
1005.158964	2550.271840
1005.453270	2551.580019
1005.747540	2548.484751
1006.041775	2548.406613
1006.335974	2547.295038
1006.630138	2548.164637
1006.924266	2545.974256
1007.218359	2546.501057
1007.512416	2548.509957
1007.806438	2550.856614
1008.100425	2546.102806
1008.394376	2545.306303
1008.688292	2546.614483
1008.982172	2545.344112
1009.276017	2544.096426
1009.569827	2545.341591
1009.863602	2547.847045
1010.157341	2546.475851
1010.451045	2545.276056
1010.744714	2544.454348
1011.038347	2548.189843
1011.331945	2544.532486
1011.625508	2544.930737
1011.919036	2543.093237
1012.212528	2542.866385
1012.505986	2542.531148
1012.799408	2541.810263
1013.092795	2539.514017
1013.386147	2541.081816
1013.679464	2540.799512
1013.972745	2544.378731
1014.265992	2541.590973
1014.559204	2541.240613
1014.852380	2539.579552
1015.145521	2540.597866
1015.438628	2539.705581
1015.731699	2543.287321
1016.024736	2539.650129
1016.317737	2541.827907
1016.610703	2543.796478
1016.903635	2540.035777
1017.196531	2542.339584
1017.489393	2539.158616
1017.782219	2539.801363
1018.075011	2542.281611
1018.367768	2543.171375
1018.660490	2543.012578
1018.953177	2543.012578
1019.245829	2543.012578
