Dividing Wavelength (nm)	Counts (n)	Blue Motor Position (mm): 10.000000	Red Motor Position (mm): 0.000000	
326.493990	2160.134423
326.888308	2160.134423
327.282561	2160.134423
327.676750	2185.340192
328.070874	2155.093269
328.464933	2147.531538
328.858929	2157.613846
329.252859	2117.284615
329.646726	2160.134423
330.040528	2210.545962
330.434265	2172.737308
330.827938	2268.519231
331.221547	2278.601538
331.615091	2288.683846
332.008571	2273.560385
332.401986	2245.834038
332.795338	2303.807308
333.188625	2329.013077
333.581847	2233.231154
333.975006	2381.945192
334.368100	2447.480192
334.761129	2351.698269
335.154095	2495.371154
335.546996	2452.521346
335.939833	2480.247692
336.332606	2502.932885
336.725315	2540.741538
337.117960	2477.727115
337.510540	2439.918462
337.903056	2611.317692
338.295508	2555.865000
338.687896	2515.535769
339.080220	2543.262115
339.472480	2475.206538
339.864676	2586.111923
340.256807	2523.097500
340.648875	2573.509038
341.040879	2480.247692
341.432818	2502.932885
341.824694	2593.673654
342.216506	2565.947308
342.608253	2611.317692
342.999937	2641.564615
343.391557	2651.646923
343.783113	2651.646923
344.174605	2553.344423
344.566033	2606.276538
344.957397	2530.659231
345.348697	2586.111923
345.739934	2631.482308
346.131106	2555.865000
346.522215	2618.879423
346.913260	2626.441154
347.304241	2543.262115
347.695159	2596.194231
348.086012	2588.632500
348.476802	2507.974038
348.867528	2528.138654
349.258191	2611.317692
349.648789	2644.085192
350.039324	2578.550192
350.429796	2558.385577
350.820203	2513.015192
351.210548	2475.206538
351.600828	2535.700385
351.991045	2603.755962
352.381198	2477.727115
352.771288	2576.029615
353.161314	2583.591346
353.551276	2507.974038
353.941175	2520.576923
354.331010	2634.002885
354.720782	2553.344423
355.110490	2505.453462
355.500135	2593.673654
355.889717	2581.070769
356.279235	2606.276538
356.668689	2505.453462
357.058080	2563.426731
357.447408	2586.111923
357.836672	2540.741538
358.225873	2492.850577
358.615010	2518.056346
359.004084	2601.235385
359.393095	2548.303269
359.782043	2636.523462
360.170927	2596.194231
360.559748	2608.797115
360.948505	2465.124231
361.337199	2528.138654
361.725830	2598.714808
362.114398	2598.714808
362.502903	2613.838269
362.891344	2487.809423
363.279722	2553.344423
363.668037	2573.509038
364.056289	2518.056346
364.444478	2545.782692
364.832603	2558.385577
365.220665	2570.988462
365.608665	2636.523462
365.996601	2558.385577
366.384474	2654.167500
366.772284	2618.879423
367.160031	2535.700385
367.547715	2608.797115
367.935336	2543.262115
368.322893	2596.194231
368.710388	2492.850577
369.097820	2558.385577
369.485189	2467.644808
369.872495	2545.782692
370.259738	2528.138654
370.646918	2555.865000
371.034035	2553.344423
371.421090	2568.467885
371.808081	2543.262115
372.195010	2538.220962
372.581875	2538.220962
372.968678	2510.494615
373.355418	2583.591346
373.742096	2621.400000
374.128710	2518.056346
374.515262	2528.138654
374.901751	2576.029615
375.288177	2586.111923
375.674540	2525.618077
376.060841	2553.344423
376.447079	2573.509038
376.833254	2639.044038
377.219367	2563.426731
377.605417	2553.344423
377.991404	2555.865000
378.377329	2581.070769
378.763191	2598.714808
379.148991	2515.535769
379.534727	2581.070769
379.920402	2538.220962
380.306013	2570.988462
380.691563	2543.262115
381.077049	2618.879423
381.462474	2586.111923
381.847835	2583.591346
382.233134	2601.235385
382.618371	2540.741538
383.003545	2543.262115
383.388657	2482.768269
383.773706	2576.029615
384.158693	2545.782692
384.543618	2560.906154
384.928480	2601.235385
385.313280	2596.194231
385.698017	2528.138654
386.082692	2538.220962
386.467305	2565.947308
386.851856	2545.782692
387.236344	2543.262115
387.620770	2628.961731
388.005133	2578.550192
388.389435	2578.550192
388.773674	2623.920577
389.157851	2535.700385
389.541965	2649.126346
389.926018	2603.755962
390.310008	2628.961731
390.693936	2520.576923
391.077802	2623.920577
391.461606	2608.797115
391.845348	2616.358846
392.229027	2603.755962
392.612645	2581.070769
392.996200	2565.947308
393.379694	2634.002885
393.763125	2699.537885
394.146494	2510.494615
394.529801	2651.646923
394.913047	2518.056346
395.296230	2646.605769
395.679351	2563.426731
396.062410	2576.029615
396.445408	2606.276538
396.828343	2593.673654
397.211217	2644.085192
397.594028	2596.194231
397.976778	2558.385577
398.359466	2639.044038
398.742092	2576.029615
399.124656	2490.330000
399.507158	2558.385577
399.889598	2518.056346
400.271977	2563.426731
400.654294	2639.044038
401.036549	2560.906154
401.418742	2518.056346
401.800874	2618.879423
402.182944	2591.153077
402.564952	2563.426731
402.946898	2586.111923
403.328783	2649.126346
403.710606	2543.262115
404.092367	2646.605769
404.474067	2576.029615
404.855705	2578.550192
405.237282	2568.467885
405.618797	2500.412308
406.000250	2548.303269
406.381642	2613.838269
406.762972	2543.262115
407.144240	2518.056346
407.525447	2581.070769
407.906593	2568.467885
408.287677	2616.358846
408.668700	2676.852692
409.049661	2538.220962
409.430560	2540.741538
409.811399	2523.097500
410.192176	2518.056346
410.572891	2598.714808
410.953545	2583.591346
411.334138	2656.688077
411.714669	2611.317692
412.095139	2568.467885
412.475547	2639.044038
412.855894	2505.453462
413.236180	2613.838269
413.616405	2606.276538
413.996568	2603.755962
414.376670	2598.714808
414.756711	2573.509038
415.136691	2616.358846
415.516609	2588.632500
415.896466	2596.194231
416.276262	2553.344423
416.655997	2545.782692
417.035670	2623.920577
417.415283	2568.467885
417.794834	2654.167500
418.174324	2581.070769
418.553753	2578.550192
418.933121	2540.741538
419.312428	2588.632500
419.691674	2616.358846
420.070859	2661.729231
420.449983	2563.426731
420.829045	2596.194231
421.208047	2593.673654
421.586988	2523.097500
421.965867	2626.441154
422.344686	2641.564615
422.723444	2583.591346
423.102141	2601.235385
423.480777	2581.070769
423.859352	2598.714808
424.237866	2641.564615
424.616319	2601.235385
424.994712	2606.276538
425.373044	2530.659231
425.751314	2533.179808
426.129524	2581.070769
426.507673	2596.194231
426.885762	2699.537885
427.263789	2586.111923
427.641756	2621.400000
428.019662	2707.099615
428.397508	2628.961731
428.775292	2613.838269
429.153016	2558.385577
429.530679	2646.605769
429.908282	2578.550192
430.285824	2548.303269
430.663305	2646.605769
431.040726	2578.550192
431.418086	2553.344423
431.795385	2628.961731
432.172624	2674.332115
432.549802	2618.879423
432.926920	2628.961731
433.303977	2596.194231
433.680974	2628.961731
434.057910	2596.194231
434.434786	2654.167500
434.811601	2674.332115
435.188355	2563.426731
435.565050	2472.685962
435.941683	2603.755962
436.318257	2606.276538
436.694770	2626.441154
437.071222	2676.852692
437.447614	2606.276538
437.823946	2676.852692
438.200218	2593.673654
438.576429	2649.126346
438.952580	2709.620192
439.328670	2578.550192
439.704700	2664.249808
440.080670	2606.276538
440.456580	2674.332115
440.832429	2704.579038
441.208218	2679.373269
441.583947	2742.387692
441.959616	2770.114038
442.335224	2727.264231
442.710773	2772.634615
443.086261	2734.825962
443.461689	2802.881538
443.837057	2820.525577
444.212365	2820.525577
444.587612	2933.951538
444.962800	2863.375385
445.337927	2944.033846
445.712995	2921.348654
446.088002	3052.418654
446.462949	3034.774615
446.837837	3120.474231
447.212664	3070.062692
447.587431	3158.282885
447.962139	3249.023654
448.336786	3503.601923
448.711374	3571.657500
449.085901	3395.217115
449.460369	3412.861154
449.834776	3523.766538
450.209124	3682.562885
450.583412	3826.235769
450.957640	3949.744038
451.331808	3864.044423
451.705917	3874.126731
452.079965	3861.523846
452.453954	4116.102115
452.827883	4131.225577
453.201752	4133.746154
453.575562	4224.486923
453.949311	4456.380000
454.323001	4647.943846
454.696632	4806.740192
455.070202	4915.125000
455.443713	5066.359615
455.817164	5167.182692
456.190556	5404.116923
456.563888	5482.254808
456.937160	5704.065577
457.310373	5517.542885
457.683526	5865.382500
458.056619	5867.903077
458.429653	5900.670577
458.802628	5956.123269
459.175542	6256.071923
459.548398	6692.131731
459.921194	7148.356154
460.293930	7229.014615
460.666607	7710.444808
461.039224	8431.329808
461.411782	8900.157115
461.784280	8847.225000
462.156719	9084.159231
462.529099	9242.955577
462.901419	8771.607692
463.273680	8874.951346
463.645882	8925.362885
464.018024	9008.541923
464.390106	9419.395962
464.762130	10168.007308
465.134094	10591.464231
465.505999	12577.678846
465.877845	14475.673269
466.249631	16504.737692
466.621358	16139.254038
466.993026	15856.949423
467.364634	15186.475962
467.736184	14440.385192
468.107674	14306.794615
468.479105	14904.171346
468.850477	14384.932500
469.221790	14412.658846
469.593043	14296.712308
469.964238	14120.271923
470.335373	14140.436538
470.706449	14727.730962
471.077467	15095.735192
471.448425	16933.235769
471.819324	20157.053654
472.190164	21014.049808
472.560945	18085.139423
472.931667	16545.066923
473.302330	16724.027885
473.672934	16635.807692
474.043479	16741.671923
474.413965	16708.904423
474.784393	16499.696538
475.154761	17581.024038
475.525070	17628.915000
475.895321	17263.431346
476.265513	18148.153846
476.635645	18851.394808
477.005719	18836.271346
477.375734	18816.106731
477.745691	19544.553462
478.115588	19897.434231
478.485427	21039.255577
478.855207	22312.146923
479.224928	24237.867692
479.594591	26292.137885
479.964194	25460.347500
480.333739	25777.940192
480.703226	26138.382692
481.072653	25432.621154
481.442022	26781.129808
481.811333	27343.218462
482.180584	26881.952885
482.549777	26156.026731
482.918912	26055.203654
483.287988	26350.111154
483.657005	25669.555385
484.025964	25861.119231
484.394864	25629.226154
484.763706	24837.765000
485.132489	24991.520192
485.501213	24646.201154
485.869879	24525.213462
486.238487	24439.513846
486.607036	24452.116731
486.975527	24200.059038
487.343959	24371.458269
487.712333	24184.935577
488.080648	23708.546538
488.448905	23874.904615
488.817104	23809.369615
489.185244	24268.114615
489.553326	24401.705192
489.921350	25299.030577
490.289315	27454.123846
490.657222	28933.702500
491.025070	28921.099615
491.392861	28260.708462
491.760593	27479.329615
492.128267	25845.995769
492.495883	25026.808269
492.863440	24048.824423
493.230939	23310.295385
493.598380	22909.523654
493.965763	22309.626346
494.333088	21485.397692
494.700354	21223.257692
495.067563	21132.516923
495.434713	20754.430385
495.801805	20530.099038
496.168839	20023.463077
496.535815	20099.080385
496.902733	19726.035000
497.269593	19441.209808
497.636395	19161.425769
498.003139	18803.503846
498.369825	18861.477115
498.736453	18322.073654
499.103023	18410.293846
499.469535	17893.575577
499.835989	17860.808077
500.202385	17651.600192
500.568723	17235.705000
500.935003	16978.606154
501.301226	16718.986731
501.667390	16925.674038
502.033497	16779.480577
502.399546	16229.994808
502.765537	15481.383462
503.131470	15637.659231
503.497345	15761.167500
503.863163	15108.338077
504.228923	15171.352500
504.594625	14757.977885
504.960269	14407.617692
505.325856	14442.905769
505.691385	13991.722500
506.056856	14006.845962
506.422270	13774.952885
506.787625	13056.588462
507.152924	13134.726346
507.518164	12963.327115
507.883347	12532.308462
508.248472	12290.333077
508.613540	12345.785769
508.978550	11869.396731
509.343503	11637.503654
509.708398	11609.777308
510.073236	11519.036538
510.438016	11556.845192
510.802738	10964.509615
511.167403	10712.451923
511.532010	10457.873654
511.896561	10654.478654
512.261053	10415.023846
512.625488	10104.992885
512.989866	9772.276731
513.354186	9391.669615
513.718449	9353.860962
514.082655	9431.998846
514.446803	9084.159231
514.810894	8963.171538
515.174927	8693.469808
515.538904	8673.305192
515.902822	8436.370962
516.266684	8196.916154
516.630488	8010.393462
516.994235	7808.747308
517.357925	7687.759615
517.721558	7690.280192
518.085133	7420.578462
518.448651	7196.247115
518.812112	7034.930192
519.175516	7155.917885
519.538863	6924.024808
519.902152	6790.434231
520.265385	6545.938269
520.628560	6379.580192
520.991678	6243.469038
521.354739	6273.715962
521.717743	6011.575962
522.080690	5847.738462
522.443580	5910.752885
522.806413	5726.750769
523.169189	5686.421538
523.531908	5520.063462
523.894569	5444.446154
524.257174	5268.005769
524.619722	5192.388462
524.982213	5005.865769
525.344647	4952.933654
525.707025	4884.878077
526.069345	4731.122885
526.431608	4642.902692
526.793815	4605.094038
527.155964	4486.626923
527.518057	4423.612500
527.880093	4380.762692
528.242072	4237.089808
528.603995	4272.377885
528.965860	4234.569231
529.327669	4151.390192
529.689421	4015.279038
530.051117	3967.388077
530.412755	3859.003269
530.774337	3937.141154
531.135862	3859.003269
531.497331	3740.536154
531.858743	3677.521731
532.220098	3581.739808
532.581396	3581.739808
532.942638	3521.245962
533.303824	3599.383846
533.664953	3450.669808
534.026025	3448.149231
534.387040	3367.490769
534.747999	3312.038077
535.108902	3291.873462
535.469748	3261.626538
535.830537	3322.120385
536.191270	3261.626538
536.551947	3243.982500
536.912567	3178.447500
537.273131	3198.612115
537.633638	3138.118269
537.994089	3158.282885
538.354483	3032.254038
538.714821	3034.774615
539.075103	3059.980385
539.435328	2984.363077
539.795497	2999.486538
540.155609	2956.636731
540.515665	2999.486538
540.875665	2956.636731
541.235609	2949.075000
541.595496	2921.348654
541.955328	2858.334231
542.315102	2951.595577
542.674821	2893.622308
543.034483	2986.883654
543.394090	2845.731346
543.753640	2830.607885
544.113134	2800.360962
544.472571	2828.087308
544.831953	2893.622308
545.191278	2792.799231
545.550548	2754.990577
545.909761	2719.702500
546.268918	2785.237500
546.628019	2807.922692
546.987064	2691.976154
547.346053	2873.457692
547.704986	2805.402115
548.063863	2762.552308
548.422684	2694.496731
548.781449	2712.140769
549.140158	2732.305385
549.498811	2747.428846
549.857408	2802.881538
550.215949	2757.511154
550.574434	2762.552308
550.932864	2752.470000
551.291237	2714.661346
551.649555	2651.646923
552.007817	2644.085192
552.366022	2732.305385
552.724173	2752.470000
553.082267	2681.893846
553.440305	2691.976154
553.798288	2762.552308
554.156215	2747.428846
554.514086	2722.223077
554.871902	2732.305385
555.229661	2666.770385
555.587365	2631.482308
555.945014	2749.949423
556.302606	2676.852692
556.660143	2686.935000
557.017625	2659.208654
557.375050	2742.387692
557.732421	2739.867115
558.089735	2704.579038
558.446994	2634.002885
558.804197	2699.537885
559.161345	2601.235385
559.518437	2669.290962
559.875474	2545.782692
560.232455	2697.017308
560.589381	2628.961731
560.946251	2697.017308
561.303065	2719.702500
561.659825	2689.455577
562.016528	2714.661346
562.373177	2679.373269
562.729770	2618.879423
563.086307	2669.290962
563.442789	2689.455577
563.799216	2681.893846
564.155587	2699.537885
564.511904	2714.661346
564.868164	2659.208654
565.224370	2664.249808
565.580520	2636.523462
565.936615	2603.755962
566.292654	2626.441154
566.648638	2628.961731
567.004567	2565.947308
567.360441	2714.661346
567.716260	2646.605769
568.072023	2644.085192
568.427732	2588.632500
568.783385	2649.126346
569.138982	2697.017308
569.494525	2598.714808
569.850013	2621.400000
570.205445	2669.290962
570.560823	2618.879423
570.916145	2634.002885
571.271412	2538.220962
571.626625	2601.235385
571.981782	2628.961731
572.336884	2674.332115
572.691931	2661.729231
573.046923	2684.414423
573.401860	2601.235385
573.756743	2634.002885
574.111570	2621.400000
574.466342	2616.358846
574.821059	2702.058462
575.175722	2631.482308
575.530330	2686.935000
575.884882	2581.070769
576.239380	2573.509038
576.593823	2707.099615
576.948211	2631.482308
577.302544	2568.467885
577.656823	2651.646923
578.011047	2606.276538
578.365216	2618.879423
578.719330	2646.605769
579.073389	2588.632500
579.427394	2611.317692
579.781344	2684.414423
580.135239	2664.249808
580.489080	2689.455577
580.842866	2674.332115
581.196597	2636.523462
581.550273	2666.770385
581.903895	2626.441154
582.257463	2634.002885
582.610975	2686.935000
582.964434	2729.784808
583.317837	2588.632500
583.671186	2709.620192
584.024481	2616.358846
584.377721	2719.702500
584.730906	2669.290962
585.084037	2664.249808
585.437113	2623.920577
585.790135	2674.332115
586.143103	2699.537885
586.496016	2573.509038
586.848874	2616.358846
587.201679	2641.564615
587.554428	2550.823846
587.907124	2674.332115
588.259765	2601.235385
588.612352	2628.961731
588.964884	2641.564615
589.317362	2727.264231
589.669786	2601.235385
590.022155	2681.893846
590.374470	2679.373269
590.726731	2666.770385
591.078937	2613.838269
591.431090	2626.441154
591.783188	2656.688077
592.135232	2608.797115
592.487222	2628.961731
592.839157	2581.070769
593.191038	2623.920577
593.542866	2623.920577
593.894639	2664.249808
594.246358	2618.879423
594.598022	2661.729231
594.949633	2611.317692
595.301190	2646.605769
595.652692	2691.976154
596.004141	2608.797115
596.355535	2611.317692
596.706876	2596.194231
597.058162	2654.167500
597.409395	2651.646923
597.760573	2659.208654
598.111698	2666.770385
598.462768	2654.167500
598.813785	2616.358846
599.164748	2636.523462
599.515657	2649.126346
599.866511	2714.661346
600.217312	2666.770385
600.568060	2593.673654
600.918753	2664.249808
601.269392	2634.002885
601.619978	2636.523462
601.970510	2644.085192
602.320988	2576.029615
602.671412	2646.605769
603.021783	2616.358846
603.372100	2639.044038
603.722363	2631.482308
604.072572	2654.167500
604.422728	2613.838269
604.772830	2684.414423
605.122878	2649.126346
605.472872	2646.605769
605.822813	2691.976154
606.172701	2606.276538
606.522534	2636.523462
606.872314	2628.961731
607.222041	2634.002885
607.571714	2641.564615
607.921333	2659.208654
608.270899	2684.414423
608.620411	2719.702500
608.969870	2691.976154
609.319276	2601.235385
609.668627	2639.044038
610.017926	2581.070769
610.367171	2679.373269
610.716362	2591.153077
611.065500	2596.194231
611.414585	2704.579038
611.763616	2560.906154
612.112594	2694.496731
612.461518	2717.181923
612.810389	2603.755962
613.159207	2641.564615
613.507971	2626.441154
613.856682	2666.770385
614.205340	2639.044038
614.553945	2661.729231
614.902496	2651.646923
615.250994	2573.509038
615.599439	2689.455577
615.947830	2649.126346
616.296169	2641.564615
616.644454	2661.729231
616.992686	2697.017308
617.340864	2649.126346
617.688990	2628.961731
618.037063	2611.317692
618.385082	2621.400000
618.733048	2543.262115
619.080961	2694.496731
619.428821	2618.879423
619.776628	2651.646923
620.124382	2611.317692
620.472083	2656.688077
620.819731	2727.264231
621.167326	2608.797115
621.514868	2631.482308
621.862357	2621.400000
622.209793	2664.249808
622.557176	2654.167500
622.904506	2664.249808
623.251783	2611.317692
623.599007	2641.564615
623.946179	2616.358846
624.293297	2621.400000
624.640363	2646.605769
624.987376	2611.317692
625.334336	2621.400000
625.681243	2573.509038
626.028097	2651.646923
626.374899	2623.920577
626.721647	2616.358846
627.068343	2641.564615
627.414987	2606.276538
627.761577	2646.605769
628.108115	2545.782692
628.454600	2623.920577
628.801032	2530.659231
629.147412	2684.414423
629.493739	2573.509038
629.840014	2644.085192
630.186236	2565.947308
630.532405	2646.605769
630.878521	2606.276538
631.224585	2656.688077
631.570597	2651.646923
631.916556	2588.632500
632.262462	2634.002885
632.608316	2563.426731
632.954117	2649.126346
633.299866	2611.317692
633.645562	2598.714808
633.991206	2626.441154
634.336797	2611.317692
634.682336	2679.373269
635.027823	2611.317692
635.373257	2558.385577
635.718639	2623.920577
636.063968	2641.564615
636.409245	2563.426731
636.754470	2611.317692
637.099642	2618.879423
637.444762	2576.029615
637.789829	2641.564615
638.134845	2601.235385
638.479808	2651.646923
638.824719	2639.044038
639.169577	2634.002885
639.514383	2586.111923
639.859137	2681.893846
640.203839	2606.276538
640.548489	2558.385577
640.893086	2656.688077
641.237632	2623.920577
641.582125	2646.605769
641.926566	2628.961731
642.270955	2679.373269
642.615292	2613.838269
642.959576	2661.729231
643.303809	2674.332115
643.647990	2649.126346
643.992118	2623.920577
644.336195	2656.688077
644.680219	2631.482308
645.024192	2631.482308
645.368112	2669.290962
645.711981	2671.811538
646.055797	2613.838269
646.399562	2651.646923
646.743274	2626.441154
647.086935	2664.249808
647.430544	2611.317692
647.774101	2651.646923
648.117606	2515.535769
648.461059	2634.002885
648.804460	2581.070769
649.147810	2616.358846
649.491108	2666.770385
649.834354	2533.179808
650.177548	2611.317692
650.520690	2651.646923
650.863781	2664.249808
651.206820	2623.920577
651.549807	2636.523462
651.892742	2530.659231
652.235626	2591.153077
652.578458	2606.276538
652.921238	2565.947308
653.263967	2578.550192
653.606644	2646.605769
653.949269	2570.988462
654.291843	2543.262115
654.634365	2628.961731
654.976836	2618.879423
655.319255	2644.085192
655.661622	2621.400000
656.003938	2646.605769
656.346203	2578.550192
656.688416	2578.550192
657.030577	2661.729231
657.372687	2576.029615
657.714746	2714.661346
658.056753	2623.920577
658.398708	2689.455577
658.740612	2565.947308
659.082465	2603.755962
659.424266	2646.605769
659.766016	2596.194231
660.107715	2639.044038
660.449362	2644.085192
660.790958	2621.400000
661.132503	2568.467885
661.473996	2583.591346
661.815438	2644.085192
662.156829	2656.688077
662.498168	2681.893846
662.839456	2628.961731
663.180693	2591.153077
663.521879	2616.358846
663.863013	2523.097500
664.204097	2651.646923
664.545129	2684.414423
664.886110	2676.852692
665.227040	2644.085192
665.567918	2656.688077
665.908746	2666.770385
666.249522	2631.482308
666.590248	2719.702500
666.930922	2686.935000
667.271545	2659.208654
667.612118	2644.085192
667.952639	2631.482308
668.293109	2603.755962
668.633528	2618.879423
668.973896	2669.290962
669.314213	2636.523462
669.654480	2626.441154
669.994695	2576.029615
670.334859	2623.920577
670.674973	2654.167500
671.015035	2634.002885
671.355047	2553.344423
671.695008	2568.467885
672.034918	2591.153077
672.374777	2621.400000
672.714585	2636.523462
673.054342	2641.564615
673.394049	2669.290962
673.733705	2656.688077
674.073310	2656.688077
674.412864	2588.632500
674.752368	2581.070769
675.091820	2654.167500
675.431223	2654.167500
675.770574	2654.167500
676.109875	2634.002885
676.449125	2601.235385
676.788324	2631.482308
677.127473	2535.700385
677.466571	2666.770385
677.805619	2621.400000
678.144616	2651.646923
678.483562	2591.153077
678.822458	2588.632500
679.161303	2492.850577
679.500098	2576.029615
679.838842	2656.688077
680.177535	2626.441154
680.516179	2618.879423
680.854771	2641.564615
681.193314	2689.455577
681.531805	2634.002885
681.870247	2628.961731
682.208638	2603.755962
682.546978	2621.400000
682.885268	2623.920577
683.223508	2646.605769
683.561697	2639.044038
683.899836	2666.770385
684.237925	2636.523462
684.575963	2621.400000
684.913951	2644.085192
685.251889	2649.126346
685.589776	2644.085192
685.927614	2654.167500
686.265401	2581.070769
686.603137	2576.029615
686.940824	2603.755962
687.278460	2616.358846
687.616046	2691.976154
687.953582	2606.276538
688.291068	2543.262115
688.628504	2606.276538
688.965889	2623.920577
689.303224	2641.564615
689.640510	2754.990577
689.977745	2626.441154
690.314930	2613.838269
690.652065	2651.646923
690.989150	2581.070769
691.326185	2581.070769
691.663170	2618.879423
692.000105	2480.247692
692.336990	2591.153077
692.673825	2646.605769
693.010610	2666.770385
693.347345	2608.797115
693.684030	2661.729231
694.020665	2611.317692
694.357251	2659.208654
694.693786	2704.579038
695.030272	2674.332115
695.366707	2621.400000
695.703093	2651.646923
696.039429	2593.673654
696.375716	2611.317692
696.711952	2616.358846
697.048139	2641.564615
697.384276	2550.823846
697.720363	2626.441154
698.056400	2596.194231
698.392388	2623.920577
698.728326	2586.111923
699.064214	2641.564615
699.400053	2558.385577
699.735842	2709.620192
700.071581	2697.017308
700.407270	2603.755962
700.742910	2550.823846
701.078501	2613.838269
701.414042	2613.838269
701.749533	2598.714808
702.084974	2565.947308
702.420366	2555.865000
702.755709	2621.400000
703.091002	2576.029615
703.426246	2628.961731
703.761440	2628.961731
704.096584	2644.085192
704.431679	2576.029615
704.766725	2618.879423
705.101721	2538.220962
705.436668	2613.838269
705.771565	2565.947308
706.106413	2558.385577
706.441212	2623.920577
706.775961	2593.673654
707.110661	2576.029615
707.445311	2623.920577
707.779913	2644.085192
708.114465	2601.235385
708.448967	2621.400000
708.783421	2628.961731
709.117825	2611.317692
709.452180	2581.070769
709.786485	2530.659231
710.120742	2611.317692
710.454949	2628.961731
710.789107	2646.605769
711.123216	2601.235385
711.457275	2611.317692
711.791286	2666.770385
712.125247	2608.797115
712.459159	2603.755962
712.793023	2651.646923
713.126837	2626.441154
713.460602	2618.879423
713.794318	2618.879423
714.127985	2621.400000
714.461602	2686.935000
714.795171	2628.961731
715.128691	2528.138654
715.462162	2634.002885
715.795584	2646.605769
716.128957	2603.755962
716.462281	2628.961731
716.795556	2558.385577
717.128782	2661.729231
717.461960	2719.702500
717.795088	2641.564615
718.128167	2553.344423
718.461198	2649.126346
718.794180	2631.482308
719.127113	2618.879423
719.459997	2550.823846
719.792833	2697.017308
720.125619	2603.755962
720.458357	2656.688077
720.791046	2694.496731
721.123686	2641.564615
721.456278	2613.838269
721.788821	2666.770385
722.121315	2618.879423
722.453761	2570.988462
722.786158	2601.235385
723.118506	2636.523462
723.450805	2613.838269
723.783056	2563.426731
724.115259	2555.865000
724.447412	2636.523462
724.779518	2628.961731
725.111574	2581.070769
725.443582	2576.029615
725.775542	2628.961731
726.107453	2649.126346
726.439315	2593.673654
726.771129	2681.893846
727.102895	2644.085192
727.434612	2573.509038
727.766281	2573.509038
728.097901	2651.646923
728.429473	2646.605769
728.760996	2702.058462
729.092471	2570.988462
729.423897	2570.988462
729.755276	2717.181923
730.086606	2623.920577
730.417887	2676.852692
730.749120	2626.441154
731.080305	2596.194231
731.411442	2588.632500
731.742530	2611.317692
732.073570	2613.838269
732.404562	2734.825962
732.735506	2618.879423
733.066401	2639.044038
733.397249	2611.317692
733.728048	2570.988462
734.058798	2681.893846
734.389501	2634.002885
734.720156	2628.961731
735.050762	2676.852692
735.381320	2707.099615
735.711831	2661.729231
736.042293	2676.852692
736.372707	2578.550192
736.703073	2634.002885
737.033391	2644.085192
737.363661	2626.441154
737.693883	2634.002885
738.024056	2649.126346
738.354182	2601.235385
738.684260	2656.688077
739.014290	2533.179808
739.344272	2671.811538
739.674207	2644.085192
740.004093	2681.893846
740.333931	2593.673654
740.663722	2596.194231
740.993464	2581.070769
741.323159	2641.564615
741.652806	2565.947308
741.982405	2631.482308
742.311956	2644.085192
742.641460	2601.235385
742.970915	2510.494615
743.300323	2598.714808
743.629683	2626.441154
743.958996	2636.523462
744.288260	2601.235385
744.617477	2616.358846
744.946647	2558.385577
745.275768	2603.755962
745.604842	2674.332115
745.933869	2591.153077
746.262847	2523.097500
746.591778	2649.126346
746.920662	2651.646923
747.249498	2686.935000
747.578286	2616.358846
747.907027	2722.223077
748.235720	2548.303269
748.564365	2576.029615
748.892963	2659.208654
749.221514	2588.632500
749.550017	2646.605769
749.878473	2634.002885
750.206881	2608.797115
750.535242	2613.838269
750.863555	2644.085192
751.191821	2593.673654
751.520039	2601.235385
751.848210	2639.044038
752.176334	2576.029615
752.504411	2636.523462
752.832440	2611.317692
753.160421	2631.482308
753.488356	2568.467885
753.816243	2613.838269
754.144082	2578.550192
754.471875	2611.317692
754.799620	2576.029615
755.127318	2608.797115
755.454969	2596.194231
755.782572	2628.961731
756.110129	2631.482308
756.437638	2578.550192
756.765100	2679.373269
757.092515	2623.920577
757.419882	2608.797115
757.747203	2621.400000
758.074477	2659.208654
758.401703	2583.591346
758.728882	2565.947308
759.056014	2583.591346
759.383099	2530.659231
759.710138	2593.673654
760.037129	2601.235385
760.364073	2634.002885
760.690970	2596.194231
761.017820	2586.111923
761.344623	2651.646923
761.671379	2651.646923
761.998088	2671.811538
762.324751	2639.044038
762.651366	2623.920577
762.977935	2646.605769
763.304456	2631.482308
763.630931	2606.276538
763.957359	2628.961731
764.283740	2656.688077
764.610074	2548.303269
764.936362	2601.235385
765.262602	2634.002885
765.588796	2623.920577
765.914943	2573.509038
766.241044	2674.332115
766.567097	2626.441154
766.893104	2560.906154
767.219064	2505.453462
767.544978	2707.099615
767.870845	2641.564615
768.196665	2613.838269
768.522438	2576.029615
768.848165	2644.085192
769.173846	2623.920577
769.499479	2641.564615
769.825066	2636.523462
770.150607	2674.332115
770.476101	2550.823846
770.801548	2530.659231
771.126949	2656.688077
771.452303	2623.920577
771.777611	2616.358846
772.102872	2631.482308
772.428087	2550.823846
772.753256	2654.167500
773.078378	2596.194231
773.403453	2689.455577
773.728482	2601.235385
774.053465	2626.441154
774.378401	2570.988462
774.703291	2598.714808
775.028135	2639.044038
775.352932	2661.729231
775.677683	2729.784808
776.002388	2646.605769
776.327046	2628.961731
776.651658	2654.167500
776.976224	2611.317692
777.300743	2558.385577
777.625216	2618.879423
777.949643	2583.591346
778.274024	2570.988462
778.598359	2565.947308
778.922647	2563.426731
779.246889	2593.673654
779.571086	2616.358846
779.895236	2651.646923
780.219339	2623.920577
780.543397	2601.235385
780.867409	2596.194231
781.191374	2548.303269
781.515294	2540.741538
781.839167	2591.153077
782.162995	2565.947308
782.486776	2699.537885
782.810511	2598.714808
783.134201	2636.523462
783.457844	2560.906154
783.781441	2533.179808
784.104993	2694.496731
784.428498	2618.879423
784.751958	2502.932885
785.075372	2576.029615
785.398739	2631.482308
785.722061	2606.276538
786.045337	2659.208654
786.368568	2505.453462
786.691752	2649.126346
787.014891	2636.523462
787.337983	2608.797115
787.661030	2603.755962
787.984031	2603.755962
788.306987	2644.085192
788.629897	2548.303269
788.952760	2664.249808
789.275579	2626.441154
789.598351	2591.153077
789.921078	2560.906154
790.243759	2709.620192
790.566395	2631.482308
790.888984	2593.673654
791.211529	2601.235385
791.534027	2540.741538
791.856480	2558.385577
792.178888	2691.976154
792.501249	2560.906154
792.823566	2631.482308
793.145836	2535.700385
793.468062	2583.591346
793.790241	2646.605769
794.112375	2576.029615
794.434464	2606.276538
794.756507	2603.755962
795.078505	2611.317692
795.400457	2603.755962
795.722364	2482.768269
796.044226	2598.714808
796.366042	2651.646923
796.687812	2591.153077
797.009538	2616.358846
797.331218	2616.358846
797.652852	2628.961731
797.974442	2636.523462
798.295986	2560.906154
798.617484	2528.138654
798.938938	2563.426731
799.260346	2538.220962
799.581709	2628.961731
799.903026	2631.482308
800.224299	2583.591346
800.545526	2616.358846
800.866708	2593.673654
801.187845	2608.797115
801.508936	2581.070769
801.829983	2651.646923
802.150984	2654.167500
802.471940	2641.564615
802.792851	2689.455577
803.113717	2601.235385
803.434538	2535.700385
803.755314	2596.194231
804.076045	2565.947308
804.396731	2613.838269
804.717372	2591.153077
805.037967	2608.797115
805.358518	2593.673654
805.679024	2649.126346
805.999485	2621.400000
806.319901	2631.482308
806.640272	2558.385577
806.960598	2676.852692
807.280879	2563.426731
807.601115	2666.770385
807.921306	2606.276538
808.241453	2613.838269
808.561554	2513.015192
808.881611	2646.605769
809.201623	2674.332115
809.521590	2578.550192
809.841513	2671.811538
810.161390	2565.947308
810.481223	2684.414423
810.801011	2676.852692
811.120755	2533.179808
811.440453	2631.482308
811.760107	2543.262115
812.079716	2676.852692
812.399281	2679.373269
812.718801	2661.729231
813.038276	2671.811538
813.357707	2616.358846
813.677093	2608.797115
813.996434	2563.426731
814.315731	2606.276538
814.634983	2707.099615
814.954191	2608.797115
815.273354	2679.373269
815.592473	2712.140769
815.911547	2548.303269
816.230577	2578.550192
816.549562	2613.838269
816.868502	2593.673654
817.187399	2681.893846
817.506250	2573.509038
817.825058	2644.085192
818.143821	2570.988462
818.462539	2576.029615
818.781213	2621.400000
819.099843	2601.235385
819.418429	2601.235385
819.736970	2616.358846
820.055466	2573.509038
820.373919	2576.029615
820.692327	2601.235385
821.010691	2656.688077
821.329011	2608.797115
821.647286	2686.935000
821.965517	2714.661346
822.283704	2686.935000
822.601847	2724.743654
822.919945	2679.373269
823.237999	2598.714808
823.556010	2666.770385
823.873976	2634.002885
824.191897	2581.070769
824.509775	2618.879423
824.827609	2669.290962
825.145398	2628.961731
825.463144	2661.729231
825.780845	2666.770385
826.098502	2628.961731
826.416116	2613.838269
826.733685	2634.002885
827.051210	2636.523462
827.368692	2724.743654
827.686129	2593.673654
828.003522	2601.235385
828.320872	2596.194231
828.638177	2603.755962
828.955439	2601.235385
829.272656	2545.782692
829.589830	2661.729231
829.906960	2613.838269
830.224046	2576.029615
830.541088	2671.811538
830.858086	2634.002885
831.175041	2560.906154
831.491952	2596.194231
831.808819	2513.015192
832.125642	2560.906154
832.442421	2601.235385
832.759157	2636.523462
833.075849	2578.550192
833.392497	2666.770385
833.709101	2621.400000
834.025662	2636.523462
834.342179	2538.220962
834.658653	2628.961731
834.975083	2644.085192
835.291469	2560.906154
835.607811	2558.385577
835.924110	2558.385577
836.240366	2578.550192
836.556578	2616.358846
836.872746	2565.947308
837.188871	2528.138654
837.504952	2578.550192
837.820990	2598.714808
838.136984	2563.426731
838.452935	2674.332115
838.768842	2639.044038
839.084706	2548.303269
839.400526	2613.838269
839.716303	2591.153077
840.032037	2581.070769
840.347727	2644.085192
840.663373	2573.509038
840.978977	2545.782692
841.294537	2606.276538
841.610054	2621.400000
841.925527	2581.070769
842.240957	2641.564615
842.556344	2558.385577
842.871687	2583.591346
843.186987	2560.906154
843.502244	2515.535769
843.817458	2676.852692
844.132629	2598.714808
844.447756	2616.358846
844.762840	2596.194231
845.077881	2533.179808
845.392879	2593.673654
845.707833	2608.797115
846.022745	2694.496731
846.337613	2639.044038
846.652438	2621.400000
846.967221	2601.235385
847.281960	2578.550192
847.596656	2606.276538
847.911309	2613.838269
848.225919	2611.317692
848.540485	2616.358846
848.855009	2623.920577
849.169490	2654.167500
849.483928	2601.235385
849.798323	2515.535769
850.112675	2628.961731
850.426984	2586.111923
850.741251	2540.741538
851.055474	2510.494615
851.369654	2628.961731
851.683792	2568.467885
851.997887	2543.262115
852.311938	2550.823846
852.625947	2656.688077
852.939914	2628.961731
853.253837	2593.673654
853.567718	2611.317692
853.881555	2586.111923
854.195350	2628.961731
854.509103	2613.838269
854.822812	2656.688077
855.136479	2611.317692
855.450103	2618.879423
855.763685	2618.879423
856.077224	2576.029615
856.390720	2654.167500
856.704173	2611.317692
857.017584	2513.015192
857.330953	2593.673654
857.644278	2543.262115
857.957561	2601.235385
858.270802	2636.523462
858.584000	2621.400000
858.897155	2586.111923
859.210268	2601.235385
859.523339	2545.782692
859.836367	2563.426731
860.149352	2576.029615
860.462295	2613.838269
860.775195	2545.782692
861.088054	2593.673654
861.400869	2616.358846
861.713642	2558.385577
862.026373	2631.482308
862.339062	2573.509038
862.651708	2586.111923
862.964312	2543.262115
863.276873	2613.838269
863.589392	2591.153077
863.901869	2621.400000
864.214303	2578.550192
864.526696	2656.688077
864.839045	2707.099615
865.151353	2601.235385
865.463619	2616.358846
865.775842	2613.838269
866.088023	2634.002885
866.400162	2644.085192
866.712258	2581.070769
867.024313	2634.002885
867.336325	2631.482308
867.648296	2560.906154
867.960224	2530.659231
868.272110	2591.153077
868.583954	2666.770385
868.895755	2606.276538
869.207515	2601.235385
869.519233	2646.605769
869.830909	2576.029615
870.142542	2669.290962
870.454134	2644.085192
870.765684	2636.523462
871.077191	2634.002885
871.388657	2603.755962
871.700081	2644.085192
872.011463	2591.153077
872.322803	2568.467885
872.634101	2581.070769
872.945357	2545.782692
873.256571	2560.906154
873.567744	2666.770385
873.878874	2507.974038
874.189963	2565.947308
874.501010	2639.044038
874.812015	2515.535769
875.122979	2608.797115
875.433900	2593.673654
875.744780	2613.838269
876.055618	2618.879423
876.366415	2558.385577
876.677169	2628.961731
876.987882	2581.070769
877.298554	2591.153077
877.609183	2618.879423
877.919771	2593.673654
878.230317	2507.974038
878.540822	2631.482308
878.851285	2636.523462
879.161707	2644.085192
879.472087	2606.276538
879.782425	2603.755962
880.092722	2611.317692
880.402977	2684.414423
880.713191	2636.523462
881.023363	2644.085192
881.333494	2616.358846
881.643583	2636.523462
881.953631	2616.358846
882.263637	2634.002885
882.573602	2681.893846
882.883526	2507.974038
883.193408	2674.332115
883.503248	2664.249808
883.813048	2621.400000
884.122806	2671.811538
884.432522	2719.702500
884.742197	2626.441154
885.051831	2601.235385
885.361424	2631.482308
885.670975	2631.482308
885.980485	2613.838269
886.289954	2644.085192
886.599382	2560.906154
886.908768	2576.029615
887.218113	2500.412308
887.527417	2631.482308
887.836680	2525.618077
888.145901	2601.235385
888.455082	2618.879423
888.764221	2570.988462
889.073319	2591.153077
889.382376	2684.414423
889.691392	2636.523462
890.000366	2649.126346
890.309300	2616.358846
890.618193	2570.988462
890.927044	2576.029615
891.235855	2593.673654
891.544625	2593.673654
891.853353	2568.467885
892.162041	2621.400000
892.470687	2623.920577
892.779293	2606.276538
893.087858	2545.782692
893.396381	2608.797115
893.704864	2641.564615
894.013306	2606.276538
894.321707	2548.303269
894.630068	2548.303269
894.938387	2558.385577
895.246665	2591.153077
895.554903	2644.085192
895.863100	2679.373269
896.171256	2664.249808
896.479371	2573.509038
896.787446	2621.400000
897.095480	2631.482308
897.403473	2674.332115
897.711425	2656.688077
898.019336	2651.646923
898.327207	2606.276538
898.635038	2616.358846
898.942827	2535.700385
899.250576	2598.714808
899.558284	2666.770385
899.865952	2583.591346
900.173579	2593.673654
900.481165	2613.838269
900.788711	2578.550192
901.096216	2618.879423
901.403681	2651.646923
901.711105	2565.947308
902.018489	2480.247692
902.325832	2593.673654
902.633135	2649.126346
902.940397	2616.358846
903.247619	2578.550192
903.554800	2550.823846
903.861941	2626.441154
904.169041	2628.961731
904.476101	2563.426731
904.783121	2578.550192
905.090100	2691.976154
905.397039	2588.632500
905.703938	2553.344423
906.010796	2576.029615
906.317614	2598.714808
906.624391	2611.317692
906.931129	2583.591346
907.237826	2550.823846
907.544483	2664.249808
907.851099	2553.344423
908.157675	2596.194231
908.464211	2616.358846
908.770707	2540.741538
909.077163	2666.770385
909.383578	2646.605769
909.689954	2583.591346
909.996289	2573.509038
910.302584	2601.235385
910.608839	2518.056346
910.915054	2618.879423
911.221229	2555.865000
911.527363	2606.276538
911.833458	2581.070769
912.139513	2623.920577
912.445527	2583.591346
912.751502	2553.344423
913.057436	2649.126346
913.363331	2626.441154
913.669186	2591.153077
913.975000	2631.482308
914.280775	2666.770385
914.586510	2598.714808
914.892205	2543.262115
915.197859	2621.400000
915.503475	2626.441154
915.809050	2628.961731
916.114585	2699.537885
916.420081	2596.194231
916.725536	2570.988462
917.030952	2644.085192
917.336328	2613.838269
917.641665	2613.838269
917.946961	2664.249808
918.252218	2636.523462
918.557435	2560.906154
918.862612	2712.140769
919.167750	2601.235385
919.472848	2545.782692
919.777906	2674.332115
920.082925	2651.646923
920.387904	2576.029615
920.692843	2641.564615
920.997743	2588.632500
921.302603	2570.988462
921.607423	2535.700385
921.912204	2563.426731
922.216946	2565.947308
922.521647	2563.426731
922.826310	2671.811538
923.130932	2538.220962
923.435516	2621.400000
923.740059	2573.509038
924.044564	2641.564615
924.349028	2515.535769
924.653454	2578.550192
924.957840	2601.235385
925.262186	2596.194231
925.566493	2596.194231
925.870761	2502.932885
926.174989	2583.591346
926.479178	2596.194231
926.783328	2568.467885
927.087438	2578.550192
927.391509	2515.535769
927.695541	2651.646923
927.999533	2613.838269
928.303486	2603.755962
928.607400	2583.591346
928.911275	2583.591346
929.215110	2520.576923
929.518906	2505.453462
929.822663	2616.358846
930.126381	2626.441154
930.430060	2576.029615
930.733699	2591.153077
931.037299	2603.755962
931.340861	2543.262115
931.644383	2618.879423
931.947866	2659.208654
932.251309	2616.358846
932.554714	2616.358846
932.858080	2601.235385
933.161407	2618.879423
933.464694	2573.509038
933.767943	2593.673654
934.071153	2628.961731
934.374323	2621.400000
934.677455	2623.920577
934.980548	2611.317692
935.283602	2616.358846
935.586617	2598.714808
935.889593	2565.947308
936.192530	2560.906154
936.495428	2450.000769
936.798287	2543.262115
937.101108	2548.303269
937.403890	2533.179808
937.706632	2631.482308
938.009336	2621.400000
938.312002	2601.235385
938.614628	2583.591346
938.917216	2621.400000
939.219765	2646.605769
939.522275	2570.988462
939.824747	2596.194231
940.127179	2570.988462
940.429573	2555.865000
940.731929	2649.126346
941.034246	2576.029615
941.336524	2608.797115
941.638763	2560.906154
941.940964	2644.085192
942.243126	2523.097500
942.545250	2533.179808
942.847335	2573.509038
943.149381	2550.823846
943.451389	2631.482308
943.753359	2591.153077
944.055290	2636.523462
944.357182	2616.358846
944.659036	2520.576923
944.960851	2596.194231
945.262628	2555.865000
945.564367	2538.220962
945.866067	2573.509038
946.167729	2596.194231
946.469352	2533.179808
946.770937	2563.426731
947.072484	2603.755962
947.373992	2586.111923
947.675462	2603.755962
947.976893	2535.700385
948.278286	2601.235385
948.579641	2530.659231
948.880958	2593.673654
949.182236	2555.865000
949.483476	2628.961731
949.784678	2555.865000
950.085841	2606.276538
950.386967	2535.700385
950.688054	2593.673654
950.989103	2573.509038
951.290114	2628.961731
951.591087	2578.550192
951.892021	2568.467885
952.192917	2601.235385
952.493776	2591.153077
952.794596	2608.797115
953.095378	2583.591346
953.396122	2568.467885
953.696828	2611.317692
953.997496	2490.330000
954.298126	2588.632500
954.598718	2591.153077
954.899272	2613.838269
955.199788	2535.700385
955.500266	2681.893846
955.800706	2603.755962
956.101108	2560.906154
956.401472	2530.659231
956.701798	2598.714808
957.002087	2515.535769
957.302337	2570.988462
957.602550	2621.400000
957.902724	2596.194231
958.202861	2573.509038
958.502960	2613.838269
958.803022	2611.317692
959.103045	2601.235385
959.403031	2578.550192
959.702979	2565.947308
960.002889	2520.576923
960.302762	2520.576923
960.602596	2495.371154
960.902393	2568.467885
961.202153	2588.632500
961.501875	2616.358846
961.801559	2586.111923
962.101205	2649.126346
962.400814	2628.961731
962.700385	2513.015192
962.999918	2598.714808
963.299414	2573.509038
963.598873	2523.097500
963.898293	2568.467885
964.197677	2581.070769
964.497022	2558.385577
964.796331	2586.111923
965.095601	2515.535769
965.394835	2623.920577
965.694030	2606.276538
965.993189	2563.426731
966.292309	2623.920577
966.591393	2598.714808
966.890439	2570.988462
967.189447	2608.797115
967.488419	2530.659231
967.787353	2560.906154
968.086249	2518.056346
968.385108	2626.441154
968.683930	2649.126346
968.982714	2475.206538
969.281462	2621.400000
969.580172	2618.879423
969.878844	2603.755962
970.177480	2548.303269
970.476078	2598.714808
970.774639	2515.535769
971.073162	2563.426731
971.371649	2545.782692
971.670098	2603.755962
971.968510	2654.167500
972.266885	2598.714808
972.565223	2570.988462
972.863524	2568.467885
973.161788	2596.194231
973.460014	2586.111923
973.758204	2664.249808
974.056356	2601.235385
974.354471	2649.126346
974.652550	2649.126346
974.950591	2613.838269
975.248595	2621.400000
975.546563	2505.453462
975.844493	2563.426731
976.142386	2528.138654
976.440243	2581.070769
976.738062	2591.153077
977.035845	2639.044038
977.333590	2641.564615
977.631299	2523.097500
977.928971	2626.441154
978.226606	2641.564615
978.524204	2538.220962
978.821765	2515.535769
979.119290	2586.111923
979.416777	2593.673654
979.714228	2586.111923
980.011642	2492.850577
980.309020	2543.262115
980.606360	2583.591346
980.903664	2555.865000
981.200931	2613.838269
981.498162	2626.441154
981.795356	2550.823846
982.092513	2606.276538
982.389633	2578.550192
982.686717	2621.400000
982.983764	2623.920577
983.280775	2565.947308
983.577749	2618.879423
983.874686	2538.220962
984.171587	2616.358846
984.468451	2656.688077
984.765279	2639.044038
985.062070	2583.591346
985.358824	2628.961731
985.655543	2634.002885
985.952224	2573.509038
986.248869	2608.797115
986.545478	2510.494615
986.842050	2578.550192
987.138586	2651.646923
987.435086	2591.153077
987.731549	2679.373269
988.027975	2550.823846
988.324366	2613.838269
988.620719	2631.482308
988.917037	2656.688077
989.213318	2528.138654
989.509563	2621.400000
989.805772	2686.935000
990.101944	2641.564615
990.398080	2513.015192
990.694180	2608.797115
990.990244	2666.770385
991.286271	2578.550192
991.582262	2611.317692
991.878217	2606.276538
992.174136	2613.838269
992.470019	2588.632500
992.765865	2568.467885
993.061676	2535.700385
993.357450	2583.591346
993.653188	2591.153077
993.948890	2598.714808
994.244556	2487.809423
994.540186	2598.714808
994.835780	2616.358846
995.131337	2591.153077
995.426859	2543.262115
995.722345	2563.426731
996.017795	2598.714808
996.313208	2528.138654
996.608586	2601.235385
996.903928	2565.947308
997.199234	2626.441154
997.494504	2523.097500
997.789738	2482.768269
998.084936	2591.153077
998.380099	2628.961731
998.675225	2523.097500
998.970316	2621.400000
999.265371	2586.111923
999.560390	2530.659231
999.855373	2593.673654
1000.150320	2570.988462
1000.445232	2626.441154
1000.740108	2563.426731
1001.034948	2581.070769
1001.329752	2626.441154
1001.624521	2611.317692
1001.919254	2563.426731
1002.213951	2510.494615
1002.508613	2611.317692
1002.803239	2613.838269
1003.097829	2616.358846
1003.392384	2586.111923
1003.686903	2586.111923
1003.981386	2646.605769
1004.275834	2601.235385
1004.570246	2553.344423
1004.864623	2644.085192
1005.158964	2618.879423
1005.453270	2578.550192
1005.747540	2636.523462
1006.041775	2525.618077
1006.335974	2586.111923
1006.630138	2563.426731
1006.924266	2573.509038
1007.218359	2659.208654
1007.512416	2598.714808
1007.806438	2578.550192
1008.100425	2565.947308
1008.394376	2586.111923
1008.688292	2583.591346
1008.982172	2608.797115
1009.276017	2548.303269
1009.569827	2553.344423
1009.863602	2623.920577
1010.157341	2621.400000
1010.451045	2598.714808
1010.744714	2654.167500
1011.038347	2560.906154
1011.331945	2611.317692
1011.625508	2550.823846
1011.919036	2613.838269
1012.212528	2490.330000
1012.505986	2555.865000
1012.799408	2485.288846
1013.092795	2611.317692
1013.386147	2570.988462
1013.679464	2606.276538
1013.972745	2523.097500
1014.265992	2664.249808
1014.559204	2555.865000
1014.852380	2596.194231
1015.145521	2634.002885
1015.438628	2606.276538
1015.731699	2606.276538
1016.024736	2598.714808
1016.317737	2563.426731
1016.610703	2570.988462
1016.903635	2543.262115
1017.196531	2649.126346
1017.489393	2618.879423
1017.782219	2611.317692
1018.075011	2626.441154
1018.367768	2525.618077
1018.660490	2608.797115
1018.953177	2608.797115
1019.245829	2608.797115
