Dividing Wavelength (nm)	Counts (n)	Blue Motor Position (mm): 42.000000	Red Motor Position (mm): 0.000000	
326.493990	2252.563979
326.888308	2252.563979
327.282561	2252.563979
327.676750	2213.268185
328.070874	2211.763400
328.464933	2212.393544
328.858929	2212.638040
329.252859	2220.532487
329.646726	2227.179249
330.040528	2242.262381
330.434265	2254.146901
330.827938	2270.578542
331.221547	2291.050668
331.615091	2308.646815
332.008571	2324.148363
332.401986	2343.561847
332.795338	2363.008098
333.188625	2385.799154
333.581847	2403.843965
333.975006	2422.367684
334.368100	2441.856785
334.761129	2459.667182
335.154095	2475.756024
335.546996	2501.382730
335.939833	2543.768751
336.332606	2558.854404
336.725315	2571.928637
337.117960	2581.945409
337.510540	2597.101638
337.903056	2607.685541
338.295508	2612.492281
338.687896	2623.686163
339.080220	2631.265538
339.472480	2637.481281
339.864676	2642.482105
340.256807	2645.542086
340.648875	2648.902015
341.040879	2652.929897
341.432818	2654.694301
341.824694	2658.878458
342.216506	2662.066988
342.608253	2660.594971
342.999937	2662.364416
343.391557	2662.986999
343.783113	2660.138747
344.174605	2658.013900
344.566033	2660.458860
344.957397	2660.297543
345.348697	2658.195382
345.739934	2655.079949
346.131106	2654.066677
346.522215	2650.457211
346.913260	2652.501399
347.304241	2648.110554
347.695159	2647.495533
348.086012	2644.196098
348.476802	2643.452527
348.867528	2637.325005
349.258191	2638.673514
349.648789	2637.206538
350.039324	2634.590179
350.429796	2636.417597
350.820203	2633.667648
351.210548	2633.133286
351.600828	2632.800569
351.991045	2633.647483
352.381198	2631.525157
352.771288	2628.981895
353.161314	2630.481639
353.551276	2629.917029
353.941175	2629.758233
354.331010	2628.407204
354.720782	2630.484159
355.110490	2629.803603
355.500135	2629.962400
355.889717	2626.156329
356.279235	2628.087091
356.668689	2628.742441
357.058080	2628.089611
357.447408	2630.642956
357.836672	2630.355610
358.225873	2628.029117
358.615010	2629.206227
359.004084	2630.103552
359.393095	2632.218316
359.782043	2635.147227
360.170927	2634.348204
360.559748	2633.826444
360.948505	2635.116980
361.337199	2635.905920
361.725830	2632.692185
362.114398	2636.921713
362.502903	2636.478091
362.891344	2639.011271
363.279722	2636.183184
363.668037	2639.175108
364.056289	2637.745941
364.444478	2640.765592
364.832603	2640.432876
365.220665	2638.434059
365.608665	2641.304996
365.996601	2642.789616
366.384474	2644.770789
366.772284	2644.594349
367.160031	2642.129225
367.547715	2646.222642
367.935336	2645.032929
368.322893	2645.171561
368.710388	2639.306178
369.097820	2642.310706
369.485189	2642.719040
369.872495	2645.743732
370.259738	2649.867396
370.646918	2651.878816
371.034035	2651.528456
371.421090	2649.975781
371.808081	2648.281953
372.195010	2650.532828
372.581875	2649.711120
372.968678	2651.415030
373.355418	2653.857469
373.742096	2652.198929
374.128710	2652.060298
374.515262	2654.522901
374.901751	2653.557520
375.288177	2655.158087
375.674540	2653.905360
376.060841	2656.405772
376.447079	2656.017603
376.833254	2657.890392
377.219367	2655.861328
377.605417	2657.797131
377.991404	2659.553973
378.377329	2659.944662
378.763191	2658.376863
379.148991	2660.539518
379.534727	2661.469611
379.920402	2662.064467
380.306013	2660.375681
380.691563	2664.791732
381.077049	2668.174346
381.462474	2668.002947
381.847835	2670.679799
382.233134	2672.993689
382.618371	2680.850327
383.003545	2687.333251
383.388657	2696.314067
383.773706	2708.427959
384.158693	2723.526215
384.543618	2739.000037
384.928480	2760.024169
385.313280	2786.893519
385.698017	2819.819815
386.082692	2856.650485
386.467305	2886.231976
386.851856	2927.766043
387.236344	2978.112046
387.620770	3016.321472
388.005133	3072.308526
388.389435	3126.526136
388.773674	3166.245387
389.157851	3240.362952
389.541965	3310.903817
389.926018	3340.792818
390.310008	3428.927311
390.693936	3502.865915
391.077802	3567.163311
391.461606	3612.085033
391.845348	3691.117723
392.229027	3775.519241
392.612645	3822.099502
392.996200	3933.640072
393.379694	4021.404040
393.763125	4139.619098
394.146494	4206.076629
394.529801	4300.207574
394.913047	4402.054006
395.296230	4408.594903
395.679351	4542.442578
396.062410	4623.516935
396.445408	4643.207682
396.828343	4737.199996
397.211217	4820.326102
397.594028	4748.648456
397.976778	4884.714239
398.359466	4952.048931
398.742092	5006.727807
399.124656	4938.636942
399.507158	5073.656686
399.889598	5156.215662
400.271977	5295.152383
400.654294	5298.348474
401.036549	5351.900652
401.418742	5285.949756
401.800874	5499.291387
402.182944	5564.483589
402.564952	5679.734448
402.946898	5744.412452
403.328783	5597.609011
403.710606	5611.903202
404.092367	5937.836484
404.474067	5962.036543
404.855705	5871.600763
405.237282	5805.763294
405.618797	6056.727056
406.000250	6046.223812
406.381642	6245.747640
406.762972	6266.106340
407.144240	6332.967163
407.525447	6312.570655
407.906593	6347.316808
408.287677	6497.515466
408.668700	6407.835860
409.049661	6527.601072
409.430560	6555.191307
409.811399	6415.511016
410.192176	6688.393715
410.572891	6692.976124
410.953545	6895.436424
411.334138	6620.900227
411.714669	6800.188863
412.095139	6591.013746
412.475547	6839.106571
412.855894	6907.255409
413.236180	7081.432316
413.616405	6763.615292
413.996568	6981.022614
414.376670	7013.618714
414.756711	6913.950062
415.136691	7007.763414
415.516609	7211.030299
415.896466	7202.480502
416.276262	7397.668938
416.655997	7378.716720
417.035670	7575.939261
417.415283	7910.470231
417.794834	7958.908157
418.174324	7822.829771
418.553753	7739.058397
418.933121	8050.344606
419.312428	8159.326790
419.691674	7932.973941
420.070859	8406.524810
420.449983	8094.789939
420.829045	8454.231770
421.208047	8225.118889
421.586988	8528.508130
421.965867	8550.265750
422.344686	8660.329262
422.723444	8699.645221
423.102141	8062.229126
423.480777	8813.572777
423.859352	8333.738110
424.237866	8958.735323
424.616319	8825.449736
424.994712	9248.306762
425.373044	8799.570973
425.751314	9268.030276
426.129524	9138.815421
426.507673	9248.616793
426.885762	9400.766378
427.263789	9314.696237
427.641756	9244.901462
428.019662	9338.271193
428.397508	9593.726623
428.775292	9269.038507
429.153016	9648.322319
429.530679	9483.438780
429.908282	9511.938943
430.285824	9236.785205
430.663305	9917.177136
431.040726	9373.375268
431.418086	9357.165438
431.795385	9679.083440
432.172624	9774.051217
432.549802	9683.701137
432.926920	9759.104196
433.303977	9636.006781
433.680974	9841.229633
434.057910	9940.608419
434.434786	10003.663172
434.811601	9834.832409
435.188355	10402.398276
435.565050	10132.920877
435.941683	10061.941431
436.318257	10546.386233
436.694770	10699.135715
437.071222	10749.958108
437.447614	10591.610424
437.823946	10500.327731
438.200218	10618.804929
438.576429	10449.447365
438.952580	10691.100116
439.328670	10729.725437
439.704700	10519.216934
440.080670	10513.623774
440.456580	11047.759230
440.832429	10827.395272
441.208218	10421.842007
441.583947	10739.464946
441.959616	10902.379915
442.335224	10704.807013
442.710773	10838.687457
443.086261	11052.613861
443.461689	10324.620834
443.837057	10994.577578
444.212365	11255.006106
444.587612	10888.289890
444.962800	11109.818354
445.337927	10862.693431
445.712995	10495.485703
446.088002	11562.108157
446.462949	11238.796276
446.837837	11203.654392
447.212664	11164.582929
447.587431	11715.661703
447.962139	12450.954321
448.336786	14737.951901
448.711374	15252.699079
449.085901	13086.031321
449.460369	12716.303015
449.834776	12160.364569
450.209124	13068.624216
450.583412	13492.759175
450.957640	14421.921966
451.331808	13508.616124
451.705917	12543.214998
452.079965	11818.891931
452.453954	12730.713153
452.827883	12378.621325
453.201752	12664.905931
453.575562	12191.022346
453.949311	12610.554731
454.323001	12587.330135
454.696632	12819.969303
455.070202	13093.376282
455.443713	13316.454901
455.817164	13800.267039
456.190556	13780.435139
456.563888	14140.630623
456.937160	14292.535712
457.310373	13640.482626
457.683526	13744.373245
458.056619	13280.052729
458.429653	13460.394967
458.802628	12854.662524
459.175542	13247.824633
459.548398	14203.622361
459.921194	14547.446697
460.293930	14609.939361
460.666607	15464.538446
461.039224	16533.779780
461.411782	17238.661637
461.784280	17058.619348
462.156719	17152.349521
462.529099	16824.435066
462.901419	15776.868174
463.273680	15545.995930
463.645882	15433.288333
464.018024	15158.381611
464.390106	15385.072217
464.762130	16104.008811
465.134094	16889.907052
465.505999	18924.718390
465.877845	22180.771933
466.249631	24994.093701
466.621358	24637.684124
466.993026	23214.768040
467.364634	22641.803097
467.736184	21173.435969
468.107674	20366.765654
468.479105	20504.822693
468.850477	19965.315888
469.221790	19571.208562
469.593043	18879.900012
469.964238	18304.321231
470.335373	17953.172098
470.706449	18437.576571
471.077467	18009.383484
471.448425	19868.825683
471.819324	23955.472336
472.190164	25870.442845
472.560945	22244.933219
472.931667	19915.295039
473.302330	19297.088260
473.672934	18890.806548
474.043479	19157.493669
474.413965	18955.295509
474.784393	18569.581705
475.154761	19315.710283
475.525070	19255.203834
475.895321	18956.011353
476.265513	19559.407221
476.635645	20146.200050
477.005719	19909.192722
477.375734	20096.058213
477.745691	20583.366391
478.115588	21116.198708
478.485427	21667.824447
478.855207	22743.238674
479.224928	24533.097826
479.594591	26750.777020
479.964194	26713.603552
480.333739	26946.948481
480.703226	26515.919745
481.072653	26219.893109
481.442022	26822.106827
481.811333	27752.958405
482.180584	27634.894582
482.549777	26682.895363
482.918912	26342.592273
483.287988	26469.147920
483.657005	26118.192871
484.025964	25895.948563
484.394864	25776.253926
484.763706	25436.812873
485.132489	24899.267077
485.501213	25087.342445
485.869879	24995.459854
486.238487	24829.812580
486.607036	24952.405880
486.975527	24693.890469
487.343959	24993.173691
487.712333	24907.688324
488.080648	24573.283384
488.448905	25069.390896
488.817104	24838.042263
489.185244	25524.324783
489.553326	25485.838094
489.921350	26517.346392
490.289315	28851.597227
490.657222	30588.486456
491.025070	31085.839133
491.392861	30844.546824
491.760593	29983.026235
492.128267	29073.854139
492.495883	28027.643316
492.863440	27158.583681
493.230939	26281.682532
493.598380	26121.436854
493.965763	25719.931635
494.333088	25248.283802
494.700354	25208.158738
495.067563	25055.782301
495.434713	24827.221427
495.801805	24989.375181
496.168839	24765.492498
496.535815	24627.886642
496.902733	24842.496123
497.269593	24527.902917
497.636395	24706.662233
498.003139	24651.766588
498.369825	24393.099943
498.736453	24608.359733
499.103023	24464.787671
499.469535	24466.534431
499.835989	24691.069944
500.202385	24719.005498
500.568723	24239.392641
500.935003	24433.005717
501.301226	24111.937149
501.667390	24954.412259
502.033497	25161.056717
502.399546	24898.306737
502.765537	24440.968219
503.131470	24828.154040
503.497345	24972.792306
503.863163	24205.188412
504.228923	24770.626913
504.594625	24994.033208
504.960269	24545.509147
505.325856	25016.539439
505.691385	24423.677061
506.056856	25031.615009
506.422270	25017.716548
506.787625	24545.851945
507.152924	24978.703059
507.518164	25011.377297
507.883347	24825.484749
508.248472	24505.021120
508.613540	25280.143894
508.978550	25082.167700
509.343503	25105.654436
509.708398	25309.967360
510.073236	25473.961136
510.438016	25677.217938
510.802738	25347.181158
511.167403	25609.847958
511.532010	25344.937844
511.896561	26085.843787
512.261053	26058.412348
512.625488	25890.163839
512.989866	25788.887058
513.354186	25611.929955
513.718449	25738.412505
514.082655	26124.038089
514.446803	25843.054256
514.810894	26329.878483
515.174927	25813.334133
515.538904	25838.295407
515.902822	26335.975758
516.266684	26095.986588
516.630488	25985.517264
516.994235	25955.567769
517.357925	26285.508767
517.721558	26438.981655
518.085133	26571.216162
518.448651	26455.035209
518.812112	26203.337960
519.175516	26426.219974
519.538863	26564.826499
519.902152	26364.899379
520.265385	26628.168597
520.628560	26417.108088
520.991678	26418.577585
521.354739	26486.285322
521.717743	26571.284217
522.080690	26338.501377
522.443580	26669.405236
522.806413	26636.985575
523.169189	26756.531497
523.531908	26801.460781
523.894569	26424.077484
524.257174	26507.334660
524.619722	26664.134709
524.982213	26372.950101
525.344647	26401.782981
525.707025	26563.742651
526.069345	26525.893668
526.431608	26494.804872
526.793815	26670.007653
527.155964	26159.023697
527.518057	26321.593347
527.880093	26257.265703
528.242072	26476.936502
528.603995	26188.927821
528.965860	25975.916386
529.327669	26025.012183
529.689421	26015.486923
530.051117	25855.289136
530.412755	26034.494594
530.774337	25816.303373
531.135862	25693.851226
531.497331	25887.250052
531.858743	25476.993390
532.220098	25948.459742
532.581396	25622.042510
532.942638	25530.469950
533.303824	25648.846325
533.664953	25641.055221
534.026025	25303.416381
534.387040	25553.596243
534.747999	25599.193480
535.108902	25769.067762
535.469748	25266.588231
535.830537	25433.223572
536.191270	25561.304168
536.551947	25398.147223
536.912567	25034.054928
537.273131	25450.103875
537.633638	25117.367557
537.994089	25343.506157
538.354483	24848.658933
538.714821	25354.122827
539.075103	25398.880711
539.435328	25174.622462
539.795497	24770.042139
540.155609	25114.030313
540.515665	25433.702481
540.875665	24639.249403
541.235609	24991.326108
541.595496	24923.789770
541.955328	25281.623473
542.315102	25193.733476
542.674821	24718.718152
543.034483	24596.172743
543.394090	24773.051708
543.753640	24569.419340
544.113134	25210.696959
544.472571	24793.589369
544.831953	25090.699853
545.191278	24740.659774
545.550548	24637.946264
545.909761	24822.147505
546.268918	25071.729991
546.628019	25042.241762
546.987064	24729.251643
547.346053	24475.323683
547.704986	24575.168776
548.063863	24725.584203
548.422684	24755.271558
548.781449	24264.580767
549.140158	24678.865310
549.498811	24251.529219
549.857408	24010.173897
550.215949	24409.024948
550.574434	24103.452887
550.932864	24302.086951
551.291237	24482.164528
551.649555	24322.049920
552.007817	24389.427462
552.366022	24229.615323
552.724173	24259.277473
553.082267	24240.781479
553.440305	24719.648245
553.798288	23960.861330
554.156215	24449.492810
554.514086	24581.790331
554.871902	23971.964471
555.229661	24231.740170
555.587365	24082.816923
555.945014	23979.707683
556.302606	24211.071439
556.660143	24176.952910
557.017625	24425.955663
557.375050	23937.389717
557.732421	24321.772657
558.089735	24154.802080
558.446994	24207.280491
558.804197	24235.468103
559.161345	24148.359485
559.518437	23924.975876
559.875474	24100.886939
560.232455	24291.296361
560.589381	24105.103865
560.946251	24103.170582
561.303065	24403.361211
561.659825	24503.102961
562.016528	24099.193112
562.373177	23833.226876
562.729770	24195.217010
563.086307	24045.603126
563.442789	24207.272930
563.799216	24058.039652
564.155587	24052.338107
564.511904	24042.424678
564.868164	23989.883252
565.224370	23953.690288
565.580520	23889.753334
565.936615	24005.223483
566.292654	23710.434451
566.648638	23953.723056
567.004567	23805.084635
567.360441	23733.177616
567.716260	23445.158853
568.072023	23775.503144
568.427732	23552.994175
568.783385	23322.026150
569.138982	23573.514192
569.494525	23607.552062
569.850013	23360.021326
570.205445	23456.544299
570.560823	23274.389766
570.916145	23046.529613
571.271412	23215.251991
571.626625	22971.880206
571.981782	23085.928750
572.336884	22889.033884
572.691931	23023.957846
573.046923	22768.111727
573.401860	22633.525522
573.756743	22658.297752
574.111570	22565.374163
574.466342	22483.674703
574.821059	22572.104103
575.175722	22266.925252
575.530330	22234.253534
575.884882	22262.168924
576.239380	22171.128206
576.593823	22063.116444
576.948211	22028.365250
577.302544	21894.510012
577.656823	21745.501066
578.011047	21857.495340
578.365216	21726.861400
578.719330	21599.284919
579.073389	21481.881488
579.427394	21640.655148
579.781344	21390.001417
580.135239	21290.587343
580.489080	21230.595092
580.842866	21014.793378
581.196597	21217.619162
581.550273	21187.939368
581.903895	21055.162938
582.257463	21373.884849
582.610975	20905.735576
582.964434	21241.458778
583.317837	20922.406672
583.671186	21005.111842
584.024481	20990.492496
584.377721	20751.693038
584.730906	20836.288641
585.084037	20825.596353
585.437113	20748.065928
585.790135	20961.001746
586.143103	20402.467105
586.496016	20420.159035
586.848874	20663.838329
587.201679	20579.388920
587.554428	20276.186202
587.907124	20608.879670
588.259765	20368.129286
588.612352	20450.448808
588.964884	20018.575678
589.317362	20176.368835
589.669786	20247.376007
590.022155	20255.971175
590.374470	20485.227728
590.726731	20245.052035
591.078937	20038.584018
591.431090	20112.409195
591.783188	19888.176152
592.135232	19839.128245
592.487222	19948.748136
592.839157	19951.293918
593.191038	19831.382513
593.542866	19735.482122
593.894639	19428.889228
594.246358	19642.069542
594.598022	19540.991886
594.949633	19303.447676
595.301190	19274.471124
595.652692	19446.709707
596.004141	19658.942283
596.355535	18995.344956
596.706876	19019.275313
597.058162	18910.668695
597.409395	19150.189037
597.760573	19202.261636
598.111698	18978.842739
598.462768	18916.622297
598.813785	18898.990862
599.164748	18688.066464
599.515657	18737.870544
599.866511	18541.457108
600.217312	18900.818280
600.568060	18404.756139
600.918753	18713.567141
601.269392	18625.142782
601.619978	18420.693747
601.970510	18602.913814
602.320988	18550.158139
602.671412	18755.554911
603.021783	18685.765178
603.372100	18393.887411
603.722363	18540.816881
604.072572	18486.387543
604.422728	18636.908835
604.772830	18381.080360
605.122878	18345.872941
605.472872	18326.829983
605.822813	18318.028128
606.172701	18296.832597
606.522534	18467.319378
606.872314	18505.362446
607.222041	18344.075770
607.571714	18563.010561
607.921333	18384.069764
608.270899	18459.097257
608.620411	18621.513151
608.969870	18414.185617
609.319276	18394.905724
609.668627	18425.931505
610.017926	18563.466785
610.367171	18674.775462
610.716362	18726.308657
611.065500	18533.182053
611.414585	18693.238688
611.763616	18670.719854
612.112594	18606.119988
612.461518	18578.580164
612.810389	18761.170757
613.159207	18628.966497
613.507971	18538.392086
613.856682	18785.562380
614.205340	18719.061999
614.553945	18870.359628
614.902496	18611.408158
615.250994	18829.949739
615.599439	18778.245145
615.947830	18764.729811
616.296169	18836.195729
616.644454	18804.794382
616.992686	18764.845758
617.340864	18990.439913
617.688990	18735.854082
618.037063	18912.750691
618.385082	18767.126880
618.733048	19044.231545
619.080961	18918.616074
619.428821	18946.788562
619.776628	18828.041663
620.124382	18764.291231
620.472083	18816.250404
620.819731	18815.995825
621.167326	18516.032048
621.514868	18568.477692
621.862357	18340.957816
622.209793	18336.070418
622.557176	18175.544956
622.904506	18005.038009
623.251783	17926.138910
623.599007	17674.512237
623.946179	17612.203575
624.293297	17550.204944
624.640363	17285.284748
624.987376	17321.248340
625.334336	17111.236391
625.681243	16955.005992
626.028097	16978.742265
626.374899	16894.726395
626.721647	16755.260353
627.068343	16588.375476
627.414987	16526.742329
627.761577	16500.367012
628.108115	16536.610387
628.454600	16254.845176
628.801032	16361.763007
629.147412	16288.038653
629.493739	16301.785880
629.840014	16110.521982
630.186236	16208.585027
630.532405	15974.667927
630.878521	16176.850964
631.224585	16074.366827
631.570597	15893.701955
631.916556	15919.570636
632.262462	15894.379990
632.608316	15821.157231
632.954117	15757.668939
633.299866	15757.106851
633.645562	15667.709549
633.991206	15434.543581
634.336797	15297.779597
634.682336	15270.048210
635.027823	15142.345701
635.373257	15017.025137
635.718639	14925.497947
636.063968	14869.258835
636.409245	14620.009066
636.754470	14654.606504
637.099642	14500.795859
637.444762	14278.780923
637.789829	14316.922293
638.134845	14157.352130
638.479808	14186.137119
638.824719	14103.154685
639.169577	13969.763234
639.514383	14014.024565
639.859137	13836.366741
640.203839	13933.736628
640.548489	13780.845993
640.893086	13760.426800
641.237632	13633.966935
641.582125	13786.711376
641.926566	13606.621196
642.270955	13632.126914
642.615292	13578.441146
642.959576	13588.936828
643.303809	13620.197023
643.647990	13555.135892
643.992118	13613.283081
644.336195	13384.434861
644.680219	13613.993883
645.024192	13514.867155
645.368112	13762.700360
645.711981	13804.191577
646.055797	13988.846522
646.399562	13967.643429
646.743274	14235.278286
647.086935	14505.726108
647.430544	14464.123986
647.774101	14505.484132
648.117606	14643.372293
648.461059	14621.982677
648.804460	14602.274286
649.147810	14333.580786
649.491108	14243.896139
649.834354	14251.452828
650.177548	13931.642028
650.520690	13742.518101
650.863781	13667.830886
651.206820	13715.926014
651.549807	13544.625086
651.892742	13335.281090
652.235626	13278.174899
652.578458	13279.178089
652.921238	12981.024086
653.263967	13177.903829
653.606644	13011.182789
653.949269	12989.031959
654.291843	12783.889765
654.634365	12942.668467
654.976836	12793.039459
655.319255	12787.784056
655.661622	12755.240887
656.003938	12679.868076
656.346203	12600.238010
656.688416	12676.326665
657.030577	12634.699337
657.372687	12542.796582
657.714746	12529.729911
658.056753	12720.756875
658.398708	12522.631967
658.740612	12528.457020
659.082465	12641.094041
659.424266	12611.479783
659.766016	12634.958957
660.107715	12544.392107
660.449362	12623.069395
660.790958	12571.198443
661.132503	12516.552335
661.473996	12588.166967
661.815438	12605.165738
662.156829	12635.253864
662.498168	12599.559974
662.839456	12600.195160
663.180693	12613.861728
663.521879	12714.079866
663.863013	12684.999970
664.204097	12652.761792
664.545129	12785.313891
664.886110	12767.879060
665.227040	12855.466588
665.567918	12853.646731
665.908746	12874.113816
666.249522	12869.750697
666.590248	12921.674582
666.930922	13041.291080
667.271545	13001.657529
667.612118	13093.467023
667.952639	12987.196979
668.293109	13021.113862
668.633528	12966.157723
668.973896	12933.420470
669.314213	13013.133715
669.654480	12752.574117
669.994695	12836.103516
670.334859	12859.192000
670.674973	12800.777630
671.015035	12839.032426
671.355047	12780.774332
671.695008	12746.822161
672.034918	12755.613933
672.374777	12809.902119
672.714585	12714.712531
673.054342	12756.544026
673.394049	12708.776572
673.733705	12799.255202
674.073310	12703.009492
674.412864	12710.278836
674.752368	12574.931417
675.091820	12606.816715
675.431223	12589.870877
675.770574	12456.981020
676.109875	12379.253990
676.449125	12338.231600
676.788324	12280.865790
677.127473	12114.038886
677.466571	12113.542332
677.805619	11998.903973
678.144616	11933.338726
678.483562	11904.140363
678.822458	11768.893767
679.161303	11751.872311
679.500098	11736.942934
679.838842	11686.992661
680.177535	11725.121428
680.516179	11792.370421
680.854771	11731.344733
681.193314	11942.722834
681.531805	12111.183072
681.870247	12542.733568
682.208638	12960.940129
682.546978	13256.447526
682.885268	13288.032876
683.223508	12991.197134
683.561697	12834.812980
683.899836	12738.718506
684.237925	12534.040098
684.575963	12448.474073
684.913951	12362.804705
685.251889	12323.660145
685.589776	12417.400401
685.927614	12331.950322
686.265401	12313.545070
686.603137	12358.756658
686.940824	12516.935463
687.278460	12647.617294
687.616046	12676.256089
687.953582	12833.446828
688.291068	12777.424485
688.628504	13007.502747
688.965889	13021.053368
689.303224	12978.742964
689.640510	12857.785518
689.977745	12544.382025
690.314930	12324.854898
690.652065	12227.963922
690.989150	11936.764190
691.326185	11723.384751
691.663170	11507.920794
692.000105	11272.327510
692.336990	11147.967286
692.673825	10896.567464
693.010610	10783.920361
693.347345	10574.725079
693.684030	10380.993537
694.020665	10322.785854
694.357251	10123.982911
694.693786	10044.670438
695.030272	9894.940607
695.366707	9779.407443
695.703093	9718.651457
696.039429	9711.956804
696.375716	9617.679666
696.711952	9496.656685
697.048139	9544.613182
697.384276	9500.004012
697.720363	9523.273978
698.056400	9448.009551
698.392388	9396.743537
698.728326	9358.332465
699.064214	9300.858270
699.400053	9340.469136
699.735842	9159.741250
700.071581	9115.371535
700.407270	9046.910145
700.742910	8965.719842
701.078501	8868.564204
701.414042	8738.900686
701.749533	8677.607817
702.084974	8546.835245
702.420366	8666.129110
702.755709	8539.586066
703.091002	8405.829131
703.426246	8430.765198
703.761440	8390.070484
704.096584	8344.468206
704.431679	8279.119729
704.766725	8261.705063
705.101721	8215.971715
705.436668	8267.285620
705.771565	8152.052405
706.106413	8236.786640
706.441212	8273.975232
706.775961	8239.710509
707.110661	8283.876058
707.445311	8414.363804
707.779913	8308.232393
708.114465	8438.369779
708.448967	8478.331006
708.783421	8635.073082
709.117825	8811.730236
709.452180	8842.564453
709.786485	8935.185573
710.120742	9218.853820
710.454949	9219.357936
710.789107	9326.812651
711.123216	9550.158451
711.457275	9719.233710
711.791286	9866.473211
712.125247	9874.902020
712.459159	9855.569195
712.793023	10082.784081
713.126837	9661.555348
713.460602	9824.271192
713.794318	9651.223503
714.127985	9679.275004
714.461602	9340.411163
714.795171	9293.742681
715.128691	9039.673569
715.462162	8801.544584
715.795584	8737.045542
716.128957	8573.598731
716.462281	8417.000328
716.795556	8462.181669
717.128782	8254.236594
717.461960	8006.758790
717.795088	8068.737256
718.128167	7974.233265
718.461198	7807.310579
718.794180	7752.185562
719.127113	7745.788337
719.459997	7572.496153
719.792833	7357.329625
720.125619	7427.252949
720.458357	7276.507326
720.791046	7272.602952
721.123686	7258.825479
721.456278	7098.821776
721.788821	7116.274251
722.121315	7020.217585
722.453761	7088.931032
722.786158	7026.524068
723.118506	7041.879423
723.450805	6997.262691
723.783056	7055.553553
724.115259	6977.859290
724.447412	6980.057233
724.779518	7024.689088
725.111574	7026.413163
725.443582	7100.104750
725.775542	7086.042451
726.107453	7280.441946
726.439315	7189.829727
726.771129	7257.907989
727.102895	7436.309382
727.434612	7543.426340
727.766281	7583.193482
728.097901	7656.690984
728.429473	7661.492683
728.760996	7647.485837
729.092471	7614.383101
729.423897	7554.063174
729.755276	7555.898154
730.086606	7477.329251
730.417887	7582.061743
730.749120	7800.797408
731.080305	7986.158114
731.411442	8092.970082
731.742530	8085.345337
732.073570	8191.121347
732.404562	8277.335161
732.735506	8135.905589
733.066401	8269.501208
733.397249	8191.133950
733.728048	7949.135881
734.058798	7615.502237
734.389501	7380.798717
734.720156	7208.708848
735.050762	6982.870197
735.381320	6899.093781
735.711831	6835.902918
736.042293	6727.865950
736.372707	6740.620069
736.703073	6609.928156
737.033391	6647.845194
737.363661	6656.309292
737.693883	6700.237906
738.024056	6782.096162
738.354182	6819.153684
738.684260	6849.004877
739.014290	6976.563713
739.344272	7084.968685
739.674207	7114.827440
740.004093	7190.880807
740.333931	7202.084772
740.663722	7204.118877
740.993464	7283.640558
741.323159	7262.069461
741.652806	7014.352202
741.982405	7048.795886
742.311956	7089.624191
742.641460	6911.253044
742.970915	6723.555763
743.300323	6712.898764
743.629683	6671.886457
743.958996	6535.840838
744.288260	6442.975222
744.617477	6391.782305
744.946647	6387.426748
745.275768	6227.871708
745.604842	6182.128278
745.933869	6159.163302
746.262847	6123.005626
746.591778	6106.405107
746.920662	6064.999589
747.249498	6063.164609
747.578286	6109.167659
747.907027	6183.980902
748.235720	6241.934007
748.564365	6222.855760
748.892963	6259.784733
749.221514	6398.376134
749.550017	6214.454677
749.878473	6102.898984
750.206881	6168.910373
750.535242	6113.054388
750.863555	6039.319952
751.191821	6052.341252
751.520039	6051.446447
751.848210	5954.457168
752.176334	5990.894628
752.504411	6029.550196
752.832440	5956.060255
753.160421	5886.847733
753.488356	5936.588798
753.816243	5961.628209
754.144082	5813.241846
754.471875	5790.125635
754.799620	5830.064176
755.127318	5840.559858
755.454969	5800.296163
755.782572	5767.437922
756.110129	5812.510878
756.437638	5789.195542
756.765100	5724.903186
757.092515	5739.061267
757.419882	5793.321726
757.747203	5766.255771
758.074477	5827.407488
758.401703	5807.310928
758.728882	5764.443477
759.056014	5836.577347
759.383099	5953.637980
759.710138	5962.739784
760.037129	5947.391991
760.364073	5953.040604
760.690970	6037.353902
761.017820	6015.445047
761.344623	5974.815868
761.671379	6082.537764
761.998088	6206.703903
762.324751	6464.125383
762.651366	7100.563495
762.977935	8460.487842
763.304456	10117.308423
763.630931	10983.348407
763.957359	10536.457681
764.283740	9579.790353
764.610074	8704.058751
764.936362	7709.471865
765.262602	7113.758715
765.588796	6581.226346
765.914943	6248.699236
766.241044	6079.298822
766.567097	5867.028437
766.893104	5610.287512
767.219064	5434.661274
767.544978	5369.809351
767.870845	5286.501763
768.196665	5180.256925
768.522438	5111.430051
768.848165	5074.995112
769.173846	5005.081870
769.499479	4966.459070
769.825066	4915.094753
770.150607	4851.006564
770.476101	4827.449252
770.801548	4819.345597
771.126949	4741.379112
771.452303	4689.664435
771.777611	4646.746572
772.102872	4671.503679
772.428087	4630.304849
772.753256	4586.232561
773.078378	4539.511147
773.403453	4469.829798
773.728482	4455.454948
774.053465	4405.282865
774.378401	4400.609715
774.703291	4392.075042
775.028135	4317.428156
775.352932	4272.763533
775.677683	4258.711317
776.002388	4278.018936
776.327046	4286.094864
776.651658	4215.037280
776.976224	4153.270543
777.300743	4157.069052
777.625216	4178.622505
777.949643	4170.639838
778.274024	4129.473776
778.598359	4088.043053
778.922647	4116.414667
779.246889	4105.858491
779.571086	4095.398097
779.895236	4075.455292
780.219339	4069.521854
780.543397	4066.471956
780.867409	4116.001292
781.191374	4127.159886
781.515294	4065.115885
781.839167	4057.037436
782.162995	4081.199687
782.486776	4069.317687
782.810511	4078.308585
783.134201	4066.146801
783.457844	4022.369421
783.781441	3967.546873
784.104993	3973.180363
784.428498	3996.896471
784.751958	3988.064369
785.075372	3963.221563
785.398739	3932.614198
785.722061	3946.255560
786.045337	3991.205008
786.368568	4014.112011
786.691752	3926.963064
787.014891	3986.438597
787.337983	4121.239051
787.661030	4281.542702
787.984031	4442.168987
788.306987	4609.638639
788.629897	4696.646433
788.952760	4648.707581
789.275579	4585.418415
789.598351	4511.512579
789.921078	4362.158314
790.243759	4161.931245
790.566395	4155.347498
790.888984	4145.575221
791.211529	4034.780742
791.534027	3973.336638
791.856480	3960.426243
792.178888	3900.091194
792.501249	3856.253320
792.823566	3864.258672
793.145836	3886.533010
793.468062	3833.295905
793.790241	3793.196047
794.112375	3823.122857
794.434464	3891.490985
794.756507	3915.771703
795.078505	3890.389493
795.400457	3930.706121
795.722364	4075.873708
796.044226	4181.896735
796.366042	4253.571860
796.687812	4225.900967
797.009538	4229.351637
797.331218	4192.919218
797.652852	4168.900640
797.974442	4146.712002
798.295986	4141.769150
798.617484	4057.493661
798.938938	3974.155826
799.260346	4021.151983
799.581709	4008.113038
799.903026	3928.760236
800.224299	3896.229670
800.545526	3892.491654
800.866708	3851.383565
801.187845	3796.903816
801.508936	3832.658199
801.829983	3819.838545
802.150984	3744.848861
802.471940	3738.922985
802.792851	3744.982452
803.113717	3743.563367
803.434538	3744.463213
803.755314	3686.699151
804.076045	3665.057478
804.396731	3685.156558
804.717372	3707.461143
805.037967	3692.201571
805.358518	3683.366949
805.679024	3712.469530
805.999485	3727.678691
806.319901	3730.108527
806.640272	3743.286103
806.960598	3755.261364
807.280879	3731.056264
807.601115	3747.934047
807.921306	3761.502313
808.241453	3803.253149
808.561554	3770.399949
808.881611	3710.155640
809.201623	3749.161568
809.521590	3757.166920
809.841513	3729.385122
810.161390	3759.460645
810.481223	3733.473497
810.801011	3682.867874
811.120755	3676.921833
811.440453	3712.968604
811.760107	3714.309551
812.079716	3666.025379
812.399281	3637.721821
812.718801	3664.008918
813.038276	3634.714773
813.357707	3633.981285
813.677093	3648.514932
813.996434	3595.076180
814.315731	3607.444651
814.634983	3612.379941
814.954191	3628.738485
815.273354	3654.743277
815.592473	3651.794202
815.911547	3660.974143
816.230577	3702.908982
816.549562	3754.323710
816.868502	3794.942807
817.187399	3818.185047
817.506250	3816.113132
817.825058	3793.183444
818.143821	3892.395872
818.462539	3992.611490
818.781213	4035.499107
819.099843	4097.734671
819.418429	4364.326010
819.736970	4605.814923
820.055466	4858.704406
820.373919	5232.571499
820.692327	5647.849150
821.010691	6138.229911
821.329011	7609.919159
821.647286	10500.693215
821.965517	15218.131887
822.283704	19246.321321
822.601847	21267.435844
822.919945	19347.487196
823.237999	16705.897375
823.556010	14183.520760
823.873976	12026.927747
824.191897	9905.695908
824.509775	8561.678923
824.827609	7429.072806
825.145398	6893.329222
825.463144	6777.486027
825.780845	6887.307564
826.098502	7109.829136
826.416116	8050.057260
826.733685	9416.588039
827.051210	10517.800370
827.368692	10472.792949
827.686129	9152.434098
828.003522	7634.242726
828.320872	6611.790862
828.638177	5892.289659
828.955439	5320.567360
829.272656	4816.139424
829.589830	4542.561046
829.906960	4364.434395
830.224046	4171.897606
830.541088	4047.532341
830.858086	4000.435361
831.175041	3921.400151
831.491952	3910.576794
831.808819	3921.634565
832.125642	3999.404445
832.442421	4158.828415
832.759157	4446.194349
833.075849	5027.162124
833.392497	5927.870123
833.709101	6713.458332
834.025662	7023.350662
834.342179	6616.678261
834.658653	5934.554693
834.975083	5272.116830
835.291469	4688.537737
835.607811	4288.096202
835.924110	4139.425014
836.240366	3937.224333
836.556578	3731.714135
836.872746	3624.687918
837.188871	3580.199735
837.504952	3511.932430
837.820990	3426.338679
838.136984	3386.160683
838.452935	3410.005340
838.768842	3404.626429
839.084706	3430.316149
839.400526	3600.210595
839.716303	3960.232159
840.032037	4508.876056
840.347727	4749.558384
840.663373	4438.937608
840.978977	4051.310686
841.294537	3742.638315
841.610054	3511.466123
841.925527	3406.042993
842.240957	3333.745285
842.556344	3281.249230
842.871687	3217.828994
843.186987	3167.467867
843.502244	3130.773308
843.817458	3095.404573
844.132629	3068.525140
844.447756	3075.635688
844.762840	3054.344375
845.077881	3024.888913
845.392879	3008.565657
845.707833	3003.857219
846.022745	3004.089112
846.337613	3002.886797
846.652438	2990.856083
846.967221	2989.837770
847.281960	2974.558033
847.596656	2972.357569
847.911309	2972.355048
848.225919	2964.248873
848.540485	2958.512040
848.855009	2961.551856
849.169490	2948.575926
849.483928	2942.156016
849.798323	2939.090995
850.112675	2935.882300
850.426984	2951.230093
850.741251	2945.304217
851.055474	2933.739810
851.369654	2926.840991
851.683792	2932.529933
851.997887	2943.680965
852.311938	2944.399330
852.625947	2930.967175
852.939914	2935.998247
853.253837	2941.969494
853.567718	2924.146494
853.881555	2923.798655
854.195350	2942.866819
854.509103	2934.266611
854.822812	2927.574479
855.136479	2924.832091
855.450103	2923.725558
855.763685	2917.960998
856.077224	2917.270360
856.390720	2930.243770
856.704173	2938.067641
857.017584	2930.326949
857.330953	2928.824685
857.644278	2938.445727
857.957561	2949.473251
858.270802	2953.062553
858.584000	2948.197839
858.897155	2934.243925
859.210268	2936.940943
859.523339	2932.913061
859.836367	2933.341559
860.149352	2926.994746
860.462295	2922.825712
860.775195	2932.030859
861.088054	2929.248142
861.400869	2912.514032
861.713642	2913.756676
862.026373	2928.373502
862.339062	2928.996084
862.651708	2933.084460
862.964312	2937.324070
863.276873	2928.854932
863.589392	2943.038218
863.901869	2954.968109
864.214303	2978.588435
864.526696	2992.686022
864.839045	2987.685197
865.151353	2987.039930
865.463619	2986.659323
865.775842	2988.204436
866.088023	3011.439114
866.400162	3013.465658
866.712258	2980.299907
867.024313	2973.040645
867.336325	2980.562047
867.648296	3003.322857
867.960224	2996.628204
868.272110	2983.407778
868.583954	2987.241576
868.895755	3001.192969
869.207515	2987.985146
869.519233	2996.749192
869.830909	3005.498114
870.142542	3014.181502
870.454134	3010.957684
870.765684	3012.790143
871.077191	3015.358611
871.388657	3024.815816
871.700081	3039.765358
872.011463	3049.280536
872.322803	3050.566030
872.634101	3048.809188
872.945357	3066.085222
873.256571	3091.298553
873.567744	3084.006524
873.878874	3079.051070
874.189963	3104.634925
874.501010	3102.512600
874.812015	3093.635128
875.122979	3094.534974
875.433900	3091.149839
875.744780	3101.083433
876.055618	3105.809514
876.366415	3101.242229
876.677169	3112.801595
876.987882	3107.011829
877.298554	3105.292796
877.609183	3129.273565
877.919771	3155.164931
878.230317	3181.885567
878.540822	3234.963876
878.851285	3272.565842
879.161707	3320.250117
879.472087	3431.916715
879.782425	3681.456351
880.092722	4142.351403
880.402977	4684.093960
880.713191	5346.204148
881.023363	6561.336474
881.333494	7865.747634
881.643583	8393.632059
881.953631	8068.470074
882.263637	7396.229688
882.573602	6781.171111
882.883526	6191.093971
883.193408	5615.890755
883.503248	5159.779758
883.813048	4844.808466
884.122806	4519.326368
884.432522	4192.074824
884.742197	3950.943833
885.051831	3755.006786
885.361424	3627.727734
885.670975	3554.479768
885.980485	3459.229687
886.289954	3382.004251
886.599382	3331.267558
886.908768	3297.222126
887.218113	3251.670260
887.527417	3191.405786
887.836680	3141.614309
888.145901	3138.723208
888.455082	3122.188223
888.764221	3069.372054
889.073319	3040.849206
889.382376	3040.614792
889.691392	3046.081923
890.000366	3041.358362
890.309300	3033.065664
890.618193	3043.153013
890.927044	3058.011814
891.235855	3060.081208
891.544625	3045.298024
891.853353	3062.037175
892.162041	3076.122159
892.470687	3120.577574
892.779293	3174.099505
893.087858	3221.940055
893.396381	3297.973258
893.704864	3426.830191
894.013306	3680.490970
894.321707	3993.632324
894.630068	4194.671019
894.938387	4186.118701
895.246665	4141.401146
895.554903	4008.692771
895.863100	3805.057882
896.171256	3635.349958
896.479371	3486.346053
896.787446	3359.238400
897.095480	3257.086979
897.403473	3190.208512
897.711425	3155.759787
898.019336	3147.454486
898.327207	3112.657922
898.635038	3073.251222
898.942827	3063.403328
899.250576	3049.182233
899.558284	3016.840711
899.865952	2996.645848
900.173579	2974.681541
900.481165	2965.834316
900.788711	2956.235959
901.096216	2931.486414
901.403681	2921.457039
901.711105	2928.885179
902.018489	2924.340579
902.325832	2923.763367
902.633135	2940.701643
902.940397	2972.768423
903.247619	3062.488359
903.554800	3268.028804
903.861941	3637.081595
904.169041	4085.467023
904.476101	4380.140110
904.783121	4311.479594
905.090100	4048.805232
905.397039	3766.251080
905.703938	3509.147192
906.010796	3325.515602
906.317614	3210.438662
906.624391	3111.967284
906.931129	3037.005326
907.237826	2973.756489
907.544483	2928.396187
907.851099	2897.582134
908.157675	2876.356356
908.464211	2851.450535
908.770707	2843.057014
909.077163	2826.814416
909.383578	2813.352015
909.689954	2799.773667
909.996289	2800.938174
910.302584	2801.414563
910.608839	2803.012608
910.915054	2794.374591
911.221229	2788.773869
911.527363	2788.758746
911.833458	2798.392391
912.139513	2802.032104
912.445527	2805.248360
912.751502	2815.393682
913.057436	2825.395332
913.363331	2839.180367
913.669186	2863.627442
913.975000	2898.476939
914.280775	2962.794500
914.586510	3034.920809
914.892205	3118.558592
915.197859	3254.440374
915.503475	3462.052733
915.809050	3684.526414
916.114585	3834.757840
916.420081	3844.242771
916.725536	3784.454686
917.030952	3654.297135
917.336328	3523.219573
917.641665	3388.209912
917.946961	3280.442645
918.252218	3210.864640
918.557435	3128.897999
918.862612	3067.027918
919.167750	3015.865247
919.472848	2976.486274
919.777906	2946.234310
920.082925	2919.548962
920.387904	2887.724158
920.692843	2872.661190
920.997743	2859.665095
921.302603	2844.783609
921.607423	2832.578976
921.912204	2823.923315
922.216946	2810.312199
922.521647	2799.587144
922.826310	2792.264868
923.130932	2784.814043
923.435516	2775.384565
923.740059	2766.996085
924.044564	2760.417379
924.349028	2755.010742
924.653454	2747.093609
924.957840	2740.290572
925.262186	2737.780078
925.566493	2735.141034
925.870761	2729.610888
926.174989	2726.288767
926.479178	2717.789382
926.783328	2715.871223
927.087438	2716.307283
927.391509	2713.509442
927.695541	2706.822352
927.999533	2703.338915
928.303486	2705.370500
928.607400	2702.270190
928.911275	2702.698688
929.215110	2699.479911
929.518906	2697.208872
929.822663	2698.837164
930.126381	2697.672658
930.430060	2701.209027
930.733699	2700.962011
931.037299	2700.467977
931.340861	2700.793132
931.644383	2705.342773
931.947866	2700.878832
932.251309	2699.270703
932.554714	2700.251208
932.858080	2698.663244
933.161407	2693.856504
933.464694	2693.768284
933.767943	2689.188396
934.071153	2692.656710
934.374323	2693.750640
934.677455	2691.570341
934.980548	2689.503468
935.283602	2687.504650
935.586617	2691.940866
935.889593	2691.313242
936.192530	2690.685618
936.495428	2690.771318
936.798287	2693.601926
937.101108	2697.428162
937.403890	2702.444110
937.706632	2705.252032
938.009336	2712.284442
938.312002	2720.433467
938.614628	2729.681464
938.917216	2736.413925
939.219765	2735.929974
939.522275	2737.223030
939.824747	2733.933677
940.127179	2729.356310
940.429573	2728.597616
940.731929	2724.143757
941.034246	2721.368601
941.336524	2719.442881
941.638763	2717.239896
941.940964	2713.108671
942.243126	2713.514484
942.545250	2714.555482
942.847335	2710.336036
943.149381	2700.873790
943.451389	2699.482432
943.753359	2698.965714
944.055290	2697.760878
944.357182	2693.508665
944.659036	2697.037472
944.960851	2694.579910
945.262628	2692.061853
945.564367	2693.022193
945.866067	2694.889941
946.167729	2695.605785
946.469352	2695.247863
946.770937	2693.906916
947.072484	2689.536235
947.373992	2691.537573
947.675462	2691.333407
947.976893	2684.777386
948.278286	2683.292766
948.579641	2683.761594
948.880958	2683.209587
949.182236	2682.143383
949.483476	2682.574402
949.784678	2684.558096
950.085841	2683.038188
950.386967	2684.215297
950.688054	2685.137829
950.989103	2686.198992
951.290114	2688.570854
951.591087	2689.309383
951.892021	2691.512368
952.192917	2694.156453
952.493776	2695.270548
952.794596	2696.377081
953.095378	2696.520754
953.396122	2695.061340
953.696828	2695.363809
953.997496	2690.978005
954.298126	2688.273426
954.598718	2687.202181
954.899272	2684.492561
955.199788	2682.095492
955.500266	2679.494257
955.800706	2677.679442
956.101108	2676.139369
956.401472	2675.428566
956.701798	2672.756755
957.002087	2668.915396
957.302337	2668.091167
957.602550	2668.176867
957.902724	2667.647545
958.202861	2663.475991
958.502960	2665.363903
958.803022	2665.147133
959.103045	2661.005825
959.403031	2660.897440
959.702979	2659.259065
960.002889	2659.881648
960.302762	2659.198572
960.602596	2657.708911
960.902393	2659.327121
961.202153	2657.897954
961.501875	2658.979281
961.801559	2657.240083
962.101205	2657.469456
962.400814	2660.012718
962.700385	2657.063643
962.999918	2653.681029
963.299414	2652.476193
963.598873	2651.712458
963.898293	2651.039464
964.197677	2655.405103
964.497022	2658.631442
964.796331	2656.519198
965.095601	2654.938797
965.394835	2655.054743
965.694030	2657.272851
965.993189	2655.674805
966.292309	2656.582213
966.591393	2654.636327
966.890439	2656.753612
967.189447	2654.175062
967.488419	2654.011224
967.787353	2654.843015
968.086249	2653.829743
968.385108	2656.017603
968.683930	2655.800834
968.982714	2657.353509
969.281462	2654.732109
969.580172	2653.791934
969.878844	2655.740340
970.177480	2655.400062
970.476078	2654.888385
970.774639	2656.385608
971.073162	2655.586585
971.371649	2655.271513
971.670098	2656.635145
971.968510	2654.064156
972.266885	2656.201606
972.565223	2656.698159
972.863524	2654.439722
973.161788	2656.062974
973.460014	2654.258241
973.758204	2653.459218
974.056356	2655.513488
974.354471	2653.739002
974.652550	2654.895947
974.950591	2656.420896
975.248595	2654.827891
975.546563	2656.551966
975.844493	2654.958961
976.142386	2655.349651
976.440243	2652.992911
976.738062	2655.707572
977.035845	2655.168169
977.333590	2655.281595
977.631299	2652.826553
977.928971	2652.443425
978.226606	2648.261788
978.524204	2649.862355
978.821765	2648.332364
979.119290	2655.052222
979.416777	2654.628766
979.714228	2650.842859
980.011642	2654.873262
980.309020	2651.987201
980.606360	2654.328817
980.903664	2655.629435
981.200931	2653.975936
981.498162	2652.826553
981.795356	2655.387459
982.092513	2656.292346
982.389633	2659.062460
982.686717	2664.590086
982.983764	2666.004129
983.280775	2668.784326
983.577749	2670.974707
983.874686	2669.467402
984.171587	2668.330622
984.468451	2663.415497
984.765279	2664.040600
985.062070	2660.141267
985.358824	2658.848211
985.655543	2658.961637
985.952224	2656.640186
986.248869	2655.916780
986.545478	2652.939979
986.842050	2651.294042
987.138586	2653.973416
987.435086	2653.557520
987.731549	2651.336892
988.027975	2652.070380
988.324366	2649.751449
988.620719	2652.400576
988.917037	2650.079124
989.213318	2650.888229
989.509563	2651.931748
989.805772	2652.012407
990.101944	2647.732467
990.398080	2648.980153
990.694180	2649.489309
990.990244	2648.685245
991.286271	2649.103661
991.582262	2648.322282
991.878217	2650.855462
992.174136	2648.428146
992.470019	2650.616007
992.765865	2645.529483
993.061676	2644.959832
993.357450	2647.742549
993.653188	2642.116622
993.948890	2650.132056
994.244556	2649.794299
994.540186	2649.683394
994.835780	2651.868734
995.131337	2653.118940
995.426859	2650.956285
995.722345	2651.346974
996.017795	2653.557520
996.313208	2654.432161
996.608586	2652.468631
996.903928	2653.212201
997.199234	2653.897798
997.494504	2655.861328
997.789738	2654.018786
998.084936	2652.869403
998.380099	2649.441418
998.675225	2650.991573
998.970316	2652.791265
999.265371	2649.471665
999.560390	2649.716161
999.855373	2649.655667
1000.150320	2649.721202
1000.445232	2648.949906
1000.740108	2649.514515
1001.034948	2648.712972
1001.329752	2648.781027
1001.624521	2647.813126
1001.919254	2648.549134
1002.213951	2646.008392
1002.508613	2647.629123
1002.803239	2647.918990
1003.097829	2648.957467
1003.392384	2649.370842
1003.686903	2648.324803
1003.981386	2645.779020
1004.275834	2647.694658
1004.570246	2648.289515
1004.864623	2645.781541
1005.158964	2646.739360
1005.453270	2645.942857
1005.747540	2649.247334
1006.041775	2647.377066
1006.335974	2648.168527
1006.630138	2648.362611
1006.924266	2647.876140
1007.218359	2646.802374
1007.512416	2646.323465
1007.806438	2641.506642
1008.100425	2643.538227
1008.394376	2643.578556
1008.688292	2645.375728
1008.982172	2644.380100
1009.276017	2645.259781
1009.569827	2645.698362
1009.863602	2645.937816
1010.157341	2646.885553
1010.451045	2646.613331
1010.744714	2647.419916
1011.038347	2647.160296
1011.331945	2645.307672
1011.625508	2646.053763
1011.919036	2644.874133
1012.212528	2643.850779
1012.505986	2645.736170
1012.799408	2648.372694
1013.092795	2647.137611
1013.386147	2645.320275
1013.679464	2645.960502
1013.972745	2647.495533
1014.265992	2649.164155
1014.559204	2645.201808
1014.852380	2644.485964
1015.145521	2646.855306
1015.438628	2645.461427
1015.731699	2644.178454
1016.024736	2642.719040
1016.317737	2643.555871
1016.610703	2643.366828
1016.903635	2645.292549
1017.196531	2648.506284
1017.489393	2645.025367
1017.782219	2647.190543
1018.075011	2643.823052
1018.367768	2647.182981
1018.660490	2647.719864
1018.953177	2647.719864
1019.245829	2647.719864
