Dividing Wavelength (nm)	Counts (n)	Blue Motor Position (mm): 14.600000	Red Motor Position (mm): 0.000000	
326.493990	2064.352500
326.888308	2064.352500
327.282561	2064.352500
327.676750	2038.216638
328.070874	2036.941226
328.464933	2044.084541
328.858929	2052.543597
329.252859	2062.817469
329.646726	2075.407750
330.040528	2095.342993
330.434265	2110.030395
330.827938	2132.365227
331.221547	2155.821716
331.615091	2173.070024
332.008571	2193.905113
332.401986	2215.214070
332.795338	2232.694271
333.188625	2254.033475
333.581847	2271.836310
333.975006	2290.927160
334.368100	2307.205045
334.761129	2322.822540
335.154095	2340.839624
335.546996	2382.721530
335.939833	2464.660445
336.332606	2471.367700
336.725315	2486.571820
337.117960	2496.898623
337.510540	2505.231651
337.903056	2513.771365
338.295508	2520.055164
338.687896	2527.790814
339.080220	2532.325332
339.472480	2535.355066
339.864676	2541.417053
340.256807	2542.475695
340.648875	2544.046015
341.040879	2542.881508
341.432818	2546.143135
341.824694	2546.697662
342.216506	2548.126829
342.608253	2545.039122
342.999937	2544.499719
343.391557	2546.861499
343.783113	2544.325799
344.174605	2538.372196
344.566033	2538.891435
344.957397	2538.047042
345.348697	2537.759696
345.739934	2534.919006
346.131106	2536.262473
346.522215	2533.041176
346.913260	2528.055475
347.304241	2530.432379
347.695159	2528.851977
348.086012	2528.879703
348.476802	2522.865607
348.867528	2522.237983
349.258191	2515.132477
349.648789	2518.925945
350.039324	2513.350429
350.429796	2517.824453
350.820203	2516.506191
351.210548	2513.746160
351.600828	2515.319000
351.991045	2514.840090
352.381198	2513.214318
352.771288	2512.513598
353.161314	2511.165089
353.551276	2514.474606
353.941175	2510.108967
354.331010	2512.919410
354.720782	2514.638444
355.110490	2518.293280
355.500135	2514.938393
355.889717	2515.392096
356.279235	2511.976715
356.668689	2515.553413
357.058080	2513.443690
357.447408	2514.245234
357.836672	2515.591222
358.225873	2514.620800
358.615010	2517.395955
359.004084	2517.627848
359.393095	2518.202540
359.782043	2517.953002
360.170927	2517.970647
360.559748	2520.211439
360.948505	2518.643641
361.337199	2519.969464
361.725830	2522.391738
362.114398	2517.234638
362.502903	2520.541635
362.891344	2522.507685
363.279722	2521.103724
363.668037	2524.385515
364.056289	2525.489528
364.444478	2522.268230
364.832603	2526.157480
365.220665	2523.732685
365.608665	2524.924918
365.996601	2524.453570
366.384474	2525.912984
366.772284	2524.642614
367.160031	2525.229908
367.547715	2529.711494
367.935336	2525.171935
368.322893	2526.724610
368.710388	2523.515916
369.097820	2526.694363
369.485189	2523.021883
369.872495	2527.193438
370.259738	2529.986237
370.646918	2527.964734
371.034035	2527.183355
371.421090	2527.614374
371.808081	2528.216792
372.195010	2528.478932
372.581875	2530.571011
372.968678	2526.580937
373.355418	2528.342821
373.742096	2531.256607
374.128710	2530.412214
374.515262	2531.163346
374.901751	2529.411545
375.288177	2529.000691
375.674540	2531.848943
376.060841	2534.019160
376.447079	2532.771474
376.833254	2532.975641
377.219367	2533.063861
377.605417	2531.198634
377.991404	2531.765764
378.377329	2534.306506
378.763191	2531.213758
379.148991	2532.894983
379.534727	2532.453882
379.920402	2533.726773
380.306013	2533.230219
380.691563	2536.078471
381.077049	2534.608975
381.462474	2533.147040
381.847835	2537.888245
382.233134	2535.922195
382.618371	2534.490508
383.003545	2534.835827
383.388657	2536.643080
383.773706	2536.759027
384.158693	2535.846578
384.543618	2539.955118
384.928480	2536.990920
385.313280	2537.064017
385.698017	2536.978317
386.082692	2536.179294
386.467305	2535.312216
386.851856	2539.241795
387.236344	2534.208203
387.620770	2536.280117
388.005133	2533.116793
388.389435	2535.108049
388.773674	2536.156609
389.157851	2536.995961
389.541965	2539.022505
389.926018	2540.607948
390.310008	2539.052752
390.693936	2539.740869
391.077802	2538.314223
391.461606	2540.819676
391.845348	2539.340098
392.229027	2542.672300
392.612645	2539.100643
392.996200	2541.533000
393.379694	2542.647095
393.763125	2541.298586
394.146494	2539.866898
394.529801	2540.595345
394.913047	2540.285314
395.296230	2542.788247
395.679351	2541.104502
396.062410	2542.173226
396.445408	2539.002340
396.828343	2545.996941
397.211217	2541.696837
397.594028	2544.025850
397.976778	2542.367311
398.359466	2544.386293
398.742092	2541.412012
399.124656	2544.091385
399.507158	2545.238248
399.889598	2543.390665
400.271977	2543.899821
400.654294	2543.279759
401.036549	2543.428473
401.418742	2543.539379
401.800874	2544.774462
402.182944	2546.160779
402.564952	2545.502908
402.946898	2547.189174
403.328783	2546.543907
403.710606	2546.082641
404.092367	2546.906870
404.474067	2548.830070
404.855705	2547.501726
405.237282	2547.292518
405.618797	2548.441901
406.000250	2548.436860
406.381642	2546.382590
406.762972	2544.202291
407.144240	2544.383772
407.525447	2547.602549
407.906593	2542.637012
408.287677	2548.779658
408.668700	2548.504915
409.049661	2549.036757
409.430560	2550.917107
409.811399	2551.335523
410.192176	2549.450132
410.572891	2551.695966
410.953545	2549.687066
411.334138	2554.448436
411.714669	2548.978784
412.095139	2550.899463
412.475547	2553.425082
412.855894	2549.460214
413.236180	2547.811757
413.616405	2550.654968
413.996568	2548.434339
414.376670	2548.371325
414.756711	2548.517518
415.136691	2552.033723
415.516609	2552.951213
415.896466	2550.566747
416.276262	2551.945503
416.655997	2550.783517
417.035670	2553.364588
417.415283	2551.310317
417.794834	2550.440718
418.174324	2552.283260
418.553753	2552.144628
418.933121	2549.787889
419.312428	2553.813250
419.691674	2549.924000
420.070859	2551.756460
420.449983	2552.061449
420.829045	2550.571788
421.208047	2550.327293
421.586988	2550.977601
421.965867	2554.329969
422.344686	2551.390976
422.723444	2551.912735
423.102141	2552.472303
423.480777	2554.675288
423.859352	2552.590771
424.237866	2551.713610
424.616319	2551.320400
424.994712	2552.890719
425.373044	2550.501212
425.751314	2550.138249
426.129524	2547.048022
426.507673	2550.644885
426.885762	2546.586756
427.263789	2553.422561
427.641756	2551.829556
428.019662	2554.582026
428.397508	2553.800647
428.775292	2552.898281
429.153016	2548.840152
429.530679	2553.331820
429.908282	2551.983312
430.285824	2550.503733
430.663305	2552.184958
431.040726	2551.592622
431.418086	2552.116902
431.795385	2553.094886
432.172624	2550.367622
432.549802	2552.227807
432.926920	2553.518343
433.303977	2552.500030
433.680974	2552.207643
434.057910	2551.587581
434.434786	2552.976419
434.811601	2551.920297
435.188355	2552.056408
435.565050	2552.726882
435.941683	2551.766542
436.318257	2556.318704
436.694770	2553.490617
437.071222	2554.322407
437.447614	2553.288970
437.823946	2553.304094
438.200218	2553.891388
438.576429	2553.283929
438.952580	2552.847869
439.328670	2554.400545
439.704700	2552.961295
440.080670	2554.703014
440.456580	2552.255534
440.832429	2553.299053
441.208218	2551.948023
441.583947	2553.324258
441.959616	2553.722510
442.335224	2552.971378
442.710773	2552.691594
443.086261	2554.846687
443.461689	2552.618497
443.837057	2555.534804
444.212365	2553.110009
444.587612	2551.557334
444.962800	2550.191181
445.337927	2550.470965
445.712995	2550.087838
446.088002	2553.490617
446.462949	2555.842315
446.837837	2552.079093
447.212664	2555.081101
447.587431	2554.740823
447.962139	2554.685370
448.336786	2555.723848
448.711374	2552.908363
449.085901	2555.461708
449.460369	2552.878116
449.834776	2553.979608
450.209124	2555.068498
450.583412	2554.801317
450.957640	2553.069680
451.331808	2557.306770
451.705917	2555.043292
452.079965	2555.350802
452.453954	2553.830894
452.827883	2555.706204
453.201752	2555.572613
453.575562	2555.938097
453.949311	2556.230484
454.323001	2554.824002
454.696632	2557.354661
455.070202	2556.227963
455.443713	2554.264434
455.817164	2557.768036
456.190556	2555.214691
456.563888	2558.524209
456.937160	2553.034392
457.310373	2558.148643
457.683526	2558.786349
458.056619	2557.208467
458.429653	2556.162428
458.802628	2557.510937
459.175542	2555.897768
459.548398	2554.529094
459.921194	2557.720145
460.293930	2557.667213
460.666607	2557.475649
461.039224	2555.751574
461.411782	2559.439178
461.784280	2555.849877
462.156719	2554.327448
462.529099	2556.396842
462.901419	2557.674774
463.273680	2556.437171
463.645882	2551.423743
464.018024	2556.782490
464.390106	2552.346275
464.762130	2558.032696
465.134094	2558.738458
465.505999	2562.499158
465.877845	2561.143088
466.249631	2561.541339
466.621358	2560.517985
466.993026	2563.769529
467.364634	2561.188458
467.736184	2558.688046
468.107674	2561.569066
468.479105	2559.691236
468.850477	2561.412790
469.221790	2561.211144
469.593043	2559.734086
469.964238	2558.987995
470.335373	2557.616801
470.706449	2560.535629
471.077467	2561.758109
471.448425	2564.014025
471.819324	2561.196020
472.190164	2563.330949
472.560945	2558.962789
472.931667	2558.990515
473.302330	2557.352140
473.672934	2559.711400
474.043479	2560.507903
474.413965	2559.650907
474.784393	2559.469425
475.154761	2562.640311
475.525070	2564.404715
475.895321	2561.400187
476.265513	2562.400856
476.635645	2559.807182
477.005719	2561.644683
477.375734	2561.551422
477.745691	2561.039744
478.115588	2566.743810
478.485427	2562.978068
478.855207	2565.302040
479.224928	2565.975034
479.594591	2565.302040
479.964194	2564.253480
480.333739	2565.221382
480.703226	2568.457802
481.072653	2567.487380
481.442022	2567.686506
481.811333	2567.890672
482.180584	2563.411607
482.549777	2567.096691
482.918912	2561.183417
483.287988	2567.474777
483.657005	2563.638459
484.025964	2568.588872
484.394864	2566.680796
484.763706	2566.738769
485.132489	2568.293965
485.501213	2567.336146
485.869879	2566.307750
486.238487	2572.987279
486.607036	2569.844120
486.975527	2566.312791
487.343959	2569.236661
487.712333	2570.902762
488.080648	2569.430745
488.448905	2571.701785
488.817104	2570.207083
489.185244	2568.172977
489.553326	2569.123235
489.921350	2573.713205
490.289315	2576.697568
490.657222	2574.955850
491.025070	2577.363001
491.392861	2578.363670
491.760593	2576.745459
492.128267	2577.410892
492.495883	2575.301169
492.863440	2573.796384
493.230939	2574.161868
493.598380	2575.787640
493.965763	2577.927610
494.333088	2574.527352
494.700354	2577.771334
495.067563	2577.698237
495.434713	2577.642785
495.801805	2577.945254
496.168839	2578.567836
496.535815	2578.998855
496.902733	2578.671180
497.269593	2580.181006
497.636395	2577.695717
498.003139	2581.521952
498.369825	2582.164700
498.736453	2579.986921
499.103023	2581.005234
499.469535	2584.400451
499.835989	2583.127560
500.202385	2582.777200
500.568723	2578.250244
500.935003	2583.223342
501.301226	2580.065059
501.667390	2587.939341
502.033497	2590.495206
502.399546	2589.078642
502.765537	2586.971440
503.131470	2590.122161
503.497345	2590.270875
503.863163	2587.863724
504.228923	2589.401276
504.594625	2594.323963
504.960269	2595.554004
505.325856	2594.520568
505.691385	2596.892431
506.056856	2597.179776
506.422270	2599.579366
506.787625	2598.752616
507.152924	2599.604571
507.518164	2600.955601
507.883347	2600.494335
508.248472	2603.612289
508.613540	2602.561208
508.978550	2607.178905
509.343503	2603.544233
509.708398	2606.311827
510.073236	2612.146962
510.438016	2612.124277
510.802738	2612.013372
511.167403	2610.465737
511.532010	2612.837600
511.896561	2615.738784
512.261053	2621.324383
512.625488	2619.091152
512.989866	2619.945627
513.354186	2623.005607
513.718449	2622.995525
514.082655	2625.692542
514.446803	2627.003242
514.810894	2630.705970
515.174927	2631.169756
515.538904	2629.959879
515.902822	2635.119500
516.266684	2632.228398
516.630488	2634.922895
516.994235	2635.122021
517.357925	2640.165695
517.721558	2642.260295
518.085133	2644.052425
518.448651	2642.396406
518.812112	2644.276756
519.175516	2645.146355
519.538863	2644.460758
519.902152	2651.586429
520.265385	2653.784372
520.628560	2656.952737
520.991678	2655.027017
521.354739	2659.332162
521.717743	2664.872390
522.080690	2665.510096
522.443580	2670.707526
522.806413	2669.122083
523.169189	2670.205931
523.531908	2675.952846
523.894569	2674.803463
524.257174	2677.659277
524.619722	2679.975687
524.982213	2683.595236
525.344647	2687.658406
525.707025	2690.552028
526.069345	2693.480938
526.431608	2693.889272
526.793815	2699.099304
527.155964	2698.297761
527.518057	2703.820345
527.880093	2703.248174
528.242072	2707.202959
528.603995	2712.533979
528.965860	2712.995245
529.327669	2716.035061
529.689421	2721.744167
530.051117	2722.235680
530.412755	2724.660475
530.774337	2729.225240
531.135862	2732.786815
531.497331	2735.690519
531.858743	2738.732856
532.220098	2745.419946
532.581396	2745.921541
532.942638	2749.031933
533.303824	2753.843714
533.664953	2757.637183
534.026025	2760.858480
534.387040	2768.621857
534.747999	2773.574791
535.108902	2780.496295
535.469748	2778.678959
535.830537	2783.614248
536.191270	2791.385187
536.551947	2795.287040
536.912567	2797.530354
537.273131	2808.880512
537.633638	2810.065183
537.994089	2817.475679
538.354483	2823.535146
538.714821	2835.810355
539.075103	2841.557271
539.435328	2848.786285
539.795497	2855.516226
540.155609	2863.607278
540.515665	2874.806201
540.875665	2879.708723
541.235609	2888.782800
541.595496	2894.635580
541.955328	2908.755852
542.315102	2917.232552
542.674821	2925.147163
543.034483	2933.182763
543.394090	2943.806994
543.753640	2949.989969
544.113134	2970.767085
544.472571	2974.212714
544.831953	2997.437309
545.191278	2999.655417
545.550548	3008.608506
545.909761	3029.604912
546.268918	3045.068652
546.628019	3058.891495
546.987064	3069.901375
547.346053	3071.176787
547.704986	3097.602516
548.063863	3112.236985
548.422684	3130.221302
548.781449	3141.122797
549.140158	3165.320335
549.498811	3182.765248
549.857408	3189.830425
550.215949	3223.417113
550.574434	3239.755492
550.932864	3258.755601
551.291237	3289.526804
551.649555	3308.524393
552.007817	3331.852332
552.366022	3349.985363
552.724173	3378.898900
553.082267	3406.698343
553.440305	3439.891821
553.798288	3453.881023
554.156215	3491.777897
554.514086	3519.307638
554.871902	3536.049310
555.229661	3573.996595
555.587365	3598.844443
555.945014	3634.066985
556.302606	3667.401614
556.660143	3702.082232
557.017625	3747.008995
557.375050	3773.328860
557.732421	3818.926096
558.089735	3857.443032
558.446994	3894.911408
558.804197	3948.173719
559.161345	3983.187053
559.518437	4002.214888
559.875474	4052.956622
560.232455	4106.402935
560.589381	4151.435563
560.946251	4191.381666
561.303065	4258.547479
561.659825	4300.321000
562.016528	4337.907843
562.373177	4370.415724
562.729770	4447.868012
563.086307	4478.503104
563.442789	4557.296338
563.799216	4604.138740
564.155587	4651.339063
564.511904	4711.754772
564.868164	4768.760139
565.224370	4839.621118
565.580520	4888.290938
565.936615	4953.788129
566.292654	5000.718751
566.648638	5084.772430
567.004567	5147.363396
567.360441	5214.899734
567.716260	5262.029481
568.072023	5354.748903
568.427732	5421.854223
568.783385	5457.356549
569.138982	5556.251384
569.494525	5638.278519
569.850013	5679.767215
570.205445	5768.814157
570.560823	5827.556202
570.916145	5889.083485
571.271412	5979.524305
571.626625	6032.027923
571.981782	6116.684019
572.336884	6157.051059
572.691931	6258.232058
573.046923	6316.389329
573.401860	6378.859307
573.756743	6468.503626
574.111570	6559.763634
574.466342	6633.737525
574.821059	6730.525158
575.175722	6770.569564
575.530330	6861.464088
575.884882	6910.033085
576.239380	6987.301371
576.593823	7086.196206
576.948211	7168.709813
577.302544	7206.513425
577.656823	7297.266797
578.011047	7420.797752
578.365216	7492.805593
578.719330	7556.969399
579.073389	7646.250755
579.427394	7750.761436
579.781344	7839.052204
580.135239	7909.991321
580.489080	8016.107609
580.842866	8043.080303
581.196597	8207.046353
581.550273	8314.158269
581.903895	8405.874501
582.257463	8575.665604
582.610975	8598.381043
582.964434	8755.884333
583.317837	8787.525136
583.671186	8879.662304
584.024481	9035.413794
584.377721	9063.548473
584.730906	9206.306388
585.084037	9337.756996
585.437113	9395.326973
585.790135	9533.875524
586.143103	9569.571935
586.496016	9700.064723
586.848874	9832.752933
587.201679	9955.033681
587.554428	9977.431528
587.907124	10144.069389
588.259765	10214.340553
588.612352	10361.045691
588.964884	10383.320030
589.317362	10551.792871
589.669786	10669.700418
590.022155	10757.887843
590.374470	10972.215019
590.726731	11006.615853
591.078937	10992.488019
591.431090	11168.807416
591.783188	11190.900273
592.135232	11268.763415
592.487222	11444.409817
592.839157	11595.591501
593.191038	11641.834005
593.542866	11720.415511
593.894639	11708.283974
594.246358	11893.911862
594.598022	12011.489214
594.949633	12043.170345
595.301190	12150.967858
595.652692	12256.799322
596.004141	12501.103719
596.355535	12354.943025
596.706876	12472.346457
597.058162	12522.425279
597.409395	12782.379939
597.760573	12969.779792
598.111698	12992.283503
598.462768	13097.199997
598.813785	13230.346952
599.164748	13246.975198
599.515657	13448.472638
599.866511	13426.246191
600.217312	13753.953958
600.568060	13572.452255
600.918753	13929.953242
601.269392	14047.172672
601.619978	14083.736161
601.970510	14270.372279
602.320988	14440.120532
602.671412	14643.536131
603.021783	14739.469288
603.372100	14728.585437
603.722363	14892.929573
604.072572	15029.338155
604.422728	15163.178269
604.772830	15216.806064
605.122878	15393.997580
605.472872	15481.900180
605.822813	15704.961155
606.172701	15744.536733
606.522534	15990.676111
606.872314	16196.292174
607.222041	16273.293278
607.571714	16521.938109
607.921333	16468.164121
608.270899	16669.611149
608.620411	16955.038760
608.969870	16991.425808
609.319276	17135.406203
609.668627	17278.111186
610.017926	17579.083194
610.367171	17767.244262
610.716362	17923.330987
611.065500	18020.174073
611.414585	18248.999608
611.763616	18461.398543
612.112594	18557.803049
612.461518	18746.001925
612.810389	19043.127532
613.159207	19103.684393
613.507971	19229.521675
613.856682	19576.451363
614.205340	19633.885228
614.553945	20084.037582
614.902496	19919.453991
615.250994	20245.334340
615.599439	20417.880433
615.947830	20606.328846
616.296169	20749.278325
616.644454	20919.901218
616.992686	21109.773758
617.340864	21470.667441
617.688990	21388.310110
618.037063	21831.674550
618.385082	21900.453532
618.733048	22209.756047
619.080961	22279.518055
619.428821	22429.681425
619.776628	22577.402356
620.124382	22625.510087
620.472083	22816.080826
620.819731	22997.854752
621.167326	22919.416918
621.514868	23046.723697
621.862357	22930.290687
622.209793	23099.338220
622.557176	23013.278162
622.904506	23027.453886
623.251783	22960.880409
623.599007	22931.117436
623.946179	23021.800232
624.293297	23014.089787
624.640363	22847.174663
624.987376	22896.356160
625.334336	22907.683633
625.681243	22801.418630
626.028097	22883.614644
626.374899	22913.208737
626.721647	23008.726000
627.068343	23013.414273
627.414987	22969.130257
627.761577	22945.333490
628.108115	23250.537547
628.454600	22944.141257
628.801032	23184.722763
629.147412	23252.821190
629.493739	23312.062309
629.840014	23170.421009
630.186236	23523.851264
630.532405	23302.083345
630.878521	23560.293766
631.224585	23546.332290
631.570597	23442.184572
631.916556	23645.390963
632.262462	23674.153266
632.608316	23756.003961
632.954117	23777.789307
633.299866	23870.980077
633.645562	23923.922275
633.991206	23699.981618
634.336797	23557.805956
634.682336	23605.243214
635.027823	23562.514394
635.373257	23593.482202
635.718639	23476.298060
636.063968	23518.726932
636.409245	23192.690307
636.754470	23282.195993
637.099642	23236.102203
637.444762	22961.876037
637.789829	23142.760198
638.134845	23003.926821
638.479808	23043.129354
638.824719	23109.644859
639.169577	22858.625644
639.514383	23021.651518
639.859137	22854.597762
640.203839	23050.123955
640.548489	22943.629580
640.893086	23033.162993
641.237632	22935.125154
641.582125	23081.036311
641.926566	23037.405124
642.270955	23131.437767
642.615292	23178.040713
642.959576	23177.224047
643.303809	23266.470114
643.647990	23404.091093
643.992118	23455.480615
644.336195	23436.321710
644.680219	23576.052413
645.024192	23804.943482
645.368112	24266.065386
645.711981	24346.192006
646.055797	24938.527583
646.399562	24867.911100
646.743274	25558.483642
647.086935	25922.059219
647.430544	25953.579033
647.774101	26069.187815
648.117606	26366.943567
648.461059	26549.304786
648.804460	26344.278539
649.147810	26039.177826
649.491108	25888.737192
649.834354	25854.152356
650.177548	25334.553068
650.520690	25051.426744
650.863781	25112.215498
651.206820	25061.491408
651.549807	24834.432797
651.892742	24467.552744
652.235626	24463.577794
652.578458	24422.666310
652.921238	23976.418330
653.263967	24283.986688
653.606644	24125.505414
653.949269	24130.740653
654.291843	23882.163877
654.634365	24222.156936
654.976836	23942.531694
655.319255	24055.947573
655.661622	24017.375185
656.003938	23972.050171
656.346203	23903.820674
656.688416	24148.477952
657.030577	24038.132136
657.372687	23957.720691
657.714746	24145.717921
658.056753	24359.601475
658.398708	23923.163581
658.740612	24045.872827
659.082465	24253.230609
659.424266	24223.288675
659.766016	24280.750267
660.107715	24224.004519
660.449362	24354.595610
660.790958	24397.263936
661.132503	24378.420103
661.473996	24508.292829
661.815438	24633.469720
662.156829	24779.859786
662.498168	24667.759648
662.839456	24712.194899
663.180693	24860.782908
663.521879	24991.522713
663.863013	25014.896023
664.204097	25049.783328
664.545129	25426.080257
664.886110	25440.424860
665.227040	25561.410032
665.567918	25600.068120
665.908746	25706.819594
666.249522	25819.191954
666.590248	25894.685754
666.930922	26021.543870
667.271545	26070.165798
667.612118	26156.750136
667.952639	26046.598404
668.293109	26128.333152
668.633528	26066.147999
668.973896	26084.838077
669.314213	26103.949091
669.654480	25993.754509
669.994695	26042.010954
670.334859	26007.300089
670.674973	25918.308601
671.015035	26120.436185
671.355047	26101.325170
671.695008	26099.467505
672.034918	26048.463631
672.374777	26171.961818
672.714585	26093.234118
673.054342	26237.827014
673.394049	26155.305846
673.733705	26380.905042
674.073310	26157.687791
674.412864	26247.962253
674.752368	26035.896035
675.091820	26281.001976
675.431223	25965.944984
675.770574	25833.415570
676.109875	25731.513686
676.449125	25591.188127
676.788324	25546.208432
677.127473	25154.382229
677.466571	25103.103612
677.805619	24906.783437
678.144616	24879.430137
678.483562	24864.856161
678.822458	24625.953359
679.161303	24607.056594
679.500098	24558.575818
679.838842	24527.855026
680.177535	24629.426714
680.516179	24875.102306
680.854771	25016.368040
681.193314	25725.121503
681.531805	26672.271132
681.870247	27356.532149
682.208638	28041.945070
682.546978	28311.430031
682.885268	28469.840729
683.223508	28083.121214
683.561697	27860.357667
683.899836	27761.616587
684.237925	27385.657415
684.575963	27292.937993
684.913951	26979.307648
685.251889	27162.170462
685.589776	27209.237195
685.927614	27230.682264
686.265401	27417.295697
686.603137	27545.756900
686.940824	28019.796760
687.278460	28344.938581
687.616046	28509.471760
687.953582	29134.736154
688.291068	29074.920343
688.628504	29393.304496
688.965889	29414.550439
689.303224	29196.286122
689.640510	28977.232863
689.977745	28423.555375
690.314930	27762.118182
690.652065	27391.991625
690.989150	26817.985683
691.326185	26065.031383
691.663170	25520.811099
692.000105	24867.096954
692.336990	24329.276414
692.673825	23964.760662
693.010610	23515.674513
693.347345	23071.241349
693.684030	22510.150843
694.020665	22336.730110
694.357251	21734.715518
694.693786	21751.237899
695.030272	21553.077703
695.366707	21121.796909
695.703093	20871.790967
696.039429	20940.335536
696.375716	20728.090356
696.711952	20738.601162
697.048139	20619.372832
697.384276	20489.215281
697.720363	20622.029520
698.056400	20508.220431
698.392388	20377.042046
698.728326	20387.179806
699.064214	20246.680328
699.400053	20271.787795
699.735842	19913.742363
700.071581	19753.572303
700.407270	19522.352220
700.742910	19376.688080
701.078501	19155.386467
701.414042	18974.237645
701.749533	18690.224078
702.084974	18407.816119
702.420366	18641.052663
702.755709	18260.163243
703.091002	17969.875961
703.426246	18052.336635
703.761440	17997.829159
704.096584	17774.163245
704.431679	17723.368579
704.766725	17689.751645
705.101721	17625.451727
705.436668	17741.433554
705.771565	17488.995254
706.106413	17797.967574
706.441212	17883.800780
706.775961	17986.176532
707.110661	18081.542560
707.445311	18429.624151
707.779913	18319.732038
708.114465	18624.517679
708.448967	18934.571326
708.783421	19535.237409
709.117825	19904.728780
709.452180	20124.868407
709.786485	20554.493182
710.120742	21293.964916
710.454949	21400.857542
710.789107	21874.912527
711.123216	22547.117624
711.457275	22768.764556
711.791286	23278.271455
712.125247	23444.629532
712.459159	23180.715046
712.793023	23925.812707
713.126837	22942.666720
713.460602	23209.626063
713.794318	22900.217684
714.127985	22654.932782
714.461602	21811.933392
714.795171	21809.087660
715.128691	20883.224304
715.462162	20394.499562
715.795584	19974.644543
716.128957	19734.975486
716.462281	19378.402072
716.795556	19111.004148
717.128782	18656.755858
717.461960	18077.733968
717.795088	18050.393270
718.128167	17719.711222
718.461198	17285.120911
718.794180	17165.834608
719.127113	16850.230651
719.459997	16669.230542
719.792833	16325.930486
720.125619	16367.522526
720.458357	16030.319745
720.791046	15908.167546
721.123686	15761.472490
721.456278	15550.240582
721.788821	15554.331478
722.121315	15287.639316
722.453761	15392.129833
722.786158	15286.515139
723.118506	15365.701584
723.450805	15253.936682
723.783056	15430.611481
724.115259	15326.584750
724.447412	15325.175748
724.779518	15537.431010
725.111574	15601.829230
725.443582	15859.525453
725.775542	15820.136397
726.107453	16322.739436
726.439315	16248.785709
726.771129	16657.109088
727.102895	17068.653764
727.434612	17324.159606
727.766281	17496.499012
728.097901	17802.978481
728.429473	17892.282521
728.760996	17904.232576
729.092471	18035.305097
729.423897	17934.807174
729.755276	17815.483063
730.086606	17933.516639
730.417887	18510.360750
730.749120	19066.899093
731.080305	19276.248130
731.411442	19669.863943
731.742530	19796.185176
732.073570	19968.975766
732.404562	20276.249216
732.735506	20118.753488
733.066401	19926.554456
733.397249	19448.857238
733.728048	18827.799687
734.058798	17983.514803
734.389501	17251.942557
734.720156	16748.855567
735.050762	16184.465627
735.381320	15815.874102
735.711831	15557.903136
736.042293	15188.920921
736.372707	15222.258072
736.703073	15005.228837
737.033391	15210.063520
737.363661	15212.551330
737.693883	15339.046483
738.024056	15530.433888
738.354182	15742.726959
738.684260	16095.181751
739.014290	16366.506733
739.344272	16587.964622
739.674207	16928.970953
740.004093	17106.268334
740.333931	17163.561047
740.663722	17232.193836
740.993464	17288.475798
741.323159	17138.892161
741.652806	16858.369593
741.982405	16698.572578
742.311956	16345.379258
742.641460	16242.547281
742.970915	15920.835966
743.300323	15583.267701
743.629683	15366.424989
743.958996	15066.287292
744.288260	14756.647020
744.617477	14453.207367
744.946647	14425.198716
745.275768	14107.875726
745.604842	13911.726950
745.933869	13746.553544
746.262847	13707.751783
746.591778	13635.723777
746.920662	13519.096683
747.249498	13525.262014
747.578286	13679.879244
747.907027	13853.350389
748.235720	14122.177479
748.564365	14190.815309
748.892963	14114.703969
749.221514	14211.181571
749.550017	14079.816663
749.878473	14056.647520
750.206881	13829.873735
750.535242	13754.490841
750.863555	13674.109643
751.191821	13582.579933
751.520039	13597.411008
751.848210	13537.713664
752.176334	13583.656220
752.504411	13505.629240
752.832440	13335.712109
753.160421	13435.945371
753.488356	13341.022964
753.816243	13245.324220
754.144082	13089.335797
754.471875	13018.779808
754.799620	12998.146365
755.127318	12981.450063
755.454969	12965.199904
755.782572	12929.460644
756.110129	12949.131226
756.437638	12849.586082
756.765100	12860.439686
757.092515	12891.407494
757.419882	12929.107763
757.747203	12943.217953
758.074477	13027.768185
758.401703	13007.895957
758.728882	13208.077655
759.056014	13249.717586
759.383099	13425.845419
759.710138	13547.387638
760.037129	13659.886028
760.364073	13718.930542
760.690970	13753.323814
761.017820	13772.084468
761.344623	14002.223223
761.671379	14378.068969
761.998088	15079.507718
762.324751	16851.070003
762.651366	20245.936758
762.977935	24663.633464
763.304456	27593.335310
763.630931	28633.305183
763.957359	27435.665661
764.283740	25201.718664
764.610074	22958.415284
764.936362	20346.059114
765.262602	18494.700406
765.588796	16581.388437
765.914943	15304.602799
766.241044	14210.279204
766.567097	13432.308178
766.893104	12712.549876
767.219064	12251.838826
767.544978	11777.534305
767.870845	11399.717468
768.196665	11176.522902
768.522438	10948.675351
768.848165	10750.774775
769.173846	10550.121728
769.499479	10413.839175
769.825066	10245.474719
770.150607	10023.033805
770.476101	9945.349625
770.801548	9815.174429
771.126949	9663.304629
771.452303	9554.980315
771.777611	9355.637968
772.102872	9343.783695
772.428087	9202.853198
772.753256	9045.249085
773.078378	8959.178945
773.403453	8776.563147
773.728482	8663.739603
774.053465	8593.092873
774.378401	8491.458170
774.703291	8368.779171
775.028135	8243.577074
775.352932	8213.352836
775.677683	8113.840459
776.002388	8005.271649
776.327046	8015.416971
776.651658	7916.451560
776.976224	7816.339285
777.300743	7813.445663
777.625216	7732.580514
777.949643	7682.196702
778.274024	7703.026750
778.598359	7608.172399
778.922647	7631.399515
779.246889	7579.301711
779.571086	7585.209943
779.895236	7596.151768
780.219339	7607.121318
780.543397	7607.685928
780.867409	7688.102414
781.191374	7703.117491
781.515294	7660.751634
781.839167	7759.180162
782.162995	7729.533137
782.486776	7672.570619
782.810511	7630.272818
783.134201	7539.101030
783.457844	7540.683952
783.781441	7483.484500
784.104993	7419.146774
784.428498	7391.483442
784.751958	7378.273098
785.075372	7353.009356
785.398739	7301.962632
785.722061	7345.639189
786.045337	7348.008531
786.368568	7503.853282
786.691752	7534.397633
787.014891	7869.624282
787.337983	8228.067964
787.661030	8815.947161
787.984031	9436.601420
788.306987	9841.574952
788.629897	10045.237568
788.952760	9987.188681
789.275579	9766.696173
789.598351	9385.164006
789.921078	9028.152012
790.243759	8619.725289
790.566395	8330.310126
790.888984	8077.728153
791.211529	7872.714509
791.534027	7652.131261
791.856480	7448.004859
792.178888	7374.192284
792.501249	7275.438601
792.823566	7119.452698
793.145836	7120.937318
793.468062	7096.212979
793.790241	7049.783952
794.112375	7117.340455
794.434464	7272.547499
794.756507	7308.012017
795.078505	7465.550595
795.400457	7778.817977
795.722364	8127.736400
796.044226	8417.569978
796.366042	8687.780866
796.687812	8640.270511
797.009538	8714.105771
797.331218	8606.386396
797.652852	8522.763736
797.974442	8373.291003
798.295986	8284.634751
798.617484	8098.112059
798.938938	7951.792569
799.260346	7852.980912
799.581709	7647.821074
799.903026	7575.205773
800.224299	7464.771737
800.545526	7293.886704
800.866708	7205.099382
801.187845	7136.915255
801.508936	7029.682351
801.829983	6990.431927
802.150984	6839.330903
802.471940	6793.506814
802.792851	6782.265041
803.113717	6746.961841
803.434538	6710.332817
803.755314	6656.722666
804.076045	6662.887997
804.396731	6610.782631
804.717372	6634.392875
805.037967	6639.595346
805.358518	6680.703435
805.679024	6761.946670
805.999485	6773.972343
806.319901	6815.781152
806.640272	6827.925292
806.960598	6918.855104
807.280879	6918.923160
807.601115	6991.586352
807.921306	6945.968950
808.241453	6957.472863
808.561554	6982.071174
808.881611	6940.499298
809.201623	6950.395083
809.521590	6902.536889
809.841513	6878.172993
810.161390	6919.361740
810.481223	6783.936183
810.801011	6773.201046
811.120755	6750.783035
811.440453	6669.892681
811.760107	6640.941334
812.079716	6612.927642
812.399281	6538.215222
812.718801	6534.809922
813.038276	6490.641853
813.357707	6430.702533
813.677093	6471.157793
813.996434	6378.456015
814.315731	6418.543270
814.634983	6419.864053
814.954191	6426.767913
815.273354	6531.172730
815.592473	6591.805207
815.911547	6725.947791
816.230577	6802.840510
816.549562	6948.600433
816.868502	7047.429733
817.187399	7146.158211
817.506250	7307.765000
817.825058	7332.983372
818.143821	7600.056141
818.462539	7871.668469
818.781213	8239.886949
819.099843	8790.179303
819.418429	9792.746336
819.736970	10756.113357
820.055466	11933.794951
820.373919	13468.017192
820.692327	15833.097204
821.010691	19981.591253
821.329011	28963.651995
821.647286	41853.227030
821.965517	55211.823456
822.283704	60599.327257
822.601847	62595.324231
822.919945	59898.004454
823.237999	55692.918412
823.556010	49544.976718
823.873976	42871.396434
824.191897	36363.970059
824.509775	31551.495554
824.827609	27062.988281
825.145398	24480.803417
825.463144	23126.999031
825.780845	23426.161265
826.098502	25216.408586
826.416116	28990.602003
826.733685	32585.383276
827.051210	33719.297572
827.368692	31925.428182
827.686129	27974.202044
828.003522	23882.625142
828.320872	20199.676610
828.638177	17364.972787
828.955439	15220.188678
829.272656	13409.519642
829.589830	11938.498347
829.906960	10671.658906
830.224046	9743.229602
830.541088	8984.984611
830.858086	8535.212865
831.175041	8162.797625
831.491952	8039.526290
831.808819	8088.395235
832.125642	8501.081733
832.442421	9384.327175
832.759157	11176.235556
833.075849	14089.959465
833.392497	17281.685364
833.709101	19439.279046
834.025662	19276.001114
834.342179	17590.282117
834.658653	15411.984417
834.975083	13489.578207
835.291469	11879.037937
835.607811	10566.828112
835.924110	9661.048712
836.240366	8795.144840
836.556578	7996.026173
836.872746	7353.211002
837.188871	6849.425813
837.504952	6436.527587
837.820990	6123.076202
838.136984	5905.076545
838.452935	5810.444005
838.768842	5849.039079
839.084706	6270.224962
839.400526	7476.820094
839.716303	9054.141680
840.032037	10131.945414
840.347727	10057.749711
840.663373	9083.118232
840.978977	8054.927015
841.294537	7239.916111
841.610054	6645.387632
841.925527	6213.307815
842.240957	5853.424883
842.556344	5515.302092
842.871687	5236.785903
843.186987	4958.173933
843.502244	4734.439964
843.817458	4565.609201
844.132629	4432.807565
844.447756	4341.842464
844.762840	4262.499744
845.077881	4184.142569
845.392879	4125.788693
845.707833	4074.966300
846.022745	4032.033313
846.337613	4001.105834
846.652438	3956.693269
846.967221	3941.683233
847.281960	3912.252977
847.596656	3890.747415
847.911309	3868.084908
848.225919	3851.265098
848.540485	3828.166531
848.855009	3816.682783
849.169490	3795.119247
849.483928	3785.362094
849.798323	3778.289355
850.112675	3755.949482
850.426984	3765.265534
850.741251	3749.164089
851.055474	3744.662338
851.369654	3750.671394
851.683792	3747.896238
851.997887	3750.109305
852.311938	3753.184409
852.625947	3759.241355
852.939914	3746.366248
853.253837	3756.188937
853.567718	3752.985283
853.881555	3742.262749
854.195350	3757.885285
854.509103	3755.813371
854.822812	3753.000407
855.136479	3744.962287
855.450103	3751.949326
855.763685	3739.238057
856.077224	3743.064293
856.390720	3758.961571
856.704173	3782.513842
857.017584	3793.508598
857.330953	3801.702994
857.644278	3823.853824
857.957561	3832.557376
858.270802	3830.646779
858.584000	3835.786235
858.897155	3827.433043
859.210268	3810.212462
859.523339	3789.800830
859.836367	3788.757311
860.149352	3781.253553
860.462295	3777.250877
860.775195	3759.067435
861.088054	3758.727157
861.400869	3757.000562
861.713642	3756.304883
862.026373	3765.900719
862.339062	3770.336935
862.651708	3790.257054
862.964312	3825.774504
863.276873	3837.149867
863.589392	3895.382756
863.901869	3939.886062
864.214303	3987.106550
864.526696	4020.378166
864.839045	4063.406934
865.151353	4090.419957
865.463619	4099.143674
865.775842	4107.393522
866.088023	4126.222232
866.400162	4116.591107
866.712258	4120.618989
867.024313	4125.985298
867.336325	4120.712251
867.648296	4130.381184
867.960224	4126.010503
868.272110	4139.669510
868.583954	4145.043380
868.895755	4157.893281
869.207515	4153.832631
869.519233	4193.156152
869.830909	4207.543605
870.142542	4231.572265
870.454134	4246.458792
870.765684	4277.197228
871.077191	4314.418587
871.388657	4336.521526
871.700081	4371.736506
872.011463	4417.835338
872.322803	4450.393630
872.634101	4482.924196
872.945357	4519.091954
873.256571	4572.618925
873.567744	4606.054378
873.878874	4619.214310
874.189963	4657.766534
874.501010	4669.804810
874.812015	4670.261034
875.122979	4709.599678
875.433900	4709.670254
875.744780	4726.341350
876.055618	4749.344135
876.366415	4751.731122
876.677169	4770.978247
876.987882	4819.428777
877.298554	4870.094893
877.609183	4950.740752
877.919771	5062.356939
878.230317	5205.664340
878.540822	5414.010187
878.851285	5739.673767
879.161707	6202.486978
879.472087	6960.084181
879.782425	8190.181172
880.092722	10367.175734
880.402977	13656.621880
880.713191	17376.736320
881.023363	21032.286182
881.333494	23209.290826
881.643583	24423.906434
881.953631	24413.814044
882.263637	23610.702783
882.573602	22148.750524
882.883526	20602.802559
883.193408	18946.539025
883.503248	17268.323786
883.813048	15731.039044
884.122806	14311.198063
884.432522	12845.958972
884.742197	11593.373393
885.051831	10506.077167
885.361424	9508.742852
885.670975	8696.965848
885.980485	8008.029160
886.289954	7437.418436
886.599382	6965.319419
886.908768	6592.427790
887.218113	6230.351956
887.527417	5938.882523
887.836680	5680.261248
888.145901	5456.882680
888.455082	5296.437877
888.764221	5145.321729
889.073319	5009.686964
889.382376	4941.165080
889.691392	4878.662334
890.000366	4853.000341
890.309300	4836.936704
890.618193	4838.476776
890.927044	4827.948327
891.235855	4849.718549
891.544625	4882.889342
891.853353	4944.174649
892.162041	5063.140839
892.470687	5248.151185
892.779293	5497.211911
893.087858	5867.555237
893.396381	6444.661488
893.704864	7241.451142
894.013306	8387.353302
894.321707	9546.183501
894.630068	10360.544097
894.938387	10559.946937
895.246665	10319.614968
895.554903	9721.046005
895.863100	9031.585037
896.171256	8480.362591
896.479371	7971.402657
896.787446	7481.619273
897.095480	7058.389202
897.403473	6735.644450
897.711425	6423.254229
898.019336	6155.266490
898.327207	5881.811620
898.635038	5655.486498
898.942827	5415.298202
899.250576	5222.408533
899.558284	5028.755128
899.865952	4910.353548
900.173579	4761.387452
900.481165	4653.499198
900.788711	4560.971339
901.096216	4485.031398
901.403681	4424.519908
901.711105	4400.420672
902.018489	4385.135893
902.325832	4452.621820
902.633135	4579.187549
902.940397	4923.057256
903.247619	5715.942535
903.554800	7153.712380
903.861941	9053.549345
904.169041	10559.301669
904.476101	11176.475011
904.783121	10816.350104
905.090100	10083.736859
905.397039	9250.638295
905.703938	8512.313424
906.010796	7822.242477
906.317614	7266.616582
906.624391	6741.502271
906.931129	6314.687939
907.237826	5918.463329
907.544483	5542.980547
907.851099	5175.500596
908.157675	4820.189991
908.464211	4499.628059
908.770707	4268.682719
909.077163	4068.390115
909.383578	3926.310235
909.689954	3809.473933
909.996289	3739.359044
910.302584	3672.956966
910.608839	3642.871360
910.915054	3610.630660
911.221229	3599.512396
911.527363	3611.654015
911.833458	3624.869399
912.139513	3649.855878
912.445527	3683.225796
912.751502	3761.948455
913.057436	3864.583827
913.363331	3998.814630
913.669186	4203.866083
913.975000	4460.662460
914.280775	4882.314650
914.586510	5461.346622
914.892205	6256.099649
915.197859	7280.278109
915.503475	8483.162952
915.809050	9527.753043
916.114585	10171.331949
916.420081	10422.666235
916.725536	10387.226924
917.030952	9951.086458
917.336328	9546.254077
917.641665	9141.792222
917.946961	8665.909820
918.252218	8250.314576
918.557435	7743.139211
918.862612	7312.075187
919.167750	6947.025072
919.472848	6520.177973
919.777906	6148.251725
920.082925	5797.178209
920.387904	5432.891829
920.692843	5169.564638
920.997743	4927.851393
921.302603	4692.800033
921.607423	4530.021175
921.912204	4369.094942
922.216946	4252.109926
922.521647	4135.555928
922.826310	4029.663971
923.130932	3934.297943
923.435516	3837.555680
923.740059	3766.087242
924.044564	3691.412630
924.349028	3631.463229
924.653454	3568.975606
924.957840	3501.373733
925.262186	3452.434212
925.566493	3393.551014
925.870761	3337.521110
926.174989	3296.342444
926.479178	3263.645521
926.783328	3223.117164
927.087438	3194.871579
927.391509	3157.564520
927.695541	3133.167856
927.999533	3104.695419
928.303486	3081.952254
928.607400	3066.372568
928.911275	3055.501319
929.215110	3036.564225
929.518906	3029.541898
929.822663	3027.437216
930.126381	3024.301618
930.430060	3035.137578
930.733699	3035.054399
931.037299	3042.578322
931.340861	3039.535985
931.644383	3053.293294
931.947866	3046.074362
932.251309	3042.817776
932.554714	3042.401881
932.858080	3037.635470
933.161407	3029.930067
933.464694	3022.151566
933.767943	3013.553878
934.071153	3011.978518
934.374323	3001.820593
934.677455	2993.800117
934.980548	2986.077069
935.283602	2982.412150
935.586617	2980.539362
935.889593	2991.755929
936.192530	2992.479335
936.495428	3005.369565
936.798287	3028.642052
937.101108	3058.210940
937.403890	3109.020729
937.706632	3172.819052
938.009336	3250.578850
938.312002	3322.327072
938.614628	3387.516753
938.917216	3437.698919
939.219765	3468.311326
939.522275	3500.385667
939.824747	3505.893127
940.127179	3501.222498
940.429573	3497.118999
940.731929	3496.287209
941.034246	3480.795743
941.336524	3468.639001
941.638763	3452.101495
941.940964	3441.061368
942.243126	3399.050913
942.545250	3374.747510
942.847335	3337.269052
943.149381	3299.321766
943.451389	3272.762447
943.753359	3235.901530
944.055290	3212.530741
944.357182	3187.350178
944.659036	3174.558250
944.960851	3163.339162
945.262628	3149.334837
945.564367	3154.121412
945.866067	3143.958446
946.167729	3141.352169
946.469352	3140.091881
946.770937	3137.777991
947.072484	3122.364663
947.373992	3124.791979
947.675462	3115.700258
947.976893	3098.154522
948.278286	3091.059098
948.579641	3084.878643
948.880958	3081.198601
949.182236	3079.542582
949.483476	3074.458578
949.784678	3076.031418
950.085841	3076.321285
950.386967	3083.870413
950.688054	3101.567383
950.989103	3121.568161
951.290114	3142.304947
951.591087	3171.278979
951.892021	3197.613967
952.192917	3225.395766
952.493776	3249.631113
952.794596	3258.407762
953.095378	3264.429420
953.396122	3259.413472
953.696828	3252.600352
953.997496	3242.384454
954.298126	3218.002914
954.598718	3196.613298
954.899272	3173.449196
955.199788	3144.702016
955.500266	3114.659260
955.800706	3082.824373
956.101108	3042.265770
956.401472	3012.543127
956.701798	2980.415853
957.002087	2939.174174
957.302337	2910.376583
957.602550	2885.140566
957.902724	2856.219467
958.202861	2828.619149
958.502960	2808.799853
958.803022	2788.204219
959.103045	2771.452465
959.403031	2753.949579
959.702979	2736.842423
960.002889	2723.793396
960.302762	2709.373176
960.602596	2701.791280
960.902393	2692.296267
961.202153	2683.975843
961.501875	2676.114163
961.801559	2670.029491
962.101205	2662.702173
962.400814	2656.960299
962.700385	2651.480565
962.999918	2647.772796
963.299414	2638.194604
963.598873	2638.444141
963.898293	2630.310239
964.197677	2632.684623
964.497022	2630.587503
964.796331	2629.425517
965.095601	2623.328241
965.394835	2622.216667
965.694030	2624.495268
965.993189	2621.251286
966.292309	2617.440174
966.591393	2617.483023
966.890439	2617.329268
967.189447	2614.705348
967.488419	2614.841459
967.787353	2618.350102
968.086249	2619.098713
968.385108	2623.638272
968.683930	2624.132305
968.982714	2628.061885
969.281462	2633.642442
969.580172	2636.258801
969.878844	2641.783906
970.177480	2651.480565
970.476078	2657.771925
970.774639	2664.577483
971.073162	2674.173319
971.371649	2681.498116
971.670098	2685.498271
971.968510	2687.547500
972.266885	2692.334076
972.565223	2696.669468
972.863524	2699.984027
973.161788	2705.385623
973.460014	2710.865357
973.758204	2710.464586
974.056356	2712.508773
974.354471	2714.099257
974.652550	2711.210676
974.950591	2710.935933
975.248595	2711.369473
975.546563	2711.374514
975.844493	2707.081971
976.142386	2700.387319
976.440243	2694.431196
976.738062	2689.563962
977.035845	2682.158507
977.333590	2677.767662
977.631299	2674.919410
977.928971	2668.023111
978.226606	2659.536329
978.524204	2657.953407
978.821765	2655.657161
979.119290	2655.604229
979.416777	2657.620690
979.714228	2660.368119
980.011642	2663.332318
980.309020	2670.425221
980.606360	2685.876358
980.903664	2706.204811
981.200931	2743.864750
981.498162	2787.758077
981.795356	2865.384284
982.092513	2953.493571
982.389633	3054.886299
982.686717	3147.986328
982.983764	3224.095148
983.280775	3273.069958
983.577749	3277.526338
983.874686	3266.927312
984.171587	3231.374574
984.468451	3194.478369
984.765279	3153.561844
985.062070	3104.516458
985.358824	3058.720096
985.655543	3004.794873
985.952224	2953.223870
986.248869	2893.035013
986.545478	2832.372288
986.842050	2777.489247
987.138586	2734.377299
987.435086	2696.324149
987.731549	2666.982113
988.027975	2640.415232
988.324366	2623.749178
988.620719	2611.244596
988.917037	2599.302102
989.213318	2595.861515
989.509563	2582.872982
989.805772	2582.822570
990.101944	2575.149934
990.398080	2578.008268
990.694180	2573.080540
990.990244	2574.905438
991.286271	2572.798236
991.582262	2573.239337
991.878217	2577.592373
992.174136	2577.519276
992.470019	2582.343661
992.765865	2583.936665
993.061676	2590.059147
993.357450	2598.225816
993.653188	2606.465582
993.948890	2623.857562
994.244556	2642.109060
994.540186	2664.537153
994.835780	2696.828264
995.131337	2733.265724
995.426859	2772.652259
995.722345	2818.332675
996.017795	2868.804707
996.313208	2907.843403
996.608586	2932.184614
996.903928	2947.885288
997.199234	2944.424536
997.494504	2943.532251
997.789738	2928.015580
998.084936	2900.581621
998.380099	2873.840820
998.675225	2844.236644
998.970316	2816.774958
999.265371	2776.599483
999.560390	2741.956674
999.855373	2713.655636
1000.150320	2685.861234
1000.445232	2660.486586
1000.740108	2644.301962
1001.034948	2622.466204
1001.329752	2606.049687
1001.624521	2597.290682
1001.919254	2584.763414
1002.213951	2578.603124
1002.508613	2570.456620
1002.803239	2560.696946
1003.097829	2558.055381
1003.392384	2553.672098
1003.686903	2548.719164
1003.981386	2545.334030
1004.275834	2541.076775
1004.570246	2538.054603
1004.864623	2536.504449
1005.158964	2535.710467
1005.453270	2532.093439
1005.747540	2532.461443
1006.041775	2527.357275
1006.335974	2527.102697
1006.630138	2526.714528
1006.924266	2527.508510
1007.218359	2525.318128
1007.512416	2523.014321
1007.806438	2520.019876
1008.100425	2520.639938
1008.394376	2520.783610
1008.688292	2521.854856
1008.982172	2523.909126
1009.276017	2521.403672
1009.569827	2522.432068
1009.863602	2520.024917
1010.157341	2518.283198
1010.451045	2518.084073
1010.744714	2519.389731
1011.038347	2517.317817
1011.331945	2518.240348
1011.625508	2514.262878
1011.919036	2515.245903
1012.212528	2514.063752
1012.505986	2511.507887
1012.799408	2512.067455
1013.092795	2511.104595
1013.386147	2512.294307
1013.679464	2510.731550
1013.972745	2511.578463
1014.265992	2510.340860
1014.559204	2509.904800
1014.852380	2509.947650
1015.145521	2512.551406
1015.438628	2513.622651
1015.731699	2511.971673
1016.024736	2515.518125
1016.317737	2514.293125
1016.610703	2516.241531
1016.903635	2516.385204
1017.196531	2513.705830
1017.489393	2519.611542
1017.782219	2518.575585
1018.075011	2521.559948
1018.367768	2522.311080
1018.660490	2520.644979
1018.953177	2520.644979
1019.245829	2520.644979
