Dividing Wavelength (nm)	Counts (n)	Blue Motor Position (mm): 40.300000	Red Motor Position (mm): 0.000000	
326.493990	2129.958076
326.888308	2129.958076
327.282561	2129.958076
327.676750	2096.361306
328.070874	2095.421131
328.464933	2098.455906
328.858929	2104.064189
329.252859	2116.036930
329.646726	2124.977416
330.040528	2137.776906
330.434265	2157.578558
330.827938	2174.085816
331.221547	2192.359999
331.615091	2210.787937
332.008571	2229.415000
332.401986	2250.234966
332.795338	2266.651483
333.188625	2290.034875
333.581847	2306.902576
333.975006	2323.319094
334.368100	2341.300889
334.761129	2360.595906
335.154095	2376.888915
335.546996	2398.949004
335.939833	2425.031934
336.332606	2438.348142
336.725315	2453.847170
337.117960	2460.299847
337.510540	2471.743266
337.903056	2481.490337
338.295508	2486.347488
338.687896	2496.220588
339.080220	2505.788698
339.472480	2510.224914
339.864676	2515.281191
340.256807	2519.719927
340.648875	2524.244363
341.040879	2524.793848
341.432818	2525.182017
341.824694	2526.475073
342.216506	2529.640918
342.608253	2528.244518
342.999937	2528.877183
343.391557	2530.079498
343.783113	2527.848788
344.174605	2529.482121
344.566033	2524.569517
344.957397	2525.827285
345.348697	2522.714372
345.739934	2518.353774
346.131106	2519.203209
346.522215	2520.312263
346.913260	2517.582478
347.304241	2508.621827
347.695159	2514.169617
348.086012	2512.140552
348.476802	2507.182577
348.867528	2504.145282
349.258191	2504.152844
349.648789	2506.628050
350.039324	2502.406084
350.429796	2502.043121
350.820203	2501.503718
351.210548	2499.512462
351.600828	2498.040445
351.991045	2498.078253
352.381198	2496.800321
352.771288	2496.439878
353.161314	2495.809734
353.551276	2497.362410
353.941175	2496.553304
354.331010	2495.154384
354.720782	2496.575990
355.110490	2497.773264
355.500135	2496.142450
355.889717	2496.843171
356.279235	2497.012049
356.668689	2496.502893
357.058080	2499.688902
357.447408	2496.765033
357.836672	2497.672441
358.225873	2494.423417
358.615010	2495.960969
359.004084	2500.213182
359.393095	2498.912564
359.782043	2497.725373
360.170927	2501.813748
360.559748	2499.819972
360.948505	2502.600168
361.337199	2502.330467
361.725830	2503.663852
362.114398	2504.785509
362.502903	2503.011022
362.891344	2505.150992
363.279722	2505.806342
363.668037	2503.013543
364.056289	2507.162413
364.444478	2505.201404
364.832603	2508.488236
365.220665	2507.054028
365.608665	2506.711229
365.996601	2508.785664
366.384474	2506.854902
366.772284	2508.601662
367.160031	2509.251971
367.547715	2510.953360
367.935336	2509.882115
368.322893	2511.003772
368.710388	2511.868330
369.097820	2515.601304
369.485189	2512.611900
369.872495	2512.937054
370.259738	2512.402692
370.646918	2512.997548
371.034035	2513.846983
371.421090	2513.872188
371.808081	2514.061232
372.195010	2512.513598
372.581875	2514.930831
372.968678	2516.841428
373.355418	2513.630213
373.742096	2516.975019
374.128710	2518.169772
374.515262	2515.792868
374.901751	2517.040554
375.288177	2517.068280
375.674540	2517.983249
376.060841	2518.459638
376.447079	2520.103055
376.833254	2519.097344
377.219367	2518.381501
377.605417	2520.695390
377.991404	2516.337313
378.377329	2518.570544
378.763191	2518.048784
379.148991	2525.686133
379.534727	2520.266892
379.920402	2524.178827
380.306013	2521.917870
380.691563	2524.350227
381.077049	2522.527850
381.462474	2523.367202
381.847835	2526.941380
382.233134	2526.785104
382.618371	2524.924918
383.003545	2527.024559
383.388657	2528.506658
383.773706	2528.065557
384.158693	2524.783766
384.543618	2527.929446
384.928480	2529.898017
385.313280	2528.990609
385.698017	2530.767616
386.082692	2533.988913
386.467305	2534.336752
386.851856	2538.364634
387.236344	2540.882691
387.620770	2544.424101
388.005133	2549.112374
388.389435	2556.681667
388.773674	2564.215671
389.157851	2572.253791
389.541965	2584.758373
389.926018	2593.499734
390.310008	2607.577156
390.693936	2623.519805
391.077802	2640.858854
391.461606	2655.228663
391.845348	2680.172292
392.229027	2694.915147
392.612645	2715.218394
392.996200	2744.295769
393.379694	2771.331477
393.763125	2803.468833
394.146494	2823.141936
394.529801	2863.640045
394.913047	2901.569687
395.296230	2919.972419
395.679351	2965.909933
396.062410	3000.030983
396.445408	3022.428830
396.828343	3067.395922
397.211217	3107.276490
397.594028	3110.132304
397.976778	3170.268228
398.359466	3214.814384
398.742092	3263.516971
399.124656	3265.493103
399.507158	3334.090604
399.889598	3380.005434
400.271977	3450.871454
400.654294	3472.971872
401.036549	3510.765403
401.418742	3529.881458
401.800874	3624.582054
402.182944	3673.176256
402.564952	3753.328082
402.946898	3778.420425
403.328783	3812.796053
403.710606	3789.324441
404.092367	3961.782314
404.474067	3969.659117
404.855705	4003.064323
405.237282	3973.318994
405.618797	4087.614555
406.000250	4149.613186
406.381642	4239.764140
406.762972	4236.550404
407.144240	4272.400570
407.525447	4299.542142
407.906593	4372.477556
408.287677	4433.455353
408.668700	4392.513622
409.049661	4457.123570
409.430560	4514.784288
409.811399	4470.192762
410.192176	4631.315600
410.572891	4591.926545
410.953545	4706.746385
411.334138	4605.409111
411.714669	4681.714536
412.095139	4593.365794
412.475547	4745.606120
412.855894	4736.045571
413.236180	4750.289352
413.616405	4713.924988
413.996568	4805.421931
414.376670	4757.258747
414.756711	4716.730390
415.136691	4755.043160
415.516609	4835.227753
415.896466	4872.779308
416.276262	4911.593672
416.655997	4895.030961
417.035670	5078.153395
417.415283	5174.149567
417.794834	5118.631340
418.174324	5076.381429
418.553753	4983.508252
418.933121	5172.286861
419.312428	5236.007045
419.691674	5177.406152
420.070859	5304.246624
420.449983	5218.133634
420.829045	5332.701417
421.208047	5241.965689
421.586988	5317.220034
421.965867	5326.878884
422.344686	5461.172702
422.723444	5312.995547
423.102141	5132.250017
423.480777	5427.701961
423.859352	5202.337179
424.237866	5459.902332
424.616319	5453.311023
424.994712	5562.661212
425.373044	5436.660092
425.751314	5584.466722
426.129524	5384.521958
426.507673	5580.998409
426.885762	5663.166696
427.263789	5593.359318
427.641756	5472.331296
428.019662	5600.883240
428.397508	5604.701914
428.775292	5551.512700
429.153016	5650.556249
429.530679	5575.730403
429.908282	5661.147714
430.285824	5530.317168
430.663305	5805.788500
431.040726	5542.224374
431.418086	5546.988264
431.795385	5649.190097
432.172624	5662.113095
432.549802	5652.174460
432.926920	5669.014434
433.303977	5676.301422
433.680974	5716.368513
434.057910	5732.532973
434.434786	5738.733592
434.811601	5705.492223
435.188355	5943.880827
435.565050	5814.847453
435.941683	5798.869516
436.318257	6011.167628
436.694770	5995.802191
437.071222	6031.387696
437.447614	5962.442356
437.823946	5875.177462
438.200218	6029.930803
438.576429	5895.556326
438.952580	5993.231203
439.328670	6040.313059
439.704700	5948.591785
440.080670	5931.920690
440.456580	6206.466969
440.832429	6082.709163
441.208218	5929.659732
441.583947	6082.759574
441.959616	6092.804073
442.335224	6018.426890
442.710773	6155.407642
443.086261	6182.564338
443.461689	5980.887938
443.837057	6125.241378
444.212365	6278.817609
444.587612	6172.895405
444.962800	6326.882491
445.337927	6303.468852
445.712995	5916.996354
446.088002	6494.568912
446.462949	6325.745710
446.837837	6255.114104
447.212664	6427.748417
447.587431	6572.805099
447.962139	7113.383149
448.336786	8034.464971
448.711374	7782.026672
449.085901	6848.757860
449.460369	6775.847652
449.834776	6710.146294
450.209124	7103.391582
450.583412	7253.038234
450.957640	7392.292547
451.331808	7161.284193
451.705917	6710.015224
452.079965	6640.328834
452.453954	6851.157449
452.827883	6726.381330
453.201752	6821.311298
453.575562	6617.406707
453.949311	6822.511093
454.323001	6709.697631
454.696632	6790.172091
455.070202	6923.382061
455.443713	7078.228663
455.817164	7178.373704
456.190556	7258.946466
456.563888	7337.923703
456.937160	7384.554376
457.310373	7031.749224
457.683526	7058.994140
458.056619	6951.373067
458.429653	6942.349402
458.802628	6875.544031
459.175542	6982.645865
459.548398	7333.497570
459.921194	7498.494535
460.293930	7502.265318
460.666607	8032.549333
461.039224	8338.887649
461.411782	8460.281154
461.784280	8481.733784
462.156719	8374.107670
462.529099	8254.155935
462.901419	7846.581167
463.273680	7734.150834
463.645882	7749.430571
464.018024	7610.098120
464.390106	7776.070548
464.762130	8170.596290
465.134094	8632.802042
465.505999	9659.871603
465.877845	10875.934022
466.249631	11520.780778
466.621358	11139.372119
466.993026	10518.228868
467.364634	10258.538869
467.736184	9898.295495
468.107674	9561.198578
468.479105	9598.273744
468.850477	9361.241211
469.221790	9132.617322
469.593043	8808.372827
469.964238	8662.504520
470.335373	8679.810801
470.706449	8737.184173
471.077467	8721.148263
471.448425	10030.209888
471.819324	11100.585481
472.190164	11111.295412
472.560945	9872.280620
472.931667	9084.454138
473.302330	8946.818035
473.672934	8595.971372
474.043479	8949.205022
474.413965	8894.211074
474.784393	8781.017006
475.154761	8932.470912
475.525070	9016.217080
475.895321	8850.970577
476.265513	9020.844859
476.635645	9194.147125
477.005719	9194.252990
477.375734	9309.561822
477.745691	9555.020644
478.115588	9678.927164
478.485427	9922.412375
478.855207	10462.534201
479.224928	11273.643252
479.594591	11899.557954
479.964194	11715.089532
480.333739	11653.322795
480.703226	11566.907335
481.072653	11658.144658
481.442022	11894.468909
481.811333	12082.803897
482.180584	11891.345915
482.549777	11603.649785
482.918912	11422.957187
483.287988	11449.314860
483.657005	11460.680142
484.025964	11139.500668
484.394864	11273.383632
484.763706	11245.788356
485.132489	11000.271561
485.501213	10966.011879
485.869879	11044.898375
486.238487	10881.711184
486.607036	10990.907618
486.975527	10773.172621
487.343959	10964.028185
487.712333	11014.406956
488.080648	10946.220309
488.448905	10987.739252
488.817104	10926.650550
489.185244	11189.309789
489.553326	11346.974396
489.921350	11885.669575
490.289315	12945.645268
490.657222	13292.393474
491.025070	13193.420500
491.392861	13071.467427
491.760593	12689.685723
492.128267	12336.527690
492.495883	12008.567865
492.863440	11676.025631
493.230939	11338.197747
493.598380	11273.812130
493.965763	11139.467901
494.333088	11035.249607
494.700354	10960.171702
495.067563	11024.950529
495.434713	10847.837151
495.801805	10979.388581
496.168839	10906.017107
496.535815	10834.273926
496.902733	10835.723258
497.269593	10771.236818
497.636395	10872.697601
498.003139	10857.243944
498.369825	10722.209076
498.736453	10883.682275
499.103023	10807.674278
499.469535	10839.957827
499.835989	10826.918883
500.202385	10797.539038
500.568723	10645.911213
500.935003	10865.319872
501.301226	10674.749133
501.667390	10928.271281
502.033497	11033.505368
502.399546	10886.422142
502.765537	10791.401433
503.131470	10869.158711
503.497345	11041.934177
503.863163	10651.317850
504.228923	10952.811618
504.594625	11024.975735
504.960269	10774.894175
505.325856	10989.307051
505.691385	10792.898656
506.056856	10943.735020
506.422270	10965.384256
506.787625	10851.920485
507.152924	10975.413631
507.518164	10959.269336
507.883347	10875.825637
508.248472	10789.725250
508.613540	11028.565037
508.978550	10911.106152
509.343503	10885.245033
509.708398	11010.000988
510.073236	11120.142637
510.438016	11126.567588
510.802738	11072.695298
511.167403	11119.303285
511.532010	11018.991886
511.896561	11245.432955
512.261053	11327.457569
512.625488	11196.932013
512.989866	11178.877121
513.354186	11165.296252
513.718449	11073.149001
514.082655	11253.178687
514.446803	11159.902218
514.810894	11282.813110
515.174927	11145.522327
515.538904	11163.252065
515.902822	11320.546147
516.266684	11203.235976
516.630488	11151.606999
516.994235	11204.098014
517.357925	11263.833166
517.721558	11354.168123
518.085133	11376.906247
518.448651	11382.721218
518.812112	11267.056984
519.175516	11276.347831
519.538863	11397.753939
519.902152	11321.128400
520.265385	11477.225208
520.628560	11392.430480
520.991678	11362.601973
521.354739	11428.827611
521.717743	11361.266067
522.080690	11337.822181
522.443580	11477.361320
522.806413	11435.209712
523.169189	11462.114350
523.531908	11518.807166
523.894569	11340.982985
524.257174	11344.337872
524.619722	11465.801954
524.982213	11409.590568
525.344647	11454.734101
525.707025	11417.827813
526.069345	11512.011691
526.431608	11425.656725
526.793815	11534.618745
527.155964	11330.893115
527.518057	11376.855835
527.880093	11327.094606
528.242072	11393.645398
528.603995	11294.130501
528.965860	11224.658360
529.327669	11266.729309
529.689421	11218.684592
530.051117	11189.604696
530.412755	11296.194853
530.774337	11181.445589
531.135862	11168.507467
531.497331	11188.672083
531.858743	11040.250431
532.220098	11211.919364
532.581396	11075.180586
532.942638	11063.590974
533.303824	11023.541527
533.664953	11037.019052
534.026025	10954.376896
534.387040	11055.930940
534.747999	11058.751466
535.108902	11114.126020
535.469748	10871.291119
535.830537	10976.633590
536.191270	10952.965373
536.551947	10976.159722
536.912567	10974.163425
537.273131	10903.657847
537.633638	10875.639114
537.994089	10865.443381
538.354483	10819.793212
538.714821	10959.962495
539.075103	10978.518982
539.435328	10935.981726
539.795497	10763.647361
540.155609	10919.776937
540.515665	11010.459733
540.875665	10739.850594
541.235609	10813.824486
541.595496	10810.840123
541.955328	10962.122629
542.315102	10848.472336
542.674821	10796.951744
543.034483	10798.201950
543.394090	10801.647579
543.753640	10737.448484
544.113134	10954.024015
544.472571	10806.562704
544.831953	10949.794487
545.191278	10758.341547
545.550548	10773.979206
545.909761	10923.356156
546.268918	10891.891794
546.628019	10976.966307
546.987064	10838.347179
547.346053	10760.932700
547.704986	10865.065294
548.063863	10855.199756
548.422684	10839.090749
548.781449	10758.197874
549.140158	10863.628565
549.498811	10738.519730
549.857408	10592.389282
550.215949	10823.150620
550.574434	10671.411890
550.932864	10771.723289
551.291237	10836.441622
551.649555	10785.178129
552.007817	10791.416557
552.366022	10752.972718
552.724173	10747.334187
553.082267	10733.332382
553.440305	10864.777948
553.798288	10672.972127
554.156215	10824.859572
554.514086	10803.152363
554.871902	10651.302727
555.229661	10688.617348
555.587365	10664.351754
555.945014	10553.786647
556.302606	10686.747080
556.660143	10576.955790
557.017625	10726.254602
557.375050	10628.128543
557.732421	10766.634245
558.089735	10672.079842
558.446994	10680.032263
558.804197	10714.065092
559.161345	10716.673889
559.518437	10562.323841
559.875474	10651.592593
560.232455	10680.669969
560.589381	10631.092741
560.946251	10627.160641
561.303065	10736.299101
561.659825	10671.548001
562.016528	10602.428740
562.373177	10485.718467
562.729770	10598.776424
563.086307	10513.936326
563.442789	10607.205234
563.799216	10478.859977
564.155587	10531.116578
564.511904	10486.489764
564.868164	10476.087343
565.224370	10490.167285
565.580520	10411.177446
565.936615	10421.620196
566.292654	10290.920721
566.648638	10426.653788
567.004567	10379.982786
567.360441	10361.201967
567.716260	10268.898440
568.072023	10372.002639
568.427732	10321.150000
568.783385	10231.735054
569.138982	10298.744592
569.494525	10310.772785
569.850013	10191.287356
570.205445	10273.750551
570.560823	10169.577627
570.916145	10081.208721
571.271412	10155.762345
571.626625	10100.811247
571.981782	10074.579603
572.336884	10051.153362
572.691931	10060.096368
573.046923	10000.953552
573.401860	9955.772210
573.756743	9898.504703
574.111570	9933.679353
574.466342	9921.570502
574.821059	9950.660480
575.175722	9843.072175
575.530330	9845.350776
575.884882	9842.862967
576.239380	9771.792780
576.593823	9754.678063
576.948211	9763.943703
577.302544	9643.427359
577.656823	9656.771293
578.011047	9657.691304
578.365216	9633.375298
578.719330	9550.758348
579.073389	9569.566893
579.427394	9514.099078
579.781344	9494.448660
580.135239	9438.819527
580.489080	9454.343761
580.842866	9355.847176
581.196597	9357.467907
581.550273	9391.914111
581.903895	9367.451912
582.257463	9432.273589
582.610975	9311.106936
582.964434	9335.720369
583.317837	9259.523329
583.671186	9243.184949
584.024481	9236.248322
584.377721	9156.325869
584.730906	9130.941138
585.084037	9163.136467
585.437113	9095.358154
585.790135	9118.837328
586.143103	9020.000466
586.496016	8992.085076
586.848874	9054.426505
587.201679	9035.227271
587.554428	8919.242924
587.907124	8972.164957
588.259765	8939.848640
588.612352	8940.047766
588.964884	8819.319693
589.317362	8837.379627
589.669786	8836.386519
590.022155	8882.926452
590.374470	8896.419100
590.726731	8835.869801
591.078937	8693.096762
591.431090	8803.515676
591.783188	8674.585645
592.135232	8666.822268
592.487222	8669.234461
592.839157	8715.902942
593.191038	8649.798292
593.542866	8596.982123
593.894639	8494.755085
594.246358	8550.462355
594.598022	8564.522133
594.949633	8462.602606
595.301190	8437.154861
595.652692	8465.614695
596.004141	8573.676869
596.355535	8354.825257
596.706876	8333.937236
597.058162	8265.947194
597.409395	8345.433587
597.760573	8414.429339
598.111698	8314.216242
598.462768	8306.281466
598.813785	8261.775639
599.164748	8234.704643
599.515657	8228.556956
599.866511	8131.048438
600.217312	8265.279241
600.568060	8120.421685
600.918753	8231.110300
601.269392	8197.548819
601.619978	8103.269159
601.970510	8171.387751
602.320988	8163.009353
602.671412	8222.318528
603.021783	8156.634814
603.372100	8130.347717
603.722363	8136.379458
604.072572	8106.288811
604.422728	8118.987477
604.772830	8048.048360
605.122878	8054.599340
605.472872	8051.786376
605.822813	8077.677742
606.172701	8020.352261
606.522534	8103.833769
606.872314	8102.160106
607.222041	8070.973007
607.571714	8123.340513
607.921333	8083.701921
608.270899	8085.211746
608.620411	8184.363681
608.969870	8081.173782
609.319276	8076.500632
609.668627	8095.962007
610.017926	8128.505176
610.367171	8176.678442
610.716362	8151.457549
611.065500	8139.527658
611.414585	8167.826176
611.763616	8152.609453
612.112594	8144.092423
612.461518	8159.147829
612.810389	8216.029689
613.159207	8153.715986
613.507971	8106.374510
613.856682	8222.210143
614.205340	8175.720623
614.553945	8257.447809
614.902496	8158.232860
615.250994	8217.506747
615.599439	8193.601595
615.947830	8208.326806
616.296169	8179.937548
616.644454	8195.275258
616.992686	8188.507509
617.340864	8246.213597
617.688990	8147.291035
618.037063	8239.952484
618.385082	8189.931635
618.733048	8272.732587
619.080961	8209.554327
619.428821	8236.602637
619.776628	8236.557267
620.124382	8183.942744
620.472083	8170.825662
620.819731	8194.975310
621.167326	8094.573169
621.514868	8098.638860
621.862357	7984.860017
622.209793	8001.843665
622.557176	7939.469468
622.904506	7907.488388
623.251783	7843.037236
623.599007	7796.890514
623.946179	7801.546019
624.293297	7759.701922
624.640363	7675.718819
624.987376	7659.362796
625.334336	7609.170548
625.681243	7552.616363
626.028097	7544.290898
626.374899	7524.055706
626.721647	7512.014910
627.068343	7442.724250
627.414987	7418.783811
627.761577	7375.180351
628.108115	7404.567757
628.454600	7303.338867
628.801032	7350.375353
629.147412	7316.894530
629.493739	7300.513300
629.840014	7235.459731
630.186236	7294.171529
630.532405	7176.551327
630.878521	7231.666262
631.224585	7185.242277
631.570597	7110.101358
631.916556	7149.994529
632.262462	7142.329454
632.608316	7097.584173
632.954117	7080.030875
633.299866	7065.159471
633.645562	7054.996505
633.991206	6971.880481
634.336797	6921.731083
634.682336	6877.689042
635.027823	6845.465987
635.373257	6835.121539
635.718639	6766.206445
636.063968	6779.512571
636.409245	6674.646489
636.754470	6672.962743
637.099642	6631.978163
637.444762	6573.652012
637.789829	6584.707263
638.134845	6524.815835
638.479808	6508.641292
638.824719	6513.856366
639.169577	6440.333658
639.514383	6461.957687
639.859137	6394.585187
640.203839	6405.925262
640.548489	6385.828702
640.893086	6364.774323
641.237632	6334.134190
641.582125	6356.216965
641.926566	6325.677655
642.270955	6337.728533
642.615292	6332.226114
642.959576	6352.758733
643.303809	6342.288257
643.647990	6345.678433
643.992118	6335.313820
644.336195	6280.529081
644.680219	6305.011445
645.024192	6293.381503
645.368112	6390.413632
645.711981	6415.233753
646.055797	6489.149671
646.399562	6449.574093
646.743274	6573.178144
647.086935	6629.699561
647.430544	6627.385671
647.774101	6641.238762
648.117606	6647.197406
648.461059	6644.439895
648.804460	6603.830880
649.147810	6513.569020
649.491108	6483.122972
649.834354	6458.217151
650.177548	6375.022989
650.520690	6290.044259
650.863781	6269.791423
651.206820	6288.655421
651.549807	6209.816816
651.892742	6150.701725
652.235626	6155.899155
652.578458	6145.322814
652.921238	6049.019132
653.263967	6089.802066
653.606644	6032.955495
653.949269	6031.400299
654.291843	5977.396938
654.634365	6019.296489
654.976836	5978.001877
655.319255	5974.957020
655.661622	5950.860305
656.003938	5947.437361
656.346203	5909.328759
656.688416	5943.089366
657.030577	5894.611110
657.372687	5860.144741
657.714746	5849.487742
658.056753	5896.201594
658.398708	5834.523077
658.740612	5823.921530
659.082465	5870.753849
659.424266	5865.465679
659.766016	5864.991811
660.107715	5838.671946
660.449362	5857.299010
660.790958	5849.439851
661.132503	5835.367470
661.473996	5875.001022
661.815438	5856.129462
662.156829	5859.285224
662.498168	5847.534295
662.839456	5827.231048
663.180693	5858.987796
663.521879	5858.985276
663.863013	5848.431620
664.204097	5871.227718
664.545129	5911.367905
664.886110	5906.223408
665.227040	5941.133398
665.567918	5903.178551
665.908746	5930.773827
666.249522	5939.762204
666.590248	5919.751344
666.930922	5947.694460
667.271545	5965.323375
667.612118	5966.311441
667.952639	5944.916784
668.293109	5959.354649
668.633528	5922.324853
668.973896	5920.409215
669.314213	5909.916053
669.654480	5894.739659
669.994695	5888.528958
670.334859	5877.902206
670.674973	5870.670670
671.015035	5874.786773
671.355047	5873.672678
671.695008	5862.413260
672.034918	5831.702551
672.374777	5847.980437
672.714585	5831.107695
673.054342	5830.928734
673.394049	5828.239278
673.733705	5858.632395
674.073310	5846.515982
674.412864	5806.206916
674.752368	5796.381707
675.091820	5795.683507
675.431223	5734.206636
675.770574	5739.908181
676.109875	5685.955232
676.449125	5693.955543
676.788324	5660.797353
677.127473	5608.016473
677.466571	5598.337457
677.805619	5581.310960
678.144616	5567.599022
678.483562	5551.666455
678.822458	5517.825189
679.161303	5514.014077
679.500098	5503.243652
679.838842	5487.651363
680.177535	5491.525490
680.516179	5507.387480
680.854771	5515.894427
681.193314	5598.029947
681.531805	5703.909301
681.870247	5857.994689
682.208638	5955.707374
682.546978	5973.084231
682.885268	5950.862825
683.223508	5859.975863
683.561697	5810.244880
683.899836	5781.948883
684.237925	5734.030195
684.575963	5697.892684
684.913951	5662.070245
685.251889	5725.039297
685.589776	5688.990006
685.927614	5663.716182
686.265401	5730.927365
686.603137	5715.788780
686.940824	5795.116377
687.278460	5813.824099
687.616046	5821.605120
687.953582	5894.893415
688.291068	5876.359613
688.628504	5937.012255
688.965889	5899.921966
689.303224	5845.250652
689.640510	5796.729546
689.977745	5719.110901
690.314930	5620.614316
690.652065	5567.334361
690.989150	5475.620649
691.326185	5393.656529
691.663170	5345.284137
692.000105	5268.761942
692.336990	5192.267474
692.673825	5164.951982
693.010610	5095.396662
693.347345	5028.765211
693.684030	5012.525133
694.020665	4969.624914
694.357251	4880.172160
694.693786	4891.940733
695.030272	4856.670301
695.366707	4823.040763
695.703093	4791.042039
696.039429	4813.293692
696.375716	4794.921207
696.711952	4768.981950
697.048139	4754.778499
697.384276	4735.654882
697.720363	4746.470677
698.056400	4759.108850
698.392388	4708.359554
698.728326	4684.088919
699.064214	4668.519316
699.400053	4659.578829
699.735842	4625.132625
700.071581	4599.044654
700.407270	4572.603802
700.742910	4556.852717
701.078501	4499.176876
701.414042	4501.891537
701.749533	4469.693687
702.084974	4407.309408
702.420366	4465.789314
702.755709	4404.577103
703.091002	4345.318340
703.426246	4394.502357
703.761440	4352.370914
704.096584	4313.755675
704.431679	4339.200899
704.766725	4320.689783
705.101721	4310.063030
705.436668	4337.978420
705.771565	4283.526396
706.106413	4316.344308
706.441212	4343.241384
706.775961	4351.476109
707.110661	4337.686033
707.445311	4362.370043
707.779913	4386.524731
708.114465	4396.705341
708.448967	4418.150410
708.783421	4479.922188
709.117825	4521.473899
709.452180	4530.426988
709.786485	4577.934822
710.120742	4657.033047
710.454949	4644.742713
710.789107	4712.626891
711.123216	4782.114156
711.457275	4778.222385
711.791286	4848.440617
712.125247	4868.138926
712.459159	4769.312146
712.793023	4841.103217
713.126837	4804.517043
713.460602	4797.827432
713.794318	4715.480184
714.127985	4722.910845
714.461602	4637.662413
714.795171	4611.801294
715.128691	4545.308474
715.462162	4487.133559
715.795584	4439.567752
716.128957	4418.727622
716.462281	4368.880693
716.795556	4342.303730
717.128782	4303.731341
717.461960	4235.282554
717.795088	4245.596755
718.128167	4202.716700
718.461198	4147.286693
718.794180	4140.395436
719.127113	4116.903659
719.459997	4099.302470
719.792833	4055.787230
720.125619	4047.549985
720.458357	4010.618492
720.791046	4013.744007
721.123686	3990.176613
721.456278	3944.153399
721.788821	3963.539156
722.121315	3942.265487
722.453761	3910.012184
722.786158	3920.076848
723.118506	3947.760344
723.450805	3895.871748
723.783056	3922.393258
724.115259	3938.517389
724.447412	3943.545940
724.779518	3936.281637
725.111574	3939.316412
725.443582	3966.309270
725.775542	3955.105306
726.107453	4004.972399
726.439315	4003.147502
726.771129	4016.980428
727.102895	4054.965522
727.434612	4105.946711
727.766281	4113.833596
728.097901	4118.683186
728.429473	4120.694607
728.760996	4130.920587
729.092471	4124.717447
729.423897	4105.576186
729.755276	4113.795788
730.086606	4113.755458
730.417887	4148.264677
730.749120	4217.081468
731.080305	4281.091519
731.411442	4310.012619
731.742530	4279.501035
732.073570	4282.288793
732.404562	4333.953058
732.735506	4328.589271
733.066401	4291.030154
733.397249	4227.738467
733.728048	4147.168226
734.058798	4067.626380
734.389501	3989.735512
734.720156	3931.616049
735.050762	3884.932444
735.381320	3881.781723
735.711831	3830.729958
736.042293	3798.859783
736.372707	3820.871982
736.703073	3794.904998
737.033391	3786.375366
737.363661	3804.289106
737.693883	3827.969926
738.024056	3834.848581
738.354182	3831.166018
738.684260	3896.063312
739.014290	3917.939399
739.344272	3913.253646
739.674207	3955.375007
740.004093	3958.029175
740.333931	3954.518011
740.663722	3953.471972
740.993464	3953.509780
741.323159	3928.480452
741.652806	3894.150194
741.982405	3868.553735
742.311956	3841.563398
742.641460	3830.533353
742.970915	3807.787667
743.300323	3764.920215
743.629683	3731.787231
743.958996	3720.021178
744.288260	3695.753064
744.617477	3662.723424
744.946647	3647.683141
745.275768	3624.118267
745.604842	3618.840179
745.933869	3573.026173
746.262847	3567.218764
746.591778	3601.246552
746.920662	3574.246132
747.249498	3543.323695
747.578286	3587.857248
747.907027	3605.768467
748.235720	3603.404166
748.564365	3628.531798
748.892963	3628.574647
749.221514	3612.851289
749.550017	3587.892536
749.878473	3588.754573
750.206881	3558.313566
750.535242	3554.429357
750.863555	3554.900705
751.191821	3548.614386
751.520039	3530.458670
751.848210	3507.181142
752.176334	3541.307233
752.504411	3549.320147
752.832440	3507.987727
753.160421	3490.855366
753.488356	3497.113958
753.816243	3510.629292
754.144082	3469.266624
754.471875	3452.918162
754.799620	3476.707367
755.127318	3465.435347
755.454969	3466.695636
755.782572	3470.060606
756.110129	3448.542441
756.437638	3437.905606
756.765100	3449.598563
757.092515	3463.575162
757.419882	3467.000626
757.747203	3436.554577
758.074477	3439.213786
758.401703	3459.517033
758.728882	3479.021257
759.056014	3489.022906
759.383099	3488.304542
759.710138	3484.710199
760.037129	3505.396574
760.364073	3533.223743
760.690970	3516.592977
761.017820	3498.822909
761.344623	3518.208666
761.671379	3558.822722
761.998088	3613.539406
762.324751	3739.623705
762.651366	3986.609997
762.977935	4457.945278
763.304456	4908.369854
763.630931	5001.343854
763.957359	4641.576869
764.283740	4298.304539
764.610074	4105.921505
764.936362	3908.293151
765.262602	3749.940426
765.588796	3637.023621
765.914943	3546.129097
766.241044	3459.695994
766.567097	3427.336827
766.893104	3381.951319
767.219064	3347.986545
767.544978	3325.934018
767.870845	3267.033176
768.196665	3250.299066
768.522438	3260.031013
768.848165	3253.409458
769.173846	3217.899570
769.499479	3198.261755
769.825066	3184.426308
770.150607	3166.159687
770.476101	3183.528983
770.801548	3177.822397
771.126949	3130.518730
771.452303	3113.149434
771.777611	3120.612862
772.102872	3125.699387
772.428087	3103.029318
772.753256	3091.462390
773.078378	3085.294539
773.403453	3051.702810
773.728482	3035.374513
774.053465	3060.996177
774.378401	3048.398334
774.703291	3015.860206
775.028135	3018.194260
775.352932	3009.951974
775.677683	2998.327073
776.002388	2994.427741
776.327046	2995.791373
776.651658	2988.133860
776.976224	2975.556181
777.300743	2974.641212
777.625216	2965.345324
777.949643	2962.333235
778.274024	2964.309367
778.598359	2952.613890
778.922647	2957.077832
779.246889	2957.034982
779.571086	2941.712395
779.895236	2935.718463
780.219339	2946.781275
780.543397	2958.494396
780.867409	2964.541260
781.191374	2955.109261
781.515294	2949.753035
781.839167	2951.787141
782.162995	2944.611058
782.486776	2951.512398
782.810511	2950.254630
783.134201	2937.881118
783.457844	2943.494443
783.781441	2932.071188
784.104993	2914.364135
784.428498	2915.442942
784.751958	2927.148501
785.075372	2922.906370
785.398739	2905.632857
785.722061	2920.327820
786.045337	2933.702001
786.368568	2919.725402
786.691752	2911.989752
787.014891	2960.241156
787.337983	2990.357009
787.661030	3019.489837
787.984031	3084.921493
788.306987	3131.171559
788.629897	3126.190899
788.952760	3107.226078
789.275579	3092.962134
789.598351	3032.954759
789.921078	2987.886843
790.243759	2982.346615
790.566395	2962.789459
790.888984	2935.841971
791.211529	2922.230856
791.534027	2909.791809
791.856480	2900.909296
792.178888	2886.405896
792.501249	2877.414998
792.823566	2875.620347
793.145836	2871.907538
793.468062	2867.980479
793.790241	2869.399563
794.112375	2871.589945
794.434464	2885.158210
794.756507	2891.573079
795.078505	2895.792524
795.400457	2907.430028
795.722364	2945.596604
796.044226	2973.002837
796.366042	2972.065182
796.687812	2960.886423
797.009538	2977.935606
797.331218	2968.667444
797.652852	2955.938531
797.974442	2938.075202
798.295986	2934.616971
798.617484	2928.890220
798.938938	2913.880184
799.260346	2899.583472
799.581709	2892.974519
799.903026	2884.308776
800.224299	2879.940616
800.545526	2870.047352
800.866708	2856.489168
801.187845	2844.839062
801.508936	2846.777386
801.829983	2852.761235
802.150984	2839.545850
802.471940	2824.866010
802.792851	2828.180569
803.113717	2826.630414
803.434538	2832.470591
803.755314	2827.845332
804.076045	2818.143632
804.396731	2817.959630
804.717372	2821.501040
805.037967	2816.472489
805.358518	2822.887357
805.679024	2831.810200
805.999485	2825.846515
806.319901	2832.914212
806.640272	2824.399704
806.960598	2828.772905
807.280879	2840.904441
807.601115	2846.190091
807.921306	2830.408759
808.241453	2828.157884
808.561554	2835.926302
808.881611	2837.814214
809.201623	2831.182576
809.521590	2830.504541
809.841513	2827.295847
810.161390	2831.943790
810.481223	2825.362564
810.801011	2813.803198
811.120755	2814.292190
811.440453	2815.461738
811.760107	2813.062149
812.079716	2813.294042
812.399281	2802.415232
812.718801	2793.378963
813.038276	2790.457615
813.357707	2796.469191
813.677093	2802.286682
813.996434	2798.039510
814.315731	2793.363840
814.634983	2787.690021
814.954191	2791.002059
815.273354	2805.213072
815.592473	2811.310348
815.911547	2816.139773
816.230577	2823.338541
816.549562	2832.304233
816.868502	2828.220898
817.187399	2840.705316
817.506250	2858.833305
817.825058	2851.798375
818.143821	2863.347658
818.462539	2878.307282
818.781213	2909.874988
819.099843	2946.226748
819.418429	2999.718432
819.736970	3061.666651
820.055466	3135.093577
820.373919	3241.504773
820.692327	3382.548696
821.010691	3554.905746
821.329011	4001.652800
821.647286	4908.962189
821.965517	6302.289222
822.283704	7058.772329
822.601847	7041.380349
822.919945	6396.934364
823.237999	5885.741200
823.556010	5296.359739
823.873976	4738.601436
824.191897	4320.657015
824.509775	4027.017365
824.827609	3751.893873
825.145398	3628.564565
825.463144	3614.668625
825.780845	3708.713870
826.098502	3815.026764
826.416116	4095.745936
826.733685	4417.943722
827.051210	4486.924351
827.368692	4368.676526
827.686129	4098.541256
828.003522	3774.216103
828.320872	3509.870598
828.638177	3313.880619
828.955439	3176.718384
829.272656	3090.174376
829.589830	3025.423275
829.906960	2973.506952
830.224046	2928.895261
830.541088	2891.384035
830.858086	2877.364587
831.175041	2860.086032
831.491952	2860.184334
831.808819	2872.512476
832.125642	2898.383678
832.442421	2941.873712
832.759157	3023.419416
833.075849	3207.650904
833.392497	3485.922597
833.709101	3697.620811
834.025662	3642.150475
834.342179	3484.175837
834.658653	3305.383754
834.975083	3154.411278
835.291469	3058.442833
835.607811	2970.731797
835.924110	2911.694844
836.240366	2858.934128
836.556578	2817.468117
836.872746	2791.465846
837.188871	2770.953391
837.504952	2755.222470
837.820990	2744.961201
838.136984	2733.301012
838.452935	2725.293140
838.768842	2722.422202
839.084706	2739.509193
839.400526	2820.457521
839.716303	2954.227059
840.032037	3037.680841
840.347727	3021.796165
840.663373	2961.766105
840.978977	2885.231307
841.294537	2808.031077
841.610054	2761.599530
841.925527	2738.528689
842.240957	2717.643189
842.556344	2696.997143
842.871687	2681.309072
843.186987	2669.059068
843.502244	2666.566218
843.817458	2658.591112
844.132629	2651.301604
844.447756	2640.866416
844.762840	2634.587658
845.077881	2637.516569
845.392879	2633.917185
845.707833	2629.506175
846.022745	2623.050978
846.337613	2628.540794
846.652438	2623.897892
846.967221	2623.161883
847.281960	2622.801441
847.596656	2621.095010
847.911309	2623.522326
848.225919	2618.728188
848.540485	2615.363218
848.855009	2613.440018
849.169490	2617.185595
849.483928	2613.359360
849.798323	2614.339864
850.112675	2610.301900
850.426984	2614.294494
850.741251	2612.328444
851.055474	2614.249123
851.369654	2616.540328
851.683792	2616.008486
851.997887	2612.136880
852.311938	2609.681838
852.625947	2613.203084
852.939914	2614.612086
853.253837	2616.467231
853.567718	2611.022785
853.881555	2611.993207
854.195350	2615.837087
854.509103	2614.654936
854.822812	2610.569081
855.136479	2610.984976
855.450103	2614.700307
855.763685	2615.103599
856.077224	2611.393310
856.390720	2609.510439
856.704173	2612.157044
857.017584	2616.154679
857.330953	2620.026286
857.644278	2618.919752
857.957561	2620.845473
858.270802	2616.709206
858.584000	2615.985801
858.897155	2623.093828
859.210268	2618.317334
859.523339	2613.669391
859.836367	2613.792899
860.149352	2610.133021
860.462295	2613.881119
860.775195	2609.207969
861.088054	2607.572115
861.400869	2608.018257
861.713642	2605.235540
862.026373	2609.102105
862.339062	2609.623865
862.651708	2613.014041
862.964312	2613.379524
863.276873	2613.427415
863.589392	2616.487396
863.901869	2620.953858
864.214303	2627.111627
864.526696	2630.592544
864.839045	2630.400980
865.151353	2634.305354
865.463619	2635.999182
865.775842	2633.040024
866.088023	2633.150930
866.400162	2632.039355
866.712258	2635.787453
867.024313	2632.009108
867.336325	2627.146915
867.648296	2630.774026
867.960224	2634.128913
868.272110	2633.362658
868.583954	2626.985598
868.895755	2627.396452
869.207515	2636.929274
869.519233	2638.615540
869.830909	2636.026908
870.142542	2631.666310
870.454134	2635.540437
870.765684	2640.115284
871.077191	2642.514873
871.388657	2645.511839
871.700081	2642.754328
872.011463	2639.971611
872.322803	2644.748104
872.634101	2645.463948
872.945357	2656.183962
873.256571	2661.046154
873.567744	2658.195382
873.878874	2654.880823
874.189963	2659.402738
874.501010	2663.647390
874.812015	2667.181239
875.122979	2668.887669
875.433900	2656.554486
875.744780	2658.933911
876.055618	2663.551608
876.366415	2668.156702
876.677169	2667.692916
876.987882	2661.759478
877.298554	2660.342913
877.609183	2671.589728
877.919771	2679.222035
878.230317	2686.345185
878.540822	2697.740713
878.851285	2710.998948
879.161707	2734.349572
879.472087	2774.537651
879.782425	2822.279898
880.092722	2941.689710
880.402977	3130.881693
880.713191	3396.434554
881.023363	3696.708362
881.333494	3896.638003
881.643583	4068.458170
881.953631	4067.099579
882.263637	3889.315727
882.573602	3664.818023
882.883526	3529.722662
883.193408	3410.454003
883.503248	3304.579690
883.813048	3190.074921
884.122806	3074.831624
884.432522	2986.702172
884.742197	2920.597522
885.051831	2883.681152
885.361424	2846.797550
885.670975	2806.347332
885.980485	2775.011519
886.289954	2760.616505
886.599382	2745.394741
886.908768	2732.333111
887.218113	2710.724205
887.527417	2700.936805
887.836680	2691.552697
888.145901	2683.975843
888.455082	2674.722805
888.764221	2665.512617
889.073319	2655.894095
889.382376	2660.307625
889.691392	2660.272337
890.000366	2659.553973
890.309300	2656.947696
890.618193	2660.705877
890.927044	2663.102945
891.235855	2662.790394
891.544625	2660.778973
891.853353	2662.011535
892.162041	2670.735252
892.470687	2687.688652
892.779293	2703.044007
893.087858	2712.047508
893.396381	2735.052813
893.704864	2776.591921
894.013306	2849.688652
894.321707	2942.198866
894.630068	2997.517968
894.938387	3016.555885
895.246665	3012.749814
895.554903	2966.469501
895.863100	2919.773293
896.171256	2862.162987
896.479371	2800.897844
896.787446	2762.143974
897.095480	2737.636405
897.403473	2734.810838
897.711425	2716.279557
898.019336	2698.615353
898.327207	2682.476099
898.635038	2682.213959
898.942827	2681.016685
899.250576	2671.821621
899.558284	2661.701504
899.865952	2656.567089
900.173579	2651.225987
900.481165	2651.341933
900.788711	2641.839358
901.096216	2635.827782
901.403681	2631.605816
901.711105	2633.907103
902.018489	2630.453912
902.325832	2633.695374
902.633135	2636.047072
902.940397	2651.851090
903.247619	2690.554548
903.554800	2760.513161
903.861941	2890.849673
904.169041	3021.236597
904.476101	3088.115064
904.783121	3081.700196
905.090100	3020.298942
905.397039	2943.083589
905.703938	2866.848740
906.010796	2803.005047
906.317614	2750.115781
906.624391	2713.138918
906.931129	2685.621779
907.237826	2661.794766
907.544483	2643.568474
907.851099	2628.530712
908.157675	2619.307921
908.464211	2611.794081
908.770707	2600.877463
909.077163	2598.198089
909.383578	2592.138622
909.689954	2592.834302
909.996289	2588.783735
910.302584	2589.272727
910.608839	2586.754670
910.915054	2587.525967
911.221229	2589.875144
911.527363	2590.717017
911.833458	2591.475711
912.139513	2591.599219
912.445527	2591.599219
912.751502	2598.931577
913.057436	2604.413832
913.363331	2611.726026
913.669186	2622.231790
913.975000	2629.188583
914.280775	2653.464259
914.586510	2673.712053
914.892205	2709.479040
915.197859	2778.447066
915.503475	2864.471836
915.809050	2935.300047
916.114585	2952.205557
916.420081	2964.004377
916.725536	2973.910244
917.030952	2947.933179
917.336328	2899.031466
917.641665	2848.496419
917.946961	2798.034469
918.252218	2760.929056
918.557435	2736.255129
918.862612	2712.221428
919.167750	2691.759384
919.472848	2675.844462
919.777906	2656.748571
920.082925	2645.126191
920.387904	2635.928605
920.692843	2631.605816
920.997743	2624.286061
921.302603	2618.082921
921.607423	2610.874071
921.912204	2607.423401
922.216946	2602.170519
922.521647	2600.133892
922.826310	2598.734972
923.130932	2592.201637
923.435516	2586.258117
923.740059	2582.535224
924.044564	2582.651171
924.349028	2579.689493
924.653454	2570.474264
924.957840	2572.727660
925.262186	2568.301527
925.566493	2569.206414
925.870761	2566.496793
926.174989	2566.529561
926.479178	2565.740620
926.783328	2561.357337
927.087438	2563.462019
927.391509	2563.842626
927.695541	2560.684343
927.999533	2561.218705
928.303486	2556.981616
928.607400	2554.917263
928.911275	2556.336348
929.215110	2554.687891
929.518906	2555.680998
929.822663	2555.121430
930.126381	2553.200750
930.430060	2556.164949
930.733699	2554.985319
931.037299	2554.508930
931.340861	2557.400031
931.644383	2555.580175
931.947866	2556.328786
932.251309	2553.956923
932.554714	2556.469938
932.858080	2557.183262
933.161407	2554.733261
933.464694	2553.795606
933.767943	2554.103117
934.071153	2554.687891
934.374323	2550.957437
934.677455	2552.542880
934.980548	2554.216543
935.283602	2552.845349
935.586617	2552.631100
935.889593	2555.738971
936.192530	2552.172355
936.495428	2551.196892
936.798287	2553.969526
937.101108	2553.929197
937.403890	2559.711400
937.706632	2561.826164
938.009336	2564.364385
938.312002	2565.685168
938.614628	2570.363358
938.917216	2576.634554
939.219765	2577.025243
939.522275	2576.642116
939.824747	2577.088258
940.127179	2570.169274
940.429573	2566.259859
940.731929	2568.619119
941.034246	2562.569735
941.336524	2566.050651
941.638763	2569.730694
941.940964	2566.332956
942.243126	2564.261042
942.545250	2565.392781
942.847335	2560.631411
943.149381	2561.332131
943.451389	2560.533108
943.753359	2559.562686
944.055290	2557.024465
944.357182	2555.978426
944.659036	2554.201419
944.960851	2555.098745
945.262628	2555.504557
945.564367	2556.913560
945.866067	2557.586554
946.167729	2557.299208
946.469352	2557.856256
946.770937	2556.379198
947.072484	2559.103941
947.373992	2553.193188
947.675462	2555.076059
947.976893	2556.139743
948.278286	2554.435833
948.579641	2556.008673
948.880958	2551.312838
949.182236	2553.372149
949.483476	2550.360060
949.784678	2553.097407
950.085841	2553.288970
950.386967	2555.688560
950.688054	2555.766697
950.989103	2556.169990
951.290114	2556.850546
951.591087	2557.105124
951.892021	2558.320042
952.192917	2562.040413
952.493776	2559.895402
952.794596	2560.775084
953.095378	2561.380022
953.396122	2562.073181
953.696828	2560.906154
953.997496	2559.000598
954.298126	2553.775442
954.598718	2555.028168
954.899272	2554.486244
955.199788	2549.543393
955.500266	2550.276881
955.800706	2546.811088
956.101108	2543.183978
956.401472	2543.131045
956.701798	2543.541899
957.002087	2542.344625
957.302337	2543.829245
957.602550	2544.897970
957.902724	2542.241282
958.202861	2544.030891
958.502960	2539.574511
958.803022	2542.715150
959.103045	2539.761034
959.403031	2539.914789
959.702979	2539.839172
960.002889	2539.178781
960.302762	2539.945036
960.602596	2540.776827
960.902393	2539.148534
961.202153	2535.004705
961.501875	2539.065355
961.801559	2536.534696
962.101205	2539.377906
962.400814	2541.359080
962.700385	2539.871939
962.999918	2538.455375
963.299414	2536.368337
963.598873	2536.690971
963.898293	2537.553009
964.197677	2538.190715
964.497022	2537.124511
964.796331	2536.396064
965.095601	2537.369007
965.394835	2536.017977
965.694030	2534.964376
965.993189	2536.721218
966.292309	2536.156609
966.591393	2535.108049
966.890439	2535.433203
967.189447	2536.451517
967.488419	2534.833306
967.787353	2535.655014
968.086249	2534.412370
968.385108	2535.193749
968.683930	2537.704243
968.982714	2534.712318
969.281462	2536.859850
969.580172	2536.365817
969.878844	2536.169212
970.177480	2535.045035
970.476078	2537.802546
970.774639	2539.599717
971.073162	2539.945036
971.371649	2533.540250
971.670098	2533.376413
971.968510	2534.886238
972.266885	2531.037317
972.565223	2538.389840
972.863524	2536.580066
973.161788	2539.670293
973.460014	2539.846734
973.758204	2539.130890
974.056356	2539.398071
974.354471	2538.175591
974.652550	2536.822041
974.950591	2538.500746
975.248595	2538.651980
975.546563	2538.641898
975.844493	2538.334388
976.142386	2539.660211
976.440243	2536.048224
976.738062	2535.125693
977.035845	2535.957483
977.333590	2536.534696
977.631299	2535.781043
977.928971	2536.479243
978.226606	2535.455889
978.524204	2534.982020
978.821765	2535.586959
979.119290	2533.721732
979.416777	2534.752648
979.714228	2536.872453
980.011642	2536.128883
980.309020	2536.431352
980.606360	2539.748431
980.903664	2538.349511
981.200931	2538.689789
981.498162	2536.794315
981.795356	2540.960829
982.092513	2543.917465
982.389633	2545.056766
982.686717	2546.967363
982.983764	2552.928528
983.280775	2551.794268
983.577749	2553.578837
983.874686	2551.582540
984.171587	2546.473330
984.468451	2546.077600
984.765279	2540.943185
985.062070	2542.715150
985.358824	2545.263453
985.655543	2541.170037
985.952224	2540.199614
986.248869	2536.023018
986.545478	2531.170908
986.842050	2532.952956
987.138586	2531.755682
987.435086	2532.113604
987.731549	2531.012112
988.027975	2534.188038
988.324366	2532.302647
988.620719	2533.769623
988.917037	2532.852133
989.213318	2532.693336
989.509563	2530.878521
989.805772	2533.212575
990.101944	2531.468336
990.398080	2531.223840
990.694180	2534.286341
990.990244	2534.228368
991.286271	2532.975641
991.582262	2533.963707
991.878217	2531.523789
992.174136	2532.635363
992.470019	2531.692667
992.765865	2532.136289
993.061676	2531.307019
993.357450	2535.445806
993.653188	2533.772143
993.948890	2534.359438
994.244556	2533.467153
994.540186	2535.586959
994.835780	2535.314736
995.131337	2536.885056
995.426859	2536.063348
995.722345	2532.819365
996.017795	2536.988399
996.313208	2533.031094
996.608586	2536.769109
996.903928	2537.149716
997.199234	2535.377751
997.494504	2538.147865
997.789738	2535.012267
998.084936	2535.730632
998.380099	2534.573687
998.675225	2536.292720
998.970316	2535.097967
999.265371	2531.740558
999.560390	2532.713501
999.855373	2529.719056
1000.150320	2536.428831
1000.445232	2532.385826
1000.740108	2531.407842
1001.034948	2528.647810
1001.329752	2531.962369
1001.624521	2535.423121
1001.919254	2529.618232
1002.213951	2530.049251
1002.508613	2528.252080
1002.803239	2530.626463
1003.097829	2527.385001
1003.392384	2533.053779
1003.686903	2531.342307
1003.981386	2532.063192
1004.275834	2531.692667
1004.570246	2530.044210
1004.864623	2529.923222
1005.158964	2527.770650
1005.453270	2533.348686
1005.747540	2529.610671
1006.041775	2531.007070
1006.335974	2531.491021
1006.630138	2533.386495
1006.924266	2529.272913
1007.218359	2532.040507
1007.512416	2530.782739
1007.806438	2530.034128
1008.100425	2529.129241
1008.394376	2529.472039
1008.688292	2529.668644
1008.982172	2529.028418
1009.276017	2531.193593
1009.569827	2529.754344
1009.863602	2530.944056
1010.157341	2530.780218
1010.451045	2530.215609
1010.744714	2530.190403
1011.038347	2530.137471
1011.331945	2529.734179
1011.625508	2533.275590
1011.919036	2533.232740
1012.212528	2531.682585
1012.505986	2528.864580
1012.799408	2532.370702
1013.092795	2528.476411
1013.386147	2529.474560
1013.679464	2530.639066
1013.972745	2530.686957
1014.265992	2529.892975
1014.559204	2529.779549
1014.852380	2530.739889
1015.145521	2530.818027
1015.438628	2532.136289
1015.731699	2530.323994
1016.024736	2528.889786
1016.317737	2530.886083
1016.610703	2530.760054
1016.903635	2526.860721
1017.196531	2525.076153
1017.489393	2527.087573
1017.782219	2525.973478
1018.075011	2532.448840
1018.367768	2530.634025
1018.660490	2528.791483
1018.953177	2528.791483
1019.245829	2528.791483
