Dividing Wavelength (nm)	Counts (n)	Blue Motor Position (mm): 23.200000	Red Motor Position (mm): 0.000000	
326.493990	2133.474281
326.888308	2133.474281
327.282561	2133.474281
327.676750	2105.311875
328.070874	2100.376585
328.464933	2102.718201
328.858929	2109.175919
329.252859	2117.982815
329.646726	2128.440689
330.040528	2141.156999
330.434265	2160.144505
330.827938	2175.489778
331.221547	2196.145906
331.615091	2215.143494
332.008571	2232.855588
332.401986	2254.570358
332.795338	2272.453851
333.188625	2291.169135
333.581847	2311.648823
333.975006	2328.791266
334.368100	2347.103258
334.761129	2363.308047
335.154095	2381.796478
335.546996	2400.993192
335.939833	2423.978333
336.332606	2438.338060
336.725315	2449.814247
337.117960	2458.157356
337.510540	2468.136320
337.903056	2480.320789
338.295508	2486.632314
338.687896	2498.794097
339.080220	2505.032525
339.472480	2511.316323
339.864676	2516.856552
340.256807	2519.856038
340.648875	2522.414424
341.040879	2526.754857
341.432818	2525.459281
341.824694	2525.061029
342.216506	2530.208048
342.608253	2530.172759
342.999937	2528.988088
343.391557	2530.192924
343.783113	2526.462470
344.174605	2525.345855
344.566033	2523.682274
344.957397	2521.958199
345.348697	2522.984074
345.739934	2517.441325
346.131106	2519.140194
346.522215	2517.242200
346.913260	2512.165758
347.304241	2511.707013
347.695159	2509.259533
348.086012	2509.342712
348.476802	2507.434635
348.867528	2505.289624
349.258191	2502.930364
349.648789	2504.236023
350.039324	2501.760816
350.429796	2501.047493
350.820203	2498.476505
351.210548	2497.508603
351.600828	2496.843171
351.991045	2494.448623
352.381198	2497.639673
352.771288	2496.482728
353.161314	2494.289826
353.551276	2494.970382
353.941175	2494.436020
354.331010	2491.413848
354.720782	2493.803355
355.110490	2494.423417
355.500135	2496.402070
355.889717	2495.484580
356.279235	2494.224291
356.668689	2498.889879
357.058080	2495.565238
357.447408	2495.419045
357.836672	2495.250166
358.225873	2494.874600
358.615010	2492.482573
359.004084	2497.112873
359.393095	2497.107831
359.782043	2498.615136
360.170927	2500.205620
360.559748	2500.719818
360.948505	2501.440703
361.337199	2501.710405
361.725830	2500.354334
362.114398	2503.978924
362.502903	2499.651093
362.891344	2502.864829
363.279722	2502.043121
363.668037	2503.283245
364.056289	2502.254849
364.444478	2504.346928
364.832603	2503.384068
365.220665	2507.699296
365.608665	2505.045128
365.996601	2504.581342
366.384474	2507.328771
366.772284	2507.490088
367.160031	2508.032012
367.547715	2509.176354
367.935336	2508.236178
368.322893	2506.686024
368.710388	2507.946312
369.097820	2511.071827
369.485189	2509.498988
369.872495	2507.366579
370.259738	2509.564523
370.646918	2507.064110
371.034035	2511.762466
371.421090	2508.846158
371.808081	2513.902435
372.195010	2510.673576
372.581875	2512.984945
372.968678	2511.008813
373.355418	2510.706344
373.742096	2514.593073
374.128710	2510.613083
374.515262	2511.707013
374.901751	2511.434791
375.288177	2512.001920
375.674540	2513.123577
376.060841	2511.611231
376.447079	2512.344719
376.833254	2514.063752
377.219367	2511.462517
377.605417	2511.223062
377.991404	2512.198525
378.377329	2509.768689
378.763191	2509.652743
379.148991	2515.087107
379.534727	2513.892353
379.920402	2515.321520
380.306013	2512.589215
380.691563	2516.881757
381.077049	2516.322189
381.462474	2515.530728
381.847835	2515.402179
382.233134	2515.848321
382.618371	2514.363701
383.003545	2519.656912
383.388657	2516.702796
383.773706	2518.946110
384.158693	2517.113650
384.543618	2517.789165
384.928480	2515.994514
385.313280	2517.186747
385.698017	2516.738084
386.082692	2519.571213
386.467305	2519.810668
386.851856	2519.871162
387.236344	2520.150946
387.620770	2519.785462
388.005133	2519.089783
388.389435	2519.389731
388.773674	2522.515247
389.157851	2518.429392
389.541965	2520.342509
389.926018	2519.394772
390.310008	2521.552386
390.693936	2521.237314
391.077802	2521.391069
391.461606	2523.641945
391.845348	2523.377284
392.229027	2519.709845
392.612645	2523.059691
392.996200	2523.437778
393.379694	2524.113292
393.763125	2523.478107
394.146494	2521.824609
394.529801	2523.190761
394.913047	2523.094979
395.296230	2523.185720
395.679351	2523.621780
396.062410	2522.648837
396.445408	2522.986595
396.828343	2523.999867
397.211217	2517.559793
397.594028	2523.969620
397.976778	2523.102541
398.359466	2521.887623
398.742092	2522.323683
399.124656	2526.139836
399.507158	2527.836185
399.889598	2526.533046
400.271977	2526.502799
400.654294	2527.092614
401.036549	2526.638911
401.418742	2526.475073
401.800874	2525.741585
402.182944	2525.829805
402.564952	2524.856863
402.946898	2526.036493
403.328783	2526.712007
403.710606	2527.926925
404.092367	2526.679240
404.474067	2527.188396
404.855705	2529.714014
405.237282	2531.102852
405.618797	2527.485824
406.000250	2528.315094
406.381642	2532.564787
406.762972	2533.363810
407.144240	2528.594878
407.525447	2529.482121
407.906593	2529.051103
408.287677	2529.177132
408.668700	2528.693181
409.049661	2532.088398
409.430560	2529.822399
409.811399	2530.389529
410.192176	2531.067564
410.572891	2531.548994
410.953545	2528.909950
411.334138	2531.216278
411.714669	2531.244005
412.095139	2535.246681
412.475547	2532.451361
412.855894	2532.234591
413.236180	2532.209386
413.616405	2534.084695
413.996568	2533.356248
414.376670	2533.852802
414.756711	2531.198634
415.136691	2533.104190
415.516609	2533.908254
415.896466	2533.575538
416.276262	2535.420601
416.655997	2530.908768
417.035670	2529.809796
417.415283	2531.211237
417.794834	2529.328366
418.174324	2531.266690
418.553753	2534.624098
418.933121	2534.765251
419.312428	2535.612164
419.691674	2537.043852
420.070859	2535.435724
420.449983	2536.517052
420.829045	2533.567977
421.208047	2536.166691
421.586988	2534.447658
421.965867	2537.484953
422.344686	2533.797349
422.723444	2538.679707
423.102141	2536.907741
423.480777	2536.728780
423.859352	2535.866743
424.237866	2537.699202
424.616319	2535.899510
424.994712	2537.026208
425.373044	2536.375899
425.751314	2539.753472
426.129524	2536.338091
426.507673	2538.165509
426.885762	2535.171063
427.263789	2538.878832
427.641756	2538.745242
428.019662	2539.980324
428.397508	2537.757175
428.775292	2537.825231
429.153016	2539.251877
429.530679	2539.970242
429.908282	2538.127700
430.285824	2538.543595
430.663305	2539.082999
431.040726	2539.942516
431.418086	2541.585932
431.795385	2542.508463
432.172624	2539.884542
432.549802	2538.785571
432.926920	2538.470499
433.303977	2541.442259
433.680974	2541.253216
434.057910	2540.219779
434.434786	2541.419574
434.811601	2541.578370
435.188355	2541.316230
435.565050	2541.094419
435.941683	2537.641229
436.318257	2542.596683
436.694770	2539.267001
437.071222	2541.580891
437.447614	2539.211548
437.823946	2539.582073
438.200218	2543.826725
438.576429	2542.074924
438.952580	2544.482075
439.328670	2543.418391
439.704700	2543.688093
440.080670	2546.102806
440.456580	2544.287990
440.832429	2542.846220
441.208218	2543.307486
441.583947	2543.801519
441.959616	2541.469985
442.335224	2544.971067
442.710773	2545.306303
443.086261	2545.175233
443.461689	2543.733463
443.837057	2542.947043
444.212365	2545.666746
444.587612	2543.488967
444.962800	2544.368649
445.337927	2546.037271
445.712995	2545.780172
446.088002	2545.845707
446.462949	2545.558361
446.837837	2543.514173
447.212664	2546.070038
447.587431	2545.570964
447.962139	2548.066335
448.336786	2549.041798
448.711374	2548.441901
449.085901	2549.997097
449.460369	2548.593136
449.834776	2549.041798
450.209124	2547.905018
450.583412	2547.819318
450.957640	2547.347971
451.331808	2549.981973
451.705917	2545.628937
452.079965	2551.610266
452.453954	2550.544062
452.827883	2552.116902
453.201752	2547.612631
453.575562	2547.862168
453.949311	2551.617828
454.323001	2547.451314
454.696632	2550.909546
455.070202	2552.752087
455.443713	2548.421736
455.817164	2549.011551
456.190556	2549.578681
456.563888	2551.854762
456.937160	2550.347457
457.310373	2553.173024
457.683526	2555.260062
458.056619	2554.806358
458.429653	2552.588250
458.802628	2555.151677
459.175542	2555.255020
459.548398	2556.752243
459.921194	2559.058571
460.293930	2561.906823
460.666607	2562.047975
461.039224	2566.965621
461.411782	2569.990313
461.784280	2571.522824
462.156719	2570.650704
462.529099	2573.957701
462.901419	2573.123390
463.273680	2576.543813
463.645882	2579.238310
464.018024	2577.695717
464.390106	2582.378949
464.762130	2590.578385
465.134094	2600.791763
465.505999	2620.316152
465.877845	2640.397588
466.249631	2650.368991
466.621358	2649.564927
466.993026	2650.812612
467.364634	2650.840338
467.736184	2654.777480
468.107674	2659.102790
468.479105	2669.495128
468.850477	2669.298523
469.221790	2678.770851
469.593043	2680.016016
469.964238	2685.626821
470.335373	2694.380784
470.706449	2706.388813
471.077467	2719.145452
471.448425	2770.663524
471.819324	2818.209167
472.190164	2832.044613
472.560945	2805.162661
472.931667	2794.183027
473.302330	2803.882207
473.672934	2806.029739
474.043479	2836.715242
474.413965	2847.382324
474.784393	2857.356247
475.154761	2887.376318
475.525070	2907.951788
475.895321	2914.533014
476.265513	2950.191616
476.635645	2981.713951
477.005719	3008.669000
477.375734	3036.511293
477.745691	3079.086358
478.115588	3118.407358
478.485427	3169.179339
478.855207	3252.675970
479.224928	3375.617109
479.594591	3474.010350
479.964194	3487.825632
480.333739	3508.247346
480.703226	3546.126576
481.072653	3600.492900
481.442022	3695.405224
481.811333	3765.021038
482.180584	3786.829070
482.549777	3801.045123
482.918912	3827.196109
483.287988	3884.549316
483.657005	3930.562448
484.025964	3941.975620
484.394864	4015.407588
484.763706	4065.514137
485.132489	4073.295157
485.501213	4125.317345
485.869879	4190.078528
486.238487	4234.894385
486.607036	4298.561638
486.975527	4326.724044
487.343959	4424.449332
487.712333	4504.394470
488.080648	4545.058937
488.448905	4631.073625
488.817104	4680.028270
489.185244	4812.464422
489.553326	4931.967495
489.921350	5157.808667
490.289315	5542.158839
490.657222	5710.374581
491.025070	5785.669255
491.392861	5821.784081
491.760593	5797.125277
492.128267	5768.050422
492.495883	5741.107975
492.863440	5711.692843
493.230939	5680.606567
493.598380	5729.047015
493.965763	5770.828098
494.333088	5792.195028
494.700354	5858.970152
495.067563	5937.949910
495.434713	5962.044104
495.801805	6085.254946
496.168839	6138.822246
496.535815	6193.080185
496.902733	6252.265852
497.269593	6317.722714
497.636395	6418.581079
498.003139	6513.392580
498.369825	6514.342838
498.736453	6678.901223
499.103023	6714.332972
499.469535	6806.835625
499.835989	6869.623196
500.202385	6941.336130
500.568723	6930.026301
500.935003	7111.434743
501.301226	7109.226718
501.667390	7303.540513
502.033497	7445.837163
502.399546	7436.576563
502.765537	7455.576672
503.131470	7581.817247
503.497345	7769.065865
503.863163	7597.127231
504.228923	7871.239971
504.594625	7976.103533
504.960269	7887.200264
505.325856	8103.160775
505.691385	8044.789254
506.056856	8211.853093
506.422270	8300.894993
506.787625	8286.200030
507.152924	8438.468082
507.518164	8481.302766
507.883347	8506.528700
508.248472	8502.319336
508.613540	8726.882575
508.978550	8715.441677
509.343503	8752.678160
509.708398	8907.784381
510.073236	9052.397441
510.438016	9115.754663
510.802738	9139.450606
511.167403	9232.822858
511.532010	9219.867092
511.896561	9438.310371
512.261053	9555.451663
512.625488	9507.346452
512.989866	9548.888080
513.354186	9591.493392
513.718449	9562.388290
514.082655	9767.263303
514.446803	9730.878775
514.810894	9885.944668
515.174927	9827.835287
515.538904	9883.212362
515.902822	10061.588550
516.266684	10005.107462
516.630488	9997.611267
516.994235	10087.769783
517.357925	10183.070275
517.721558	10292.231421
518.085133	10354.076296
518.448651	10397.246217
518.812112	10325.704682
519.175516	10384.487057
519.538863	10528.033912
519.902152	10479.091870
520.265385	10664.566003
520.628560	10604.266241
520.991678	10624.629982
521.354739	10709.132323
521.717743	10675.527992
522.080690	10681.516883
522.443580	10838.276603
522.806413	10819.394961
523.169189	10872.390091
523.531908	10955.536362
523.894569	10803.026334
524.257174	10833.943731
524.619722	10966.894081
524.982213	10927.454614
525.344647	11001.970430
525.707025	10980.656431
526.069345	11088.206928
526.431608	11022.177895
526.793815	11142.492593
527.155964	10956.375714
527.518057	11023.622185
527.880093	10991.943575
528.242072	11072.549104
528.603995	10992.009110
528.965860	10923.157030
529.327669	10995.495067
529.689421	10958.364449
530.051117	10931.628689
530.412755	11044.663962
530.774337	10950.472522
531.135862	10932.483165
531.497331	10966.866355
531.858743	10833.283340
532.220098	11006.353713
532.581396	10885.555064
532.942638	10880.279496
533.303824	10842.967396
533.664953	10869.831705
534.026025	10786.077975
534.387040	10891.319623
534.747999	10898.233566
535.108902	10954.684407
535.469748	10724.049098
535.830537	10831.135808
536.191270	10819.904117
536.551947	10845.785401
536.912567	10844.338590
537.273131	10773.908630
537.633638	10758.139900
537.994089	10751.351987
538.354483	10705.134688
538.714821	10845.424959
539.075103	10858.547082
539.435328	10821.877729
539.795497	10653.064610
540.155609	10811.704681
540.515665	10898.125181
540.875665	10634.583740
541.235609	10715.146420
541.595496	10697.570437
541.955328	10870.494617
542.315102	10750.162274
542.674821	10698.951713
543.034483	10701.925994
543.394090	10704.703670
543.753640	10642.470625
544.113134	10865.627383
544.472571	10713.755061
544.831953	10861.281908
545.191278	10665.206229
545.550548	10692.549448
545.909761	10830.392238
546.268918	10811.371964
546.628019	10893.426826
546.987064	10757.328275
547.346053	10678.419093
547.704986	10781.167891
548.063863	10772.940728
548.422684	10761.749367
548.781449	10679.069402
549.140158	10782.438262
549.498811	10656.628706
549.857408	10522.445793
550.215949	10746.731769
550.574434	10603.694070
550.932864	10701.323576
551.291237	10756.020095
551.649555	10707.410769
552.007817	10719.272604
552.366022	10678.456902
552.724173	10681.111070
553.082267	10663.981229
553.440305	10800.336879
553.798288	10605.944945
554.156215	10755.349622
554.514086	10732.200643
554.871902	10581.046686
555.229661	10612.105235
555.587365	10596.996897
555.945014	10489.491771
556.302606	10613.736048
556.660143	10508.774184
557.017625	10663.431743
557.375050	10562.434746
557.732421	10691.495847
558.089735	10603.482342
558.446994	10608.828485
558.804197	10645.412139
559.161345	10651.390947
559.518437	10493.393624
559.875474	10582.886708
560.232455	10618.565474
560.589381	10564.625128
560.946251	10556.997862
561.303065	10668.220839
561.659825	10603.520150
562.016528	10542.481859
562.373177	10419.460062
562.729770	10530.415858
563.086307	10448.199680
563.442789	10535.951045
563.799216	10415.913610
564.155587	10468.301281
564.511904	10422.073900
564.868164	10414.086192
565.224370	10431.188306
565.580520	10357.600063
565.936615	10352.952119
566.292654	10227.739940
566.648638	10357.295073
567.004567	10321.911214
567.360441	10305.895468
567.716260	10213.886849
568.072023	10304.287340
568.427732	10259.373180
568.783385	10168.791207
569.138982	10234.742102
569.494525	10250.205842
569.850013	10129.092121
570.205445	10212.006498
570.560823	10107.112690
570.916145	10028.264003
571.271412	10094.744219
571.626625	10042.021311
571.981782	10022.517087
572.336884	9986.714813
572.691931	9991.055246
573.046923	9945.026991
573.401860	9896.538653
573.756743	9831.318725
574.111570	9878.985355
574.466342	9865.641421
574.821059	9890.645544
575.175722	9779.982134
575.530330	9794.001583
575.884882	9780.917268
576.239380	9713.675838
576.593823	9691.111633
576.948211	9712.380261
577.302544	9589.184544
577.656823	9600.126368
578.011047	9607.400753
578.365216	9580.657432
578.719330	9503.754630
579.073389	9517.491774
579.427394	9460.602353
579.781344	9442.025701
580.135239	9393.996108
580.489080	9397.996263
580.842866	9295.476838
581.196597	9303.227612
581.550273	9347.899797
581.903895	9317.365528
582.257463	9376.909117
582.610975	9258.308411
582.964434	9284.842524
583.317837	9211.095485
583.671186	9189.587402
584.024481	9185.360394
584.377721	9101.899051
584.730906	9081.273170
585.084037	9112.893808
585.437113	9046.993324
585.790135	9067.883866
586.143103	8973.972211
586.496016	8939.357128
586.848874	9001.267538
587.201679	8989.259510
587.554428	8874.931182
587.907124	8918.721164
588.259765	8894.586640
588.612352	8895.914984
588.964884	8770.879246
589.317362	8789.723079
589.669786	8783.283005
590.022155	8831.027773
590.374470	8847.033436
590.726731	8784.611349
591.078937	8639.685737
591.431090	8750.570957
591.783188	8627.027400
592.135232	8617.076162
592.487222	8614.384186
592.839157	8668.909306
593.191038	8602.983617
593.542866	8549.171820
593.894639	8450.740771
594.246358	8496.136361
594.598022	8518.009928
594.949633	8412.458248
595.301190	8386.322386
595.652692	8417.776666
596.004141	8528.780353
596.355535	8303.231568
596.706876	8286.215153
597.058162	8221.025472
597.409395	8294.585989
597.760573	8358.870783
598.111698	8270.600179
598.462768	8252.915811
598.813785	8217.166469
599.164748	8184.913167
599.515657	8180.570213
599.866511	8087.427333
600.217312	8214.716468
600.568060	8071.063748
600.918753	8173.477309
601.269392	8148.238772
601.619978	8064.406904
601.970510	8122.191130
602.320988	8123.161552
602.671412	8178.067280
603.021783	8110.861137
603.372100	8083.515398
603.722363	8089.713497
604.072572	8064.008653
604.422728	8072.936537
604.772830	8005.566557
605.122878	8011.260540
605.472872	8011.283225
605.822813	8033.895321
606.172701	7982.722568
606.522534	8057.561017
606.872314	8056.310811
607.222041	8026.449537
607.571714	8083.893485
607.921333	8041.502422
608.270899	8046.248668
608.620411	8135.295610
608.969870	8033.592852
609.319276	8036.378089
609.668627	8051.441057
610.017926	8080.301663
610.367171	8127.249928
610.716362	8103.843851
611.065500	8098.001154
611.414585	8123.751367
611.763616	8116.247610
612.112594	8096.791277
612.461518	8109.401723
612.810389	8171.491094
613.159207	8116.676108
613.507971	8057.687046
613.856682	8175.531579
614.205340	8130.887121
614.553945	8218.232673
614.902496	8114.992363
615.250994	8165.048500
615.599439	8148.200964
615.947830	8155.061974
616.296169	8127.033159
616.644454	8139.618399
616.992686	8142.779203
617.340864	8198.115948
617.688990	8102.215558
618.037063	8198.569652
618.385082	8147.548134
618.733048	8230.606185
619.080961	8171.659973
619.428821	8185.470214
619.776628	8192.202675
620.124382	8137.957339
620.472083	8128.989126
620.819731	8150.131726
621.167326	8048.728916
621.514868	8053.397024
621.862357	7940.775127
622.209793	7958.041079
622.557176	7899.115032
622.904506	7867.635546
623.251783	7797.883621
623.599007	7747.580467
623.946179	7758.849967
624.293297	7717.262968
624.640363	7631.598641
624.987376	7615.260261
625.334336	7560.367137
625.681243	7515.947010
626.028097	7500.395050
626.374899	7482.637586
626.721647	7472.593087
627.068343	7405.235710
627.414987	7374.910649
627.761577	7328.494225
628.108115	7370.575257
628.454600	7266.200687
628.801032	7320.929973
629.147412	7271.546830
629.493739	7258.906137
629.840014	7200.443876
630.186236	7253.058399
630.532405	7141.553117
630.878521	7196.191663
631.224585	7148.504868
631.570597	7074.722540
631.916556	7109.546831
632.262462	7099.467044
632.608316	7062.210396
632.954117	7036.876078
633.299866	7025.969541
633.645562	7021.664396
633.991206	6946.155473
634.336797	6887.990640
634.682336	6843.535225
635.027823	6807.788403
635.373257	6802.177599
635.718639	6732.841569
636.063968	6746.820688
636.409245	6638.188864
636.754470	6635.287680
637.099642	6598.280570
637.444762	6545.935749
637.789829	6546.006325
638.134845	6492.033211
638.479808	6480.617518
638.824719	6482.036603
639.169577	6412.372898
639.514383	6441.467917
639.859137	6358.661924
640.203839	6368.903028
640.548489	6354.684454
640.893086	6337.811712
641.237632	6305.666795
641.582125	6324.873591
641.926566	6300.965919
642.270955	6307.083359
642.615292	6300.507174
642.959576	6318.438558
643.303809	6308.726775
643.647990	6314.352703
643.992118	6304.230066
644.336195	6257.233909
644.680219	6278.144615
645.024192	6266.396206
645.368112	6359.881884
645.711981	6386.042952
646.055797	6461.443490
646.399562	6423.062665
646.743274	6543.725203
647.086935	6595.573470
647.430544	6590.126503
647.774101	6613.242714
648.117606	6615.087777
648.461059	6608.478824
648.804460	6571.002886
649.147810	6482.886037
649.491108	6452.026614
649.834354	6428.963335
650.177548	6341.048133
650.520690	6260.397233
650.863781	6240.308235
651.206820	6255.111583
651.549807	6178.218864
651.892742	6121.394978
652.235626	6124.762468
652.578458	6111.506754
652.921238	6020.493763
653.263967	6056.923661
653.606644	6002.300238
653.949269	6002.098592
654.291843	5944.155570
654.634365	5990.267004
654.976836	5944.815961
655.319255	5947.306291
655.661622	5923.950625
656.003938	5920.469709
656.346203	5883.213061
656.688416	5916.371251
657.030577	5872.480445
657.372687	5838.699673
657.714746	5826.565615
658.056753	5866.415937
658.398708	5804.913860
658.740612	5795.239885
659.082465	5844.766701
659.424266	5835.979970
659.766016	5838.281257
660.107715	5811.641279
660.449362	5825.257436
660.790958	5824.534030
661.132503	5808.346885
661.473996	5849.351631
661.815438	5829.809598
662.156829	5827.851110
662.498168	5820.637218
662.839456	5800.563344
663.180693	5836.491647
663.521879	5837.371329
663.863013	5823.379606
664.204097	5842.387277
664.545129	5882.827413
664.886110	5881.171394
665.227040	5913.270941
665.567918	5874.567482
665.908746	5903.594446
666.249522	5907.178707
666.590248	5898.112191
666.930922	5926.932468
667.271545	5935.353715
667.612118	5940.067194
667.952639	5913.157515
668.293109	5935.903201
668.633528	5887.566098
668.973896	5891.538527
669.314213	5883.613833
669.654480	5869.233942
669.994695	5859.096181
670.334859	5848.688719
670.674973	5845.016238
671.015035	5844.892730
671.355047	5845.207802
671.695008	5831.543755
672.034918	5806.285053
672.374777	5815.585982
672.714585	5804.601308
673.054342	5803.993849
673.394049	5800.921266
673.733705	5829.466799
674.073310	5811.928625
674.412864	5774.775321
674.752368	5766.651502
675.091820	5768.282315
675.431223	5704.879723
675.770574	5712.514551
676.109875	5663.456562
676.449125	5667.030740
676.788324	5631.233507
677.127473	5581.220219
677.466571	5570.669084
677.805619	5559.697013
678.144616	5542.239497
678.483562	5525.228124
678.822458	5494.905583
679.161303	5486.774202
679.500098	5479.454447
679.838842	5459.892249
680.177535	5462.858968
680.516179	5480.533254
680.854771	5495.502960
681.193314	5570.835442
681.531805	5683.094377
681.870247	5833.958468
682.208638	5935.608294
682.546978	5942.144150
682.885268	5918.823772
683.223508	5837.348643
683.561697	5780.605416
683.899836	5750.232464
684.237925	5709.492379
684.575963	5669.407644
684.913951	5629.441377
685.251889	5689.761303
685.589776	5666.345143
685.927614	5630.494978
686.265401	5703.584147
686.603137	5682.421383
686.940824	5764.559423
687.278460	5785.941477
687.616046	5799.388755
687.953582	5867.958530
688.291068	5844.865004
688.628504	5909.825312
688.965889	5867.885433
689.303224	5817.599923
689.640510	5770.830618
689.977745	5690.671231
690.314930	5594.327219
690.652065	5539.524836
690.989150	5445.172080
691.326185	5371.268765
691.663170	5319.165919
692.000105	5244.428293
692.336990	5167.036499
692.673825	5143.469105
693.010610	5073.868414
693.347345	5003.904760
693.684030	4987.087471
694.020665	4949.177994
694.357251	4861.275395
694.693786	4867.990212
695.030272	4835.925952
695.366707	4802.193072
695.703093	4766.887351
696.039429	4787.583808
696.375716	4768.374491
696.711952	4748.431686
697.048139	4737.147063
697.384276	4710.849884
697.720363	4726.762287
698.056400	4737.038679
698.392388	4685.828117
698.728326	4666.432278
699.064214	4646.406294
699.400053	4637.004542
699.735842	4607.407928
700.071581	4579.885749
700.407270	4554.629568
700.742910	4536.680540
701.078501	4482.624247
701.414042	4482.949401
701.749533	4452.921768
702.084974	4384.896438
702.420366	4446.148978
702.755709	4388.122777
703.091002	4328.977439
703.426246	4384.556161
703.761440	4336.468594
704.096584	4300.411741
704.431679	4321.100637
704.766725	4305.715035
705.101721	4293.643992
705.436668	4319.626099
705.771565	4270.157256
706.106413	4296.537614
706.441212	4330.711596
706.775961	4337.449098
707.110661	4319.232889
707.445311	4345.638453
707.779913	4367.945559
708.114465	4380.243453
708.448967	4405.562649
708.783421	4464.753357
709.117825	4506.554604
709.452180	4508.727342
709.786485	4554.344743
710.120742	4645.055265
710.454949	4624.373931
710.789107	4689.467830
711.123216	4765.445581
711.457275	4755.378396
711.791286	4828.928831
712.125247	4847.001367
712.459159	4749.379423
712.793023	4821.654446
713.126837	4785.327891
713.460602	4772.102424
713.794318	4696.706927
714.127985	4703.615829
714.461602	4615.579638
714.795171	4589.290021
715.128691	4525.612686
715.462162	4470.618739
715.795584	4419.750976
716.128957	4404.085591
716.462281	4348.458978
716.795556	4321.178774
717.128782	4287.864309
717.461960	4216.320254
717.795088	4228.829877
718.128167	4188.266233
718.461198	4129.095689
718.794180	4123.678970
719.127113	4106.385291
719.459997	4082.407043
719.792833	4042.677710
720.125619	4029.853014
720.458357	3996.667098
720.791046	3999.381760
721.123686	3974.670024
721.456278	3936.218623
721.788821	3951.054738
722.121315	3925.959875
722.453761	3899.216553
722.786158	3911.827000
723.118506	3933.723252
723.450805	3886.492681
723.783056	3914.100560
724.115259	3923.290584
724.447412	3927.585647
724.779518	3922.945265
725.111574	3923.550203
725.443582	3954.346612
725.775542	3941.524437
726.107453	3991.774659
726.439315	3989.082682
726.771129	4005.486597
727.102895	4043.025549
727.434612	4085.484667
727.766281	4098.256431
728.097901	4101.853294
728.429473	4107.151547
728.760996	4116.288638
729.092471	4108.200107
729.423897	4090.757714
729.755276	4097.767439
730.086606	4098.803396
730.417887	4132.243890
730.749120	4200.934652
731.080305	4263.838170
731.411442	4287.236686
731.742530	4258.124022
732.073570	4262.167028
732.404562	4320.145338
732.735506	4313.037311
733.066401	4269.557359
733.397249	4211.543761
733.728048	4131.475114
734.058798	4049.221127
734.389501	3977.331753
734.720156	3919.003082
735.050762	3873.524313
735.381320	3865.871841
735.711831	3811.545847
736.042293	3787.781848
736.372707	3807.376813
736.703073	3779.529479
737.033391	3769.860546
737.363661	3787.796971
737.693883	3812.511228
738.024056	3826.926407
738.354182	3815.016681
738.684260	3880.672669
739.014290	3903.136051
739.344272	3897.767222
739.674207	3941.567287
740.004093	3942.131896
740.333931	3940.362451
740.663722	3938.371195
740.993464	3937.983027
741.323159	3911.595107
741.652806	3880.554202
741.982405	3856.480172
742.311956	3825.950944
742.641460	3817.196980
742.970915	3791.794606
743.300323	3753.534769
743.629683	3719.809450
743.958996	3707.924930
744.288260	3682.250333
744.617477	3650.233965
744.946647	3637.542860
745.275768	3612.662245
745.604842	3610.275259
745.933869	3561.696180
746.262847	3552.332237
746.591778	3589.351950
746.920662	3560.488824
747.249498	3533.261552
747.578286	3577.195207
747.907027	3592.936210
748.235720	3591.040737
748.564365	3616.738018
748.892963	3615.455045
749.221514	3601.402828
749.550017	3575.579518
749.878473	3574.621698
750.206881	3543.021226
750.535242	3541.788663
750.863555	3546.358469
751.191821	3536.717263
751.520039	3520.134387
751.848210	3500.710821
752.176334	3529.677291
752.504411	3539.056358
752.832440	3493.023062
753.160421	3479.790033
753.488356	3489.882423
753.816243	3500.272241
754.144082	3457.261116
754.471875	3441.973817
754.799620	3465.553814
755.127318	3456.383956
755.454969	3452.018316
755.782572	3460.121971
756.110129	3438.414763
756.437638	3427.155346
756.765100	3438.729835
757.092515	3452.252730
757.419882	3454.748101
757.747203	3427.530912
758.074477	3436.294958
758.401703	3446.336936
758.728882	3468.160091
759.056014	3474.378354
759.383099	3479.875733
759.710138	3476.341884
760.037129	3494.759739
760.364073	3524.931045
760.690970	3506.906399
761.017820	3484.163234
761.344623	3502.689474
761.671379	3548.974828
761.998088	3600.568517
762.324751	3726.128536
762.651366	3972.905620
762.977935	4440.089511
763.304456	4879.390781
763.630931	4969.604750
763.957359	4610.218371
764.283740	4270.744551
764.610074	4081.376127
764.936362	3884.312382
765.262602	3730.078280
765.588796	3618.315899
765.914943	3534.547046
766.241044	3444.648149
766.567097	3419.137390
766.893104	3369.603013
767.219064	3339.950946
767.544978	3314.011689
767.870845	3259.156373
768.196665	3242.182808
768.522438	3246.795464
768.848165	3243.135586
769.173846	3209.183415
769.499479	3192.850077
769.825066	3178.150072
770.150607	3159.616270
770.476101	3172.652694
770.801548	3172.476253
771.126949	3123.377935
771.452303	3107.526027
771.777611	3115.697738
772.102872	3118.094806
772.428087	3094.489603
772.753256	3081.480906
773.078378	3076.676686
773.403453	3046.107129
773.728482	3030.739172
774.053465	3051.034857
774.378401	3040.735780
774.703291	3009.697396
775.028135	3011.025740
775.352932	3006.155985
775.677683	2995.067967
776.002388	2989.106803
776.327046	2990.775425
776.651658	2980.209166
776.976224	2969.738690
777.300743	2970.336066
777.625216	2960.289047
777.949643	2957.118161
778.274024	2955.978860
778.598359	2945.505863
778.922647	2953.319652
779.246889	2952.760083
779.571086	2937.409770
779.895236	2930.319387
780.219339	2943.943105
780.543397	2952.838221
780.867409	2956.054478
781.191374	2949.344702
781.515294	2948.210442
781.839167	2947.159362
782.162995	2938.607044
782.486776	2944.994186
782.810511	2946.841769
783.134201	2929.974068
783.457844	2938.271807
783.781441	2928.408790
784.104993	2911.382293
784.428498	2909.958167
784.751958	2925.232863
785.075372	2918.346647
785.398739	2904.032290
785.722061	2916.718354
786.045337	2931.947680
786.368568	2914.979156
786.691752	2902.933319
787.014891	2954.189251
787.337983	2983.546410
787.661030	3010.171264
787.984031	3079.000658
788.306987	3122.311731
788.629897	3115.175978
788.952760	3098.537650
789.275579	3085.297059
789.598351	3023.588295
789.921078	2982.659167
790.243759	2976.450986
790.566395	2956.508181
790.888984	2932.330808
791.211529	2918.535690
791.534027	2909.136459
791.856480	2895.069119
792.178888	2880.679145
792.501249	2873.576159
792.823566	2871.496683
793.145836	2868.366127
793.468062	2865.590972
793.790241	2861.265662
794.112375	2869.157588
794.434464	2879.252499
794.756507	2884.142418
795.078505	2887.983777
795.400457	2904.216293
795.722364	2940.159719
796.044226	2964.987402
796.366042	2966.414049
796.687812	2956.414920
797.009538	2973.517034
797.331218	2960.399952
797.652852	2949.768159
797.974442	2933.666713
798.295986	2929.543049
798.617484	2923.773449
798.938938	2906.631005
799.260346	2893.438306
799.581709	2887.603170
799.903026	2881.347098
800.224299	2874.322250
800.545526	2864.247504
800.866708	2848.753518
801.187845	2837.312619
801.508936	2841.849658
801.829983	2851.337109
802.150984	2836.705160
802.471940	2823.429282
802.792851	2825.133192
803.113717	2820.520536
803.434538	2829.503872
803.755314	2822.095896
804.076045	2816.079279
804.396731	2814.002324
804.717372	2816.439722
805.037967	2808.376396
805.358518	2818.136070
805.679024	2829.642504
805.999485	2826.816937
806.319901	2830.431444
806.640272	2822.557162
806.960598	2825.836432
807.280879	2834.373627
807.601115	2841.340501
807.921306	2829.955055
808.241453	2824.465239
808.561554	2828.404900
808.881611	2832.979747
809.201623	2827.066474
809.521590	2827.245435
809.841513	2820.606235
810.161390	2824.666885
810.481223	2819.648416
810.801011	2810.445790
811.120755	2808.759524
811.440453	2812.056438
811.760107	2810.806232
812.079716	2807.413536
812.399281	2800.708801
812.718801	2791.115485
813.038276	2787.511060
813.357707	2793.560445
813.677093	2798.462967
813.996434	2792.383336
814.315731	2790.308901
814.634983	2784.526697
814.954191	2786.351595
815.273354	2800.464305
815.592473	2807.529482
815.911547	2808.552837
816.230577	2819.209836
816.549562	2827.003460
816.868502	2825.322235
817.187399	2836.581652
817.506250	2850.969105
817.825058	2844.438290
818.143821	2856.834488
818.462539	2871.683206
818.781213	2898.539953
819.099843	2934.193514
819.418429	2991.884478
819.736970	3050.518139
820.055466	3122.788120
820.373919	3228.057495
820.692327	3365.461705
821.010691	3532.535626
821.329011	3965.442192
821.647286	4854.739539
821.965517	6212.987702
822.283704	6935.778258
822.601847	6908.114926
822.919945	6288.496625
823.237999	5790.952384
823.556010	5217.881577
823.873976	4677.195141
824.191897	4272.735807
824.509775	3985.994976
824.827609	3722.433370
825.145398	3597.647169
825.463144	3590.153493
825.780845	3680.969880
826.098502	3783.998462
826.416116	4064.677305
826.733685	4371.171897
827.051210	4434.798820
827.368692	4320.213393
827.686129	4063.853076
828.003522	3738.360896
828.320872	3485.156341
828.638177	3294.449491
828.955439	3156.785662
829.272656	3073.866243
829.589830	3011.219824
829.906960	2960.324335
830.224046	2917.900505
830.541088	2883.499671
830.858086	2871.257229
831.175041	2853.441791
831.491952	2853.509847
831.808819	2866.861342
832.125642	2890.393449
832.442421	2933.825510
832.759157	3012.880884
833.075849	3189.326310
833.392497	3468.742344
833.709101	3665.188548
834.025662	3612.755507
834.342179	3456.235242
834.658653	3285.844242
834.975083	3136.981489
835.291469	3041.554967
835.607811	2958.806948
835.924110	2902.870304
836.240366	2851.511029
836.556578	2807.758855
836.872746	2786.999383
837.188871	2767.258225
837.504952	2752.361615
837.820990	2742.604462
838.136984	2727.307081
838.452935	2720.357850
838.768842	2718.593446
839.084706	2735.481312
839.400526	2815.111378
839.716303	2944.853034
840.032037	3024.523429
840.347727	3007.174298
840.663373	2950.504167
840.978977	2876.293341
841.294537	2804.126703
841.610054	2759.600712
841.925527	2734.730180
842.240957	2716.355174
842.556344	2692.245856
842.871687	2677.997034
843.186987	2665.573111
843.502244	2666.533450
843.817458	2662.238387
844.132629	2648.279432
844.447756	2640.228710
844.762840	2633.203862
845.077881	2638.187042
845.392879	2634.322998
845.707833	2629.213788
846.022745	2622.183899
846.337613	2624.046606
846.652438	2624.044085
846.967221	2626.221864
847.281960	2621.974692
847.596656	2618.203908
847.911309	2621.324383
848.225919	2619.353292
848.540485	2615.133846
848.855009	2615.227107
849.169490	2615.033023
849.483928	2617.916563
849.798323	2613.172837
850.112675	2612.257867
850.426984	2613.099740
850.741251	2612.250306
851.055474	2611.289966
851.369654	2613.979422
851.683792	2614.970008
851.997887	2612.880450
852.311938	2608.925665
852.625947	2615.312807
852.939914	2616.840276
853.253837	2615.675770
853.567718	2614.904473
853.881555	2611.685697
854.195350	2615.678290
854.509103	2612.973711
854.822812	2609.565891
855.136479	2606.256374
855.450103	2614.992693
855.763685	2617.465379
856.077224	2613.712240
856.390720	2609.966663
856.704173	2611.068155
857.017584	2613.734926
857.330953	2618.574433
857.644278	2618.072838
857.957561	2618.022427
858.270802	2614.178547
858.584000	2614.778444
858.897155	2617.203239
859.210268	2620.606018
859.523339	2614.049998
859.836367	2611.436159
860.149352	2611.070676
860.462295	2613.308948
860.775195	2610.180912
861.088054	2607.433483
861.400869	2608.429111
861.713642	2605.205293
862.026373	2608.590428
862.339062	2610.942126
862.651708	2615.209463
862.964312	2617.437653
863.276873	2612.648557
863.589392	2613.334154
863.901869	2619.512088
864.214303	2624.835546
864.526696	2627.976185
864.839045	2631.071454
865.151353	2632.601444
865.463619	2633.218985
865.775842	2632.432565
866.088023	2630.806793
866.400162	2633.471043
866.712258	2631.109262
867.024313	2628.762605
867.336325	2627.691360
867.648296	2628.986937
867.960224	2635.709315
868.272110	2634.305354
868.583954	2625.669857
868.895755	2629.670013
869.207515	2635.179994
869.519233	2638.517238
869.830909	2634.890128
870.142542	2630.965589
870.454134	2633.932308
870.765684	2637.514048
871.077191	2637.574542
871.388657	2642.444297
871.700081	2641.584780
872.011463	2639.933802
872.322803	2640.445479
872.634101	2646.394041
872.945357	2651.450318
873.256571	2655.296718
873.567744	2656.645227
873.878874	2652.849238
874.189963	2656.993067
874.501010	2659.264107
874.812015	2666.982113
875.122979	2662.833243
875.433900	2653.406286
875.744780	2655.316883
876.055618	2659.831236
876.366415	2664.620332
876.677169	2667.634942
876.987882	2656.259579
877.298554	2659.553973
877.609183	2669.021260
877.919771	2674.705161
878.230317	2679.955522
878.540822	2692.351720
878.851285	2703.964018
879.161707	2728.320352
879.472087	2767.114552
879.782425	2811.539720
880.092722	2922.220773
880.402977	3108.463682
880.713191	3360.097917
881.023363	3643.395640
881.333494	3832.973271
881.643583	4000.490814
881.953631	4000.112727
882.263637	3823.584122
882.573602	3604.677058
882.883526	3477.340032
883.193408	3372.363044
883.503248	3271.061058
883.813048	3160.553924
884.122806	3049.817418
884.432522	2963.749799
884.742197	2902.222516
885.051831	2865.558204
885.361424	2831.742144
885.670975	2798.485652
885.980485	2766.141609
886.289954	2747.607807
886.599382	2735.377968
886.908768	2724.983109
887.218113	2709.078268
887.527417	2695.368850
887.836680	2687.663447
888.145901	2681.238496
888.455082	2675.345387
888.764221	2662.404745
889.073319	2655.727737
889.382376	2656.695639
889.691392	2654.535504
890.000366	2655.460556
890.309300	2655.203457
890.618193	2654.313693
890.927044	2660.703356
891.235855	2659.004487
891.544625	2656.327634
891.853353	2658.649086
892.162041	2664.007832
892.470687	2685.941893
892.779293	2697.833975
893.087858	2705.307485
893.396381	2728.441340
893.704864	2766.819644
894.013306	2836.092660
894.321707	2926.024324
894.630068	2975.273877
894.938387	2990.974550
895.246665	2984.589929
895.554903	2943.698609
895.863100	2901.519275
896.171256	2848.113291
896.479371	2787.727830
896.787446	2746.828949
897.095480	2729.457133
897.403473	2728.776577
897.711425	2709.680686
898.019336	2693.120496
898.327207	2679.678259
898.635038	2677.424863
898.942827	2676.250274
899.250576	2666.535971
899.558284	2655.619352
899.865952	2650.101809
900.173579	2649.975781
900.481165	2646.981335
900.788711	2640.563946
901.096216	2631.930970
901.403681	2627.840074
901.711105	2629.186062
902.018489	2627.391411
902.325832	2631.686474
902.633135	2629.294447
902.940397	2647.424957
903.247619	2684.421985
903.554800	2752.759866
903.861941	2872.739328
904.169041	2994.964623
904.476101	3054.838408
904.783121	3044.015050
905.090100	2991.256855
905.397039	2919.490989
905.703938	2847.962057
906.010796	2787.889147
906.317614	2740.308216
906.624391	2707.467620
906.931129	2678.783454
907.237826	2656.806544
907.544483	2637.677886
907.851099	2625.974847
908.157675	2615.053187
908.464211	2610.808536
908.770707	2601.333687
909.077163	2592.650300
909.383578	2590.343972
909.689954	2592.766246
909.996289	2589.282809
910.302584	2587.979671
910.608839	2583.515729
910.915054	2588.070411
911.221229	2588.342634
911.527363	2592.274734
911.833458	2590.792634
912.139513	2590.011256
912.445527	2592.562079
912.751502	2597.366299
913.057436	2602.566249
913.363331	2610.070007
913.669186	2618.294649
913.975000	2630.166567
914.280775	2646.056283
914.586510	2665.815086
914.892205	2700.311702
915.197859	2766.398708
915.503475	2844.748321
915.809050	2907.848444
916.114585	2923.559200
916.420081	2935.663010
916.725536	2945.944443
917.030952	2921.202460
917.336328	2873.356869
917.641665	2827.883141
917.946961	2778.310955
918.252218	2743.766448
918.557435	2720.614949
918.862612	2704.105170
919.167750	2685.367201
919.472848	2668.065961
919.777906	2653.877634
920.082925	2642.633340
920.387904	2631.202524
920.692843	2624.822943
920.997743	2619.980915
921.302603	2615.141407
921.607423	2608.018257
921.912204	2601.759665
922.216946	2601.444593
922.521647	2599.281937
922.826310	2595.601895
923.130932	2591.528643
923.435516	2585.804413
923.740059	2582.600759
924.044564	2581.915162
924.349028	2581.496747
924.653454	2572.672207
924.957840	2571.353945
925.262186	2566.585014
925.566493	2570.212124
925.870761	2565.133161
926.174989	2567.338666
926.479178	2564.079560
926.783328	2561.339693
927.087438	2561.417831
927.391509	2559.608057
927.695541	2562.345403
927.999533	2560.850701
928.303486	2557.319373
928.607400	2556.633776
928.911275	2555.925494
929.215110	2557.105124
929.518906	2556.875751
929.822663	2556.858107
930.126381	2557.193344
930.430060	2555.461708
930.733699	2557.029507
931.037299	2558.957748
931.340861	2556.442212
931.644383	2560.482697
931.947866	2558.899775
932.251309	2558.803993
932.554714	2559.232491
932.858080	2559.724003
933.161407	2559.441699
933.464694	2556.618652
933.767943	2556.719476
934.071153	2553.576316
934.374323	2556.311142
934.677455	2555.252500
934.980548	2552.951213
935.283602	2550.395348
935.586617	2554.161090
935.889593	2553.084804
936.192530	2555.537325
936.495428	2554.277037
936.798287	2553.997252
937.101108	2558.962789
937.403890	2559.303067
937.706632	2562.151319
938.009336	2563.832544
938.312002	2568.402350
938.614628	2569.967628
938.917216	2573.047773
939.219765	2576.422825
939.522275	2575.497774
939.824747	2576.561457
940.127179	2568.742627
940.429573	2566.915209
940.731929	2566.761454
941.034246	2561.939590
941.336524	2566.607699
941.638763	2563.860270
941.940964	2562.703325
942.243126	2564.467729
942.545250	2562.269786
942.847335	2564.465208
943.149381	2565.266752
943.451389	2560.376833
943.753359	2558.488921
944.055290	2559.282902
944.357182	2556.623694
944.659036	2556.439692
944.960851	2556.081770
945.262628	2557.752912
945.564367	2557.392470
945.866067	2557.609239
946.167729	2558.667882
946.469352	2557.311811
946.770937	2556.936245
947.072484	2556.447253
947.373992	2555.965823
947.675462	2554.818961
947.976893	2555.708724
948.278286	2554.113199
948.579641	2554.269475
948.880958	2554.133364
949.182236	2554.007335
949.483476	2552.787376
949.784678	2554.128323
950.085841	2552.404248
950.386967	2552.812581
950.688054	2550.798640
950.989103	2555.454146
951.290114	2557.122768
951.591087	2558.335165
951.892021	2558.476318
952.192917	2561.188458
952.493776	2558.743499
952.794596	2561.846329
953.095378	2564.833213
953.396122	2561.533777
953.696828	2558.463715
953.997496	2561.107800
954.298126	2556.172510
954.598718	2553.871224
954.899272	2557.677295
955.199788	2555.572613
955.500266	2550.508774
955.800706	2551.519525
956.101108	2546.377548
956.401472	2545.369318
956.701798	2545.303783
957.002087	2543.499050
957.302337	2546.163299
957.602550	2545.460058
957.902724	2544.129194
958.202861	2544.754297
958.502960	2545.639019
958.803022	2545.442414
959.103045	2544.345963
959.403031	2541.585932
959.702979	2542.319420
960.002889	2543.108360
960.302762	2543.383103
960.602596	2541.311189
960.902393	2541.152392
961.202153	2542.763041
961.501875	2541.913607
961.801559	2540.156765
962.101205	2541.311189
962.400814	2541.495191
962.700385	2540.378575
962.999918	2540.371014
963.299414	2540.776827
963.598873	2543.579708
963.898293	2540.068544
964.197677	2543.655325
964.497022	2537.258101
964.796331	2539.065355
965.095601	2539.629964
965.394835	2540.703730
965.694030	2541.044008
965.993189	2540.307999
966.292309	2536.932947
966.591393	2541.863195
966.890439	2542.185829
967.189447	2538.644418
967.488419	2536.668286
967.787353	2538.604089
968.086249	2542.044677
968.385108	2539.655170
968.683930	2540.676003
968.982714	2541.482588
969.281462	2538.115097
969.580172	2539.267001
969.878844	2538.394881
970.177480	2540.489481
970.476078	2539.934954
970.774639	2540.005530
971.073162	2540.116435
971.371649	2537.731970
971.670098	2536.620395
971.968510	2535.571835
972.266885	2538.505787
972.565223	2539.130890
972.863524	2538.357073
973.161788	2542.533669
973.460014	2541.061652
973.758204	2541.268339
974.056356	2538.500746
974.354471	2538.793132
974.652550	2540.955788
974.950591	2539.897145
975.248595	2539.219110
975.546563	2537.981507
975.844493	2540.880170
976.142386	2540.204656
976.440243	2540.789429
976.738062	2541.210366
977.035845	2539.161137
977.333590	2538.803215
977.631299	2540.696168
977.928971	2539.269522
978.226606	2537.749614
978.524204	2537.547967
978.821765	2539.055273
979.119290	2536.794315
979.416777	2538.374717
979.714228	2537.651311
980.011642	2538.422608
980.309020	2541.500232
980.606360	2540.393699
980.903664	2539.541744
981.200931	2541.205325
981.498162	2538.972093
981.795356	2541.923689
982.092513	2547.431150
982.389633	2550.188661
982.686717	2550.917107
982.983764	2550.460883
983.280775	2556.316183
983.577749	2552.638662
983.874686	2552.457180
984.171587	2546.962322
984.468451	2545.432332
984.765279	2544.098947
985.062070	2547.141283
985.358824	2541.913607
985.655543	2540.683565
985.952224	2542.722712
986.248869	2538.561239
986.545478	2534.334232
986.842050	2539.415715
987.138586	2533.769623
987.435086	2535.337422
987.731549	2532.320291
988.027975	2536.401105
988.324366	2535.284489
988.620719	2536.985879
988.917037	2537.631147
989.213318	2534.944212
989.509563	2537.525282
989.805772	2537.653832
990.101944	2534.568646
990.398080	2537.041332
990.694180	2535.491177
990.990244	2536.363296
991.286271	2534.944212
991.582262	2537.875643
991.878217	2535.362627
992.174136	2538.853626
992.470019	2536.857329
992.765865	2535.811290
993.061676	2535.813811
993.357450	2535.438245
993.653188	2535.788605
993.948890	2537.051414
994.244556	2535.133255
994.540186	2536.925385
994.835780	2540.870088
995.131337	2537.250539
995.426859	2536.028060
995.722345	2539.014943
996.017795	2539.375386
996.313208	2541.989224
996.608586	2538.460416
996.903928	2540.630633
997.199234	2539.067875
997.494504	2539.340098
997.789738	2539.662732
998.084936	2539.017464
998.380099	2539.559388
998.675225	2539.095602
998.970316	2535.982689
999.265371	2539.360262
999.560390	2537.464788
999.855373	2537.593338
1000.150320	2538.646939
1000.445232	2534.639222
1000.740108	2535.047555
1001.034948	2535.702905
1001.329752	2536.494366
1001.624521	2538.528472
1001.919254	2531.465815
1002.213951	2535.629808
1002.508613	2532.658048
1002.803239	2531.796011
1003.097829	2531.314581
1003.392384	2533.946063
1003.686903	2534.735004
1003.981386	2534.256094
1004.275834	2536.975797
1004.570246	2536.759027
1004.864623	2535.622247
1005.158964	2537.069058
1005.453270	2531.334745
1005.747540	2538.460416
1006.041775	2532.597554
1006.335974	2534.109901
1006.630138	2532.582431
1006.924266	2535.954963
1007.218359	2535.236598
1007.512416	2537.212731
1007.806438	2532.161495
1008.100425	2534.992103
1008.394376	2535.168543
1008.688292	2535.581917
1008.982172	2536.186856
1009.276017	2533.630991
1009.569827	2536.108718
1009.863602	2536.751465
1010.157341	2533.230219
1010.451045	2537.053934
1010.744714	2532.690816
1011.038347	2535.541588
1011.331945	2533.346166
1011.625508	2536.403626
1011.919036	2531.601927
1012.212528	2532.126207
1012.505986	2535.342463
1012.799408	2533.641073
1013.092795	2531.647297
1013.386147	2536.033101
1013.679464	2532.612678
1013.972745	2535.904551
1014.265992	2531.523789
1014.559204	2534.372041
1014.852380	2533.893131
1015.145521	2536.438914
1015.438628	2532.806762
1015.731699	2532.257277
1016.024736	2531.745599
1016.317737	2534.949253
1016.610703	2536.388502
1016.903635	2530.515558
1017.196531	2530.283665
1017.489393	2530.974303
1017.782219	2530.974303
1018.075011	2531.680064
1018.367768	2532.864736
1018.660490	2533.305837
1018.953177	2533.305837
1019.245829	2533.305837
