Dividing Wavelength (nm)	Counts (n)	Blue Motor Position (mm): 42.500000	Red Motor Position (mm): 0.000000	
326.493990	2132.657614
326.888308	2132.657614
327.282561	2132.657614
327.676750	2098.826431
328.070874	2095.514393
328.464933	2099.960690
328.858929	2107.542586
329.252859	2115.469800
329.646726	2128.057561
330.040528	2138.956536
330.434265	2159.257262
330.827938	2171.512307
331.221547	2190.761953
331.615091	2210.069573
332.008571	2231.108828
332.401986	2249.912332
332.795338	2268.935126
333.188625	2290.455812
333.581847	2305.480971
333.975006	2325.741368
334.368100	2341.797443
334.761129	2360.671523
335.154095	2377.415716
335.546996	2398.114693
335.939833	2426.340114
336.332606	2443.225458
336.725315	2451.883640
337.117960	2461.572738
337.510540	2471.047587
337.903056	2482.846407
338.295508	2487.620380
338.687896	2496.034066
339.080220	2506.572598
339.472480	2511.144924
339.864676	2516.768331
340.256807	2523.009280
340.648875	2523.662109
341.040879	2526.316277
341.432818	2526.777542
341.824694	2530.087060
342.216506	2530.971782
342.608253	2529.814837
342.999937	2528.710825
343.391557	2530.926412
343.783113	2531.160826
344.174605	2528.388191
344.566033	2527.924405
344.957397	2523.316790
345.348697	2522.205216
345.739934	2522.648837
346.131106	2520.324865
346.522215	2518.600791
346.913260	2514.063752
347.304241	2515.608866
347.695159	2512.750532
348.086012	2510.350942
348.476802	2510.182064
348.867528	2507.185098
349.258191	2508.115191
349.648789	2507.989162
350.039324	2503.832731
350.429796	2504.750221
350.820203	2502.219561
351.210548	2500.646721
351.600828	2500.104797
351.991045	2501.138234
352.381198	2500.301402
352.771288	2498.592451
353.161314	2496.321411
353.551276	2499.837616
353.941175	2495.086329
354.331010	2498.479025
354.720782	2496.003819
355.110490	2498.027842
355.500135	2499.358707
355.889717	2498.453819
356.279235	2493.755464
356.668689	2496.175218
357.058080	2496.669251
357.447408	2497.090187
357.836672	2495.323263
358.225873	2496.056751
358.615010	2494.882162
359.004084	2499.583038
359.393095	2498.791577
359.782043	2501.123110
360.170927	2501.735611
360.559748	2504.730056
360.948505	2503.908348
361.337199	2507.616117
361.725830	2504.699809
362.114398	2505.650067
362.502903	2506.433966
362.891344	2505.876918
363.279722	2505.783657
363.668037	2506.464213
364.056289	2509.872033
364.444478	2508.473113
364.832603	2507.346415
365.220665	2506.978411
365.608665	2508.730212
365.996601	2512.715244
366.384474	2510.156858
366.772284	2514.338495
367.160031	2512.924452
367.547715	2513.090810
367.935336	2512.488392
368.322893	2513.746160
368.710388	2512.475789
369.097820	2518.056346
369.485189	2512.906807
369.872495	2513.955368
370.259738	2514.945954
370.646918	2517.025430
371.034035	2514.005779
371.421090	2515.321520
371.808081	2515.976870
372.195010	2519.568692
372.581875	2516.440656
372.968678	2516.475944
373.355418	2516.710358
373.742096	2519.724968
374.128710	2519.548528
374.515262	2519.351923
374.901751	2518.305883
375.288177	2522.923580
375.674540	2519.193126
376.060841	2521.348220
376.447079	2519.467869
376.833254	2520.284536
377.219367	2515.460152
377.605417	2522.626152
377.991404	2519.072139
378.377329	2520.544156
378.763191	2520.052643
379.148991	2524.816533
379.534727	2526.434744
379.920402	2527.586648
380.306013	2530.054292
380.691563	2533.676361
381.077049	2535.967566
381.462474	2539.622402
381.847835	2546.281767
382.233134	2551.209494
382.618371	2555.484393
383.003545	2569.178687
383.388657	2578.930799
383.773706	2590.293560
384.158693	2602.024325
384.543618	2615.433794
384.928480	2634.045734
385.313280	2647.873619
385.698017	2660.781494
386.082692	2684.653878
386.467305	2699.162319
386.851856	2722.765001
387.236344	2742.133114
387.620770	2768.841147
388.005133	2793.376443
388.389435	2822.080773
388.773674	2845.509535
389.157851	2883.401368
389.541965	2906.499935
389.926018	2919.483427
390.310008	2968.687609
390.693936	3000.976199
391.077802	3045.197201
391.461606	3069.856005
391.845348	3126.866414
392.229027	3148.760145
392.612645	3187.806402
392.996200	3252.426433
393.379694	3304.093218
393.763125	3369.376161
394.146494	3383.312431
394.529801	3452.681228
394.913047	3514.793285
395.296230	3524.817619
395.679351	3589.765325
396.062410	3637.424393
396.445408	3653.616579
396.828343	3707.975341
397.211217	3755.384873
397.594028	3719.262485
397.976778	3796.009011
398.359466	3846.556660
398.742092	3895.511305
399.124656	3853.377342
399.507158	3940.233902
399.889598	3982.161178
400.271977	4058.615317
400.654294	4050.045356
401.036549	4075.851022
401.418742	4067.545722
401.800874	4173.914068
402.182944	4207.162998
402.564952	4280.970531
402.946898	4289.275832
403.328783	4290.732726
403.710606	4220.358218
404.092367	4415.319802
404.474067	4390.522366
404.855705	4407.911826
405.237282	4345.474615
405.618797	4460.299497
406.000250	4495.499354
406.381642	4582.015636
406.762972	4552.048497
407.144240	4564.779931
407.525447	4566.156166
407.906593	4629.520949
408.287677	4672.048123
408.668700	4608.272486
409.049661	4660.375332
409.430560	4699.509809
409.811399	4627.272595
410.192176	4794.956495
410.572891	4734.233277
410.953545	4834.887475
411.334138	4720.566708
411.714669	4787.399806
412.095139	4682.700081
412.475547	4826.763655
412.855894	4803.045027
413.236180	4815.433662
413.616405	4767.973719
413.996568	4856.105691
414.376670	4798.802896
414.756711	4754.902007
415.136691	4785.431235
415.516609	4865.877968
415.896466	4902.849790
416.276262	4932.849697
416.655997	4915.626595
417.035670	5098.696097
417.415283	5189.189849
417.794834	5130.399913
418.174324	5086.710753
418.553753	4998.614069
418.933121	5176.574362
419.312428	5247.483232
419.691674	5182.177604
420.070859	5310.434641
420.449983	5222.831990
420.829045	5340.351368
421.208047	5244.546760
421.586988	5316.254653
421.965867	5332.880378
422.344686	5463.105985
422.723444	5318.190456
423.102141	5137.742354
423.480777	5435.399803
423.859352	5204.807344
424.237866	5462.982477
424.616319	5454.503256
424.994712	5564.836469
425.373044	5440.894661
425.751314	5581.411783
426.129524	5388.549840
426.507673	5579.838943
426.885762	5661.155275
427.263789	5599.101192
427.641756	5477.571576
428.019662	5597.485502
428.397508	5605.039671
428.775292	5547.870466
429.153016	5648.620446
429.530679	5576.761319
429.908282	5664.245503
430.285824	5531.511922
430.663305	5810.801927
431.040726	5544.845774
431.418086	5546.025404
431.795385	5649.122041
432.172624	5660.794833
432.549802	5653.275952
432.926920	5663.375904
433.303977	5673.732954
433.680974	5712.103697
434.057910	5730.246809
434.434786	5732.984156
434.811601	5709.560435
435.188355	5941.904695
435.565050	5811.676568
435.941683	5797.147962
436.318257	6009.740982
436.694770	5992.575853
437.071222	6028.226893
437.447614	5960.446059
437.823946	5875.724427
438.200218	6023.997365
438.576429	5888.332353
438.952580	5988.578218
439.328670	6037.789962
439.704700	5945.536846
440.080670	5933.503612
440.456580	6199.462286
440.832429	6087.510862
441.208218	5927.340801
441.583947	6084.665131
441.959616	6090.941367
442.335224	6013.607547
442.710773	6148.712990
443.086261	6179.211971
443.461689	5976.454243
443.837057	6125.687520
444.212365	6279.979595
444.587612	6170.122771
444.962800	6322.703374
445.337927	6306.213760
445.712995	5916.678761
446.088002	6492.060937
446.462949	6325.755793
446.837837	6254.030256
447.212664	6423.410504
447.587431	6568.381486
447.962139	7112.969774
448.336786	8035.972276
448.711374	7782.298894
449.085901	6849.012438
449.460369	6774.894874
449.834776	6709.619493
450.209124	7100.598783
450.583412	7249.504385
450.957640	7398.901500
451.331808	7157.541136
451.705917	6708.404575
452.079965	6633.198122
452.453954	6846.880030
452.827883	6718.938066
453.201752	6822.100239
453.575562	6620.219671
453.949311	6824.698953
454.323001	6709.715275
454.696632	6786.882738
455.070202	6921.325270
455.443713	7072.915287
455.817164	7176.435381
456.190556	7262.077023
456.563888	7335.415729
456.937160	7376.259157
457.310373	7031.499687
457.683526	7057.375930
458.056619	6952.489683
458.429653	6940.038033
458.802628	6870.160079
459.175542	6982.275340
459.548398	7345.200609
459.921194	7495.754668
460.293930	7501.395719
460.666607	8027.735031
461.039224	8335.187442
461.411782	8459.020866
461.784280	8480.193712
462.156719	8372.502063
462.529099	8250.370029
462.901419	7842.041608
463.273680	7733.581183
463.645882	7742.168789
464.018024	7609.266329
464.390106	7776.231865
464.762130	8170.155189
465.134094	8637.651632
465.505999	9659.354885
465.877845	10880.019877
466.249631	11527.540965
466.621358	11137.708538
466.993026	10514.911789
467.364634	10253.351522
467.736184	9897.337675
468.107674	9566.448940
468.479105	9589.366025
468.850477	9355.597639
469.221790	9133.814596
469.593043	8799.563411
469.964238	8664.720107
470.335373	8674.852827
470.706449	8734.119152
471.077467	8714.690545
471.448425	10025.871975
471.819324	11095.587177
472.190164	11116.313881
472.560945	9868.066216
472.931667	9087.625024
473.302330	8943.989948
473.672934	8592.041792
474.043479	8949.502450
474.413965	8887.723109
474.784393	8779.925596
475.154761	8937.665821
475.525070	9022.316876
475.895321	8847.487140
476.265513	9028.353658
476.635645	9192.297022
477.005719	9195.293988
477.375734	9311.805136
477.745691	9540.923057
478.115588	9682.536631
478.485427	9923.400441
478.855207	10458.226535
479.224928	11276.725917
479.594591	11906.025755
479.964194	11714.260262
480.333739	11650.855150
480.703226	11566.577140
481.072653	11659.861171
481.442022	11889.657128
481.811333	12088.386974
482.180584	11887.015563
482.549777	11598.916142
482.918912	11425.563464
483.287988	11443.207502
483.657005	11458.008330
484.025964	11131.739812
484.394864	11273.267686
484.763706	11247.668706
485.132489	10997.118319
485.501213	10963.161107
485.869879	11039.985771
486.238487	10876.909485
486.607036	10992.969449
486.975527	10774.508527
487.343959	10958.631630
487.712333	11009.038127
488.080648	10936.561458
488.448905	10984.195321
488.817104	10918.728377
489.185244	11192.289111
489.553326	11346.082112
489.921350	11884.832744
490.289315	12948.501082
490.657222	13278.497533
491.025070	13185.609233
491.392861	13067.250502
491.760593	12680.707428
492.128267	12330.460662
492.495883	12005.444870
492.863440	11669.865341
493.230939	11347.549087
493.598380	11266.116809
493.965763	11134.948506
494.333088	11031.806499
494.700354	10958.172885
495.067563	11018.707060
495.434713	10851.582728
495.801805	10973.419855
496.168839	10896.912783
496.535815	10833.172434
496.902733	10841.029073
497.269593	10768.040727
497.636395	10865.287105
498.003139	10859.116733
498.369825	10724.293593
498.736453	10881.532223
499.103023	10811.402211
499.469535	10838.702580
499.835989	10826.079531
500.202385	10794.035436
500.568723	10633.625921
500.935003	10862.703513
501.301226	10667.336117
501.667390	10932.949472
502.033497	11020.133707
502.399546	10884.022553
502.765537	10790.373038
503.131470	10863.613442
503.497345	11045.135309
503.863163	10651.214507
504.228923	10964.701179
504.594625	11016.977945
504.960269	10774.664803
505.325856	10997.282157
505.691385	10779.854671
506.056856	10937.640265
506.422270	10958.712288
506.787625	10856.202946
507.152924	10974.324742
507.518164	10949.219796
507.883347	10871.091993
508.248472	10794.400920
508.613540	11023.670076
508.978550	10909.888713
509.343503	10886.039015
509.708398	11005.615184
510.073236	11116.389498
510.438016	11118.998296
510.802738	11071.566079
511.167403	11124.755293
511.532010	11023.357525
511.896561	11253.319840
512.261053	11325.287352
512.625488	11193.360356
512.989866	11175.302943
513.354186	11164.950933
513.718449	11070.094062
514.082655	11264.216294
514.446803	11157.363997
514.810894	11273.315577
515.174927	11142.971503
515.538904	11158.508339
515.902822	11322.550006
516.266684	11202.552900
516.630488	11148.110959
516.994235	11199.412261
517.357925	11264.044895
517.721558	11342.286123
518.085133	11369.137829
518.448651	11379.394056
518.812112	11259.414595
519.175516	11267.772828
519.538863	11392.528783
519.902152	11308.840588
520.265385	11470.833025
520.628560	11383.565611
520.991678	11355.612413
521.354739	11426.014647
521.717743	11365.911490
522.080690	11336.206491
522.443580	11475.148253
522.806413	11430.198805
523.169189	11459.182919
523.531908	11520.306909
523.894569	11332.077786
524.257174	11341.411483
524.619722	11463.445214
524.982213	11404.488920
525.344647	11465.146604
525.707025	11411.438151
526.069345	11503.131698
526.431608	11424.396437
526.793815	11526.482323
527.155964	11314.499283
527.518057	11372.260824
527.880093	11322.444141
528.242072	11388.715150
528.603995	11290.531117
528.965860	11212.907430
529.327669	11270.479928
529.689421	11221.593338
530.051117	11184.467761
530.412755	11292.373659
530.774337	11181.291834
531.135862	11156.428863
531.497331	11185.044973
531.858743	11029.994204
532.220098	11198.625841
532.581396	11068.138094
532.942638	11054.413553
533.303824	11017.250167
533.664953	11033.676767
534.026025	10948.274579
534.387040	11042.876873
534.747999	11047.441637
535.108902	11107.963210
535.469748	10870.678619
535.830537	10971.282406
536.191270	10951.069899
536.551947	10972.613270
536.912567	10962.944337
537.273131	10897.321117
537.633638	10872.110307
537.994089	10862.751404
538.354483	10811.687037
538.714821	10957.948554
539.075103	10962.629265
539.435328	10931.235479
539.795497	10757.678635
540.155609	10914.135886
540.515665	11006.131902
540.875665	10744.004505
541.235609	10807.039093
541.595496	10800.656992
541.955328	10960.343102
542.315102	10838.916829
542.674821	10795.225149
543.034483	10791.557709
543.394090	10794.383276
543.753640	10717.848478
544.113134	10949.217275
544.472571	10800.034409
544.831953	10937.247055
545.191278	10747.487942
545.550548	10772.655903
545.909761	10909.399722
546.268918	10887.395085
546.628019	10971.473969
546.987064	10837.984216
547.346053	10763.183575
547.704986	10854.602379
548.063863	10840.968579
548.422684	10836.887765
548.781449	10755.672256
549.140158	10859.635971
549.498811	10732.225849
549.857408	10590.332492
550.215949	10817.537296
550.574434	10669.725624
550.932864	10767.932342
551.291237	10829.391569
551.649555	10774.700091
552.007817	10788.772472
552.366022	10742.487118
552.724173	10749.784188
553.082267	10733.995294
553.440305	10864.165448
553.798288	10670.045737
554.156215	10821.124077
554.514086	10794.123657
554.871902	10647.383230
555.229661	10683.734990
555.587365	10658.403192
555.945014	10550.610720
556.302606	10677.428507
556.660143	10574.846067
557.017625	10718.597090
557.375050	10622.283325
557.732421	10758.497822
558.089735	10672.601602
558.446994	10667.701600
558.804197	10706.851201
559.161345	10708.587879
559.518437	10557.595239
559.875474	10647.980607
560.232455	10673.075470
560.589381	10625.000507
560.946251	10620.833993
561.303065	10735.076622
561.659825	10667.512557
562.016528	10591.920455
562.373177	10475.941149
562.729770	10589.697306
563.086307	10506.044399
563.442789	10598.463873
563.799216	10489.035546
564.155587	10522.833962
564.511904	10482.978600
564.868164	10465.702566
565.224370	10492.128294
565.580520	10411.976469
565.936615	10422.388972
566.292654	10291.099682
566.648638	10419.737325
567.004567	10379.108146
567.360441	10358.242810
567.716260	10268.669068
568.072023	10365.441577
568.427732	10322.443056
568.783385	10215.328619
569.138982	10295.044385
569.494525	10302.565786
569.850013	10187.458600
570.205445	10261.651782
570.560823	10167.825826
570.916145	10077.800901
571.271412	10145.924533
571.626625	10095.757491
571.981782	10074.597248
572.336884	10044.425942
572.691931	10053.147138
573.046923	9996.920628
573.401860	9952.515625
573.756743	9891.691583
574.111570	9931.473849
574.466342	9915.760572
574.821059	9949.349780
575.175722	9832.941976
575.530330	9842.600827
575.884882	9847.647022
576.239380	9759.182334
576.593823	9740.426721
576.948211	9758.970605
577.302544	9641.282348
577.656823	9657.567796
578.011047	9660.262292
578.365216	9628.099731
578.719330	9552.454697
579.073389	9565.541532
579.427394	9508.326957
579.781344	9484.767124
580.135239	9445.862019
580.489080	9453.335530
580.842866	9351.942803
581.196597	9354.107978
581.550273	9391.848576
581.903895	9363.517292
582.257463	9426.715717
582.610975	9306.975710
582.964434	9338.956790
583.317837	9253.151311
583.671186	9240.634126
584.024481	9232.054082
584.377721	9154.311928
584.730906	9127.848391
585.084037	9160.429368
585.437113	9097.082229
585.790135	9115.900856
586.143103	9013.804888
586.496016	8990.701280
586.848874	9044.886122
587.201679	9035.764154
587.554428	8921.385414
587.907124	8962.690108
588.259765	8937.570039
588.612352	8936.730687
588.964884	8816.448756
589.317362	8831.451230
589.669786	8826.107607
590.022155	8874.134679
590.374470	8892.272751
590.726731	8828.350920
591.078937	8683.460597
591.431090	8790.940517
591.783188	8664.573914
592.135232	8660.614087
592.487222	8664.609202
592.839157	8715.872695
593.191038	8645.173033
593.542866	8594.189324
593.894639	8490.999425
594.246358	8540.589256
594.598022	8555.997542
594.949633	8452.401831
595.301190	8429.918285
595.652692	8460.800393
596.004141	8570.700067
596.355535	8350.671346
596.706876	8330.065630
597.058162	8262.559539
597.409395	8337.705498
597.760573	8402.806959
598.111698	8314.364956
598.462768	8300.970610
598.813785	8260.482583
599.164748	8236.393430
599.515657	8220.791058
599.866511	8132.873335
600.217312	8256.411852
600.568060	8115.420861
600.918753	8217.867189
601.269392	8185.896192
601.619978	8100.683047
601.970510	8164.869539
602.320988	8160.246801
602.671412	8221.922798
603.021783	8156.438209
603.372100	8126.748333
603.722363	8128.686657
604.072572	8105.152030
604.422728	8116.386242
604.772830	8043.508801
605.122878	8052.870224
605.472872	8048.612969
605.822813	8080.084893
606.172701	8016.604163
606.522534	8095.435206
606.872314	8094.605937
607.222041	8065.402532
607.571714	8120.777087
607.921333	8079.391734
608.270899	8085.778876
608.620411	8171.544027
608.969870	8082.572702
609.319276	8072.200528
609.668627	8089.463960
610.017926	8123.002756
610.367171	8171.846496
610.716362	8146.829770
611.065500	8139.376424
611.414585	8167.067482
611.763616	8153.060636
612.112594	8133.506000
612.461518	8150.887899
612.810389	8211.727064
613.159207	8151.313876
613.507971	8098.646421
613.856682	8218.406593
614.205340	8170.813059
614.553945	8253.188034
614.902496	8148.672312
615.250994	8208.772948
615.599439	8189.162859
615.947830	8200.132410
616.296169	8170.326588
616.644454	8187.973147
616.992686	8185.364350
617.340864	8245.805264
617.688990	8147.875809
618.037063	8237.883091
618.385082	8185.939041
618.733048	8270.965663
619.080961	8210.008030
619.428821	8224.022438
619.776628	8230.316319
620.124382	8181.255809
620.472083	8167.150661
620.819731	8192.482459
621.167326	8085.733506
621.514868	8097.353365
621.862357	7976.814336
622.209793	8001.243767
622.557176	7934.428314
622.904506	7906.535610
623.251783	7835.972059
623.599007	7791.693084
623.946179	7795.536964
624.293297	7754.675892
624.640363	7672.794950
624.987376	7652.373236
625.334336	7607.070907
625.681243	7543.239817
626.028097	7532.187087
626.374899	7510.704210
626.721647	7507.288828
627.068343	7441.007737
627.414987	7411.491782
627.761577	7368.707509
628.108115	7401.888384
628.454600	7294.136241
628.801032	7348.109354
629.147412	7307.633930
629.493739	7296.911396
629.840014	7236.929227
630.186236	7289.987371
630.532405	7170.990935
630.878521	7225.604275
631.224585	7180.130547
631.570597	7102.489216
631.916556	7137.550441
632.262462	7136.461551
632.608316	7099.608196
632.954117	7072.547282
633.299866	7058.248049
633.645562	7057.650673
633.991206	6972.999617
634.336797	6911.938641
634.682336	6870.986828
635.027823	6842.829463
635.373257	6832.018709
635.718639	6761.578666
636.063968	6777.002076
636.409245	6668.750859
636.754470	6665.998389
637.099642	6625.782584
637.444762	6567.264871
637.789829	6579.303146
638.134845	6524.732656
638.479808	6505.349419
638.824719	6507.000397
639.169577	6438.034892
639.514383	6462.073634
639.859137	6386.504217
640.203839	6397.619961
640.548489	6380.243104
640.893086	6356.784095
641.237632	6330.272667
641.582125	6352.428538
641.926566	6319.242622
642.270955	6336.347257
642.615292	6322.935267
642.959576	6343.034347
643.303809	6337.879768
643.647990	6339.104768
643.992118	6329.158572
644.336195	6277.154028
644.680219	6303.458769
645.024192	6291.725484
645.368112	6387.628394
645.711981	6412.090593
646.055797	6485.565411
646.399562	6442.168638
646.743274	6572.071611
647.086935	6628.736701
647.430544	6615.312108
647.774101	6639.905377
648.117606	6648.694629
648.461059	6637.830942
648.804460	6600.591939
649.147810	6512.054154
649.491108	6482.858311
649.834354	6456.709846
650.177548	6371.537031
650.520690	6288.060565
650.863781	6264.601555
651.206820	6281.038237
651.549807	6207.951589
651.892742	6145.882382
652.235626	6150.338762
652.578458	6136.271423
652.921238	6046.508637
653.263967	6085.897693
653.606644	6025.431573
653.949269	6029.708992
654.291843	5972.189427
654.634365	6018.888155
654.976836	5974.906608
655.319255	5970.500640
655.661622	5950.346107
656.003938	5945.667916
656.346203	5905.931021
656.688416	5941.498882
657.030577	5893.242437
657.372687	5858.710533
657.714746	5844.330642
658.056753	5893.353342
658.398708	5833.255227
658.740612	5825.380944
659.082465	5872.082193
659.424266	5859.706161
659.766016	5856.920923
660.107715	5838.442574
660.449362	5853.079564
660.790958	5843.750909
661.132503	5828.889587
661.473996	5868.702100
661.815438	5853.137537
662.156829	5854.332291
662.498168	5845.061609
662.839456	5822.739380
663.180693	5856.799936
663.521879	5859.862437
663.863013	5847.821641
664.204097	5866.526842
664.545129	5906.409931
664.886110	5900.806688
665.227040	5938.978305
665.567918	5903.544035
665.908746	5928.717036
666.249522	5934.320279
666.590248	5918.261683
666.930922	5947.886024
667.271545	5961.025791
667.612118	5963.654753
667.952639	5935.053767
668.293109	5962.245751
668.633528	5914.513585
668.973896	5920.557929
669.314213	5907.899592
669.654480	5896.264608
669.994695	5883.956631
670.334859	5876.538573
670.674973	5868.203026
671.015035	5871.003387
671.355047	5866.085741
671.695008	5855.902610
672.034918	5828.720709
672.374777	5839.826371
672.714585	5826.626109
673.054342	5830.560730
673.394049	5827.203321
673.733705	5855.532085
674.073310	5838.329148
674.412864	5802.239528
674.752368	5796.366583
675.091820	5798.872037
675.431223	5732.893415
675.770574	5733.616821
676.109875	5685.050345
676.449125	5688.576632
676.788324	5657.749976
677.127473	5599.960709
677.466571	5589.800263
677.805619	5581.489921
678.144616	5565.577519
678.483562	5544.828130
678.822458	5512.796638
679.161303	5509.013252
679.500098	5502.084186
679.838842	5485.677751
680.177535	5487.792515
680.516179	5503.175596
680.854771	5514.775291
681.193314	5597.293938
681.531805	5701.620617
681.870247	5855.063258
682.208638	5953.212003
682.546978	5972.869982
682.885268	5945.642710
683.223508	5855.867322
683.561697	5808.072143
683.899836	5779.203975
684.237925	5731.638168
684.575963	5696.962591
684.913951	5655.720912
685.251889	5718.919337
685.589776	5683.893400
685.927614	5663.035626
686.265401	5729.515842
686.603137	5714.694850
686.940824	5793.107477
687.278460	5809.397966
687.616046	5824.455893
687.953582	5896.625051
688.291068	5871.028592
688.628504	5933.990083
688.965889	5896.012551
689.303224	5843.912226
689.640510	5794.748373
689.977745	5720.398915
690.314930	5621.955263
690.652065	5563.422426
690.989150	5467.900122
691.326185	5395.451180
691.663170	5341.379763
692.000105	5267.065594
692.336990	5188.239592
692.673825	5165.110778
693.010610	5093.302062
693.347345	5026.393348
693.684030	5013.573693
694.020665	4969.841684
694.357251	4883.143920
694.693786	4891.320672
695.030272	4852.891956
695.366707	4823.756607
695.703093	4788.060197
696.039429	4809.638856
696.375716	4795.435405
696.711952	4766.668060
697.048139	4754.720526
697.384276	4733.038523
697.720363	4747.380606
698.056400	4753.921503
698.392388	4705.344944
698.728326	4687.930278
699.064214	4666.626362
699.400053	4657.738808
699.735842	4624.663798
700.071581	4599.130353
700.407270	4570.385694
700.742910	4556.119229
701.078501	4499.895240
701.414042	4502.574613
701.749533	4471.034634
702.084974	4402.137185
702.420366	4463.941731
702.755709	4401.277668
703.091002	4344.620140
703.426246	4395.165269
703.761440	4353.001058
704.096584	4314.806756
704.431679	4336.642514
704.766725	4319.616017
705.101721	4308.028925
705.436668	4338.248121
705.771565	4283.879277
706.106413	4310.171415
706.441212	4349.096684
706.775961	4350.246068
707.110661	4332.528932
707.445311	4364.565465
707.779913	4381.493660
708.114465	4397.015372
708.448967	4419.660235
708.783421	4480.766582
709.117825	4523.185371
709.452180	4528.337430
709.786485	4573.967434
710.120742	4660.423223
710.454949	4644.886386
710.789107	4713.418352
711.123216	4785.660607
711.457275	4773.100573
711.791286	4849.161502
712.125247	4869.973906
712.459159	4767.099079
712.793023	4842.721428
713.126837	4802.379594
713.460602	4797.459428
713.794318	4716.231316
714.127985	4724.695413
714.461602	4633.551352
714.795171	4612.068475
715.128691	4544.108680
715.462162	4487.262108
715.795584	4434.042647
716.128957	4420.045884
716.462281	4367.126371
716.795556	4340.418338
717.128782	4302.438285
717.461960	4232.751895
717.795088	4244.064244
718.128167	4203.246021
718.461198	4146.817866
718.794180	4141.910303
719.127113	4118.597487
719.459997	4098.442953
719.792833	4056.356881
720.125619	4048.038977
720.458357	4014.812732
720.791046	4018.175181
721.123686	3991.991428
721.456278	3945.927885
721.788821	3964.378508
722.121315	3936.634518
722.453761	3912.568049
722.786158	3925.385183
723.118506	3950.522897
723.450805	3898.949372
723.783056	3923.439298
724.115259	3937.473870
724.447412	3943.273717
724.779518	3936.332049
725.111574	3941.247174
725.443582	3971.126092
725.775542	3957.409113
726.107453	4010.000950
726.439315	4006.802338
726.771129	4019.140562
727.102895	4059.973908
727.434612	4103.698356
727.766281	4116.044142
728.097901	4118.733598
728.429473	4125.166110
728.760996	4129.236842
729.092471	4127.462356
729.423897	4109.694809
729.755276	4114.219244
730.086606	4113.793267
730.417887	4150.074451
730.749120	4220.587591
731.080305	4282.767703
731.411442	4304.421979
731.742530	4277.063637
732.073570	4281.938433
732.404562	4334.507585
732.735506	4329.408458
733.066401	4288.494453
733.397249	4224.842324
733.728048	4145.678565
734.058798	4063.429619
734.389501	3991.565451
734.720156	3930.295267
735.050762	3886.666601
735.381320	3881.471692
735.711831	3829.409176
736.042293	3800.712407
736.372707	3824.574709
736.703073	3792.782672
737.033391	3784.076600
737.363661	3801.571924
737.693883	3828.917663
738.024056	3838.374868
738.354182	3832.622911
738.684260	3897.459711
739.014290	3915.015530
739.344272	3913.052000
739.674207	3952.839307
740.004093	3959.743167
740.333931	3958.462714
740.663722	3954.286118
740.993464	3954.719657
741.323159	3928.644289
741.652806	3897.484917
741.982405	3867.855535
742.311956	3834.508303
742.641460	3830.016635
742.970915	3806.910506
743.300323	3767.155967
743.629683	3729.589288
743.958996	3723.045871
744.288260	3694.031510
744.617477	3664.127385
744.946647	3647.728512
745.275768	3623.036940
745.604842	3622.610962
745.933869	3576.393664
746.262847	3564.126016
746.591778	3605.869291
746.920662	3574.599013
747.249498	3543.318654
747.578286	3588.459666
747.907027	3608.180660
748.235720	3605.617233
748.564365	3627.221098
748.892963	3632.607571
749.221514	3612.566463
749.550017	3591.547372
749.878473	3586.919593
750.206881	3556.818864
750.535242	3552.034809
750.863555	3553.048081
751.191821	3550.550189
751.520039	3535.056203
751.848210	3512.123994
752.176334	3543.918551
752.504411	3545.498953
752.832440	3512.144158
753.160421	3489.337978
753.488356	3499.735358
753.816243	3512.358407
754.144082	3469.458188
754.471875	3458.990232
754.799620	3474.975731
755.127318	3471.003302
755.454969	3465.379895
755.782572	3469.614464
756.110129	3447.325002
756.437638	3434.969134
756.765100	3454.100313
757.092515	3462.803865
757.419882	3466.360399
757.747203	3442.437603
758.074477	3442.815690
758.401703	3457.518215
758.728882	3480.251298
759.056014	3488.841425
759.383099	3491.576251
759.710138	3487.820591
760.037129	3503.238960
760.364073	3534.801624
760.690970	3517.666742
761.017820	3499.818537
761.344623	3515.118439
761.671379	3561.970923
761.998088	3614.126701
762.324751	3740.896596
762.651366	3987.545131
762.977935	4462.724292
763.304456	4904.321807
763.630931	5003.751005
763.957359	4640.450171
764.283740	4300.338644
764.610074	4105.339252
764.936362	3906.115372
765.262602	3747.729880
765.588796	3637.510093
765.914943	3548.548851
766.241044	3461.104996
766.567097	3430.323711
766.893104	3383.771176
767.219064	3350.431505
767.544978	3323.025272
767.870845	3267.552415
768.196665	3249.363932
768.522438	3258.014552
768.848165	3250.699837
769.173846	3218.897718
769.499479	3201.198227
769.825066	3185.222811
770.150607	3166.217661
770.476101	3181.772141
770.801548	3176.521779
771.126949	3128.968575
771.452303	3114.235803
771.777611	3123.824077
772.102872	3125.102010
772.428087	3102.116869
772.753256	3090.872575
773.078378	3083.646081
773.403453	3051.153324
773.728482	3040.360214
774.053465	3059.685477
774.378401	3047.609393
774.703291	3015.812315
775.028135	3018.804240
775.352932	3012.712006
775.677683	2999.012670
776.002388	2997.389418
776.327046	2997.563338
776.651658	2986.165289
776.976224	2974.994093
777.300743	2976.014926
777.625216	2965.410859
777.949643	2961.808955
778.274024	2965.998153
778.598359	2954.690845
778.922647	2956.881227
779.246889	2956.273768
779.571086	2942.229113
779.895236	2933.792742
780.219339	2947.464351
780.543397	2957.738223
780.867409	2963.795169
781.191374	2954.494240
781.515294	2952.513067
781.839167	2955.066411
782.162995	2944.258178
782.486776	2953.140691
782.810511	2950.645319
783.134201	2936.391457
783.457844	2943.630554
783.781441	2934.422886
784.104993	2911.505801
784.428498	2914.757345
784.751958	2929.273348
785.075372	2923.100455
785.398739	2905.726118
785.722061	2923.428130
786.045337	2932.829882
786.368568	2921.394024
786.691752	2912.435894
787.014891	2961.340127
787.337983	2989.845332
787.661030	3020.082173
787.984031	3087.023654
788.306987	3130.972434
788.629897	3122.553707
788.952760	3108.872015
789.275579	3094.449274
789.598351	3032.982485
789.921078	2989.363902
790.243759	2980.982983
790.566395	2961.524129
790.888984	2934.117897
791.211529	2922.888726
791.534027	2911.455389
791.856480	2898.973493
792.178888	2889.317162
792.501249	2879.433980
792.823566	2874.533979
793.145836	2873.992055
793.468062	2868.577855
793.790241	2867.289841
794.112375	2872.719163
794.434464	2887.877913
794.756507	2889.017214
795.078505	2897.274624
795.400457	2908.755852
795.722364	2948.696913
796.044226	2972.213896
796.366042	2975.117601
796.687812	2963.724593
797.009538	2981.023313
797.331218	2972.012250
797.652852	2957.881896
797.974442	2937.006478
798.295986	2934.465736
798.617484	2929.142278
798.938938	2912.181316
799.260346	2898.605488
799.581709	2894.897720
799.903026	2888.016545
800.224299	2879.280225
800.545526	2872.557846
800.866708	2852.693180
801.187845	2846.701768
801.508936	2847.326871
801.829983	2854.860876
802.150984	2840.634740
802.471940	2825.115547
802.792851	2827.777277
803.113717	2825.463387
803.434538	2834.136692
803.755314	2826.484221
804.076045	2821.889209
804.396731	2817.374856
804.717372	2819.386276
805.037967	2814.892087
805.358518	2820.288643
805.679024	2832.896568
805.999485	2828.906495
806.319901	2833.100735
806.640272	2824.155208
806.960598	2831.966476
807.280879	2841.040552
807.601115	2848.365349
807.921306	2833.204079
808.241453	2827.938594
808.561554	2834.045952
808.881611	2839.858402
809.201623	2831.346414
809.521590	2830.496979
809.841513	2826.254848
810.161390	2830.801969
810.481223	2824.944148
810.801011	2815.098775
811.120755	2810.155923
811.440453	2815.025678
811.760107	2813.200780
812.079716	2813.402427
812.399281	2803.920016
812.718801	2797.522792
813.038276	2791.211267
813.357707	2796.133954
813.677093	2804.988741
813.996434	2797.583286
814.315731	2796.328038
814.634983	2789.963582
814.954191	2791.632204
815.273354	2806.198618
815.592473	2813.762869
815.911547	2813.644402
816.230577	2823.409117
816.549562	2834.368585
816.868502	2829.259376
817.187399	2840.997703
817.506250	2859.415558
817.825058	2851.372397
818.143821	2864.668441
818.462539	2879.383569
818.781213	2904.347363
819.099843	2945.152982
819.418429	3001.195490
819.736970	3063.025242
820.055466	3136.207672
820.373919	3243.223806
820.692327	3387.690673
821.010691	3555.465314
821.329011	4001.705732
821.647286	4906.340789
821.965517	6303.446166
822.283704	7058.089253
822.601847	7040.868672
822.919945	6401.294962
823.237999	5884.286827
823.556010	5296.490809
823.873976	4739.019852
824.191897	4326.197243
824.509775	4025.762118
824.827609	3754.038884
825.145398	3629.159421
825.463144	3616.463275
825.780845	3709.969118
826.098502	3815.818225
826.416116	4098.097634
826.733685	4419.466151
827.051210	4486.813446
827.368692	4367.990929
827.686129	4101.155094
828.003522	3774.417749
828.320872	3510.377234
828.638177	3313.971359
828.955439	3173.635719
829.272656	3090.547421
829.589830	3022.668284
829.906960	2972.450830
830.224046	2927.740837
830.541088	2890.438819
830.858086	2878.176212
831.175041	2859.584437
831.491952	2861.409335
831.808819	2873.976931
832.125642	2899.356620
832.442421	2942.130811
832.759157	3027.661547
833.075849	3206.889690
833.392497	3490.351250
833.709101	3696.935214
834.025662	3650.347391
834.342179	3484.586691
834.658653	3307.679999
834.975083	3155.490085
835.291469	3057.795044
835.607811	2972.922178
835.924110	2911.354566
836.240366	2859.627287
836.556578	2818.186482
836.872746	2796.113789
837.188871	2773.085799
837.504952	2756.669281
837.820990	2746.218969
838.136984	2732.552401
838.452935	2722.245762
838.768842	2722.626369
839.084706	2742.465830
839.400526	2820.054229
839.716303	2955.880558
840.032037	3036.239071
840.347727	3025.937473
840.663373	2962.807103
840.978977	2883.456821
841.294537	2811.398568
841.610054	2763.532812
841.925527	2740.101529
842.240957	2720.113354
842.556344	2699.376568
842.871687	2680.016016
843.186987	2674.090140
843.502244	2665.910868
843.817458	2662.157729
844.132629	2650.069042
844.447756	2641.494039
844.762840	2633.773512
845.077881	2640.185860
845.392879	2634.796866
845.707833	2633.100518
846.022745	2624.785135
846.337613	2628.059364
846.652438	2626.264713
846.967221	2626.668006
847.281960	2624.190279
847.596656	2623.532408
847.911309	2621.959568
848.225919	2619.144084
848.540485	2616.522684
848.855009	2616.237858
849.169490	2617.780452
849.483928	2615.287601
849.798323	2613.782817
850.112675	2612.772065
850.426984	2612.797271
850.741251	2613.331633
851.055474	2614.095368
851.369654	2617.717437
851.683792	2615.398506
851.997887	2614.244082
852.311938	2610.851386
852.625947	2612.620831
852.939914	2616.268105
853.253837	2619.083590
853.567718	2612.250306
853.881555	2614.914556
854.195350	2616.759618
854.509103	2616.661315
854.822812	2615.002776
855.136479	2611.539503
855.450103	2614.072683
855.763685	2617.074690
856.077224	2613.129987
856.390720	2609.754935
856.704173	2615.395986
857.017584	2616.890688
857.330953	2617.014196
857.644278	2619.199536
857.957561	2620.222891
858.270802	2616.106788
858.584000	2618.027468
858.897155	2617.969495
859.210268	2621.783128
859.523339	2614.735595
859.836367	2612.257867
860.149352	2611.201746
860.462295	2613.109822
860.775195	2610.357352
861.088054	2609.891046
861.400869	2608.061107
861.713642	2606.359717
862.026373	2608.930706
862.339062	2610.503546
862.651708	2616.999073
862.964312	2617.041922
863.276873	2613.377004
863.589392	2617.609052
863.901869	2623.552573
864.214303	2626.879734
864.526696	2630.093470
864.839045	2635.122021
865.151353	2634.970786
865.463619	2633.203862
865.775842	2633.221506
866.088023	2632.979530
866.400162	2633.226547
866.712258	2635.490025
867.024313	2634.043214
867.336325	2628.621453
867.648296	2631.094139
867.960224	2637.652680
868.272110	2634.217134
868.583954	2629.516258
868.895755	2629.604478
869.207515	2634.247381
869.519233	2640.271559
869.830909	2639.865747
870.142542	2634.058337
870.454134	2635.197638
870.765684	2638.360962
871.077191	2645.070738
871.388657	2644.102836
871.700081	2643.944040
872.011463	2644.407826
872.322803	2646.081489
872.634101	2648.324803
872.945357	2656.284785
873.256571	2660.935249
873.567744	2659.536329
873.878874	2656.622542
874.189963	2658.606236
874.501010	2660.433654
874.812015	2669.427073
875.122979	2668.660817
875.433900	2659.652275
875.744780	2658.122285
876.055618	2664.315343
876.366415	2668.048317
876.677169	2666.551094
876.987882	2662.039262
877.298554	2661.943480
877.609183	2673.200376
877.919771	2678.579287
878.230317	2687.275278
878.540822	2700.205837
878.851285	2712.803681
879.161707	2736.512227
879.472087	2776.511263
879.782425	2827.250476
880.092722	2940.840275
880.402977	3134.150881
880.713191	3397.878845
881.023363	3700.726162
881.333494	3897.578178
881.643583	4070.943459
881.953631	4065.108324
882.263637	3891.861510
882.573602	3662.350378
882.883526	3530.259545
883.193408	3409.380237
883.503248	3307.097746
883.813048	3194.380067
884.122806	3074.256932
884.432522	2987.407934
884.742197	2920.526946
885.051831	2885.380021
885.361424	2847.369721
885.670975	2811.355718
885.980485	2778.759617
886.289954	2759.152049
886.599382	2744.124370
886.908768	2734.825962
887.218113	2714.913404
887.527417	2699.260621
887.836680	2690.894826
888.145901	2689.727799
888.455082	2678.521314
888.764221	2666.591424
889.073319	2658.407110
889.382376	2659.503561
889.691392	2660.098417
890.000366	2660.612615
890.309300	2657.386277
890.618193	2658.374343
890.927044	2664.322904
891.235855	2662.036741
891.544625	2662.377019
891.853353	2664.713594
892.162041	2671.342711
892.470687	2689.667305
892.779293	2701.841692
893.087858	2712.324771
893.396381	2735.821589
893.704864	2776.208793
894.013306	2850.643951
894.321707	2944.369083
894.630068	2998.385046
894.938387	3018.779034
895.246665	3013.833662
895.554903	2966.572845
895.863100	2920.022830
896.171256	2861.754654
896.479371	2800.885242
896.787446	2760.931577
897.095480	2743.032960
897.403473	2731.796228
897.711425	2720.468755
898.019336	2702.126517
898.327207	2686.950123
898.635038	2682.934844
898.942827	2681.490554
899.250576	2672.696261
899.558284	2659.551452
899.865952	2654.981646
900.173579	2653.428971
900.481165	2651.596512
900.788711	2640.632002
901.096216	2635.006074
901.403681	2633.471043
901.711105	2634.065899
902.018489	2632.916516
902.325832	2633.032462
902.633135	2636.266363
902.940397	2652.022489
903.247619	2689.732840
903.554800	2761.692791
903.861941	2892.031824
904.169041	3025.100641
904.476101	3087.920980
904.783121	3081.533838
905.090100	3022.277595
905.397039	2945.483178
905.703938	2871.645398
906.010796	2803.559574
906.317614	2750.224166
906.624391	2714.779813
906.931129	2685.594053
907.237826	2661.310815
907.544483	2643.392034
907.851099	2628.540794
908.157675	2621.644496
908.464211	2611.718464
908.770707	2599.574324
909.077163	2596.320260
909.383578	2592.264651
909.689954	2594.691967
909.996289	2591.745413
910.302584	2588.710638
910.608839	2586.006059
910.915054	2588.829105
911.221229	2592.236925
911.527363	2594.737337
911.833458	2590.366657
912.139513	2592.887234
912.445527	2594.480238
912.751502	2601.898296
913.057436	2607.728391
913.363331	2611.685697
913.669186	2623.802110
913.975000	2634.862401
914.280775	2653.270175
914.586510	2674.072496
914.892205	2711.724874
915.197859	2780.196346
915.503475	2868.144316
915.809050	2937.084616
916.114585	2954.116154
916.420081	2964.730303
916.725536	2975.856130
917.030952	2946.342695
917.336328	2898.547515
917.641665	2848.970287
917.946961	2798.442802
918.252218	2761.786052
918.557435	2736.035838
918.862612	2712.609597
919.167750	2693.312060
919.472848	2676.613237
919.777906	2662.399704
920.082925	2648.365132
920.387904	2637.763585
920.692843	2633.501290
920.997743	2626.330248
921.302603	2620.895885
921.607423	2614.483537
921.912204	2606.674790
922.216946	2603.496342
922.521647	2601.018615
922.826310	2597.419231
923.130932	2593.817327
923.435516	2588.077973
923.740059	2586.056470
924.044564	2584.667633
924.349028	2583.813157
924.653454	2572.160530
924.957840	2572.657083
925.262186	2569.811352
925.566493	2569.352607
925.870761	2567.948646
926.174989	2563.711556
926.479178	2564.092163
926.783328	2563.048644
927.087438	2561.856411
927.391509	2564.992009
927.695541	2560.976730
927.999533	2559.045968
928.303486	2557.571431
928.607400	2556.585885
928.911275	2556.296019
929.215110	2553.934238
929.518906	2556.590926
929.822663	2557.170659
930.126381	2558.698128
930.430060	2558.435988
930.733699	2556.167469
931.037299	2558.995557
931.340861	2558.927501
931.644383	2558.342727
931.947866	2555.761656
932.251309	2554.710576
932.554714	2556.878272
932.858080	2558.078067
933.161407	2554.476162
933.464694	2557.039589
933.767943	2555.582695
934.071153	2555.701163
934.374323	2554.176213
934.677455	2552.943651
934.980548	2553.460370
935.283602	2552.421892
935.586617	2552.071532
935.889593	2554.481203
936.192530	2553.717468
936.495428	2552.615976
936.798287	2554.564382
937.101108	2558.279713
937.403890	2557.458005
937.706632	2563.451937
938.009336	2566.232133
938.312002	2568.374623
938.614628	2574.212279
938.917216	2579.006417
939.219765	2576.264029
939.522275	2579.737384
939.824747	2578.371231
940.127179	2573.100705
940.429573	2568.684654
940.731929	2568.624160
941.034246	2567.348748
941.336524	2567.568039
941.638763	2566.806824
941.940964	2565.488563
942.243126	2566.516958
942.545250	2565.783470
942.847335	2561.138047
943.149381	2562.231977
943.451389	2560.454971
943.753359	2558.204095
944.055290	2557.354661
944.357182	2555.834753
944.659036	2558.433468
944.960851	2556.870710
945.262628	2556.739640
945.564367	2556.999260
945.866067	2556.142263
946.167729	2556.001111
946.469352	2557.337017
946.770937	2556.054043
947.072484	2556.537994
947.373992	2558.347768
947.675462	2555.733930
947.976893	2554.491286
948.278286	2554.491286
948.579641	2553.379711
948.880958	2553.563713
949.182236	2554.473642
949.483476	2557.795762
949.784678	2553.909032
950.085841	2551.983312
950.386967	2555.572613
950.688054	2554.844166
950.989103	2554.319886
951.290114	2554.400545
951.591087	2560.155022
951.892021	2558.136040
952.192917	2559.285423
952.493776	2561.327090
952.794596	2561.160732
953.095378	2562.675599
953.396122	2562.022769
953.696828	2557.722665
953.997496	2559.653427
954.298126	2558.010011
954.598718	2556.500185
954.899272	2556.061605
955.199788	2553.193188
955.500266	2551.539690
955.800706	2548.371325
956.101108	2544.829914
956.401472	2544.484595
956.701798	2545.328988
957.002087	2544.527445
957.302337	2545.518032
957.602550	2543.985521
957.902724	2546.551468
958.202861	2543.304965
958.502960	2540.766744
958.803022	2544.411498
959.103045	2543.214224
959.403031	2542.516025
959.702979	2541.974101
960.002889	2540.706250
960.302762	2541.129707
960.602596	2542.326981
960.902393	2542.148020
961.202153	2539.806404
961.501875	2538.762886
961.801559	2540.527289
962.101205	2537.857998
962.400814	2536.564943
962.700385	2538.236085
962.999918	2538.011754
963.299414	2536.519572
963.598873	2540.464275
963.898293	2539.929913
964.197677	2539.796322
964.497022	2540.209697
964.796331	2538.594007
965.095601	2537.205169
965.394835	2535.949922
965.694030	2535.881866
965.993189	2537.197607
966.292309	2535.899510
966.591393	2534.634181
966.890439	2534.833306
967.189447	2538.382278
967.488419	2536.915303
967.787353	2539.453524
968.086249	2537.384130
968.385108	2541.510314
968.683930	2535.521424
968.982714	2537.600900
969.281462	2537.442103
969.580172	2537.563091
969.878844	2536.204500
970.177480	2535.438245
970.476078	2538.047042
970.774639	2540.489481
971.073162	2537.547968
971.371649	2535.392874
971.670098	2533.925898
971.968510	2534.671989
972.266885	2534.732483
972.565223	2538.893956
972.863524	2539.027546
973.161788	2538.218441
973.460014	2540.686086
973.758204	2539.125849
974.056356	2539.846734
974.354471	2539.246836
974.652550	2537.984027
974.950591	2540.915458
975.248595	2537.268183
975.546563	2538.765406
975.844493	2535.029911
976.142386	2539.723225
976.440243	2538.019315
976.738062	2538.606610
977.035845	2537.157278
977.333590	2535.952442
977.631299	2536.817000
977.928971	2537.295910
978.226606	2537.535365
978.524204	2536.716177
978.821765	2537.358924
979.119290	2536.146527
979.416777	2537.127031
979.714228	2536.030580
980.011642	2538.102494
980.309020	2541.167516
980.606360	2536.012936
980.903664	2538.248688
981.200931	2540.118956
981.498162	2539.546785
981.795356	2542.074924
982.092513	2544.522404
982.389633	2545.402085
982.686717	2551.544731
982.983764	2553.510781
983.280775	2554.733261
983.577749	2553.389793
983.874686	2551.827036
984.171587	2550.279402
984.468451	2547.468958
984.765279	2546.075079
985.062070	2539.118287
985.358824	2541.661549
985.655543	2539.201466
985.952224	2536.847247
986.248869	2536.529654
986.545478	2532.665610
986.842050	2533.131917
987.138586	2531.417924
987.435086	2530.200486
987.731549	2531.097811
988.027975	2534.702236
988.324366	2532.897503
988.620719	2533.131917
988.917037	2533.086546
989.213318	2534.316588
989.509563	2532.615198
989.805772	2532.589993
990.101944	2532.973120
990.398080	2532.423635
990.694180	2535.168543
990.990244	2532.768954
991.286271	2533.678882
991.582262	2529.625794
991.878217	2532.579910
992.174136	2531.664941
992.470019	2534.140148
992.765865	2535.004705
993.061676	2531.004550
993.357450	2533.184849
993.653188	2535.039993
993.948890	2534.808100
994.244556	2533.888090
994.540186	2534.508152
994.835780	2535.720549
995.131337	2534.588810
995.426859	2537.618544
995.722345	2534.886238
996.017795	2537.164840
996.313208	2540.315561
996.608586	2538.036959
996.903928	2537.343801
997.199234	2540.910417
997.494504	2538.157947
997.789738	2535.715508
998.084936	2535.561753
998.380099	2537.684079
998.675225	2535.314736
998.970316	2538.314223
999.265371	2536.829603
999.560390	2530.669313
999.855373	2534.850950
1000.150320	2531.980013
1000.445232	2533.550333
1000.740108	2531.750641
1001.034948	2532.526978
1001.329752	2534.450178
1001.624521	2530.991947
1001.919254	2532.494211
1002.213951	2528.423479
1002.508613	2531.370033
1002.803239	2530.376926
1003.097829	2530.603778
1003.392384	2529.053623
1003.686903	2532.277441
1003.981386	2530.765095
1004.275834	2531.082688
1004.570246	2532.247194
1004.864623	2530.709642
1005.158964	2528.297450
1005.453270	2532.791639
1005.747540	2529.648479
1006.041775	2531.538912
1006.335974	2530.618902
1006.630138	2531.299457
1006.924266	2531.866587
1007.218359	2530.104704
1007.512416	2530.076978
1007.806438	2533.091588
1008.100425	2528.862059
1008.394376	2533.681403
1008.688292	2532.900024
1008.982172	2530.074457
1009.276017	2530.422297
1009.569827	2530.621422
1009.863602	2532.572349
1010.157341	2532.398429
1010.451045	2531.647297
1010.744714	2531.750641
1011.038347	2531.944725
1011.331945	2533.139478
1011.625508	2531.110414
1011.919036	2532.030425
1012.212528	2532.214427
1012.505986	2528.970444
1012.799408	2532.811803
1013.092795	2527.385001
1013.386147	2532.277441
1013.679464	2529.877852
1013.972745	2532.380785
1014.265992	2531.808614
1014.559204	2533.963707
1014.852380	2534.167874
1015.145521	2530.845753
1015.438628	2530.218130
1015.731699	2530.964221
1016.024736	2530.422297
1016.317737	2530.873480
1016.610703	2531.193593
1016.903635	2529.144364
1017.196531	2527.009435
1017.489393	2527.730320
1017.782219	2525.169414
1018.075011	2528.441123
1018.367768	2531.269210
1018.660490	2529.940866
1018.953177	2529.940866
1019.245829	2529.940866
