Dividing Wavelength (nm)	Counts (n)	Blue Motor Position (mm): 47.000000	Red Motor Position (mm): 0.000000	
326.493990	2093.727303
326.888308	2093.727303
327.282561	2093.727303
327.676750	2070.903479
328.070874	2071.974725
328.464933	2076.978070
328.858929	2088.020717
329.252859	2099.209558
329.646726	2114.776641
330.040528	2132.607203
330.434265	2150.404996
330.827938	2167.870074
331.221547	2189.579803
331.615091	2211.075283
332.008571	2230.072871
332.401986	2248.798237
332.795338	2271.886722
333.188625	2290.730555
333.581847	2310.343164
333.975006	2329.234888
334.368100	2347.125943
334.761129	2362.100690
335.154095	2376.672145
335.546996	2427.736513
335.939833	2513.242044
336.332606	2524.819054
336.725315	2536.048224
337.117960	2543.632640
337.510540	2549.651778
337.903056	2562.476473
338.295508	2567.121897
338.687896	2574.983576
339.080220	2581.869792
339.472480	2587.357088
339.864676	2589.975967
340.256807	2594.984354
340.648875	2593.235073
341.040879	2597.227667
341.432818	2598.997112
341.824694	2598.853439
342.216506	2598.258583
342.608253	2596.264807
342.999937	2597.772112
343.391557	2595.589292
343.783113	2593.860177
344.174605	2593.625763
344.566033	2594.255907
344.957397	2590.490165
345.348697	2587.737695
345.739934	2587.112592
346.131106	2587.982191
346.522215	2583.956830
346.913260	2584.758373
347.304241	2582.320975
347.695159	2580.869123
348.086012	2578.772003
348.476802	2578.086406
348.867528	2576.349729
349.258191	2575.328895
349.648789	2574.716395
350.039324	2574.849985
350.429796	2577.126066
350.820203	2570.940571
351.210548	2572.213462
351.600828	2569.781105
351.991045	2571.237999
352.381198	2568.301527
352.771288	2570.350756
353.161314	2570.864953
353.551276	2569.513924
353.941175	2570.827145
354.331010	2570.343194
354.720782	2573.637588
355.110490	2573.388051
355.500135	2570.464182
355.889717	2571.255643
356.279235	2571.142217
356.668689	2571.096846
357.058080	2573.377968
357.447408	2572.357135
357.836672	2570.640622
358.225873	2571.842937
358.615010	2571.716908
359.004084	2578.915676
359.393095	2577.133628
359.782043	2579.407188
360.170927	2579.654205
360.559748	2578.913155
360.948505	2584.730647
361.337199	2580.778382
361.725830	2583.641758
362.114398	2584.208887
362.502903	2581.471541
362.891344	2584.193764
363.279722	2584.352560
363.668037	2586.666450
364.056289	2585.330544
364.444478	2585.559917
364.832603	2590.041502
365.220665	2588.584609
365.608665	2592.362954
365.996601	2589.469332
366.384474	2590.434712
366.772284	2589.991091
367.160031	2591.415217
367.547715	2592.854466
367.935336	2592.768767
368.322893	2596.947883
368.710388	2594.744899
369.097820	2597.177256
369.485189	2598.341762
369.872495	2599.133223
370.259738	2595.649786
370.646918	2600.995930
371.034035	2604.207145
371.421090	2602.457864
371.808081	2603.239243
372.195010	2604.812083
372.581875	2606.263936
372.968678	2608.487084
373.355418	2607.882146
373.742096	2608.643360
374.128710	2611.163937
374.515262	2611.814246
374.901751	2614.251644
375.288177	2616.547889
375.674540	2616.963785
376.060841	2621.697428
376.447079	2624.626338
376.833254	2630.572379
377.219367	2632.278810
377.605417	2639.989255
377.991404	2643.371869
378.377329	2656.912408
378.763191	2663.826351
379.148991	2680.036181
379.534727	2696.188038
379.920402	2713.428784
380.306013	2729.522668
380.691563	2754.037799
381.077049	2775.276180
381.462474	2803.481436
381.847835	2834.802125
382.233134	2872.106663
382.618371	2907.107394
383.003545	2946.892180
383.388657	2997.341528
383.773706	3049.913200
384.158693	3095.044130
384.543618	3154.698624
384.928480	3208.248281
385.313280	3278.930299
385.698017	3352.301773
386.082692	3432.872014
386.467305	3488.317145
386.851856	3579.257039
387.236344	3687.485571
387.620770	3752.332454
388.005133	3847.040611
388.389435	3961.603353
388.773674	4041.702246
389.157851	4152.607631
389.541965	4267.903861
389.926018	4322.144155
390.310008	4468.433399
390.693936	4586.204835
391.077802	4705.155901
391.461606	4830.121064
391.845348	4948.615906
392.229027	5073.180297
392.612645	5273.049444
392.996200	5398.130553
393.379694	5568.203960
393.763125	5773.199961
394.146494	5892.619854
394.529801	6037.416916
394.913047	6271.863337
395.296230	6315.212219
395.679351	6407.669502
396.062410	6658.552605
396.445408	6627.410877
396.828343	6793.605117
397.211217	6954.531350
397.594028	6905.425471
397.976778	7116.480938
398.359466	7298.494318
398.742092	7331.050090
399.124656	7497.428331
399.507158	7708.453552
399.889598	7770.353880
400.271977	7998.524065
400.654294	8071.582987
401.036549	8281.584853
401.418742	8343.825459
401.800874	8654.640320
402.182944	8766.110314
402.564952	9132.718145
402.946898	9009.845061
403.328783	9093.044264
403.710606	9300.704515
404.092367	9568.311646
404.474067	9942.196383
404.855705	9765.652655
405.237282	9741.591227
405.618797	10167.077215
406.000250	10425.832080
406.381642	10788.084354
406.762972	10751.173026
407.144240	10584.966183
407.525447	10840.494710
407.906593	10803.321242
408.287677	11074.832747
408.668700	11223.463606
409.049661	11216.653007
409.430560	11384.092412
409.811399	11361.124915
410.192176	11522.724143
410.572891	11600.148704
410.953545	12074.549007
411.334138	11572.230794
411.714669	12149.069864
412.095139	11505.248983
412.475547	11985.698671
412.855894	11850.890655
413.236180	12177.181858
413.616405	11876.081301
413.996568	12141.457722
414.376670	12129.696710
414.756711	12014.597085
415.136691	12301.290025
415.516609	12472.782517
415.896466	12553.821586
416.276262	12849.223119
416.655997	13298.773054
417.035670	13351.745499
417.415283	13967.714005
417.794834	14041.080437
418.174324	13788.788331
418.553753	13706.738511
418.933121	14197.681361
419.312428	14016.348537
419.691674	13934.008850
420.070859	14390.205547
420.449983	14054.250452
420.829045	14603.358134
421.208047	14362.615312
421.586988	14811.582994
421.965867	15060.227825
422.344686	15060.426951
422.723444	15641.311547
423.102141	14333.966435
423.480777	15524.024061
423.859352	15029.257497
424.237866	16127.213242
424.616319	15841.689850
424.994712	16493.080024
425.373044	16281.505318
425.751314	16967.354298
426.129524	16114.328053
426.507673	17177.953542
426.885762	16906.074032
427.263789	17090.275273
427.641756	17280.246115
428.019662	17334.546903
428.397508	17379.294706
428.775292	17668.873706
429.153016	17652.744534
429.530679	17740.541270
429.908282	17768.176875
430.285824	17500.315165
430.663305	18196.836269
431.040726	17817.479360
431.418086	17657.274011
431.795385	18300.444583
432.172624	18717.756340
432.549802	18282.634187
432.926920	18498.420777
433.303977	18385.246873
433.680974	18637.380183
434.057910	18946.975085
434.434786	18990.853288
434.811601	18910.139373
435.188355	19959.929415
435.565050	19629.310381
435.941683	19592.194886
436.318257	20476.592232
436.694770	20283.521080
437.071222	20886.231352
437.447614	19945.703279
437.823946	19981.387086
438.200218	20147.175513
438.576429	19940.662125
438.952580	20232.181970
439.328670	20203.885973
439.704700	20629.588730
440.080670	20199.467402
440.456580	20809.114301
440.832429	20977.889611
441.208218	19984.399176
441.583947	20431.423493
441.959616	20549.421781
442.335224	20784.029519
442.710773	20944.585228
443.086261	21485.727888
443.461689	20835.214875
443.837057	20994.656489
444.212365	21642.205303
444.587612	21646.260912
444.962800	21244.072617
445.337927	21673.173111
445.712995	20395.958976
446.088002	22282.225154
446.462949	22498.500737
446.837837	22692.179347
447.212664	22716.727246
447.587431	25711.414606
447.962139	28671.328086
448.336786	30944.812854
448.711374	29229.272912
449.085901	25512.364646
449.460369	25534.772575
449.834776	25546.977208
450.209124	28121.204611
450.583412	27588.684845
450.957640	28052.380258
451.331808	26709.225310
451.705917	25339.569016
452.079965	25382.302877
452.453954	25776.251406
452.827883	25686.448291
453.201752	25481.197712
453.575562	25648.901777
453.949311	26786.150797
454.323001	26872.679682
454.696632	26649.656515
455.070202	28261.257947
455.443713	28425.952443
455.817164	29027.261274
456.190556	29585.248949
456.563888	28987.410953
456.937160	29394.045546
457.310373	27704.079377
457.683526	28157.480754
458.056619	28155.479416
458.429653	28131.349933
458.802628	28752.467978
459.175542	28907.594364
459.548398	30282.339703
459.921194	31919.915680
460.293930	32678.165713
460.666607	34777.274448
461.039224	36552.148771
461.411782	36886.084884
461.784280	35562.209828
462.156719	35011.836816
462.529099	34415.682565
462.901419	33098.522326
463.273680	32042.118291
463.645882	32197.221992
464.018024	32212.282439
464.390106	33163.767460
464.762130	36117.714735
465.134094	40516.091219
465.505999	46038.864301
465.877845	50531.149919
466.249631	51447.198149
466.621358	49549.554086
466.993026	47287.903427
467.364634	45152.339588
467.736184	43177.830532
468.107674	41934.102261
468.479105	41141.688329
468.850477	40406.637687
469.221790	38941.408677
469.593043	37175.507608
469.964238	36266.022961
470.335373	36234.455255
470.706449	38146.002820
471.077467	40987.146717
471.448425	45638.195913
471.819324	48336.992748
472.190164	46291.887374
472.560945	42648.572393
472.931667	39489.366977
473.302330	38414.040970
473.672934	37579.180523
474.043479	38123.262175
474.413965	37329.850095
474.784393	36971.963460
475.154761	37898.582990
475.525070	37936.729401
475.895321	37452.246790
476.265513	38088.069880
476.635645	39089.827808
477.005719	38946.028895
477.375734	39447.318713
477.745691	40201.203106
478.115588	41579.595719
478.485427	43716.311462
478.855207	47240.357785
479.224928	49871.164578
479.594591	51390.326372
479.964194	50263.328538
480.333739	50386.322610
480.703226	50463.606019
481.072653	51129.073615
481.442022	51603.035338
481.811333	51809.921771
482.180584	50512.500170
482.549777	49997.689978
482.918912	49460.313060
483.287988	49142.236417
483.657005	48324.873815
484.025964	47621.277452
484.394864	47624.859192
484.763706	47168.438163
485.132489	46299.290308
485.501213	46133.592623
485.869879	46285.674152
486.238487	45875.314146
486.607036	46066.963692
486.975527	45517.540937
487.343959	45725.937196
487.712333	45808.564228
488.080648	45691.982504
488.448905	46150.283883
488.817104	45969.737478
489.185244	46997.485075
489.553326	48802.825611
489.921350	51572.546439
490.289315	54382.364605
490.657222	54869.929882
491.025070	55092.459016
491.392861	54157.879504
491.760593	52875.835943
492.128267	51160.031341
492.495883	49592.018245
492.863440	48177.087348
493.230939	46812.028587
493.598380	45721.755559
493.965763	45387.713582
494.333088	44551.151745
494.700354	44055.969285
495.067563	43764.855253
495.434713	43619.135660
495.801805	43691.362792
496.168839	43300.882577
496.535815	42971.675066
496.902733	42993.180628
497.269593	42547.393914
497.636395	42486.388391
498.003139	42890.716656
498.369825	42325.142044
498.736453	42637.524704
499.103023	42153.591579
499.469535	42018.760878
499.835989	42118.185035
500.202385	41767.083793
500.568723	41793.103708
500.935003	41982.714107
501.301226	41779.341358
501.667390	42405.981987
502.033497	42635.278870
502.399546	42047.477811
502.765537	41354.336801
503.131470	41740.728640
503.497345	42103.391769
503.863163	40734.020300
504.228923	41378.582230
504.594625	41785.534416
504.960269	41031.939889
505.325856	41739.133115
505.691385	41110.014759
506.056856	41246.889648
506.422270	41672.050481
506.787625	41251.335946
507.152924	41455.739611
507.518164	41535.099975
507.883347	40736.072049
508.248472	40976.421662
508.613540	41472.408186
508.978550	41783.230608
509.343503	41531.155272
509.708398	41732.536765
510.073236	42269.281018
510.438016	42271.110957
510.802738	41720.685013
511.167403	42349.763039
511.532010	42563.850761
511.896561	42858.344886
512.261053	43740.423301
512.625488	43262.141309
512.989866	43145.751149
513.354186	42964.884632
513.718449	42962.558139
514.082655	43650.957944
514.446803	43314.929752
514.810894	43851.704252
515.174927	43762.730407
515.538904	43660.276517
515.902822	44334.480432
516.266684	43766.203762
516.630488	44195.800810
516.994235	44041.657449
517.357925	44630.943128
517.721558	44811.270242
518.085133	45125.422347
518.448651	45247.647643
518.812112	45001.714952
519.175516	45097.138953
519.538863	45433.399038
519.902152	45407.706798
520.265385	45869.456326
520.628560	45894.866262
520.991678	45676.609506
521.354739	45912.638849
521.717743	46239.895434
522.080690	46105.276461
522.443580	46652.871798
522.806413	46702.007924
523.169189	46656.120822
523.531908	46824.119794
523.894569	46672.716300
524.257174	46836.735282
524.619722	47128.187071
524.982213	47111.092518
525.344647	47040.019810
525.707025	47078.176304
526.069345	47486.139241
526.431608	47395.138852
526.793815	47716.532574
527.155964	47233.713544
527.518057	47406.763753
527.880093	47197.286166
528.242072	47701.018423
528.603995	47405.281653
528.965860	47413.289526
529.327669	47495.593925
529.689421	47397.107422
530.051117	47358.633336
530.412755	47501.159358
530.774337	47581.661544
531.135862	47372.662867
531.497331	47567.959688
531.858743	47451.037686
532.220098	47791.434038
532.581396	47486.998757
532.942638	47149.667427
533.303824	47479.225298
533.664953	47447.035010
534.026025	47146.972930
534.387040	47628.972773
534.747999	47569.361129
535.108902	47736.460255
535.469748	47218.295175
535.830537	47359.036629
536.191270	47532.253195
536.551947	47177.164401
536.912567	47490.199890
537.273131	47617.970455
537.633638	47105.844677
537.994089	47443.221377
538.354483	47020.389557
538.714821	47615.550701
539.075103	47950.578224
539.435328	47719.229592
539.795497	47578.478056
540.155609	47574.475379
540.515665	48051.436589
540.875665	47491.117380
541.235609	47821.438986
541.595496	47789.616702
541.955328	48469.209611
542.315102	47820.249273
542.674821	47575.246676
543.034483	47631.367321
543.394090	47606.786655
543.753640	47542.867345
544.113134	48547.798679
544.472571	47537.743012
544.831953	48797.429056
545.191278	47983.151639
545.550548	47699.072538
545.909761	48164.423970
546.268918	48372.283346
546.628019	48658.961162
546.987064	48222.099811
547.346053	47474.506778
547.704986	48367.814363
548.063863	47919.476825
548.422684	48082.510261
548.781449	47920.812731
549.140158	48312.318821
549.498811	48151.531219
549.857408	47582.838654
550.215949	48422.314277
550.574434	48363.438642
550.932864	48104.371225
551.291237	48816.477055
551.649555	48415.417979
552.007817	48650.209719
552.366022	48294.485739
552.724173	48457.809042
553.082267	48857.358292
553.440305	49126.147574
553.798288	48414.301363
554.156215	48731.594107
554.514086	48933.530127
554.871902	48667.667235
555.229661	48692.250422
555.587365	48498.087861
555.945014	48612.368298
556.302606	48513.352475
556.660143	48736.446217
557.017625	48793.867480
557.375050	48585.972816
557.732421	48922.290875
558.089735	48904.019213
558.446994	48803.463317
558.804197	49267.272156
559.161345	49181.920380
559.518437	48423.922405
559.875474	48725.622860
560.232455	48907.283360
560.589381	49073.505325
560.946251	48772.213204
561.303065	49414.410834
561.659825	49214.629907
562.016528	48870.409840
562.373177	48580.828319
562.729770	49060.552081
563.086307	48581.581971
563.442789	49023.328201
563.799216	49039.444769
564.155587	48843.535449
564.511904	48852.881748
564.868164	48929.870249
565.224370	49161.884314
565.580520	48894.924971
565.936615	49099.777299
566.292654	48788.549063
566.648638	49051.702335
567.004567	48995.133027
567.360441	49034.741373
567.716260	48882.039782
568.072023	49171.323875
568.427732	49144.540224
568.783385	48663.215896
569.138982	49057.522347
569.494525	48995.344756
569.850013	48744.680942
570.205445	48707.404130
570.560823	48654.106531
570.916145	48526.202376
571.271412	48548.864883
571.626625	48300.903128
571.981782	48320.629163
572.336884	47997.960029
572.691931	48316.571034
573.046923	47905.888395
573.401860	47742.267665
573.756743	47710.362202
574.111570	47802.562385
574.466342	47646.871390
574.821059	47750.096577
575.175722	47252.275072
575.530330	47271.698638
575.884882	46954.710884
576.239380	46921.459434
576.593823	46869.732154
576.948211	46800.980898
577.302544	46308.248439
577.656823	46310.494273
578.011047	46539.443316
578.365216	46259.818074
578.719330	46020.708585
579.073389	45861.680346
579.427394	45947.647142
579.781344	45913.967193
580.135239	45535.056426
580.489080	45603.764833
580.842866	45084.294093
581.196597	45524.961516
581.550273	45467.593185
581.903895	45332.684346
582.257463	45734.912971
582.610975	45104.972907
582.964434	45380.708898
583.317837	44998.065157
583.671186	44832.521226
584.024481	45038.364141
584.377721	44546.947423
584.730906	44822.007900
585.084037	44865.235794
585.437113	44567.427110
585.790135	44579.939254
586.143103	44170.010267
586.496016	44275.138490
586.848874	44303.938602
587.201679	44303.618488
587.554428	43793.345334
587.907124	43955.194099
588.259765	43709.909197
588.612352	43954.546311
588.964884	43334.260056
589.317362	43610.270791
589.669786	43537.277404
590.022155	43312.527642
590.374470	43708.220410
590.726731	43224.872059
591.078937	42729.830751
591.431090	42824.170904
591.783188	42466.463230
592.135232	42150.377843
592.487222	42395.713157
592.839157	42464.749238
593.191038	42128.355563
593.542866	41872.839639
593.894639	41268.468307
594.246358	41538.051571
594.598022	41514.050637
594.949633	41128.004117
595.301190	41060.278735
595.652692	40900.209498
596.004141	41216.068033
596.355535	40222.640612
596.706876	40169.264875
597.058162	40010.034990
597.409395	40453.941354
597.760573	40535.897912
598.111698	40118.182863
598.462768	40126.510850
598.813785	40162.555100
599.164748	39606.931726
599.515657	39996.935552
599.866511	39488.373869
600.217312	40086.584911
600.568060	39070.656300
600.918753	39812.434362
601.269392	39756.560733
601.619978	39409.668855
601.970510	39619.154003
602.320988	39787.790682
602.671412	40087.676321
603.021783	39846.290751
603.372100	39494.859314
603.722363	39580.755534
604.072572	39657.098768
604.422728	39676.484525
604.772830	39478.064710
605.122878	39588.390362
605.472872	39522.968788
605.822813	39779.240885
606.172701	39612.713929
606.522534	39859.732988
606.872314	40122.424994
607.222041	39873.538188
607.571714	40254.256209
607.921333	39708.969721
608.270899	39995.599646
608.620411	40332.779742
608.969870	40124.786775
609.319276	40147.098922
609.668627	40195.395696
610.017926	40668.520588
610.367171	40821.784268
610.716362	40905.033882
611.065500	40844.814779
611.414585	41035.473738
611.763616	41323.011071
612.112594	41253.599424
612.461518	41472.239307
612.810389	41775.726851
613.159207	41645.100472
613.507971	41725.713564
613.856682	42195.370141
614.205340	42083.340579
614.553945	42775.559058
614.902496	42216.790004
615.250994	42700.375289
615.599439	42767.762913
615.947830	42970.936537
616.296169	43040.265005
616.644454	43145.468845
616.992686	43333.897093
617.340864	43839.111449
617.688990	43556.038058
618.037063	44151.184078
618.385082	44120.566630
618.733048	44427.038537
619.080961	44437.156133
619.428821	44439.893480
619.776628	44535.975351
620.124382	44367.220206
620.472083	44498.577552
620.819731	44622.035409
621.167326	44283.355570
621.514868	44256.846663
621.862357	43798.348679
622.209793	43839.844937
622.557176	43504.068803
622.904506	43226.742327
623.251783	42883.248186
623.599007	42662.271728
623.946179	42451.859008
624.293297	42393.520255
624.640363	41811.014928
624.987376	41790.898203
625.334336	41550.331821
625.681243	41199.812833
626.028097	41161.230362
626.374899	41034.755373
626.721647	41018.258197
627.068343	40904.229818
627.414987	40667.368684
627.761577	40448.892638
628.108115	40776.471856
628.454600	40235.699721
628.801032	40437.197161
629.147412	40385.205221
629.493739	40388.814687
629.840014	40034.897961
630.186236	40383.541640
630.532405	39964.478083
630.878521	40191.614831
631.224585	40063.405686
631.570597	39760.505436
631.916556	39916.556874
632.262462	39883.696113
632.608316	39892.359336
632.954117	39772.707549
633.299866	39767.310994
633.645562	39686.803767
633.991206	39195.961741
634.336797	38757.154504
634.682336	38750.822815
635.027823	38515.612659
635.373257	38314.883995
635.718639	38070.430883
636.063968	37940.152344
636.409245	37364.583645
636.754470	37417.372088
637.099642	37175.807557
637.444762	36695.783847
637.789829	36839.441608
638.134845	36511.864910
638.479808	36444.318490
638.824719	36355.906734
639.169577	35970.646633
639.514383	36036.070728
639.859137	35735.743987
640.203839	35968.796530
640.548489	35595.405826
640.893086	35676.366757
641.237632	35427.215290
641.582125	35546.937653
641.926566	35481.344679
642.270955	35436.039830
642.615292	35473.823278
642.959576	35435.818019
643.303809	35437.887413
643.647990	35583.778405
643.992118	35559.394344
644.336195	35545.818516
644.680219	35630.043594
645.024192	35950.141740
645.368112	36463.863043
645.711981	36477.101113
646.055797	37346.296859
646.399562	37284.956099
646.743274	38227.987105
647.086935	38677.915127
647.430544	38560.083197
647.774101	38660.518105
648.117606	38891.037468
648.461059	39183.505049
648.804460	38775.375755
649.147810	38146.378386
649.491108	37874.662715
649.834354	37518.210288
650.177548	36684.267331
650.520690	36254.022494
650.863781	36275.555782
651.206820	36118.115507
651.549807	35683.426893
651.892742	35197.608376
652.235626	35002.261144
652.578458	34883.965428
652.921238	34272.788538
653.263967	34601.862459
653.606644	34290.344357
653.949269	34246.715691
654.291843	33831.740509
654.634365	34235.476438
654.976836	33835.657486
655.319255	33845.923795
655.661622	33833.772094
656.003938	33618.872747
656.346203	33485.289732
656.688416	33703.733010
657.030577	33494.875486
657.372687	33335.353213
657.714746	33594.576906
658.056753	33710.851119
658.398708	33177.315561
658.740612	33214.736046
659.082465	33502.951414
659.424266	33348.374514
659.766016	33466.808862
660.107715	33330.480938
660.449362	33448.282621
660.790958	33426.237655
661.132503	33452.517190
661.473996	33477.652383
661.815438	33593.160342
662.156829	33794.856907
662.498168	33549.753486
662.839456	33572.126127
663.180693	33729.367277
663.521879	33883.732449
663.863013	33863.835015
664.204097	33847.327757
664.545129	34296.819719
664.886110	34254.894963
665.227040	34332.828681
665.567918	34444.265907
665.908746	34509.085063
666.249522	34676.584962
666.590248	34681.210220
666.930922	34770.206750
667.271545	34734.895988
667.612118	34806.987009
667.952639	34582.040642
668.293109	34640.520547
668.633528	34537.086152
668.973896	34464.412878
669.314213	34501.525853
669.654480	34228.224738
669.994695	34256.130046
670.334859	34138.076305
670.674973	34043.410997
671.015035	34203.520564
671.355047	34131.230418
671.695008	34088.315075
672.034918	33986.975280
672.374777	34092.847072
672.714585	33911.814197
673.054342	34142.401615
673.394049	33895.921959
673.733705	34173.795400
674.073310	33834.167825
674.412864	33908.771860
674.752368	33514.034391
675.091820	33800.064419
675.431223	33366.721793
675.770574	33104.546505
676.109875	32946.287042
676.449125	32667.763292
676.788324	32584.924531
677.127473	32058.466753
677.466571	31977.029433
677.805619	31638.757928
678.144616	31628.315177
678.483562	31542.630685
678.822458	31231.500752
679.161303	31168.690496
679.500098	31083.303432
679.838842	30979.453142
680.177535	31121.865738
680.516179	31415.717117
680.854771	31674.035922
681.193314	32566.617581
681.531805	33702.248390
681.870247	34467.024196
682.208638	35172.916805
682.546978	35365.241865
682.885268	35425.544147
683.223508	34898.824229
683.561697	34564.063887
683.899836	34361.550655
684.237925	33861.667319
684.575963	33715.380596
684.913951	33259.688015
685.251889	33419.313631
685.589776	33408.538164
685.927614	33416.858589
686.265401	33563.646906
686.603137	33668.664223
686.940824	34179.106256
687.278460	34551.987803
687.616046	34681.573183
687.953582	35279.396056
688.291068	35119.412518
688.628504	35393.948716
688.965889	35318.046583
689.303224	34923.442704
689.640510	34568.212757
689.977745	33808.329391
690.314930	32987.657271
690.652065	32466.714515
690.989150	31727.754458
691.326185	30815.744192
691.663170	30122.013367
692.000105	29372.847494
692.336990	28701.469145
692.673825	28238.605522
693.010610	27729.443943
693.347345	27147.946847
693.684030	26502.863157
694.020665	26226.489459
694.357251	25556.588168
694.693786	25499.192111
695.030272	25267.745176
695.366707	24734.620472
695.703093	24454.861639
696.039429	24455.459016
696.375716	24190.279200
696.711952	24162.744418
697.048139	23996.678728
697.384276	23816.969155
697.720363	23951.038641
698.056400	23746.357713
698.392388	23515.883721
698.728326	23486.249298
699.064214	23276.353296
699.400053	23216.325756
699.735842	22856.334440
700.071581	22575.796749
700.407270	22285.935444
700.742910	22094.268254
701.078501	21835.654541
701.414042	21548.764996
701.749533	21241.841906
702.084974	20900.742313
702.420366	21107.837954
702.755709	20661.963020
703.091002	20372.573063
703.426246	20385.634693
703.761440	20291.286978
704.096584	20016.604587
704.431679	19965.605754
704.766725	19884.687673
705.101721	19829.214816
705.436668	19929.896741
705.771565	19587.022662
706.106413	19942.335788
706.441212	19941.451066
706.775961	20062.408511
707.110661	20143.571088
707.445311	20498.301961
707.779913	20344.110708
708.114465	20600.649987
708.448967	20886.861496
708.783421	21572.652504
709.117825	21838.482628
709.452180	22063.759191
709.786485	22482.268221
710.120742	23273.615949
710.454949	23298.577223
710.789107	23761.682821
711.123216	24457.929181
711.457275	24559.147989
711.791286	25079.266516
712.125247	25143.243800
712.459159	24831.791233
712.793023	25478.190664
713.126837	24363.377300
713.460602	24604.493167
713.794318	24218.282810
714.127985	23827.739580
714.461602	22929.751284
714.795171	22874.094425
715.128691	21863.028006
715.462162	21324.496664
715.795584	20911.520300
716.128957	20645.130608
716.462281	20245.583877
716.795556	20026.477687
717.128782	19514.256127
717.461960	18973.544486
717.795088	18887.456702
718.128167	18497.314244
718.461198	18033.477678
718.794180	17903.582267
719.127113	17539.729427
719.459997	17345.864294
719.792833	16985.585631
720.125619	16973.955689
720.458357	16646.615926
720.791046	16474.004298
721.123686	16316.332129
721.456278	16087.829228
721.788821	16047.862960
722.121315	15798.381298
722.453761	15865.133736
722.786158	15796.657223
723.118506	15807.044521
723.450805	15671.989488
723.783056	15828.940772
724.115259	15720.820625
724.447412	15658.915256
724.779518	15892.388735
725.111574	15927.074394
725.443582	16133.285312
725.775542	16122.066224
726.107453	16585.570074
726.439315	16471.423227
726.771129	16868.950975
727.102895	17239.322028
727.434612	17434.205474
727.766281	17560.415802
728.097901	17817.015573
728.429473	17853.750462
728.760996	17823.438003
729.092471	17904.013286
729.423897	17778.176004
729.755276	17645.487793
730.086606	17769.714427
730.417887	18306.584709
730.749120	18816.119334
731.080305	18976.813674
731.411442	19307.644437
731.742530	19372.077944
732.073570	19454.548701
732.404562	19742.196939
732.735506	19552.823474
733.066401	19233.526872
733.397249	18700.946612
733.728048	18053.634732
734.058798	17236.080566
734.389501	16554.272070
734.720156	16105.465705
735.050762	15595.394197
735.381320	15238.946811
735.711831	15011.235372
736.042293	14671.890100
736.372707	14682.136246
736.703073	14490.456453
737.033391	14674.135934
737.363661	14648.219363
737.693883	14754.433953
738.024056	14929.508185
738.354182	15111.660197
738.684260	15398.090997
739.014290	15616.693072
739.344272	15800.790969
739.674207	16066.192596
740.004093	16182.794484
740.333931	16153.427243
740.663722	16191.228335
740.993464	16174.209399
741.323159	15997.491751
741.652806	15713.921806
741.982405	15493.885523
742.311956	15156.760880
742.641460	15042.246029
742.970915	14735.527106
743.300323	14400.555036
743.629683	14194.881000
743.958996	13918.426644
744.288260	13657.763702
744.617477	13352.393287
744.946647	13291.241570
745.275768	13013.322759
745.604842	12830.913648
745.933869	12667.192094
746.262847	12616.747788
746.591778	12549.488714
746.920662	12446.429885
747.249498	12444.506685
747.578286	12568.193915
747.907027	12720.782080
748.235720	12937.460955
748.564365	12955.929222
748.892963	12858.471115
749.221514	12914.715269
749.550017	12770.374431
749.878473	12725.669479
750.206881	12499.210766
750.535242	12418.209506
750.863555	12332.116681
751.191821	12233.000034
751.520039	12250.807910
751.848210	12164.894046
752.176334	12194.404960
752.504411	12101.768717
752.832440	11938.019437
753.160421	11995.586894
753.488356	11885.581355
753.816243	11791.962087
754.144082	11648.180818
754.471875	11583.583472
754.799620	11538.356761
755.127318	11512.082267
755.454969	11472.920063
755.782572	11419.982907
756.110129	11433.699886
756.437638	11352.643173
756.765100	11345.651093
757.092515	11351.955056
757.419882	11366.876871
757.747203	11369.339475
758.074477	11442.153901
758.401703	11405.981102
758.728882	11563.857437
759.056014	11606.462749
759.383099	11722.966335
759.710138	11820.550471
760.037129	11904.798234
760.364073	11920.463619
760.690970	11904.213460
761.017820	11908.939542
761.344623	12097.483737
761.671379	12430.399016
761.998088	13096.181684
762.324751	14718.866093
762.651366	17640.484448
762.977935	21235.338817
763.304456	23314.098935
763.630931	23653.371110
763.957359	22414.391605
764.283740	20502.133237
764.610074	18631.739132
764.936362	16542.062395
765.262602	15045.074117
765.588796	13612.506743
765.914943	12603.882764
766.241044	11774.650765
766.567097	11160.164358
766.893104	10626.074272
767.219064	10274.073185
767.544978	9903.351772
767.870845	9597.968754
768.196665	9412.986134
768.522438	9220.194767
768.848165	9055.303666
769.173846	8894.359788
769.499479	8775.764124
769.825066	8621.076318
770.150607	8435.082947
770.476101	8381.472796
770.801548	8270.799305
771.126949	8127.975854
771.452303	8034.197790
771.777611	7877.420426
772.102872	7857.923763
772.428087	7748.818071
772.753256	7627.303578
773.078378	7534.503497
773.403453	7392.353041
773.728482	7284.157277
774.053465	7222.156126
774.378401	7138.145297
774.703291	7046.481996
775.028135	6944.131450
775.352932	6910.975781
775.677683	6827.920251
776.002388	6750.115082
776.327046	6748.998467
776.651658	6658.368603
776.976224	6588.231029
777.300743	6570.027423
777.625216	6502.400344
777.949643	6462.812163
778.274024	6466.177133
778.598359	6395.550568
778.922647	6406.673874
779.246889	6367.988059
779.571086	6373.550972
779.895236	6381.072374
780.219339	6385.009515
780.543397	6380.981633
780.867409	6427.435866
781.191374	6426.813283
781.515294	6395.159878
781.839167	6443.436488
782.162995	6409.902733
782.486776	6363.635023
782.810511	6322.138765
783.134201	6245.094811
783.457844	6233.507718
783.781441	6183.159194
784.104993	6141.388194
784.428498	6116.512620
784.751958	6098.858499
785.075372	6075.744809
785.398739	6033.668818
785.722061	6062.816770
786.045337	6064.180402
786.368568	6171.937586
786.691752	6197.760897
787.014891	6451.257838
787.337983	6739.122846
787.661030	7180.765732
787.984031	7589.421827
788.306987	7836.622368
788.629897	7910.470231
788.952760	7820.694842
789.275579	7633.211810
789.598351	7337.931265
789.921078	7076.759166
790.243759	6798.966384
790.566395	6595.739828
790.888984	6404.463328
791.211529	6276.266785
791.534027	6112.187310
791.856480	5978.105221
792.178888	5919.027939
792.501249	5861.659608
792.823566	5757.993320
793.145836	5753.403350
793.468062	5737.473303
793.790241	5704.299991
794.112375	5741.533953
794.434464	5837.126833
794.756507	5872.823243
795.078505	5995.784547
795.400457	6212.733123
795.722364	6449.901768
796.044226	6636.497557
796.366042	6792.385157
796.687812	6731.286373
797.009538	6751.156081
797.331218	6662.333470
797.652852	6591.124652
797.974442	6472.017310
798.295986	6395.895887
798.617484	6265.307317
798.938938	6163.856616
799.260346	6100.101144
799.581709	5961.333302
799.903026	5910.147946
800.224299	5836.347974
800.545526	5726.738166
800.866708	5664.321120
801.187845	5613.891937
801.508936	5537.258837
801.829983	5509.368654
802.150984	5410.640176
802.471940	5377.237491
802.792851	5364.425398
803.113717	5343.287840
803.434538	5319.778419
803.755314	5284.724756
804.076045	5277.394918
804.396731	5239.321604
804.717372	5260.411271
805.037967	5264.819760
805.358518	5288.238440
805.679024	5351.318398
805.999485	5358.509604
806.319901	5379.500969
806.640272	5392.071086
806.960598	5441.918015
807.280879	5431.616417
807.601115	5465.760152
807.921306	5427.175161
808.241453	5420.465385
808.561554	5428.140542
808.881611	5396.250202
809.201623	5395.020161
809.521590	5342.267007
809.841513	5333.666798
810.161390	5342.022511
810.481223	5254.087143
810.801011	5242.633642
811.120755	5219.267894
811.440453	5166.668495
811.760107	5137.702025
812.079716	5112.024908
812.399281	5058.296290
812.718801	5058.268563
813.038276	5024.079458
813.357707	4986.091843
813.677093	5008.587992
813.996434	4947.164053
814.315731	4964.356908
814.634983	4970.227332
814.954191	4971.618691
815.273354	5029.720509
815.592473	5068.847425
815.911547	5148.180063
816.230577	5201.061767
816.549562	5287.840189
816.868502	5331.637734
817.187399	5389.295931
817.506250	5468.855421
817.825058	5495.059338
818.143821	5647.213964
818.462539	5823.359442
818.781213	6056.976593
819.099843	6424.751451
819.418429	7054.734365
819.736970	7669.132552
820.055466	8370.208338
820.373919	9290.034913
820.692327	10778.032293
821.010691	13585.276951
821.329011	19972.439038
821.647286	29481.345727
821.965517	39485.114763
822.283704	44422.178865
822.601847	45499.362537
822.919945	40812.304378
823.237999	35777.782169
823.556010	30722.994523
823.873976	26173.474164
824.191897	22115.650308
824.509775	19142.145876
824.827609	16491.920559
825.145398	15025.821950
825.463144	14352.512840
825.780845	14702.217682
826.098502	16028.968716
826.416116	18473.119226
826.733685	20636.497632
827.051210	21011.493943
827.368692	19500.093005
827.686129	16968.831357
828.003522	14560.273913
828.320872	12409.911767
828.638177	10822.830507
828.955439	9618.019944
829.272656	8583.373528
829.589830	7765.698374
829.906960	7060.332567
830.224046	6537.290170
830.541088	6146.300798
830.858086	5900.327778
831.175041	5709.152101
831.491952	5657.019009
831.808819	5708.514395
832.125642	5965.429239
832.442421	6534.189860
832.759157	7671.212028
833.075849	9444.720198
833.392497	11247.426731
833.709101	12261.235537
834.025662	11925.197263
834.342179	10843.219454
834.658653	9567.973889
834.975083	8497.288265
835.291469	7626.655790
835.607811	6918.890392
835.924110	6409.617907
836.240366	5931.618220
836.556578	5484.639273
836.872746	5147.292820
837.188871	4882.256677
837.504952	4665.262730
837.820990	4502.955220
838.136984	4393.489085
838.452935	4355.796378
838.768842	4393.121081
839.084706	4699.640879
839.400526	5459.811591
839.716303	6338.051167
840.032037	6854.242636
840.347727	6658.235012
840.663373	6055.764196
840.978977	5498.303321
841.294537	5074.735492
841.610054	4756.605917
841.925527	4523.876009
842.240957	4322.436542
842.556344	4146.795181
842.871687	3987.308196
843.186987	3843.108511
843.502244	3725.637024
843.817458	3642.878922
844.132629	3573.225299
844.447756	3527.645706
844.762840	3482.940754
845.077881	3446.004220
845.392879	3408.772778
845.707833	3386.286711
846.022745	3362.618494
846.337613	3349.667770
846.652438	3325.616425
846.967221	3315.488747
847.281960	3298.013587
847.596656	3290.041002
847.911309	3276.674383
848.225919	3266.634925
848.540485	3254.894077
848.855009	3248.577512
849.169490	3236.609812
849.483928	3230.993967
849.798323	3225.272257
850.112675	3216.215825
850.426984	3213.760783
850.741251	3209.090154
851.055474	3208.099567
851.369654	3207.837427
851.683792	3203.439020
851.997887	3204.805173
852.311938	3208.086964
852.625947	3209.339691
852.939914	3202.776108
853.253837	3206.872046
853.567718	3207.519834
853.881555	3196.706559
854.195350	3202.214020
854.509103	3199.922815
854.822812	3197.939121
855.136479	3194.763194
855.450103	3200.563042
855.763685	3189.817822
856.077224	3193.873431
856.390720	3202.902137
856.704173	3211.094012
857.017584	3218.980897
857.330953	3223.603636
857.644278	3232.009760
857.957561	3235.392374
858.270802	3231.036817
858.584000	3229.393401
858.897155	3225.851990
859.210268	3212.906307
859.523339	3203.963300
859.836367	3201.351982
860.149352	3195.184131
860.462295	3190.662216
860.775195	3181.436904
861.088054	3178.175278
861.400869	3177.716533
861.713642	3174.553209
862.026373	3184.305321
862.339062	3187.294725
862.651708	3200.532795
862.964312	3214.055690
863.276873	3220.576423
863.589392	3252.398706
863.901869	3278.128756
864.214303	3297.143988
864.526696	3316.917914
864.839045	3334.201510
865.151353	3345.851616
865.463619	3349.382945
865.775842	3348.170547
866.088023	3350.509643
866.400162	3345.554188
866.712258	3345.103005
867.024313	3344.046883
867.336325	3349.082996
867.648296	3345.922193
867.960224	3344.059486
868.272110	3346.121318
868.583954	3351.210363
868.895755	3354.403934
869.207515	3353.093234
869.519233	3370.316336
869.830909	3376.431256
870.142542	3391.264851
870.454134	3394.463463
870.765684	3407.290679
871.077191	3423.087134
871.388657	3440.892490
871.700081	3455.070735
872.011463	3479.212821
872.322803	3493.489368
872.634101	3513.331350
872.945357	3532.402035
873.256571	3558.663926
873.567744	3574.422573
873.878874	3576.214703
874.189963	3594.796396
874.501010	3598.045420
874.812015	3593.120212
875.122979	3609.120835
875.433900	3608.452882
875.744780	3605.997840
876.055618	3617.733646
876.366415	3614.013275
876.677169	3618.814974
876.987882	3636.527068
877.298554	3657.503309
877.609183	3696.267261
877.919771	3747.344232
878.230317	3812.513748
878.540822	3922.027775
878.851285	4073.688368
879.161707	4301.432575
879.472087	4685.681924
879.782425	5327.773689
880.092722	6535.939141
880.402977	8477.665573
880.713191	10815.573766
881.023363	13099.460954
881.333494	14315.878775
881.643583	14690.807030
881.953631	14247.114916
882.263637	13418.001384
882.573602	12409.755491
882.883526	11476.733696
883.193408	10555.072141
883.503248	9669.853087
883.813048	8858.466773
884.122806	8111.982794
884.432522	7364.243567
884.742197	6722.895372
885.051831	6177.324059
885.361424	5700.866965
885.670975	5323.529038
885.980485	5007.123537
886.289954	4750.430504
886.599382	4537.565262
886.908768	4361.611349
887.218113	4203.387174
887.527417	4073.307760
887.836680	3955.228814
888.145901	3854.740974
888.455082	3780.610806
888.764221	3713.918862
889.073319	3654.516425
889.382376	3624.382928
889.691392	3601.097838
890.000366	3592.974019
890.309300	3589.528390
890.618193	3592.384204
890.927044	3590.667691
891.235855	3595.378649
891.544625	3608.752831
891.853353	3642.324395
892.162041	3703.566852
892.470687	3796.813075
892.779293	3920.149945
893.087858	4092.093620
893.396381	4376.046693
893.704864	4793.958347
894.013306	5359.485067
894.321707	5919.451396
894.630068	6250.420790
894.938387	6264.722543
895.246665	6073.993008
895.554903	5762.830307
895.863100	5430.456952
896.171256	5167.280995
896.479371	4934.382208
896.787446	4710.570100
897.095480	4522.933313
897.403473	4376.873442
897.711425	4235.035538
898.019336	4114.945171
898.327207	3996.334382
898.635038	3895.229001
898.942827	3787.333185
899.250576	3706.951987
899.558284	3624.340078
899.865952	3568.965524
900.173579	3507.498735
900.481165	3463.318063
900.788711	3420.372473
901.096216	3391.370715
901.403681	3363.838453
901.711105	3354.174561
902.018489	3350.194570
902.325832	3386.390055
902.633135	3452.827422
902.940397	3631.521202
903.247619	4060.906522
903.554800	4820.966328
903.861941	5761.864926
904.169041	6418.384474
904.476101	6575.945738
904.783121	6290.636594
905.090100	5893.645729
905.397039	5490.388709
905.703938	5147.343231
906.010796	4831.179706
906.317614	4586.691306
906.624391	4355.214125
906.931129	4164.668592
907.237826	3990.060666
907.544483	3824.017662
907.851099	3649.699603
908.157675	3495.135305
908.464211	3356.624562
908.770707	3258.465735
909.077163	3182.039322
909.383578	3124.086217
909.689954	3078.143662
909.996289	3052.438818
910.302584	3032.783360
910.608839	3023.348840
910.915054	3009.369721
911.221229	3003.370748
911.527363	3010.002385
911.833458	3018.567306
912.139513	3031.265972
912.445527	3040.743342
912.751502	3077.334557
913.057436	3120.973305
913.363331	3180.799198
913.669186	3269.667179
913.975000	3387.000035
914.280775	3579.138572
914.586510	3851.784337
914.892205	4228.524887
915.197859	4722.903283
915.503475	5296.901663
915.809050	5776.738851
916.114585	6042.609305
916.420081	6090.303661
916.725536	6022.865626
917.030952	5780.673471
917.336328	5577.671247
917.641665	5371.830853
917.946961	5153.589221
918.252218	4952.109425
918.557435	4732.224377
918.862612	4538.699522
919.167750	4369.873800
919.472848	4179.678627
919.777906	4016.332640
920.082925	3863.149618
920.387904	3712.187225
920.692843	3599.998867
920.997743	3506.165350
921.302603	3413.420722
921.607423	3352.372349
921.912204	3285.554375
922.216946	3235.689802
922.521647	3190.611804
922.826310	3147.361225
923.130932	3115.564147
923.435516	3073.019329
923.740059	3047.228786
924.044564	3015.691328
924.349028	2991.254334
924.653454	2963.069243
924.957840	2939.527055
925.262186	2916.080648
925.566493	2894.060888
925.870761	2871.095912
926.174989	2858.908922
926.479178	2847.276460
926.783328	2828.508244
927.087438	2817.813436
927.391509	2803.471353
927.695541	2793.646145
927.999533	2781.161727
928.303486	2775.830707
928.607400	2769.730911
928.911275	2764.004160
929.215110	2757.566607
929.518906	2756.114754
929.822663	2754.829260
930.126381	2757.266658
930.430060	2757.581730
930.733699	2761.733120
931.037299	2764.702360
931.340861	2762.489293
931.644383	2767.016249
931.947866	2762.572472
932.251309	2763.096752
932.554714	2761.274375
932.858080	2757.788417
933.161407	2756.560896
933.464694	2749.707448
933.767943	2748.210225
934.071153	2747.219638
934.374323	2741.598752
934.677455	2737.974162
934.980548	2733.963924
935.283602	2732.491907
935.586617	2731.955024
935.889593	2735.778740
936.192530	2736.827300
936.495428	2744.363825
936.798287	2751.797006
937.101108	2767.306116
937.403890	2788.184054
937.706632	2813.619196
938.009336	2846.999196
938.312002	2875.464072
938.614628	2899.165056
938.917216	2917.645926
939.219765	2923.218922
939.522275	2935.055551
939.824747	2939.171653
940.127179	2928.907864
940.429573	2923.274375
940.731929	2920.048036
941.034246	2913.204670
941.336524	2911.067221
941.638763	2903.591189
941.940964	2897.294788
942.243126	2880.969012
942.545250	2871.713453
942.847335	2860.073429
943.149381	2841.267404
943.451389	2831.144767
943.753359	2821.478355
944.055290	2809.866057
944.357182	2800.978503
944.659036	2796.335600
944.960851	2792.988274
945.262628	2788.214301
945.564367	2787.783283
945.866067	2785.983591
946.167729	2787.861421
946.469352	2787.833694
946.770937	2783.818415
947.072484	2774.640995
947.373992	2777.471602
947.675462	2772.685027
947.976893	2767.283431
948.278286	2764.883841
948.579641	2762.012904
948.880958	2760.780342
949.182236	2755.829929
949.483476	2753.964702
949.784678	2753.879002
950.085841	2754.408324
950.386967	2761.332348
950.688054	2764.810745
950.989103	2772.715274
951.290114	2783.505864
951.591087	2790.152625
951.892021	2802.871456
952.192917	2816.036429
952.493776	2825.670074
952.794596	2828.924139
953.095378	2832.962103
953.396122	2830.136537
953.696828	2828.261227
953.997496	2821.838797
954.298126	2809.210707
954.598718	2802.949594
954.899272	2794.729993
955.199788	2783.210956
955.500266	2769.630088
955.800706	2754.153745
956.101108	2738.659759
956.401472	2727.032338
956.701798	2716.934907
957.002087	2700.578883
957.302337	2691.489682
957.602550	2682.057684
957.902724	2669.812721
958.202861	2663.473470
958.502960	2655.221101
958.803022	2647.185502
959.103045	2639.162506
959.403031	2636.372227
959.702979	2627.688839
960.002889	2625.054837
960.302762	2621.755401
960.602596	2619.844804
960.902393	2612.315841
961.202153	2610.228803
961.501875	2607.730911
961.801559	2608.971035
962.101205	2604.439038
962.400814	2600.786722
962.700385	2597.542739
962.999918	2597.580548
963.299414	2595.745568
963.598873	2594.475197
963.898293	2592.804055
964.197677	2591.896647
964.497022	2591.319435
964.796331	2590.540577
965.095601	2589.043354
965.394835	2589.970926
965.694030	2590.333889
965.993189	2588.067891
966.292309	2586.023703
966.591393	2584.062694
966.890439	2586.235431
967.189447	2585.481779
967.488419	2586.444639
967.787353	2584.319793
968.086249	2587.992273
968.385108	2586.023703
968.683930	2586.956316
968.982714	2590.646441
969.281462	2589.766760
969.580172	2594.674323
969.878844	2593.668613
970.177480	2597.825044
970.476078	2598.263624
970.774639	2603.440889
971.073162	2608.832403
971.371649	2603.771085
971.670098	2606.382403
971.968510	2609.031529
972.266885	2608.766868
972.565223	2614.828856
972.863524	2613.495471
973.161788	2614.508743
973.460014	2613.956736
973.758204	2617.082252
974.056356	2617.591408
974.354471	2616.585698
974.652550	2618.208950
974.950591	2616.799947
975.248595	2615.244751
975.546563	2615.101078
975.844493	2616.310955
976.142386	2612.124277
976.440243	2609.555809
976.738062	2609.550768
977.035845	2606.841148
977.333590	2603.960128
977.631299	2602.261259
977.928971	2600.451485
978.226606	2596.322780
978.524204	2599.443254
978.821765	2597.131885
979.119290	2595.133068
979.416777	2594.896134
979.714228	2596.295054
980.011642	2597.368820
980.309020	2602.593976
980.606360	2604.827207
980.903664	2615.055708
981.200931	2627.764457
981.498162	2646.499905
981.795356	2674.932013
982.092513	2711.881150
982.389633	2754.269692
982.686717	2793.510033
982.983764	2825.738130
983.280775	2840.720439
983.577749	2841.411077
983.874686	2831.288440
984.171587	2816.089362
984.468451	2798.770477
984.765279	2783.306738
985.062070	2761.337390
985.358824	2744.754514
985.655543	2722.500340
985.952224	2700.440251
986.248869	2679.242199
986.545478	2652.269506
986.842050	2633.685292
987.138586	2613.750049
987.435086	2602.699840
987.731549	2589.035792
988.027975	2587.430185
988.324366	2579.016499
988.620719	2577.330233
988.917037	2574.295458
989.213318	2568.856053
989.509563	2568.606516
989.805772	2567.888152
990.101944	2563.971175
990.398080	2564.097204
990.694180	2562.655434
990.990244	2562.360527
991.286271	2562.478994
991.582262	2563.129303
991.878217	2565.402863
992.174136	2565.700291
992.470019	2565.881773
992.765865	2569.730694
993.061676	2567.724314
993.357450	2572.843606
993.653188	2574.877712
993.948890	2579.956674
994.244556	2587.241142
994.540186	2596.370671
994.835780	2607.708226
995.131337	2624.470063
995.426859	2640.079996
995.722345	2656.252017
996.017795	2676.840089
996.313208	2689.032120
996.608586	2697.833975
996.903928	2700.281455
997.199234	2696.624098
997.494504	2695.668799
997.789738	2691.154446
998.084936	2678.601973
998.380099	2667.004798
998.675225	2655.382418
998.970316	2644.775830
999.265371	2631.903244
999.560390	2618.307252
999.855373	2607.748555
1000.150320	2597.494848
1000.445232	2589.723910
1000.740108	2583.792992
1001.034948	2576.455593
1001.329752	2570.343194
1001.624521	2568.472926
1001.919254	2560.046637
1002.213951	2559.502192
1002.508613	2555.560010
1002.803239	2554.541697
1003.097829	2551.693445
1003.392384	2553.692263
1003.686903	2551.161603
1003.981386	2550.191181
1004.275834	2548.179761
1004.570246	2552.552962
1004.864623	2546.443083
1005.158964	2546.407795
1005.453270	2548.227652
1005.747540	2544.320758
1006.041775	2548.724206
1006.335974	2545.081972
1006.630138	2546.279246
1006.924266	2546.609442
1007.218359	2543.246992
1007.512416	2545.497867
1007.806438	2542.095088
1008.100425	2542.510983
1008.394376	2543.015099
1008.688292	2541.666590
1008.982172	2541.832948
1009.276017	2542.999975
1009.569827	2541.976621
1009.863602	2543.476364
1010.157341	2539.201466
1010.451045	2539.007382
1010.744714	2542.962167
1011.038347	2539.067875
1011.331945	2539.680376
1011.625508	2540.093750
1011.919036	2538.614172
1012.212528	2538.498225
1012.505986	2539.483771
1012.799408	2538.664583
1013.092795	2539.120807
1013.386147	2538.480581
1013.679464	2536.078471
1013.972745	2537.868081
1014.265992	2539.554347
1014.559204	2538.936805
1014.852380	2536.262473
1015.145521	2538.775488
1015.438628	2539.166178
1015.731699	2541.180119
1016.024736	2537.492515
1016.317737	2537.308513
1016.610703	2538.636857
1016.903635	2534.399767
1017.196531	2533.935981
1017.489393	2538.228523
1017.782219	2537.457227
1018.075011	2537.903369
1018.367768	2539.002340
1018.660490	2541.384286
1018.953177	2541.384286
1019.245829	2541.384286
