Dividing Wavelength (nm)	Counts (n)	Blue Motor Position (mm): 10.500000	Red Motor Position (mm): 0.000000	
326.493990	2103.315578
326.888308	2103.315578
327.282561	2103.315578
327.676750	2081.444532
328.070874	2080.610221
328.464933	2089.500296
328.858929	2097.881214
329.252859	2111.636003
329.646726	2125.673095
330.040528	2141.595580
330.434265	2160.820020
330.827938	2178.915242
331.221547	2198.101873
331.615091	2219.867055
332.008571	2240.893708
332.401986	2260.536564
332.795338	2281.653957
333.188625	2300.974179
333.581847	2317.302477
333.975006	2339.050014
334.368100	2355.080883
334.761129	2371.817514
335.154095	2389.721172
335.546996	2422.413055
335.939833	2465.923254
336.332606	2476.121508
336.725315	2487.567448
337.117960	2496.843171
337.510540	2502.360714
337.903056	2514.671211
338.295508	2518.119361
338.687896	2525.817203
339.080220	2534.760209
339.472480	2536.585107
339.864676	2541.951415
340.256807	2546.075079
340.648875	2547.927703
341.040879	2549.871068
341.432818	2547.353012
341.824694	2550.838970
342.216506	2550.730585
342.608253	2548.230172
342.999937	2545.470141
343.391557	2548.545245
343.783113	2548.073897
344.174605	2543.229348
344.566033	2542.553833
344.957397	2540.902855
345.348697	2536.519572
345.739934	2537.290869
346.131106	2538.115097
346.522215	2536.106197
346.913260	2535.269366
347.304241	2533.557894
347.695159	2526.631349
348.086012	2529.020856
348.476802	2527.485824
348.867528	2523.936852
349.258191	2523.490710
349.648789	2524.125895
350.039324	2520.907119
350.429796	2520.912160
350.820203	2521.844773
351.210548	2520.617252
351.600828	2519.397293
351.991045	2518.799916
352.381198	2517.073321
352.771288	2513.713392
353.161314	2517.524504
353.551276	2517.252282
353.941175	2513.922600
354.331010	2518.746984
354.720782	2519.654392
355.110490	2517.511902
355.500135	2515.369411
355.889717	2518.071470
356.279235	2516.239010
356.668689	2517.332941
357.058080	2519.888806
357.447408	2517.418640
357.836672	2516.715399
358.225873	2516.284381
358.615010	2516.856552
359.004084	2521.738909
359.393095	2521.754033
359.782043	2522.157325
360.170927	2522.908457
360.559748	2524.483817
360.948505	2522.714372
361.337199	2523.009280
361.725830	2526.202851
362.114398	2525.862573
362.502903	2527.470701
362.891344	2527.087573
363.279722	2527.793335
363.668037	2527.160670
364.056289	2528.899868
364.444478	2527.619415
364.832603	2528.206709
365.220665	2525.978519
365.608665	2529.880373
365.996601	2530.855836
366.384474	2531.503624
366.772284	2531.838861
367.160031	2530.162677
367.547715	2528.962882
367.935336	2527.291740
368.322893	2527.808458
368.710388	2530.321473
369.097820	2533.424304
369.485189	2531.392719
369.872495	2533.915816
370.259738	2531.501103
370.646918	2531.831299
371.034035	2532.705939
371.421090	2531.231402
371.808081	2530.523120
372.195010	2532.829448
372.581875	2532.199303
372.968678	2532.985723
373.355418	2532.859694
373.742096	2534.240971
374.128710	2532.779036
374.515262	2535.178625
374.901751	2534.339273
375.288177	2532.723583
375.674540	2533.736855
376.060841	2534.888759
376.447079	2536.264994
376.833254	2536.043183
377.219367	2531.599406
377.605417	2536.771630
377.991404	2532.277441
378.377329	2533.487318
378.763191	2531.498583
379.148991	2533.956145
379.534727	2541.296065
379.920402	2537.230375
380.306013	2535.622247
380.691563	2539.297248
381.077049	2538.825900
381.462474	2539.539223
381.847835	2538.644418
382.233134	2539.012423
382.618371	2538.372196
383.003545	2540.857485
383.388657	2542.059800
383.773706	2536.980838
384.158693	2538.165509
384.543618	2541.260777
384.928480	2541.525438
385.313280	2539.206507
385.698017	2539.070396
386.082692	2540.149203
386.467305	2541.311189
386.851856	2541.096940
387.236344	2542.521066
387.620770	2543.282280
388.005133	2544.114070
388.389435	2544.295552
388.773674	2544.751776
389.157851	2543.793957
389.541965	2540.557536
389.926018	2542.934440
390.310008	2545.195398
390.693936	2542.687424
391.077802	2544.030891
391.461606	2543.635161
391.845348	2543.531817
392.229027	2544.340922
392.612645	2543.413350
392.996200	2545.412168
393.379694	2544.212373
393.763125	2548.477189
394.146494	2546.158258
394.529801	2546.553989
394.913047	2547.559699
395.296230	2545.354194
395.679351	2546.571633
396.062410	2547.627755
396.445408	2545.543238
396.828343	2549.583722
397.211217	2541.364121
397.594028	2544.918134
397.976778	2544.303114
398.359466	2547.463917
398.742092	2545.243289
399.124656	2547.937786
399.507158	2547.368135
399.889598	2547.211859
400.271977	2548.210008
400.654294	2549.631613
401.036549	2547.325285
401.418742	2550.561706
401.800874	2549.480379
402.182944	2547.272353
402.564952	2550.022303
402.946898	2550.377704
403.328783	2552.099258
403.710606	2548.976263
404.092367	2551.355688
404.474067	2551.965667
404.855705	2551.028013
405.237282	2552.187478
405.618797	2550.871737
406.000250	2551.690925
406.381642	2551.940462
406.762972	2550.042467
407.144240	2552.666388
407.525447	2552.789896
407.906593	2553.717468
408.287677	2553.825853
408.668700	2550.939793
409.049661	2554.503888
409.430560	2553.593960
409.811399	2553.190668
410.192176	2554.519012
410.572891	2554.244269
410.953545	2553.480534
411.334138	2553.369629
411.714669	2555.005483
412.095139	2554.738302
412.475547	2554.604712
412.855894	2552.948692
413.236180	2553.102448
413.616405	2557.311811
413.996568	2552.860472
414.376670	2557.198385
414.756711	2555.703683
415.136691	2554.007335
415.516609	2554.526574
415.896466	2555.625545
416.276262	2553.329300
416.655997	2554.398024
417.035670	2552.684032
417.415283	2555.617983
417.794834	2551.706048
418.174324	2554.380380
418.553753	2554.836605
418.933121	2557.493293
419.312428	2557.742830
419.691674	2559.313149
420.070859	2556.792572
420.449983	2558.504044
420.829045	2558.935063
421.208047	2557.367264
421.586988	2557.178221
421.965867	2557.321893
422.344686	2558.836760
422.723444	2556.064126
423.102141	2557.815927
423.480777	2558.912377
423.859352	2557.871379
424.237866	2557.505896
424.616319	2558.564538
424.994712	2561.674930
425.373044	2558.967830
425.751314	2557.251317
426.129524	2558.269630
426.507673	2558.831719
426.885762	2560.205433
427.263789	2560.623849
427.641756	2559.136709
428.019662	2559.711400
428.397508	2557.694939
428.775292	2558.430947
429.153016	2559.913047
429.530679	2562.040413
429.908282	2559.792059
430.285824	2561.501010
430.663305	2559.199723
431.040726	2561.657286
431.418086	2559.151832
431.795385	2562.569735
432.172624	2560.243242
432.549802	2559.754250
432.926920	2558.042778
433.303977	2562.844478
433.680974	2563.648542
434.057910	2563.151988
434.434786	2559.920608
434.811601	2563.552760
435.188355	2562.347924
435.565050	2561.939590
435.941683	2561.382543
436.318257	2560.749878
436.694770	2557.694939
437.071222	2560.457491
437.447614	2557.699980
437.823946	2556.459856
438.200218	2563.058727
438.576429	2561.495969
438.952580	2561.674930
439.328670	2562.126113
439.704700	2561.450598
440.080670	2560.938921
440.456580	2562.799107
440.832429	2563.313305
441.208218	2563.401525
441.583947	2563.356155
441.959616	2561.090156
442.335224	2563.293140
442.710773	2564.142575
443.086261	2564.243398
443.461689	2564.296330
443.837057	2564.205589
444.212365	2562.350444
444.587612	2563.693912
444.962800	2562.010167
445.337927	2563.958572
445.712995	2563.295661
446.088002	2565.589386
446.462949	2564.399673
446.837837	2564.566032
447.212664	2565.042421
447.587431	2563.688871
447.962139	2564.041752
448.336786	2568.014181
448.711374	2564.956721
449.085901	2565.536454
449.460369	2565.511248
449.834776	2565.057544
450.209124	2567.056362
450.583412	2569.045097
450.957640	2567.237843
451.331808	2568.752710
451.705917	2567.212637
452.079965	2564.215671
452.453954	2564.311453
452.827883	2565.082750
453.201752	2566.615261
453.575562	2569.244222
453.949311	2566.199365
454.323001	2566.305230
454.696632	2568.233471
455.070202	2567.963769
455.443713	2566.968141
455.817164	2566.562328
456.190556	2566.169118
456.563888	2564.931515
456.937160	2563.761967
457.310373	2568.026784
457.683526	2568.964438
458.056619	2566.668193
458.429653	2566.211968
458.802628	2570.272618
459.175542	2568.051989
459.548398	2571.253122
459.921194	2569.760941
460.293930	2572.442834
460.666607	2573.433421
461.039224	2573.788823
461.411782	2571.416960
461.784280	2572.110118
462.156719	2574.035839
462.529099	2574.610531
462.901419	2570.113821
463.273680	2571.190108
463.645882	2572.014336
464.018024	2576.163206
464.390106	2574.749162
464.762130	2574.285376
465.134094	2575.749831
465.505999	2578.855182
465.877845	2581.080852
466.249631	2582.131932
466.621358	2579.739905
466.993026	2583.039340
467.364634	2581.330389
467.736184	2579.981880
468.107674	2580.528845
468.479105	2576.589183
468.850477	2579.444997
469.221790	2578.933320
469.593043	2577.660429
469.964238	2578.441807
470.335373	2577.622620
470.706449	2581.103537
471.077467	2580.228897
471.448425	2584.123188
471.819324	2583.939186
472.190164	2586.535380
472.560945	2582.154617
472.931667	2577.988104
473.302330	2582.250399
473.672934	2581.340471
474.043479	2580.203691
474.413965	2579.578588
474.784393	2579.601273
475.154761	2579.792837
475.525070	2573.393092
475.895321	2577.849472
476.265513	2578.550192
476.635645	2583.856007
477.005719	2582.419278
477.375734	2584.183682
477.745691	2583.039340
478.115588	2584.589495
478.485427	2586.369022
478.855207	2586.984043
479.224928	2588.221646
479.594591	2588.720720
479.964194	2585.338106
480.333739	2588.451018
480.703226	2587.893971
481.072653	2589.411358
481.442022	2590.361616
481.811333	2590.142326
482.180584	2589.910433
482.549777	2587.115113
482.918912	2587.165524
483.287988	2590.480083
483.657005	2589.423961
484.025964	2587.339444
484.394864	2588.166193
484.763706	2590.197778
485.132489	2588.055288
485.501213	2586.447160
485.869879	2586.918508
486.238487	2588.014959
486.607036	2589.406317
486.975527	2590.429671
487.343959	2588.756008
487.712333	2588.201481
488.080648	2590.157449
488.448905	2588.766091
488.817104	2590.840525
489.185244	2590.230546
489.553326	2588.728282
489.921350	2593.880341
490.289315	2597.162132
490.657222	2597.147009
491.025070	2595.450661
491.392861	2598.498038
491.760593	2597.993923
492.128267	2594.830599
492.495883	2591.425299
492.863440	2594.059302
493.230939	2591.858838
493.598380	2595.120465
493.965763	2589.416399
494.333088	2592.917481
494.700354	2590.714497
495.067563	2590.162490
495.434713	2590.588468
495.801805	2594.596185
496.168839	2593.986205
496.535815	2595.942173
496.902733	2596.761361
497.269593	2596.796649
497.636395	2596.731114
498.003139	2599.581886
498.369825	2599.435693
498.736453	2599.274376
499.103023	2599.912082
499.469535	2599.768409
499.835989	2603.120776
500.202385	2601.966352
500.568723	2604.144130
500.935003	2606.450458
501.301226	2606.707557
501.667390	2608.449276
502.033497	2608.817280
502.399546	2607.990531
502.765537	2610.758124
503.131470	2611.736108
503.497345	2616.626027
503.863163	2614.891870
504.228923	2616.804988
504.594625	2617.992180
504.960269	2616.578136
505.325856	2617.828342
505.691385	2620.328755
506.056856	2623.852521
506.422270	2626.599950
506.787625	2627.961062
507.152924	2627.502317
507.518164	2630.413583
507.883347	2627.267903
508.248472	2635.734521
508.613540	2635.353914
508.978550	2636.803246
509.343503	2641.057979
509.708398	2644.836324
510.073236	2646.179792
510.438016	2645.650471
510.802738	2649.121305
511.167403	2652.856800
511.532010	2654.162459
511.896561	2655.740340
512.261053	2662.745023
512.625488	2660.393325
512.989866	2662.331649
513.354186	2665.368944
513.718449	2664.912719
514.082655	2670.304233
514.446803	2671.448575
514.810894	2678.269257
515.174927	2680.860410
515.538904	2684.069104
515.902822	2686.418282
516.266684	2685.644465
516.630488	2692.082018
516.994235	2690.879703
517.357925	2696.664427
517.721558	2699.810107
518.085133	2701.892103
518.448651	2706.867722
518.812112	2706.998792
519.175516	2707.591128
519.538863	2712.602035
519.902152	2715.619165
520.265385	2721.625700
520.628560	2723.170814
520.991678	2723.798437
521.354739	2725.356154
521.717743	2728.663151
522.080690	2733.719428
522.443580	2734.241188
522.806413	2740.681262
523.169189	2739.705798
523.531908	2745.067066
523.894569	2744.658732
524.257174	2747.741398
524.619722	2752.643920
524.982213	2756.145001
525.344647	2757.208685
525.707025	2757.289343
526.069345	2764.006681
526.431608	2764.110024
526.793815	2769.191507
527.155964	2769.652773
527.518057	2770.776950
527.880093	2771.984307
528.242072	2775.624020
528.603995	2779.044442
528.965860	2780.788682
529.327669	2781.935544
529.689421	2783.475617
530.051117	2786.603653
530.412755	2786.923766
530.774337	2793.026083
531.135862	2790.366874
531.497331	2793.507513
531.858743	2793.323511
532.220098	2799.055303
532.581396	2797.300981
532.942638	2798.064716
533.303824	2805.790284
533.664953	2808.630974
534.026025	2806.009574
534.387040	2812.817653
534.747999	2811.295224
535.108902	2815.625575
535.469748	2816.500216
535.830537	2819.240083
536.191270	2819.721513
536.551947	2820.066832
536.912567	2822.131184
537.273131	2827.376505
537.633638	2826.549756
537.994089	2828.397339
538.354483	2829.163594
538.714821	2834.371106
539.075103	2837.647856
539.435328	2837.791529
539.795497	2840.382682
540.155609	2841.731191
540.515665	2843.914010
540.875665	2842.441993
541.235609	2847.284022
541.595496	2849.373580
541.955328	2854.024044
542.315102	2852.940196
542.674821	2851.369877
543.034483	2857.923377
543.394090	2857.847759
543.753640	2860.527133
544.113134	2866.498379
544.472571	2862.420086
544.831953	2873.646736
545.191278	2870.632126
545.550548	2870.780840
545.909761	2875.741335
546.268918	2878.697972
546.628019	2885.750546
546.987064	2886.363046
547.346053	2880.764845
547.704986	2888.210629
548.063863	2891.994015
548.422684	2895.036351
548.781449	2895.847977
549.140158	2903.631519
549.498811	2901.925088
549.857408	2902.845099
550.215949	2909.532189
550.574434	2913.066038
550.932864	2914.454876
551.291237	2921.915784
551.649555	2924.733789
552.007817	2929.601023
552.366022	2930.629418
552.724173	2934.836261
553.082267	2943.388578
553.440305	2949.556430
553.798288	2944.701799
554.156215	2953.218828
554.514086	2960.031948
554.871902	2959.893316
555.229661	2965.494038
555.587365	2970.525110
555.945014	2971.422435
556.302606	2976.367807
556.660143	2986.490444
557.017625	2986.548417
557.375050	2990.762822
557.732421	2997.525530
558.089735	3003.824451
558.446994	3007.537261
558.804197	3012.704444
559.161345	3019.084024
559.518437	3015.524969
559.875474	3020.374559
560.232455	3028.289171
560.589381	3034.956097
560.946251	3035.969369
561.303065	3046.800288
561.659825	3047.765669
562.016528	3050.674415
562.373177	3050.593756
562.729770	3061.757391
563.086307	3060.136660
563.442789	3071.935481
563.799216	3074.453537
564.155587	3076.495205
564.511904	3081.606935
564.868164	3089.272009
565.224370	3096.702670
565.580520	3097.138730
565.936615	3104.513938
566.292654	3105.786829
566.648638	3116.229579
567.004567	3120.852317
567.360441	3127.952782
567.716260	3133.911426
568.072023	3144.374341
568.427732	3146.781492
568.783385	3144.845689
569.138982	3160.894202
569.494525	3168.042558
569.850013	3170.880728
570.205445	3180.743746
570.560823	3186.278932
570.916145	3195.511806
571.271412	3204.038917
571.626625	3212.371945
571.981782	3219.371587
572.336884	3228.181003
572.691931	3242.578539
573.046923	3248.572471
573.401860	3256.303080
573.756743	3263.232146
574.111570	3273.488373
574.466342	3282.043212
574.821059	3299.193217
575.175722	3303.705050
575.530330	3312.827018
575.884882	3323.531908
576.239380	3332.721931
576.593823	3346.751462
576.948211	3357.993235
577.302544	3362.346272
577.656823	3378.225906
578.011047	3399.640728
578.365216	3410.186822
578.719330	3421.652926
579.073389	3434.270934
579.427394	3453.654171
579.781344	3472.064465
580.135239	3482.635764
580.489080	3504.544619
580.842866	3514.962163
581.196597	3545.935012
581.550273	3569.116758
581.903895	3585.119901
582.257463	3617.567288
582.610975	3630.263434
582.964434	3659.096313
583.317837	3676.904189
583.671186	3690.079245
584.024481	3724.051581
584.377721	3735.679002
584.730906	3767.082870
585.084037	3792.034061
585.437113	3803.926143
585.790135	3832.685926
586.143103	3844.605734
586.496016	3881.917834
586.848874	3905.767533
587.201679	3938.025876
587.554428	3955.380048
587.907124	3993.949917
588.259765	4017.673587
588.612352	4063.525401
588.964884	4070.295671
589.317362	4113.647073
589.669786	4145.159326
590.022155	4169.833254
590.374470	4218.041808
590.726731	4226.551276
591.078937	4244.815376
591.431090	4279.110346
591.783188	4298.980053
592.135232	4316.014112
592.487222	4355.935010
592.839157	4400.072832
593.191038	4420.209721
593.542866	4443.673772
593.894639	4457.582315
594.246358	4502.123430
594.598022	4536.287330
594.949633	4555.274836
595.301190	4584.221141
595.652692	4612.900265
596.004141	4662.212832
596.355535	4649.136079
596.706876	4678.863763
597.058162	4706.290161
597.409395	4770.617804
597.760573	4816.197397
598.111698	4828.112164
598.462768	4867.085324
598.813785	4911.954114
599.164748	4916.481070
599.515657	4981.973221
599.866511	4992.413450
600.217312	5069.517898
600.568060	5052.322523
600.918753	5134.142970
601.269392	5179.273900
601.619978	5198.881468
601.970510	5257.046301
602.320988	5314.669210
602.671412	5382.439962
603.021783	5407.174383
603.372100	5428.695069
603.722363	5481.770857
604.072572	5534.970153
604.422728	5581.868008
604.772830	5608.104693
605.122878	5664.290873
605.472872	5710.329211
605.822813	5776.005363
606.172701	5819.210572
606.522534	5890.356376
606.872314	5966.606349
607.222041	5996.452500
607.571714	6082.961221
607.921333	6084.841571
608.270899	6163.773437
608.620411	6255.524958
608.969870	6293.840248
609.319276	6347.919226
609.668627	6409.635552
610.017926	6512.525502
610.367171	6591.918633
610.716362	6660.344735
611.065500	6717.271965
611.414585	6794.739376
611.763616	6889.737400
612.112594	6948.013138
612.461518	7036.147631
612.810389	7139.009855
613.159207	7189.701177
613.507971	7268.562467
613.856682	7389.938328
614.205340	7446.608459
614.553945	7603.476564
614.902496	7604.227696
615.250994	7734.402891
615.599439	7825.257087
615.947830	7924.759381
616.296169	8013.730705
616.644454	8117.238197
616.992686	8215.676808
617.340864	8380.280563
617.688990	8424.534332
618.037063	8603.467567
618.385082	8683.818519
618.733048	8816.378180
619.080961	8902.556705
619.428821	8981.067635
619.776628	9068.025018
620.124382	9118.411351
620.472083	9214.470537
620.819731	9296.250655
621.167326	9304.238364
621.514868	9367.734217
621.862357	9357.500675
622.209793	9423.499461
622.557176	9433.314587
622.904506	9442.292882
623.251783	9451.114902
623.599007	9471.879414
623.946179	9499.315894
624.293297	9559.905522
624.640363	9523.427733
624.987376	9589.396272
625.334336	9626.327765
625.681243	9627.555286
626.028097	9694.002735
626.374899	9740.895548
626.721647	9818.310027
627.068343	9872.683913
627.414987	9910.674048
627.761577	9945.387433
628.108115	10083.862888
628.454600	10059.110823
628.801032	10178.341673
629.147412	10251.844217
629.493739	10332.384211
629.840014	10346.113794
630.186236	10504.121199
630.532405	10508.713690
630.878521	10638.220933
631.224585	10699.798627
631.570597	10723.454241
631.916556	10846.891934
632.262462	10925.559140
632.608316	11008.367654
632.954117	11056.404809
633.299866	11136.435647
633.645562	11186.731239
633.991206	11149.729169
634.336797	11110.241811
634.682336	11181.559015
635.027823	11186.085971
635.373257	11216.829448
635.718639	11229.134904
636.063968	11251.421845
636.409245	11173.281440
636.754470	11258.786971
637.099642	11274.895978
637.444762	11222.452855
637.789829	11329.189205
638.134845	11319.643780
638.479808	11373.500947
638.824719	11418.329408
639.169577	11397.769062
639.514383	11480.348203
639.859137	11479.506331
640.203839	11615.098246
640.548489	11592.760893
640.893086	11680.267762
641.237632	11684.197341
641.582125	11786.789863
641.926566	11843.026455
642.270955	11907.099520
642.615292	11994.165288
642.959576	12057.877911
643.303809	12132.819704
643.647990	12256.892583
643.992118	12334.208759
644.336195	12406.360274
644.680219	12512.121161
645.024192	12696.660159
645.368112	12945.544445
645.711981	13047.360629
646.055797	13408.939910
646.399562	13493.548115
646.743274	13886.939597
647.086935	14127.616884
647.430544	14176.473227
647.774101	14305.559533
648.117606	14463.372854
648.461059	14639.659483
648.804460	14578.059104
649.147810	14450.059167
649.491108	14435.404532
649.834354	14376.803639
650.177548	14166.879911
650.520690	14085.404782
650.863781	14172.778061
651.206820	14187.825905
651.549807	14110.139204
651.892742	14015.105892
652.235626	14019.781562
652.578458	14052.743147
652.921238	13914.549996
653.263967	14101.024798
653.606644	14070.823245
653.949269	14130.112255
654.291843	14042.880129
654.634365	14262.074540
654.976836	14196.000136
655.319255	14269.492598
655.661622	14343.922713
656.003938	14335.604810
656.346203	14357.150701
656.688416	14494.985930
657.030577	14500.271579
657.372687	14503.684441
657.714746	14674.932437
658.056753	14800.482373
658.398708	14660.103883
658.740612	14749.226442
659.082465	14931.053299
659.424266	14942.453868
659.766016	15056.018462
660.107715	15071.212499
660.449362	15199.613208
660.790958	15261.044709
661.132503	15335.147150
661.473996	15416.254274
661.815438	15545.537185
662.156829	15696.413879
662.498168	15667.885989
662.839456	15753.699031
663.180693	15882.548402
663.521879	16032.714293
663.863013	16085.502736
664.204097	16158.193653
664.545129	16431.860252
664.886110	16485.956874
665.227040	16587.531083
665.567918	16723.911938
665.908746	16815.824776
666.249522	16967.024103
666.590248	17040.153601
666.930922	17162.199936
667.271545	17222.252681
667.612118	17330.619845
667.952639	17294.994010
668.293109	17411.053975
668.633528	17412.851146
668.973896	17458.733208
669.314213	17551.891210
669.654480	17497.020771
669.994695	17578.027073
670.334859	17585.281293
670.674973	17620.597096
671.015035	17769.996732
671.355047	17818.417014
671.695008	17851.955811
672.034918	17887.886635
672.374777	18005.216970
672.714585	17991.114342
673.054342	18172.933638
673.394049	18125.438407
673.733705	18338.820367
674.073310	18227.501608
674.412864	18331.750149
674.752368	18199.513122
675.091820	18427.595086
675.431223	18282.117468
675.770574	18204.130818
676.109875	18183.562911
676.449125	18113.538763
676.788324	18144.637641
677.127473	17928.210824
677.466571	17946.351417
677.805619	17825.467068
678.144616	17901.018841
678.483562	17923.376358
678.822458	17807.071897
679.161303	17836.625662
679.500098	17853.606789
679.838842	17845.795521
680.177535	18005.219491
680.516179	18220.504486
680.854771	18431.587680
681.193314	18988.315067
681.531805	19669.390075
681.870247	20145.300204
682.208638	20593.098338
682.546978	20778.264960
682.885268	20878.495701
683.223508	20658.139305
683.561697	20537.126407
683.899836	20478.606172
684.237925	20263.732031
684.575963	20237.623895
684.913951	20028.839468
685.251889	20190.753767
685.589776	20240.429297
685.927614	20295.118255
686.265401	20437.614030
686.603137	20545.547654
686.940824	20896.278372
687.278460	21159.978609
687.616046	21287.812188
687.953582	21682.176612
688.291068	21637.993419
688.628504	21862.944827
688.965889	21866.803831
689.303224	21692.954599
689.640510	21562.948282
689.977745	21181.973163
690.314930	20775.462078
690.652065	20537.796880
690.989150	20138.134203
691.326185	19669.327060
691.663170	19307.299118
692.000105	18916.065250
692.336990	18563.650787
692.673825	18337.088731
693.010610	18078.795131
693.347345	17772.703831
693.684030	17409.599602
694.020665	17293.070810
694.357251	16917.988799
694.693786	16943.108869
695.030272	16837.781521
695.366707	16544.005760
695.703093	16397.358595
696.039429	16442.759226
696.375716	16307.709235
696.711952	16327.992318
697.048139	16264.665343
697.384276	16190.169692
697.720363	16299.736651
698.056400	16210.457816
698.392388	16106.413442
698.728326	16118.706295
699.064214	16028.346133
699.400053	16029.082142
699.735842	15843.040880
700.071581	15705.094746
700.407270	15560.504371
700.742910	15471.568335
701.078501	15338.761657
701.414042	15191.275140
701.749533	15039.241502
702.084974	14848.050701
702.420366	15018.416495
702.755709	14769.718732
703.091002	14606.345018
703.426246	14650.588705
703.761440	14622.448984
704.096584	14475.637981
704.431679	14476.918434
704.766725	14450.240648
705.101721	14437.874698
705.436668	14525.736968
705.771565	14346.249206
706.106413	14603.776550
706.441212	14635.387105
706.775961	14757.080559
707.110661	14823.275950
707.445311	15096.171252
707.779913	15013.445918
708.114465	15191.970819
708.448967	15416.763431
708.783421	15916.798002
709.117825	16132.309849
709.452180	16310.718804
709.786485	16598.278822
710.120742	17160.674987
710.454949	17170.999270
710.789107	17509.600971
711.123216	18014.999329
711.457275	18090.493128
711.791286	18484.970979
712.125247	18554.967400
712.459159	18355.854426
712.793023	18845.476493
713.126837	18100.628368
713.460602	18332.586980
713.794318	18102.496116
714.127985	17877.365747
714.461602	17283.326260
714.795171	17294.895708
715.128691	16610.916995
715.462162	16275.092970
715.795584	16023.206677
716.128957	15863.969230
716.462281	15612.647546
716.795556	15483.281456
717.128782	15148.175795
717.461960	14775.379948
717.795088	14757.874541
718.128167	14497.579603
718.461198	14186.618549
718.794180	14104.006640
719.127113	13874.487947
719.459997	13752.045882
719.792833	13517.198688
720.125619	13518.164069
720.458357	13293.361375
720.791046	13188.129809
721.123686	13079.107296
721.456278	12916.545208
721.788821	12905.384093
722.121315	12718.314436
722.453761	12796.101960
722.786158	12749.171338
723.118506	12773.772169
723.450805	12683.296060
723.783056	12826.527844
724.115259	12755.981937
724.447412	12711.854197
724.779518	12920.570569
725.111574	12946.303139
725.443582	13118.145991
725.775542	13119.315539
726.107453	13487.854132
726.439315	13412.388059
726.771129	13729.678282
727.102895	14013.467517
727.434612	14160.913705
727.766281	14264.973203
728.097901	14461.802534
728.429473	14501.073123
728.760996	14500.964738
729.092471	14599.219347
729.423897	14530.705025
729.755276	14460.106186
730.086606	14569.567280
730.417887	14984.950795
730.749120	15402.610392
731.080305	15549.247475
731.411442	15824.620503
731.742530	15897.802934
732.073570	15997.809344
732.404562	16227.179323
732.735506	16078.447641
733.066401	15871.379726
733.397249	15483.379758
733.728048	15025.995870
734.058798	14415.471810
734.389501	13900.278490
734.720156	13572.711875
735.050762	13169.333867
735.381320	12894.016291
735.711831	12726.919685
736.042293	12447.677571
736.372707	12470.161117
736.703073	12300.949747
737.033391	12477.077580
737.363661	12449.225205
737.693883	12546.461501
738.024056	12684.223633
738.354182	12828.826610
738.684260	13068.314185
739.014290	13236.189650
739.344272	13384.223132
739.674207	13610.941465
740.004093	13696.144527
740.333931	13702.468654
740.663722	13737.630702
740.993464	13742.573553
741.323159	13621.003608
741.652806	13418.077001
741.982405	13257.821241
742.311956	12986.889468
742.641460	12919.239704
742.970915	12674.325327
743.300323	12411.713979
743.629683	12258.175557
743.958996	12043.470294
744.288260	11839.285919
744.617477	11606.994591
744.946647	11561.611603
745.275768	11352.280210
745.604842	11210.505320
745.933869	11083.135527
746.262847	11052.417256
746.591778	11006.767088
746.920662	10926.642988
747.249498	10939.460122
747.578286	11035.577282
747.907027	11153.255457
748.235720	11332.957468
748.564365	11355.017557
748.892963	11284.219592
749.221514	11338.659013
749.550017	11229.429812
749.878473	11202.149608
750.206881	11028.464214
750.535242	10963.425767
750.863555	10901.653989
751.191821	10823.619448
751.520039	10843.970586
751.848210	10778.370051
752.176334	10807.291150
752.504411	10737.813968
752.832440	10604.316653
753.160421	10656.419498
753.488356	10553.665659
753.816243	10482.943312
754.144082	10369.043482
754.471875	10327.922790
754.799620	10281.367734
755.127318	10255.599876
755.454969	10234.661444
755.782572	10194.944713
756.110129	10210.897445
756.437638	10142.347835
756.765100	10134.511361
757.092515	10146.748762
757.419882	10162.585547
757.747203	10165.605198
758.074477	10230.464683
758.401703	10196.295743
758.728882	10336.346558
759.056014	10378.094874
759.383099	10468.066867
759.710138	10564.156300
760.037129	10633.726744
760.364073	10649.331636
760.690970	10643.246963
761.017820	10663.288070
761.344623	10832.078504
761.671379	11137.113682
761.998088	11702.272398
762.324751	13120.810241
762.651366	15604.478356
762.977935	18673.807561
763.304456	20456.505754
763.630931	20779.792430
763.957359	19753.428630
764.283740	18134.194891
764.610074	16519.167995
764.936362	14750.244755
765.262602	13473.494405
765.588796	12207.229656
765.914943	11359.915038
766.241044	10650.707871
766.567097	10118.934196
766.893104	9648.173605
767.219064	9345.618675
767.544978	9029.871045
767.870845	8761.046475
768.196665	8609.529555
768.522438	8442.269112
768.848165	8300.138820
769.173846	8159.770412
769.499479	8056.678816
769.825066	7921.154956
770.150607	7764.422963
770.476101	7712.143677
770.801548	7618.645396
771.126949	7501.294896
771.452303	7425.788494
771.777611	7281.152749
772.102872	7269.802591
772.428087	7163.441807
772.753256	7064.262146
773.078378	6997.124059
773.403453	6871.634616
773.728482	6780.787983
774.053465	6723.223047
774.378401	6653.032542
774.703291	6575.970943
775.028135	6485.958621
775.352932	6456.397295
775.677683	6380.840481
776.002388	6308.837680
776.327046	6311.738864
776.651658	6235.451083
776.976224	6168.310476
777.300743	6159.528786
777.625216	6103.952585
777.949643	6069.912194
778.274024	6072.286577
778.598359	6009.995560
778.922647	6012.490931
779.246889	5975.816537
779.571086	5987.811962
779.895236	5989.430173
780.219339	5991.686089
780.543397	5989.072251
780.867409	6037.789962
781.191374	6036.287698
781.515294	6007.495147
781.839167	6054.098094
782.162995	6028.289907
782.486776	5985.452702
782.810511	5954.043793
783.134201	5885.869749
783.457844	5878.749119
783.781441	5838.606411
784.104993	5796.868178
784.428498	5775.062667
784.751958	5760.435759
785.075372	5741.354992
785.398739	5710.175455
785.722061	5728.681531
786.045337	5736.114712
786.368568	5835.007028
786.691752	5860.837900
787.014891	6086.994144
787.337983	6341.418658
787.661030	6728.725467
787.984031	7095.187104
788.306987	7316.980229
788.629897	7388.957824
788.952760	7314.149622
789.275579	7167.721746
789.598351	6900.843062
789.921078	6670.442166
790.243759	6415.959679
790.566395	6242.181024
790.888984	6069.352626
791.211529	5945.698163
791.534027	5804.041740
791.856480	5681.766033
792.178888	5631.770390
792.501249	5571.742850
792.823566	5478.085773
793.145836	5478.123582
793.468062	5464.406602
793.790241	5426.890336
794.112375	5459.836797
794.434464	5556.347166
794.756507	5581.946146
795.078505	5695.876222
795.400457	5890.807559
795.722364	6102.036947
796.044226	6268.735302
796.366042	6409.287712
796.687812	6359.097984
797.009538	6381.982302
797.331218	6300.323172
797.652852	6243.393421
797.974442	6133.670187
798.295986	6073.861938
798.617484	5956.181243
798.938938	5862.067941
799.260346	5799.197191
799.581709	5676.069529
799.903026	5627.447600
800.224299	5563.853444
800.545526	5462.705213
800.866708	5406.579527
801.187845	5355.860478
801.508936	5288.734994
801.829983	5263.720788
802.150984	5170.260317
802.471940	5142.521368
802.792851	5127.458400
803.113717	5110.683961
803.434538	5087.091361
803.755314	5053.920568
804.076045	5050.270773
804.396731	5016.376575
804.717372	5031.046333
805.037967	5032.392321
805.358518	5055.624478
805.679024	5108.803610
805.999485	5118.379282
806.319901	5134.301766
806.640272	5148.117048
806.960598	5189.646074
807.280879	5182.575856
807.601115	5216.432245
807.921306	5181.151730
808.241453	5175.651831
808.561554	5189.777144
808.881611	5159.633564
809.201623	5157.312113
809.521590	5113.302840
809.841513	5103.497796
810.161390	5118.959015
810.481223	5035.691756
810.801011	5028.069531
811.120755	5004.776880
811.440453	4953.662101
811.760107	4932.988329
812.079716	4908.049741
812.399281	4859.881516
812.718801	4852.672666
813.038276	4827.595446
813.357707	4793.819715
813.677093	4814.591789
813.996434	4762.458697
814.315731	4782.038538
814.634983	4774.575110
814.954191	4790.018685
815.273354	4844.500955
815.592473	4880.429259
815.911547	4947.199341
816.230577	4995.541486
816.549562	5076.164660
816.868502	5126.881188
817.187399	5174.961193
817.506250	5252.552112
817.825058	5281.997492
818.143821	5424.548720
818.462539	5589.651549
818.781213	5802.993180
819.099843	6141.211753
819.418429	6731.810653
819.736970	7290.395705
820.055466	7949.060263
820.373919	8814.374321
820.692327	10211.583042
821.010691	12782.964713
821.329011	18538.707158
821.647286	26967.395401
821.965517	35822.761865
822.283704	40240.055278
822.601847	41343.611746
822.919945	37237.675117
823.237999	32788.272074
823.556010	28253.991124
823.873976	24147.429392
824.191897	20471.500666
824.509775	17766.682173
824.827609	15385.152876
825.145398	14066.447523
825.463144	13467.389568
825.780845	13811.680211
826.098502	15026.477300
826.416116	17225.496663
826.733685	19215.204798
827.051210	19535.050887
827.368692	18157.542995
827.686129	15845.692527
828.003522	13634.776040
828.320872	11659.379741
828.638177	10204.994253
828.955439	9095.083411
829.272656	8140.346846
829.589830	7374.285546
829.906960	6727.588686
830.224046	6246.150932
830.541088	5884.985027
830.858086	5659.811808
831.175041	5483.436958
831.491952	5440.740906
831.808819	5479.073840
832.125642	5728.127004
832.442421	6269.284787
832.759157	7332.012950
833.075849	8977.627047
833.392497	10620.337439
833.709101	11547.395549
834.025662	11232.646068
834.342179	10241.338452
834.658653	9062.502434
834.975083	8069.478305
835.291469	7264.655573
835.607811	6602.731908
835.924110	6128.407222
836.240366	5683.195200
836.556578	5271.458960
836.872746	4954.856854
837.188871	4709.690419
837.504952	4507.449409
837.820990	4363.184189
838.136984	4258.340792
838.452935	4221.283270
838.768842	4261.073097
839.084706	4549.548085
839.400526	5259.365232
839.716303	6069.733233
840.032037	6537.411157
840.347727	6362.271391
840.663373	5801.309435
840.978977	5278.728303
841.294537	4887.665835
841.610054	4586.519907
841.925527	4373.715159
842.240957	4188.490564
842.556344	4020.244575
842.871687	3872.619426
843.186987	3737.899630
843.502244	3631.838795
843.817458	3552.506157
844.132629	3488.949809
844.447756	3441.956173
844.762840	3402.483939
845.077881	3369.124103
845.392879	3336.084381
845.707833	3315.398006
846.022745	3290.048564
846.337613	3281.511370
846.652438	3256.741660
846.967221	3248.660691
847.281960	3232.082856
847.596656	3222.343347
847.911309	3212.170299
848.225919	3200.908361
848.540485	3190.639531
848.855009	3183.534024
849.169490	3171.765451
849.483928	3165.085922
849.798323	3162.789676
850.112675	3151.086637
850.426984	3151.189981
850.741251	3148.235865
851.055474	3141.800832
851.369654	3147.557830
851.683792	3144.916265
851.997887	3145.062459
852.311938	3144.109681
852.625947	3144.767551
852.939914	3137.115080
853.253837	3143.071203
853.567718	3139.970893
853.881555	3139.050883
854.195350	3143.618168
854.509103	3137.818321
854.822812	3135.469143
855.136479	3130.511168
855.450103	3136.127013
855.763685	3131.043010
856.077224	3134.181128
856.390720	3137.624236
856.704173	3147.353663
857.017584	3154.184427
857.330953	3157.675426
857.644278	3166.540295
857.957561	3168.521468
858.270802	3166.724297
858.584000	3165.625325
858.897155	3165.426200
859.210268	3151.542862
859.523339	3139.799494
859.836367	3138.806387
860.149352	3131.534522
860.462295	3126.879017
860.775195	3119.592029
861.088054	3114.916359
861.400869	3115.962398
861.713642	3113.550206
862.026373	3119.239148
862.339062	3128.744244
862.651708	3134.483597
862.964312	3152.414982
863.276873	3157.284736
863.589392	3190.241279
863.901869	3210.358004
864.214303	3230.888103
864.526696	3247.355032
864.839045	3262.675098
865.151353	3275.943415
865.463619	3275.451903
865.775842	3275.192283
866.088023	3280.225876
866.400162	3274.073147
866.712258	3275.174639
867.024313	3275.898045
867.336325	3271.602982
867.648296	3272.770009
867.960224	3271.600461
868.272110	3276.490381
868.583954	3274.438631
868.895755	3282.862399
869.207515	3277.236471
869.519233	3297.995943
869.830909	3304.935091
870.142542	3313.991524
870.454134	3320.716423
870.765684	3329.273782
871.077191	3348.382276
871.388657	3360.420551
871.700081	3372.693240
872.011463	3396.031262
872.322803	3412.097419
872.634101	3428.403031
872.945357	3446.558747
873.256571	3472.061944
873.567744	3485.557113
873.878874	3490.618431
874.189963	3504.670648
874.501010	3506.762727
874.812015	3505.918333
875.122979	3519.589943
875.433900	3513.916124
875.744780	3518.392668
876.055618	3523.393493
876.366415	3523.151518
876.677169	3528.144781
876.987882	3544.253788
877.298554	3564.504103
877.609183	3600.734875
877.919771	3642.858757
878.230317	3707.960218
878.540822	3807.850681
878.851285	3952.975418
879.161707	4162.052233
879.472087	4522.903066
879.782425	5124.685765
880.092722	6258.663076
880.402977	8040.945374
880.713191	10152.097426
881.023363	12167.235662
881.333494	13276.808747
881.643583	13641.493378
881.953631	13245.205753
882.263637	12486.807007
882.573602	11588.491036
882.883526	10753.625547
883.193408	9909.895190
883.503248	9093.593750
883.813048	8349.043053
884.122806	7655.032445
884.432522	6970.310162
884.742197	6382.312498
885.051831	5886.499893
885.361424	5447.667451
885.670975	5098.486889
885.980485	4809.764885
886.289954	4569.478287
886.599382	4371.728945
886.908768	4210.573338
887.218113	4065.279723
887.527417	3943.800518
887.836680	3832.423786
888.145901	3738.176894
888.455082	3673.241791
888.764221	3610.625619
889.073319	3555.699728
889.382376	3525.649409
889.691392	3507.740710
890.000366	3500.385667
890.309300	3494.245542
890.618193	3499.269051
890.927044	3494.694204
891.235855	3501.978672
891.544625	3516.850075
891.853353	3546.204714
892.162041	3603.943570
892.470687	3688.672763
892.779293	3803.318684
893.087858	3966.193323
893.396381	4232.482193
893.704864	4624.648674
894.013306	5153.579139
894.321707	5666.171223
894.630068	5964.201718
894.938387	5965.522501
895.246665	5793.798115
895.554903	5501.892622
895.863100	5195.894584
896.171256	4952.336277
896.479371	4732.030292
896.787446	4534.117113
897.095480	4354.964588
897.403473	4224.635637
897.711425	4091.929783
898.019336	3977.304027
898.327207	3866.537274
898.635038	3775.012605
898.942827	3678.487112
899.250576	3599.303188
899.558284	3526.982795
899.865952	3474.325422
900.173579	3417.443563
900.481165	3376.126266
900.788711	3339.348528
901.096216	3308.226965
901.403681	3283.547996
901.711105	3274.773868
902.018489	3272.268414
902.325832	3304.960297
902.633135	3366.729555
902.940397	3535.540153
903.247619	3932.823406
903.554800	4644.359586
903.861941	5510.641545
904.169041	6108.902998
904.476101	6252.550677
904.783121	5976.587833
905.090100	5613.970075
905.397039	5246.585907
905.703938	4922.059107
906.010796	4634.108399
906.317614	4407.995005
906.624391	4196.054815
906.931129	4019.458155
907.237826	3857.586705
907.544483	3701.996533
907.851099	3542.302861
908.157675	3400.215419
908.464211	3270.168774
908.770707	3180.499250
909.077163	3111.962242
909.383578	3056.854869
909.689954	3015.600587
909.996289	2992.945641
910.302584	2971.654328
910.608839	2965.637711
910.915054	2952.104733
911.221229	2948.966615
911.527363	2952.107254
911.833458	2958.832153
912.139513	2969.942856
912.445527	2983.743015
912.751502	3015.741739
913.057436	3057.444684
913.363331	3110.233127
913.669186	3192.071218
913.975000	3303.442910
914.280775	3481.556957
914.586510	3734.446440
914.892205	4086.664297
915.197859	4545.394174
915.503475	5073.155091
915.809050	5507.924363
916.114585	5754.177167
916.420081	5794.062776
916.725536	5723.171550
917.030952	5508.131050
917.336328	5314.666689
917.641665	5127.607114
917.946961	4923.470630
918.252218	4738.331735
918.557435	4536.088204
918.862612	4356.988611
919.167750	4202.046227
919.472848	4027.493754
919.777906	3878.308368
920.082925	3731.434351
920.387904	3595.048454
920.692843	3494.492558
920.997743	3408.961821
921.302603	3324.809840
921.607423	3263.811879
921.912204	3207.638301
922.216946	3161.569717
922.521647	3117.189919
922.826310	3080.386975
923.130932	3047.405226
923.435516	3011.242509
923.740059	2988.111175
924.044564	2956.790486
924.349028	2935.214348
924.653454	2908.592014
924.957840	2884.462531
925.262186	2867.488966
925.566493	2846.585822
925.870761	2825.050012
926.174989	2815.239927
926.479178	2802.879018
926.783328	2788.000052
927.087438	2776.541510
927.391509	2765.171187
927.695541	2754.153745
927.999533	2741.417270
928.303486	2735.317474
928.607400	2733.757237
928.911275	2726.278685
929.215110	2723.579147
929.518906	2718.353991
929.822663	2720.410782
930.126381	2718.570761
930.430060	2723.793396
930.733699	2724.864642
931.037299	2726.797924
931.340861	2726.054354
931.644383	2730.266238
931.947866	2727.876731
932.251309	2725.605691
932.554714	2723.788355
932.858080	2723.344734
933.161407	2719.173179
933.464694	2717.507077
933.767943	2712.370142
934.071153	2711.535831
934.374323	2705.975438
934.677455	2706.250181
934.980548	2702.365972
935.283602	2696.256093
935.586617	2699.734490
935.889593	2701.627443
936.192530	2704.621888
936.495428	2709.912579
936.798287	2715.974567
937.101108	2728.035527
937.403890	2748.575709
937.706632	2772.004471
938.009336	2802.601754
938.312002	2829.345076
938.614628	2851.785772
938.917216	2866.959645
939.219765	2877.450286
939.522275	2886.216853
939.824747	2884.901112
940.127179	2878.851727
940.429573	2870.821169
940.731929	2870.760675
941.034246	2864.310519
941.336524	2860.345651
941.638763	2854.896164
941.940964	2847.662108
942.243126	2833.090653
942.545250	2825.024807
942.847335	2812.522745
943.149381	2798.021866
943.451389	2786.679270
943.753359	2778.111829
944.055290	2766.270159
944.357182	2762.277565
944.659036	2756.480238
944.960851	2754.683067
945.262628	2749.394896
945.564367	2751.338261
945.866067	2749.684762
946.167729	2747.978332
946.469352	2746.097982
946.770937	2745.462796
947.072484	2739.851992
947.373992	2739.937692
947.675462	2736.653380
947.976893	2731.579458
948.278286	2728.378326
948.579641	2724.292471
948.880958	2721.197202
949.182236	2722.316338
949.483476	2718.863148
949.784678	2718.535473
950.085841	2721.424054
950.386967	2722.878427
950.688054	2729.016032
950.989103	2735.181363
951.290114	2744.489853
951.591087	2753.989908
951.892021	2764.420055
952.192917	2775.074534
952.493776	2785.976029
952.794596	2785.933179
953.095378	2792.095990
953.396122	2790.361833
953.696828	2784.259516
953.997496	2781.885133
954.298126	2771.129831
954.598718	2764.946856
954.899272	2755.862697
955.199788	2745.684607
955.500266	2733.754716
955.800706	2719.594115
956.101108	2705.057948
956.401472	2696.276258
956.701798	2684.157324
957.002087	2669.505211
957.302337	2666.472957
957.602550	2655.059784
957.902724	2645.683238
958.202861	2637.274593
958.502960	2629.743110
958.803022	2625.332100
959.103045	2617.730040
959.403031	2613.129987
959.702979	2607.781323
960.002889	2604.567587
960.302762	2599.259252
960.602596	2596.136257
960.902393	2591.843715
961.202153	2592.962851
961.501875	2588.405648
961.801559	2585.504464
962.101205	2583.971953
962.400814	2578.401478
962.700385	2582.003383
962.999918	2578.522466
963.299414	2577.604976
963.598873	2573.456106
963.898293	2577.219328
964.197677	2571.245560
964.497022	2573.032649
964.796331	2572.198338
965.095601	2570.262535
965.394835	2569.289593
965.694030	2571.366548
965.993189	2569.019891
966.292309	2569.342525
966.591393	2569.294634
966.890439	2568.606516
967.189447	2567.999057
967.488419	2569.531568
967.787353	2568.387226
968.086249	2567.568039
968.385108	2568.500652
968.683930	2569.639953
968.982714	2573.123390
969.281462	2571.550550
969.580172	2573.826631
969.878844	2575.001220
970.177480	2580.488516
970.476078	2582.515060
970.774639	2584.753332
971.073162	2586.631162
971.371649	2587.977150
971.670098	2587.785586
971.968510	2589.668457
972.266885	2587.659557
972.565223	2592.783890
972.863524	2593.978644
973.161788	2593.028386
973.460014	2596.103490
973.758204	2598.989551
974.056356	2596.587441
974.354471	2597.361258
974.652550	2597.668768
974.950591	2597.346134
975.248595	2597.285641
975.546563	2597.681371
975.844493	2594.949066
976.142386	2594.220619
976.440243	2591.730289
976.738062	2590.593509
977.035845	2587.944382
977.333590	2587.783066
977.631299	2584.768456
977.928971	2583.256109
978.226606	2580.695203
978.524204	2579.112281
978.821765	2578.691345
979.119290	2579.218145
979.416777	2576.372414
979.714228	2579.644123
980.011642	2579.712178
980.309020	2581.736202
980.606360	2589.635690
980.903664	2592.940166
981.200931	2608.378700
981.498162	2624.180196
981.795356	2650.013589
982.092513	2684.971471
982.389633	2724.237018
982.686717	2760.067019
982.983764	2785.512243
983.280775	2802.795839
983.577749	2801.596044
983.874686	2791.614560
984.171587	2777.214504
984.468451	2765.965169
984.765279	2748.215266
985.062070	2732.002915
985.358824	2716.186295
985.655543	2695.212575
985.952224	2677.318999
986.248869	2653.370998
986.545478	2630.111114
986.842050	2611.529421
987.138586	2599.153388
987.435086	2583.631675
987.731549	2573.872002
988.027975	2572.094995
988.324366	2564.871021
988.620719	2562.874724
988.917037	2560.034034
989.213318	2557.357182
989.509563	2555.466749
989.805772	2554.662685
990.101944	2554.609753
990.398080	2553.321738
990.694180	2552.061449
990.990244	2550.304607
991.286271	2549.775286
991.582262	2555.373487
991.878217	2552.711758
992.174136	2556.636297
992.470019	2553.493137
992.765865	2556.512788
993.061676	2558.269630
993.357450	2563.938408
993.653188	2564.994530
993.948890	2567.873028
994.244556	2572.939388
994.540186	2584.788620
994.835780	2595.712801
995.131337	2607.519183
995.426859	2623.156842
995.722345	2636.566311
996.017795	2657.915598
996.313208	2668.617967
996.608586	2676.590552
996.903928	2674.248936
997.199234	2675.219358
997.494504	2672.114008
997.789738	2668.073523
998.084936	2655.145484
998.380099	2647.349339
998.675225	2637.284676
998.970316	2627.005763
999.265371	2612.895573
999.560390	2602.858636
999.855373	2598.543408
1000.150320	2582.872982
1000.445232	2576.115315
1000.740108	2568.263718
1001.034948	2566.111145
1001.329752	2559.552604
1001.624521	2556.664023
1001.919254	2553.157900
1002.213951	2549.402241
1002.508613	2543.362938
1002.803239	2548.514998
1003.097829	2543.052907
1003.392384	2545.334030
1003.686903	2546.203629
1003.981386	2544.824873
1004.275834	2544.950902
1004.570246	2542.132897
1004.864623	2542.538710
1005.158964	2538.692309
1005.453270	2541.119625
1005.747540	2540.512166
1006.041775	2536.905220
1006.335974	2540.640715
1006.630138	2538.329346
1006.924266	2537.469830
1007.218359	2537.895807
1007.512416	2537.545447
1007.806438	2537.714326
1008.100425	2538.437731
1008.394376	2538.087371
1008.688292	2539.786240
1008.982172	2537.094264
1009.276017	2538.352032
1009.569827	2535.536547
1009.863602	2538.906558
1010.157341	2537.220292
1010.451045	2537.295910
1010.744714	2537.001002
1011.038347	2536.585107
1011.331945	2537.522762
1011.625508	2534.145189
1011.919036	2534.929088
1012.212528	2532.655528
1012.505986	2533.757020
1012.799408	2533.688964
1013.092795	2533.099149
1013.386147	2533.885569
1013.679464	2533.963707
1013.972745	2533.404139
1014.265992	2533.898172
1014.559204	2534.992102
1014.852380	2535.929757
1015.145521	2533.794828
1015.438628	2533.227699
1015.731699	2535.990251
1016.024736	2534.344314
1016.317737	2533.762061
1016.610703	2536.126362
1016.903635	2533.623429
1017.196531	2532.670651
1017.489393	2537.948739
1017.782219	2532.247194
1018.075011	2535.889428
1018.367768	2536.363296
1018.660490	2536.328008
1018.953177	2536.328008
1019.245829	2536.328008
