Dividing Wavelength (nm)	Counts (n)	Blue Motor Position (mm): 11.500000	Red Motor Position (mm): 0.000000	
326.493990	2137.476957
326.888308	2137.476957
327.282561	2137.476957
327.676750	2106.098295
328.070874	2104.651484
328.464933	2107.698861
328.858929	2115.449635
329.252859	2124.460698
329.646726	2133.461678
330.040528	2149.278298
330.434265	2165.404949
330.827938	2184.130315
331.221547	2197.222192
331.615091	2216.741540
332.008571	2237.838768
332.401986	2259.845926
332.795338	2275.405447
333.188625	2297.145423
333.581847	2315.454894
333.975006	2332.894765
334.368100	2353.104751
334.761129	2371.147041
335.154095	2385.302601
335.546996	2403.740621
335.939833	2424.139650
336.332606	2437.496187
336.725315	2448.117898
337.117960	2462.260855
337.510540	2468.632874
337.903056	2481.666777
338.295508	2484.469659
338.687896	2497.133037
339.080220	2503.754593
339.472480	2511.351612
339.864676	2514.066273
340.256807	2517.408558
340.648875	2522.174969
341.040879	2522.515247
341.432818	2525.965917
341.824694	2528.912471
342.216506	2527.266534
342.608253	2526.580937
342.999937	2525.161853
343.391557	2528.983047
343.783113	2525.083715
344.174605	2526.391894
344.566033	2523.460463
344.957397	2521.733868
345.348697	2519.281347
345.739934	2520.380318
346.131106	2517.302694
346.522215	2515.046777
346.913260	2512.463186
347.304241	2514.651047
347.695159	2509.589728
348.086012	2508.480674
348.476802	2508.246261
348.867528	2500.687051
349.258191	2504.712412
349.648789	2499.474653
350.039324	2497.158243
350.429796	2498.352996
350.820203	2499.472133
351.210548	2498.486587
351.600828	2493.808396
351.991045	2497.012049
352.381198	2496.757471
352.771288	2495.471977
353.161314	2494.093221
353.551276	2493.332007
353.941175	2494.037769
354.331010	2496.359220
354.720782	2497.206134
355.110490	2493.682367
355.500135	2494.935094
355.889717	2494.947697
356.279235	2495.015753
356.668689	2496.021463
357.058080	2496.754951
357.447408	2494.025166
357.836672	2491.073570
358.225873	2493.747902
358.615010	2490.587099
359.004084	2496.230671
359.393095	2497.944663
359.782043	2496.633963
360.170927	2495.691267
360.559748	2499.736793
360.948505	2500.054386
361.337199	2498.849550
361.725830	2497.896772
362.114398	2499.890548
362.502903	2502.320384
362.891344	2502.436331
363.279722	2502.648059
363.668037	2503.187463
364.056289	2503.394150
364.444478	2501.244098
364.832603	2503.303409
365.220665	2503.338698
365.608665	2504.785509
365.996601	2502.723677
366.384474	2504.805673
366.772284	2502.446413
367.160031	2505.423215
367.547715	2507.464882
367.935336	2506.202073
368.322893	2506.645694
368.710388	2506.915396
369.097820	2510.880264
369.485189	2507.467402
369.872495	2505.803822
370.259738	2506.960767
370.646918	2506.378513
371.034035	2509.584687
371.421090	2510.638288
371.808081	2507.943792
372.195010	2510.403875
372.581875	2508.447907
372.968678	2512.185922
373.355418	2509.521673
373.742096	2511.618793
374.128710	2511.631396
374.515262	2511.875892
374.901751	2509.214162
375.288177	2511.265912
375.674540	2508.641991
376.060841	2510.754235
376.447079	2511.039060
376.833254	2511.787671
377.219367	2506.441528
377.605417	2510.711385
377.991404	2507.500170
378.377329	2508.420181
378.763191	2508.848679
379.148991	2514.714061
379.534727	2511.906138
379.920402	2515.084586
380.306013	2514.187261
380.691563	2515.618948
381.077049	2513.103413
381.462474	2514.565347
381.847835	2514.895543
382.233134	2514.320851
382.618371	2515.465193
383.003545	2512.536283
383.388657	2516.770852
383.773706	2515.704648
384.158693	2515.387055
384.543618	2515.104751
384.928480	2516.327230
385.313280	2514.063752
385.698017	2514.953516
386.082692	2520.274454
386.467305	2517.761439
386.851856	2519.863600
387.236344	2513.864627
387.620770	2518.968795
388.005133	2519.566172
388.389435	2518.711696
388.773674	2519.994670
389.157851	2517.927797
389.541965	2515.888650
389.926018	2519.588857
390.310008	2520.181193
390.693936	2518.951151
391.077802	2516.581809
391.461606	2520.143384
391.845348	2518.691532
392.229027	2517.539628
392.612645	2520.549197
392.996200	2522.394259
393.379694	2523.221008
393.763125	2524.017511
394.146494	2519.588857
394.529801	2522.714372
394.913047	2523.810823
395.296230	2521.590195
395.679351	2522.474917
396.062410	2523.614218
396.445408	2522.447191
396.828343	2522.994156
397.211217	2520.176151
397.594028	2521.312932
397.976778	2516.014679
398.359466	2522.364012
398.742092	2519.180523
399.124656	2523.972140
399.507158	2523.089938
399.889598	2525.756709
400.271977	2523.513395
400.654294	2527.090094
401.036549	2523.392407
401.418742	2524.340144
401.800874	2524.186389
402.182944	2525.275278
402.564952	2524.960206
402.946898	2525.015659
403.328783	2526.384332
403.710606	2523.243693
404.092367	2524.687984
404.474067	2526.434744
404.855705	2524.680422
405.237282	2527.397604
405.618797	2525.789476
406.000250	2524.624970
406.381642	2528.307533
406.762972	2524.292253
407.144240	2524.529188
407.525447	2527.435413
407.906593	2525.779394
408.287677	2529.078829
408.668700	2525.366019
409.049661	2526.684281
409.430560	2528.264683
409.811399	2528.965403
410.192176	2528.451205
410.572891	2526.054137
410.953545	2532.065713
411.334138	2530.354241
411.714669	2529.524971
412.095139	2529.547656
412.475547	2531.123017
412.855894	2531.052441
413.236180	2530.835671
413.616405	2528.504138
413.996568	2530.225692
414.376670	2531.869108
414.756711	2532.915147
415.136691	2530.543284
415.516609	2530.891124
415.896466	2530.840712
416.276262	2532.605116
416.655997	2527.818541
417.035670	2526.124713
417.415283	2531.417924
417.794834	2526.734693
418.174324	2529.303160
418.553753	2531.407842
418.933121	2531.559077
419.312428	2534.162833
419.691674	2529.703932
420.070859	2534.049407
420.449983	2534.119983
420.829045	2533.182328
421.208047	2529.676206
421.586988	2531.508665
421.965867	2532.723583
422.344686	2530.139992
422.723444	2531.874149
423.102141	2534.288862
423.480777	2530.724766
423.859352	2534.263656
424.237866	2534.896321
424.616319	2532.756351
424.994712	2531.085208
425.373044	2534.246012
425.751314	2532.965559
426.129524	2533.648635
426.507673	2536.575025
426.885762	2535.725590
427.263789	2534.223327
427.641756	2536.335570
428.019662	2535.271887
428.397508	2532.978162
428.775292	2535.007226
429.153016	2531.803573
429.530679	2536.953111
429.908282	2536.315405
430.285824	2536.315405
430.663305	2533.270548
431.040726	2533.242822
431.418086	2533.121834
431.795385	2535.564273
432.172624	2536.073430
432.549802	2536.302803
432.926920	2532.322812
433.303977	2537.164840
433.680974	2536.612833
434.057910	2535.400436
434.434786	2535.889428
434.811601	2537.358924
435.188355	2537.825231
435.565050	2537.752134
435.941683	2537.290869
436.318257	2534.404808
436.694770	2531.349869
437.071222	2536.277597
437.447614	2532.015301
437.823946	2536.020498
438.200218	2538.732639
438.576429	2536.723739
438.952580	2539.599717
439.328670	2538.722556
439.704700	2539.725746
440.080670	2539.153575
440.456580	2539.261960
440.832429	2538.684748
441.208218	2537.731970
441.583947	2539.403112
441.959616	2538.651980
442.335224	2539.614841
442.710773	2537.550488
443.086261	2538.558719
443.461689	2538.034439
443.837057	2536.983358
444.212365	2539.261960
444.587612	2541.127187
444.962800	2539.763555
445.337927	2537.656352
445.712995	2538.513348
446.088002	2540.683565
446.462949	2538.962011
446.837837	2542.606765
447.212664	2538.483102
447.587431	2539.995448
447.962139	2539.014943
448.336786	2541.475026
448.711374	2541.427135
449.085901	2540.718853
449.460369	2538.936805
449.834776	2540.030736
450.209124	2540.033256
450.583412	2540.794471
450.957640	2539.740869
451.331808	2541.459903
451.705917	2539.181301
452.079965	2541.061652
452.453954	2539.060314
452.827883	2541.480068
453.201752	2539.282124
453.575562	2539.080478
453.949311	2538.818338
454.323001	2543.738504
454.696632	2539.813966
455.070202	2543.589790
455.443713	2541.449821
455.817164	2540.716333
456.190556	2537.588297
456.563888	2537.553009
456.937160	2537.863040
457.310373	2542.127856
457.683526	2542.594163
458.056619	2543.161292
458.429653	2540.585263
458.802628	2541.419574
459.175542	2546.057435
459.548398	2540.595345
459.921194	2543.201622
460.293930	2542.500901
460.666607	2540.791950
461.039224	2542.914276
461.411782	2542.894111
461.784280	2543.236910
462.156719	2543.342774
462.529099	2544.537527
462.901419	2543.536858
463.273680	2544.630789
463.645882	2540.867567
464.018024	2543.196580
464.390106	2541.384286
464.762130	2543.897301
465.134094	2543.942671
465.505999	2544.267826
465.877845	2545.500388
466.249631	2545.132383
466.621358	2542.158103
466.993026	2547.229503
467.364634	2548.492313
467.736184	2543.282280
468.107674	2543.940151
468.479105	2546.107847
468.850477	2547.516849
469.221790	2547.446273
469.593043	2545.364277
469.964238	2542.783206
470.335373	2542.263967
470.706449	2545.449976
471.077467	2545.376879
471.448425	2547.660522
471.819324	2546.276725
472.190164	2546.047353
472.560945	2544.250182
472.931667	2543.751107
473.302330	2544.416540
473.672934	2543.998124
474.043479	2545.762528
474.413965	2543.005017
474.784393	2541.611138
475.154761	2544.114070
475.525070	2540.154244
475.895321	2542.284132
476.265513	2542.357228
476.635645	2544.966025
477.005719	2544.713968
477.375734	2543.446117
477.745691	2544.343443
478.115588	2548.525080
478.485427	2547.123639
478.855207	2547.209339
479.224928	2547.050542
479.594591	2546.354863
479.964194	2548.590615
480.333739	2548.046170
480.703226	2547.221942
481.072653	2547.214380
481.442022	2546.637168
481.811333	2548.691438
482.180584	2546.100285
482.549777	2545.989380
482.918912	2544.908052
483.287988	2547.673125
483.657005	2546.496016
484.025964	2547.635316
484.394864	2549.213198
484.763706	2548.799823
485.132489	2547.279915
485.501213	2549.432488
485.869879	2547.186654
486.238487	2546.261602
486.607036	2548.240255
486.975527	2548.547765
487.343959	2548.562889
487.712333	2550.196222
488.080648	2549.109854
488.448905	2547.111036
488.817104	2546.352343
489.185244	2549.155224
489.553326	2548.351160
489.921350	2550.120605
490.289315	2549.689587
490.657222	2551.385935
491.025070	2549.480379
491.392861	2550.269319
491.760593	2549.717313
492.128267	2552.215205
492.495883	2550.957437
492.863440	2544.668597
493.230939	2550.433157
493.598380	2552.323589
493.965763	2544.678680
494.333088	2547.910059
494.700354	2546.879143
495.067563	2548.706562
495.434713	2544.101467
495.801805	2550.556665
496.168839	2553.165462
496.535815	2548.681356
496.902733	2549.061963
497.269593	2549.951727
497.636395	2550.254196
498.003139	2550.372663
498.369825	2550.289484
498.736453	2550.360060
499.103023	2551.156562
499.469535	2549.251006
499.835989	2549.301418
500.202385	2549.601366
500.568723	2550.322251
500.935003	2550.972560
501.301226	2549.228321
501.667390	2548.721685
502.033497	2550.985163
502.399546	2548.880481
502.765537	2548.893084
503.131470	2549.130018
503.497345	2549.238403
503.863163	2550.493651
504.228923	2547.670604
504.594625	2549.530790
504.960269	2551.532128
505.325856	2551.824515
505.691385	2548.681356
506.056856	2551.670760
506.422270	2551.877447
506.787625	2549.044319
507.152924	2548.114226
507.518164	2551.307797
507.883347	2551.620348
508.248472	2554.551779
508.613540	2548.638506
508.978550	2552.021120
509.343503	2550.244113
509.708398	2553.538508
510.073236	2548.709082
510.438016	2553.470452
510.802738	2551.000287
511.167403	2551.499361
511.532010	2551.902653
511.896561	2554.002294
512.261053	2553.326779
512.625488	2547.854607
512.989866	2547.330327
513.354186	2547.814277
513.718449	2551.254865
514.082655	2552.273178
514.446803	2553.820812
514.810894	2550.521377
515.174927	2554.259392
515.538904	2553.954403
515.902822	2552.265616
516.266684	2552.346275
516.630488	2552.807540
516.994235	2552.253013
517.357925	2552.716799
517.721558	2553.914073
518.085133	2555.068498
518.448651	2552.734443
518.812112	2554.430792
519.175516	2555.721327
519.538863	2552.920966
519.902152	2557.677295
520.265385	2554.234187
520.628560	2552.240410
520.991678	2555.524722
521.354739	2554.420709
521.717743	2556.144784
522.080690	2554.002294
522.443580	2556.532953
522.806413	2554.254351
523.169189	2557.679815
523.531908	2558.282233
523.894569	2556.369115
524.257174	2558.317521
524.619722	2557.374826
524.982213	2558.740978
525.344647	2556.608570
525.707025	2559.577810
526.069345	2554.783672
526.431608	2559.487069
526.793815	2557.379867
527.155964	2558.085628
527.518057	2556.469938
527.880093	2561.758109
528.242072	2558.022614
528.603995	2563.043603
528.965860	2558.279713
529.327669	2561.495969
529.689421	2558.635114
530.051117	2564.127451
530.412755	2560.265927
530.774337	2562.605023
531.135862	2561.836247
531.497331	2560.155022
531.858743	2558.201575
532.220098	2561.962276
532.581396	2559.635783
532.942638	2556.527912
533.303824	2561.717780
533.664953	2562.771381
534.026025	2561.012018
534.387040	2562.161401
534.747999	2563.497307
535.108902	2565.362534
535.469748	2563.877914
535.830537	2563.046124
536.191270	2563.378840
536.551947	2567.731876
536.912567	2563.814900
537.273131	2565.987637
537.633638	2566.227092
537.994089	2568.099880
538.354483	2565.564180
538.714821	2566.348079
539.075103	2565.491083
539.435328	2566.854715
539.795497	2570.653225
540.155609	2567.288255
540.515665	2569.697926
540.875665	2565.423028
541.235609	2568.515776
541.595496	2568.770354
541.955328	2571.953842
542.315102	2570.479305
542.674821	2569.264387
543.034483	2569.587021
543.394090	2571.767320
543.753640	2573.672876
544.113134	2567.986454
544.472571	2571.222875
544.831953	2569.055179
545.191278	2568.172977
545.550548	2569.554253
545.909761	2573.191446
546.268918	2571.008626
546.628019	2572.732701
546.987064	2570.653225
547.346053	2570.358317
547.704986	2568.019222
548.063863	2570.819583
548.422684	2571.991651
548.781449	2572.931826
549.140158	2569.982751
549.498811	2571.447207
549.857408	2572.321847
550.215949	2568.762792
550.574434	2566.920250
550.932864	2570.365879
551.291237	2567.840261
551.649555	2574.176991
552.007817	2570.149109
552.366022	2574.164388
552.724173	2570.716239
553.082267	2571.532906
553.440305	2571.951322
553.798288	2572.926785
554.156215	2573.239337
554.514086	2569.952504
554.871902	2571.333781
555.229661	2570.721280
555.587365	2570.393605
555.945014	2572.566343
556.302606	2568.382185
556.660143	2570.123904
557.017625	2571.578277
557.375050	2570.922927
557.732421	2570.948132
558.089735	2571.905952
558.446994	2569.087947
558.804197	2572.868812
559.161345	2572.601631
559.518437	2574.262691
559.875474	2571.169943
560.232455	2570.900241
560.589381	2573.078020
560.946251	2575.129769
561.303065	2569.612227
561.659825	2575.699420
562.016528	2569.569377
562.373177	2569.130796
562.729770	2570.146589
563.086307	2572.543657
563.442789	2572.478122
563.799216	2571.474933
564.155587	2569.808832
564.511904	2571.333781
564.868164	2570.892680
565.224370	2570.494428
565.580520	2571.701785
565.936615	2571.134655
566.292654	2570.106260
566.648638	2571.507700
567.004567	2572.974676
567.360441	2569.957546
567.716260	2568.961918
568.072023	2569.660118
568.427732	2567.605847
568.783385	2569.539130
569.138982	2568.409911
569.494525	2568.190621
569.850013	2565.957390
570.205445	2569.740776
570.560823	2570.471743
570.916145	2569.879408
571.271412	2570.176836
571.626625	2573.572053
571.981782	2572.967114
572.336884	2571.250602
572.691931	2569.483677
573.046923	2572.883935
573.401860	2572.026939
573.756743	2567.071485
574.111570	2570.933009
574.466342	2572.321847
574.821059	2570.822103
575.175722	2571.117011
575.530330	2570.953173
575.884882	2570.194480
576.239380	2569.912175
576.593823	2574.297979
576.948211	2571.931157
577.302544	2570.701116
577.656823	2569.302196
578.011047	2571.517783
578.365216	2573.763617
578.719330	2572.838565
579.073389	2568.419994
579.427394	2570.978379
579.781344	2570.668348
580.135239	2574.214800
580.489080	2573.685479
580.842866	2573.778740
581.196597	2578.403999
581.550273	2573.889646
581.903895	2574.940726
582.257463	2575.286045
582.610975	2574.920562
582.964434	2576.642116
583.317837	2575.926272
583.671186	2576.546334
584.024481	2576.185891
584.377721	2574.857547
584.730906	2578.588001
585.084037	2576.395099
585.437113	2578.126735
585.790135	2579.901222
586.143103	2577.579770
586.496016	2579.949113
586.848874	2576.062383
587.201679	2576.304358
587.554428	2575.830490
587.907124	2578.613207
588.259765	2575.157496
588.612352	2579.598752
588.964884	2579.281160
589.317362	2582.525142
589.669786	2585.121336
590.022155	2583.830801
590.374470	2587.122674
590.726731	2585.927921
591.078937	2586.177458
591.431090	2584.592015
591.783188	2586.835329
592.135232	2586.565627
592.487222	2586.293405
592.839157	2591.120309
593.191038	2586.996646
593.542866	2589.865062
593.894639	2588.980340
594.246358	2590.606112
594.598022	2591.543766
594.949633	2593.855135
595.301190	2594.268510
595.652692	2593.935794
596.004141	2596.353027
596.355535	2598.722369
596.706876	2596.700867
597.058162	2597.013418
597.409395	2600.375868
597.760573	2601.142123
598.111698	2599.481063
598.462768	2603.786208
598.813785	2601.615992
599.164748	2602.092381
599.515657	2605.842999
599.866511	2607.012547
600.217312	2608.250150
600.568060	2608.338370
600.918753	2611.763834
601.269392	2612.111674
601.619978	2611.572271
601.970510	2616.505040
602.320988	2616.696603
602.671412	2619.509567
603.021783	2617.409927
603.372100	2622.622480
603.722363	2623.660957
604.072572	2626.216822
604.422728	2625.944600
604.772830	2623.602984
605.122878	2624.838067
605.472872	2627.756895
605.822813	2631.318470
606.172701	2633.471043
606.522534	2640.319450
606.872314	2643.127373
607.222041	2643.661735
607.571714	2644.314565
607.921333	2648.624751
608.270899	2652.761018
608.620411	2656.962820
608.969870	2660.544560
609.319276	2662.745023
609.668627	2667.357679
610.017926	2673.149965
610.367171	2681.538445
610.716362	2681.145235
611.065500	2685.475586
611.414585	2687.960875
611.763616	2689.379960
612.112594	2692.051771
612.461518	2697.070240
612.810389	2702.050900
613.159207	2703.679192
613.507971	2706.245140
613.856682	2716.055225
614.205340	2715.936758
614.553945	2723.390104
614.902496	2727.317163
615.250994	2730.598954
615.599439	2736.970972
615.947830	2742.967425
616.296169	2747.247365
616.644454	2756.495361
616.992686	2760.059457
617.340864	2771.253339
617.688990	2774.935902
618.037063	2784.052829
618.385082	2786.583488
618.733048	2802.125365
619.080961	2805.573515
619.428821	2813.838486
619.776628	2821.213694
620.124382	2823.479693
620.472083	2833.186435
620.819731	2838.252794
621.167326	2840.543999
621.514868	2843.230934
621.862357	2841.065758
622.209793	2849.945751
622.557176	2854.109744
622.904506	2852.060515
623.251783	2852.879702
623.599007	2860.242307
623.946179	2865.469984
624.293297	2871.083309
624.640363	2871.852085
624.987376	2880.308620
625.334336	2883.383724
625.681243	2885.004455
626.028097	2893.813872
626.374899	2898.842423
626.721647	2905.111097
627.068343	2908.153434
627.414987	2914.429670
627.761577	2920.567275
628.108115	2929.313677
628.454600	2931.158739
628.801032	2949.533745
629.147412	2951.073818
629.493739	2962.872638
629.840014	2964.521095
630.186236	2978.429639
630.532405	2977.345791
630.878521	2989.449601
631.224585	2994.402535
631.570597	2994.384891
631.916556	3012.981707
632.262462	3021.768438
632.608316	3030.955941
632.954117	3035.334183
633.299866	3038.197559
633.645562	3047.478323
633.991206	3049.754404
634.336797	3046.235679
634.682336	3051.312121
635.027823	3053.895712
635.373257	3059.698080
635.718639	3060.023234
636.063968	3067.383319
636.409245	3060.862587
636.754470	3070.720563
637.099642	3072.351376
637.444762	3077.226172
637.789829	3086.590115
638.134845	3087.933583
638.479808	3093.892227
638.824719	3100.917074
639.169577	3096.276692
639.514383	3111.112808
639.859137	3110.545678
640.203839	3117.159672
640.548489	3127.204171
640.893086	3127.012607
641.237632	3130.690129
641.582125	3141.190852
641.926566	3148.399702
642.270955	3162.898061
642.615292	3170.454751
642.959576	3182.402285
643.303809	3188.000487
643.647990	3198.649924
643.992118	3205.362220
644.336195	3203.325594
644.680219	3219.948799
645.024192	3221.992987
645.368112	3254.261413
645.711981	3265.508227
646.055797	3292.377577
646.399562	3299.228505
646.743274	3338.705781
647.086935	3359.979450
647.430544	3368.362889
647.774101	3389.760066
648.117606	3394.128226
648.461059	3404.722211
648.804460	3409.584404
649.147810	3393.369533
649.491108	3396.147208
649.834354	3402.879669
650.177548	3388.754356
650.520690	3382.437790
650.863781	3386.750498
651.206820	3404.064340
651.549807	3393.672002
651.892742	3391.905077
652.235626	3404.059299
652.578458	3408.092222
652.921238	3391.385838
653.263967	3415.152358
653.606644	3404.976789
653.949269	3414.922986
654.291843	3407.749424
654.634365	3433.691202
654.976836	3438.934002
655.319255	3441.038683
655.661622	3448.910445
656.003938	3460.492496
656.346203	3454.629634
656.688416	3477.692913
657.030577	3469.417859
657.372687	3472.155205
657.714746	3476.775423
658.056753	3497.197137
658.398708	3490.890654
658.740612	3488.755725
659.082465	3521.505581
659.424266	3521.369470
659.766016	3530.536808
660.107715	3541.448386
660.449362	3552.506157
660.790958	3558.991601
661.132503	3567.770770
661.473996	3593.425202
661.815438	3595.429061
662.156829	3600.608847
662.498168	3610.171915
662.839456	3603.741924
663.180693	3629.761839
663.521879	3634.719814
663.863013	3639.682830
664.204097	3667.472191
664.545129	3681.486598
664.886110	3698.495451
665.227040	3718.561764
665.567918	3708.295454
665.908746	3732.568610
666.249522	3742.817276
666.590248	3741.181422
666.930922	3766.367026
667.271545	3782.135755
667.612118	3792.404586
667.952639	3786.050211
668.293109	3811.946619
668.633528	3798.648055
668.973896	3805.657779
669.314213	3812.065086
669.654480	3827.884227
669.994695	3820.932475
670.334859	3832.280113
670.674973	3845.145137
671.015035	3848.066486
671.355047	3866.416286
671.695008	3869.728324
672.034918	3860.414792
672.374777	3877.597565
672.714585	3883.077299
673.054342	3887.914287
673.394049	3898.183117
673.733705	3924.979370
674.073310	3934.497069
674.412864	3913.858585
674.752368	3928.351902
675.091820	3941.284982
675.431223	3914.473606
675.770574	3930.196964
676.109875	3911.464037
676.449125	3926.093465
676.788324	3918.491405
677.127473	3901.840474
677.466571	3910.009664
677.805619	3918.524173
678.144616	3922.007610
678.483562	3919.212290
678.822458	3913.727515
679.161303	3921.858896
679.500098	3923.230090
679.838842	3921.226231
680.177535	3931.500103
680.516179	3945.191877
680.854771	3960.640492
681.193314	4007.500538
681.531805	4063.646389
681.870247	4147.637053
682.208638	4201.075805
682.546978	4212.320098
682.885268	4217.348649
683.223508	4187.510060
683.561697	4168.295702
683.899836	4164.129188
684.237925	4150.039163
684.575963	4134.119199
684.913951	4120.671921
685.251889	4169.319056
685.589776	4143.231085
685.927614	4137.705980
686.265401	4192.110113
686.603137	4184.079554
686.940824	4231.720979
687.278460	4249.649843
687.616046	4259.187706
687.953582	4295.262203
688.291068	4293.472593
688.628504	4342.762475
688.965889	4321.788754
689.303224	4296.772028
689.640510	4285.610913
689.977745	4253.760903
690.314930	4211.286662
690.652065	4184.036705
690.989150	4143.213441
691.326185	4114.872074
691.663170	4100.298098
692.000105	4062.320566
692.336990	4024.194319
692.673825	4024.058208
693.010610	3991.663753
693.347345	3950.021302
693.684030	3959.050008
694.020665	3938.376237
694.357251	3889.887898
694.693786	3906.551432
695.030272	3892.960482
695.366707	3879.059500
695.703093	3865.652551
696.039429	3881.025550
696.375716	3883.397413
696.711952	3864.631717
697.048139	3861.624669
697.384276	3854.347764
697.720363	3867.868138
698.056400	3886.205335
698.392388	3849.737628
698.728326	3842.314529
699.064214	3834.110052
699.400053	3832.685926
699.735842	3828.577385
700.071581	3814.346208
700.407270	3803.162408
700.742910	3802.126451
701.078501	3766.717386
701.414042	3779.466464
701.749533	3763.828805
702.084974	3724.041498
702.420366	3767.430710
702.755709	3734.738827
703.091002	3703.886965
703.426246	3744.879108
703.761440	3712.560271
704.096584	3691.437836
704.431679	3713.603789
704.766725	3707.045248
705.101721	3705.706822
705.436668	3732.908888
705.771565	3695.758105
706.106413	3714.987586
706.441212	3750.195005
706.775961	3758.283536
707.110661	3745.632760
707.445311	3764.151439
707.779913	3791.661016
708.114465	3800.218374
708.448967	3815.346877
708.783421	3860.306407
709.117825	3890.858320
709.452180	3892.796644
709.786485	3923.330913
710.120742	3986.340295
710.454949	3970.372440
710.789107	4018.462527
711.123216	4071.500507
711.457275	4062.093714
711.791286	4116.192856
712.125247	4131.442347
712.459159	4060.047005
712.793023	4112.691775
713.126837	4109.891414
713.460602	4101.634004
713.794318	4044.169891
714.127985	4065.181420
714.461602	4015.410108
714.795171	3999.669106
715.128691	3961.605873
715.462162	3931.379115
715.795584	3897.515164
716.128957	3897.008528
716.462281	3859.209957
716.795556	3846.428111
717.128782	3825.832477
717.461960	3781.306486
717.795088	3792.543218
718.128167	3764.496758
718.461198	3724.323803
718.794180	3725.863876
719.127113	3715.267370
719.459997	3703.828992
719.792833	3674.350845
720.125619	3668.838343
720.458357	3646.952174
720.791046	3659.764266
721.123686	3635.526399
721.456278	3601.359978
721.788821	3621.277577
722.121315	3603.298302
722.453761	3583.695775
722.786158	3600.981892
723.118506	3620.148359
723.450805	3576.154209
723.783056	3598.915019
724.115259	3617.627782
724.447412	3622.164820
724.779518	3615.124849
725.111574	3623.258751
725.443582	3647.728512
725.775542	3634.664361
726.107453	3677.526772
726.439315	3682.383924
726.771129	3690.016231
727.102895	3717.419943
727.434612	3755.790685
727.766281	3764.786624
728.097901	3762.684463
728.429473	3772.028242
728.760996	3783.879995
729.092471	3780.993934
729.423897	3770.117645
729.755276	3783.194398
730.086606	3784.560550
730.417887	3812.158347
730.749120	3866.373436
731.080305	3924.694545
731.411442	3948.705561
731.742530	3922.521808
732.073570	3932.778035
732.404562	3978.423163
732.735506	3967.604847
733.066401	3941.824386
733.397249	3897.588261
733.728048	3844.905683
734.058798	3784.237917
734.389501	3731.414186
734.720156	3679.908717
735.050762	3647.496618
735.381320	3645.858243
735.711831	3602.554732
736.042293	3581.102102
736.372707	3602.952983
736.703073	3579.672935
737.033391	3573.058941
737.363661	3588.633586
737.693883	3611.737194
738.024056	3617.229531
738.354182	3607.535392
738.684260	3666.095956
739.014290	3678.338398
739.344272	3672.417562
739.674207	3709.417111
740.004093	3714.841393
740.333931	3707.004919
740.663722	3712.986248
740.993464	3714.475909
741.323159	3696.128630
741.652806	3672.599044
741.982405	3655.537259
742.311956	3636.733755
742.641460	3630.460039
742.970915	3611.530506
743.300323	3578.223603
743.629683	3551.467679
743.958996	3545.509035
744.288260	3528.331303
744.617477	3501.739217
744.946647	3491.172958
745.275768	3471.993888
745.604842	3473.942294
745.933869	3430.147270
746.262847	3424.213832
746.591778	3461.047023
746.920662	3433.381171
747.249498	3408.339239
747.578286	3451.093265
747.907027	3465.178248
748.235720	3457.866055
748.564365	3485.612566
748.892963	3489.166579
749.221514	3471.895586
749.550017	3450.034622
749.878473	3453.714665
750.206881	3430.285902
750.535242	3425.290119
750.863555	3429.509564
751.191821	3425.516971
751.520039	3406.131213
751.848210	3390.299470
752.176334	3422.356167
752.504411	3429.116354
752.832440	3393.593864
753.160421	3376.184239
753.488356	3384.308058
753.816243	3397.979668
754.144082	3360.294522
754.471875	3347.633664
754.799620	3364.715614
755.127318	3359.387114
755.454969	3360.733103
755.782572	3369.454299
756.110129	3348.886391
756.437638	3338.121007
756.765100	3351.033923
757.092515	3359.472814
757.419882	3365.076057
757.747203	3339.716532
758.074477	3340.311388
758.401703	3357.947865
758.728882	3376.073334
759.056014	3384.479458
759.383099	3388.078842
759.710138	3380.726319
760.037129	3396.928587
760.364073	3426.502516
760.690970	3412.500711
761.017820	3392.338617
761.344623	3412.120104
761.671379	3454.097792
761.998088	3501.804752
762.324751	3619.256075
762.651366	3837.641380
762.977935	4250.821911
763.304456	4646.794463
763.630931	4735.939707
763.957359	4413.494904
764.283740	4115.456848
764.610074	3951.170685
764.936362	3770.581431
765.262602	3625.597846
765.588796	3530.158722
765.914943	3451.914973
766.241044	3372.287427
766.567097	3346.897656
766.893104	3303.155564
767.219064	3277.090278
767.544978	3253.046495
767.870845	3203.683516
768.196665	3185.532842
768.522438	3196.131868
768.848165	3194.702701
769.173846	3157.317504
769.499479	3141.082468
769.825066	3130.599388
770.150607	3115.349898
770.476101	3129.689460
770.801548	3128.872793
771.126949	3085.150866
771.452303	3067.774008
771.777611	3076.553178
772.102872	3080.265988
772.428087	3058.271433
772.753256	3047.543858
773.078378	3041.721325
773.403453	3008.905934
773.728482	2999.511744
774.053465	3020.533356
774.378401	3010.047756
774.703291	2978.298569
775.028135	2980.965339
775.352932	2976.327478
775.677683	2962.187041
776.002388	2961.715693
776.327046	2963.447330
776.651658	2954.786627
776.976224	2945.344546
777.300743	2944.931172
777.625216	2936.593103
777.949643	2930.647062
778.274024	2934.216199
778.598359	2924.585075
778.922647	2929.764860
779.246889	2929.106990
779.571086	2913.292890
779.895236	2907.498084
780.219339	2919.241452
780.543397	2930.324428
780.867409	2933.921292
781.191374	2929.520364
781.515294	2924.935435
781.839167	2924.050712
782.162995	2917.310690
782.486776	2926.561207
782.810511	2922.588778
783.134201	2911.823394
783.457844	2916.322623
783.781441	2908.019843
784.104993	2889.460835
784.428498	2890.234652
784.751958	2904.017167
785.075372	2900.929460
785.398739	2885.427912
785.722061	2900.851322
786.045337	2911.372210
786.368568	2894.849829
786.691752	2888.530742
787.014891	2932.736620
787.337983	2963.855663
787.661030	2987.808706
787.984031	3048.862120
788.306987	3091.094386
788.629897	3085.690269
788.952760	3073.021850
789.275579	3059.551887
789.598351	3003.935357
789.921078	2961.733337
790.243759	2954.320321
790.566395	2937.041766
790.888984	2916.216759
791.211529	2899.338976
791.534027	2890.451422
791.856480	2882.778786
792.178888	2867.337732
792.501249	2861.472349
792.823566	2858.989581
793.145836	2857.167204
793.468062	2852.093282
793.790241	2849.507170
794.112375	2856.494210
794.434464	2864.466794
794.756507	2867.587269
795.078505	2874.801160
795.400457	2889.407903
795.722364	2923.286978
796.044226	2946.662808
796.366042	2947.794547
796.687812	2936.348607
797.009538	2952.442491
797.331218	2945.634413
797.652852	2930.657144
797.974442	2917.648447
798.295986	2913.214752
798.617484	2907.102353
798.938938	2895.028790
799.260346	2878.196377
799.581709	2874.982641
799.903026	2867.509131
800.224299	2863.816486
800.545526	2853.562779
800.866708	2836.642146
801.187845	2826.542194
801.508936	2830.000426
801.829983	2836.251456
802.150984	2823.305773
802.471940	2813.409988
802.792851	2816.653971
803.113717	2812.817653
803.434538	2817.188333
803.755314	2810.402940
804.076045	2806.170891
804.396731	2802.879018
804.717372	2806.591828
805.037967	2799.922381
805.358518	2806.173412
805.679024	2821.042295
805.999485	2813.014258
806.319901	2820.558344
806.640272	2806.533854
806.960598	2815.917962
807.280879	2823.517502
807.601115	2831.671568
807.921306	2818.373004
808.241453	2814.193888
808.561554	2820.878458
808.881611	2823.532625
809.201623	2818.060453
809.521590	2815.706234
809.841513	2811.575008
810.161390	2818.088179
810.481223	2810.072744
810.801011	2801.701908
811.120755	2798.755354
811.440453	2803.045376
811.760107	2800.169398
812.079716	2801.255766
812.399281	2793.447019
812.718801	2782.492592
813.038276	2777.131325
813.357707	2786.142387
813.677093	2794.911474
813.996434	2786.820422
814.315731	2781.406223
814.634983	2778.590739
814.954191	2779.218362
815.273354	2794.666978
815.592473	2801.283493
815.911547	2802.243832
816.230577	2809.369503
816.549562	2819.451811
816.868502	2817.974753
817.187399	2828.866166
817.506250	2844.438290
817.825058	2837.562156
818.143821	2847.067252
818.462539	2861.898327
818.781213	2887.245248
819.099843	2924.126330
819.418429	2979.987355
819.736970	3035.835778
820.055466	3107.314299
820.373919	3204.172508
820.692327	3342.176615
821.010691	3500.446161
821.329011	3920.447373
821.647286	4763.802164
821.965517	6042.931938
822.283704	6721.362861
822.601847	6699.806888
822.919945	6113.031703
823.237999	5658.354914
823.556010	5110.318477
823.873976	4592.266822
824.191897	4204.965055
824.509775	3934.078653
824.827609	3675.079292
825.145398	3560.302301
825.463144	3554.197464
825.780845	3644.514776
826.098502	3743.223089
826.416116	4012.037577
826.733685	4308.389367
827.051210	4362.606977
827.368692	4250.222013
827.686129	4004.007018
828.003522	3695.248948
828.320872	3449.951443
828.638177	3264.237856
828.955439	3136.434524
829.272656	3059.340158
829.589830	2994.944459
829.906960	2950.211780
830.224046	2907.157806
830.541088	2873.969369
830.858086	2861.434540
831.175041	2841.925275
831.491952	2846.469875
831.808819	2857.078983
832.125642	2880.112015
832.442421	2922.271185
832.759157	3001.286230
833.075849	3168.458454
833.392497	3442.495577
833.709101	3632.897437
834.025662	3580.925661
834.342179	3427.052002
834.658653	3260.555293
834.975083	3117.242851
835.291469	3029.312525
835.607811	2947.219855
835.924110	2892.394787
836.240366	2842.951150
836.556578	2804.338432
836.872746	2782.391769
837.188871	2762.259921
837.504952	2745.409864
837.820990	2736.058524
838.136984	2727.244066
838.452935	2714.893239
838.768842	2714.494988
839.084706	2734.231105
839.400526	2810.062662
839.716303	2933.467588
840.032037	3006.597086
840.347727	2995.007473
840.663373	2936.043617
840.978977	2865.250694
841.294537	2794.535908
841.610054	2751.595360
841.925527	2731.587020
842.240957	2711.805532
842.556344	2690.990608
842.871687	2674.823628
843.186987	2665.893224
843.502244	2664.345590
843.817458	2658.482728
844.132629	2645.927734
844.447756	2637.277114
844.762840	2631.295785
845.077881	2632.404839
845.392879	2631.676392
845.707833	2629.891824
846.022745	2621.742798
846.337613	2625.132974
846.652438	2618.093003
846.967221	2623.696246
847.281960	2620.628703
847.596656	2618.234155
847.911309	2619.340689
848.225919	2617.845987
848.540485	2612.121756
848.855009	2614.536469
849.169490	2612.265429
849.483928	2612.749380
849.798323	2614.302055
850.112675	2613.114864
850.426984	2612.338526
850.741251	2608.497167
851.055474	2610.921962
851.369654	2612.192333
851.683792	2613.157713
851.997887	2612.867847
852.311938	2607.183946
852.625947	2611.622682
852.939914	2615.637961
853.253837	2615.209463
853.567718	2612.278032
853.881555	2611.300048
854.195350	2614.551592
854.509103	2613.535800
854.822812	2608.615634
855.136479	2608.096395
855.450103	2612.041098
855.763685	2613.077055
856.077224	2609.018926
856.390720	2607.922475
856.704173	2611.627723
857.017584	2614.662498
857.330953	2617.848507
857.644278	2619.759104
857.957561	2617.331789
858.270802	2612.341047
858.584000	2614.990173
858.897155	2616.303393
859.210268	2618.196347
859.523339	2616.774741
859.836367	2607.715788
860.149352	2606.921806
860.462295	2612.547734
860.775195	2608.204780
861.088054	2606.742845
861.400869	2604.287803
861.713642	2601.384099
862.026373	2603.400560
862.339062	2606.536158
862.651708	2612.688886
862.964312	2612.744339
863.276873	2611.781478
863.589392	2617.460338
863.901869	2619.612911
864.214303	2624.293622
864.526696	2626.325207
864.839045	2624.800258
865.151353	2628.157667
865.463619	2629.218830
865.775842	2629.097842
866.088023	2631.323511
866.400162	2630.327883
866.712258	2629.579272
867.024313	2626.342851
867.336325	2623.277830
867.648296	2627.338479
867.960224	2630.925260
868.272110	2630.784108
868.583954	2624.223046
868.895755	2626.083232
869.207515	2630.852163
869.519233	2637.458596
869.830909	2634.696043
870.142542	2626.378139
870.454134	2629.922071
870.765684	2635.280817
871.077191	2635.439613
871.388657	2641.224337
871.700081	2636.775519
872.011463	2635.714356
872.322803	2638.580252
872.634101	2642.499749
872.945357	2650.411840
873.256571	2656.098262
873.567744	2648.765904
873.878874	2651.193219
874.189963	2652.082983
874.501010	2657.325783
874.812015	2662.616474
875.122979	2662.142605
875.433900	2655.427788
875.744780	2651.165493
876.055618	2657.356030
876.366415	2660.778973
876.677169	2663.415497
876.987882	2658.162614
877.298554	2655.452994
877.609183	2664.799293
877.919771	2669.711898
878.230317	2673.207938
878.540822	2688.666636
878.851285	2702.842361
879.161707	2723.682491
879.472087	2760.724889
879.782425	2800.786939
880.092722	2912.577046
880.402977	3089.869386
880.713191	3334.889627
881.023363	3603.817541
881.333494	3779.358080
881.643583	3944.798667
881.953631	3944.760858
882.263637	3774.405146
882.573602	3565.091397
882.883526	3444.819549
883.193408	3338.879701
883.503248	3245.726739
883.813048	3136.903351
884.122806	3028.173224
884.432522	2951.461986
884.742197	2887.361195
885.051831	2855.289374
885.361424	2821.556493
885.670975	2790.369395
885.980485	2759.746906
886.289954	2743.894997
886.599382	2731.292113
886.908768	2720.330124
887.218113	2702.388657
887.527417	2690.355423
887.836680	2682.647499
888.145901	2679.675738
888.455082	2669.790036
888.764221	2660.968017
889.073319	2651.452839
889.382376	2649.910246
889.691392	2651.611635
890.000366	2649.075935
890.309300	2650.742036
890.618193	2654.180103
890.927044	2654.641368
891.235855	2655.082469
891.544625	2653.486944
891.853353	2651.835966
892.162041	2660.272337
892.470687	2682.710513
892.779293	2693.551514
893.087858	2700.125179
893.396381	2721.023282
893.704864	2760.344282
894.013306	2825.523881
894.321707	2915.105185
894.630068	2959.323666
894.938387	2978.351501
895.246665	2970.930922
895.554903	2929.230498
895.863100	2888.371946
896.171256	2836.105263
896.479371	2778.351284
896.787446	2739.385685
897.095480	2722.485217
897.403473	2718.142263
897.711425	2706.605582
898.019336	2687.918025
898.327207	2674.576611
898.635038	2674.102743
898.942827	2670.785664
899.250576	2661.371309
899.558284	2652.514002
899.865952	2647.737508
900.173579	2648.087868
900.481165	2643.160141
900.788711	2634.350724
901.096216	2628.167749
901.403681	2626.945269
901.711105	2628.331587
902.018489	2624.223046
902.325832	2629.165897
902.633135	2629.375105
902.940397	2646.207518
903.247619	2677.959226
903.554800	2743.592528
903.861941	2864.330683
904.169041	2978.210349
904.476101	3035.402239
904.783121	3030.933256
905.090100	2971.886221
905.397039	2904.947260
905.703938	2837.441169
906.010796	2778.172323
906.317614	2732.156671
906.624391	2696.503110
906.931129	2672.784481
907.237826	2651.019299
907.544483	2633.153450
907.851099	2623.771863
908.157675	2615.201901
908.464211	2604.451641
908.770707	2600.627926
909.077163	2589.854980
909.383578	2588.672829
909.689954	2588.582088
909.996289	2587.951944
910.302584	2585.859865
910.608839	2585.696028
910.915054	2587.145360
911.221229	2587.702407
911.527363	2590.913622
911.833458	2585.010431
912.139513	2586.288363
912.445527	2590.263313
912.751502	2593.035948
913.057436	2599.990220
913.363331	2603.798811
913.669186	2616.815071
913.975000	2627.615743
914.280775	2644.198618
914.586510	2658.787717
914.892205	2692.944055
915.197859	2756.787748
915.503475	2835.628874
915.809050	2892.387225
916.114585	2906.492373
916.420081	2916.375556
916.725536	2927.244283
917.030952	2907.742580
917.336328	2860.958151
917.641665	2815.111378
917.946961	2768.095056
918.252218	2734.412587
918.557435	2714.487426
918.862612	2692.886082
919.167750	2678.359997
919.472848	2661.764519
919.777906	2645.794143
920.082925	2633.881897
920.387904	2625.624487
920.692843	2622.614918
920.997743	2619.096193
921.302603	2612.204935
921.607423	2604.401229
921.912204	2599.405446
922.216946	2598.364448
922.521647	2596.789087
922.826310	2593.111565
923.130932	2589.451687
923.435516	2583.795513
923.740059	2581.428691
924.044564	2580.768300
924.349028	2578.477096
924.653454	2569.861764
924.957840	2568.122566
925.262186	2566.544684
925.566493	2568.220868
925.870761	2564.223233
926.174989	2566.585014
926.479178	2564.361865
926.783328	2561.979920
927.087438	2561.863973
927.391509	2563.305743
927.695541	2560.457491
927.999533	2556.817778
928.303486	2558.405742
928.607400	2556.248128
928.911275	2558.272151
929.215110	2557.059753
929.518906	2554.768549
929.822663	2555.411296
930.126381	2557.274003
930.430060	2553.498178
930.733699	2558.297357
931.037299	2554.760987
931.340861	2556.785011
931.644383	2559.799621
931.947866	2558.446071
932.251309	2557.848694
932.554714	2558.806513
932.858080	2558.562017
933.161407	2554.350133
933.464694	2555.123950
933.767943	2553.992211
934.071153	2558.272151
934.374323	2553.868703
934.677455	2556.011193
934.980548	2551.847200
935.283602	2554.418189
935.586617	2553.362067
935.889593	2554.403065
936.192530	2554.743343
936.495428	2552.444577
936.798287	2554.239228
937.101108	2555.386090
937.403890	2557.586554
937.706632	2561.937070
938.009336	2562.962945
938.312002	2570.328070
938.614628	2568.543502
938.917216	2574.078689
939.219765	2573.403174
939.522275	2574.855027
939.824747	2571.573235
940.127179	2567.255487
940.429573	2565.506207
940.731929	2568.730025
941.034246	2566.259859
941.336524	2567.764644
941.638763	2563.061247
941.940964	2564.934036
942.243126	2565.007132
942.545250	2562.342883
942.847335	2562.199210
943.149381	2558.909857
943.451389	2560.586041
943.753359	2558.564538
944.055290	2558.451112
944.357182	2557.846173
944.659036	2558.531770
944.960851	2554.445915
945.262628	2557.198385
945.564367	2556.817778
945.866067	2557.009342
946.167729	2556.273333
946.469352	2558.335165
946.770937	2558.574620
947.072484	2556.598488
947.373992	2555.577654
947.675462	2555.761656
947.976893	2557.548745
948.278286	2557.178221
948.579641	2553.662016
948.880958	2554.745864
949.182236	2553.967006
949.483476	2553.382232
949.784678	2553.629248
950.085841	2554.753426
950.386967	2557.039589
950.688054	2553.067160
950.989103	2553.649413
951.290114	2558.675443
951.591087	2558.307439
951.892021	2557.218550
952.192917	2559.716442
952.493776	2559.875238
952.794596	2557.974723
953.095378	2563.300702
953.396122	2560.696946
953.696828	2560.384394
953.997496	2561.894220
954.298126	2556.495144
954.598718	2554.476162
954.899272	2557.309291
955.199788	2555.832232
955.500266	2555.275185
955.800706	2549.523228
956.101108	2546.606921
956.401472	2547.005172
956.701798	2545.238248
957.002087	2547.277394
957.302337	2545.901159
957.602550	2548.580533
957.902724	2544.585418
958.202861	2545.714637
958.502960	2544.300593
958.803022	2542.972249
959.103045	2544.653474
959.403031	2544.663556
959.702979	2540.691127
960.002889	2544.335881
960.302762	2543.892260
960.602596	2545.233207
960.902393	2543.829245
961.202153	2545.591128
961.501875	2541.036446
961.801559	2541.066693
962.101205	2542.906714
962.400814	2541.621220
962.700385	2541.815304
962.999918	2541.071734
963.299414	2541.714481
963.598873	2542.974770
963.898293	2539.314892
964.197677	2541.291024
964.497022	2545.782692
964.796331	2542.919317
965.095601	2542.314378
965.394835	2542.672300
965.694030	2542.463092
965.993189	2545.097095
966.292309	2541.732125
966.591393	2542.848741
966.890439	2542.420243
967.189447	2540.852444
967.488419	2539.362783
967.787353	2540.408822
968.086249	2543.914945
968.385108	2539.889583
968.683930	2543.824204
968.982714	2540.413863
969.281462	2539.030067
969.580172	2541.190201
969.878844	2540.265149
970.177480	2539.425797
970.476078	2541.711961
970.774639	2544.295552
971.073162	2540.590304
971.371649	2539.718184
971.670098	2538.135262
971.968510	2539.627443
972.266885	2537.810107
972.565223	2543.927548
972.863524	2543.158772
973.161788	2544.056097
973.460014	2546.226314
973.758204	2544.640871
974.056356	2541.434697
974.354471	2544.834955
974.652550	2541.873277
974.950591	2544.933258
975.248595	2540.068544
975.546563	2544.298072
975.844493	2542.468134
976.142386	2544.252702
976.440243	2540.098791
976.738062	2543.138607
977.035845	2538.394881
977.333590	2541.031405
977.631299	2539.566950
977.928971	2541.908566
978.226606	2542.359749
978.524204	2542.420243
978.821765	2539.055273
979.119290	2540.963349
979.416777	2539.745911
979.714228	2539.622402
980.011642	2540.459234
980.309020	2544.739173
980.606360	2542.914276
980.903664	2540.842362
981.200931	2542.284132
981.498162	2542.510983
981.795356	2546.359904
982.092513	2545.928886
982.389633	2549.205636
982.686717	2550.838970
982.983764	2553.783003
983.280775	2554.720658
983.577749	2555.265103
983.874686	2554.322407
984.171587	2553.286450
984.468451	2548.646068
984.765279	2551.189330
985.062070	2545.087013
985.358824	2546.685059
985.655543	2541.805222
985.952224	2544.025850
986.248869	2541.696837
986.545478	2536.985879
986.842050	2540.068544
987.138586	2536.577545
987.435086	2537.449665
987.731549	2538.115097
988.027975	2539.526620
988.324366	2538.833462
988.620719	2538.442772
988.917037	2539.637526
989.213318	2540.290355
989.509563	2537.978986
989.805772	2541.270860
990.101944	2538.231044
990.398080	2539.380427
990.694180	2540.285314
990.990244	2540.025695
991.286271	2539.246836
991.582262	2539.987886
991.878217	2537.898328
992.174136	2539.206507
992.470019	2538.480581
992.765865	2538.823379
993.061676	2538.926723
993.357450	2544.043494
993.653188	2537.386651
993.948890	2540.575180
994.244556	2536.640560
994.540186	2540.655839
994.835780	2540.759182
995.131337	2540.035777
995.426859	2540.741538
995.722345	2538.251208
996.017795	2542.102650
996.313208	2546.291849
996.608586	2543.315048
996.903928	2542.505942
997.199234	2542.609286
997.494504	2545.394523
997.789738	2541.177598
998.084936	2542.047197
998.380099	2541.815304
998.675225	2542.163144
998.970316	2539.516538
999.265371	2541.374203
999.560390	2539.725746
999.855373	2539.317413
1000.150320	2538.936805
1000.445232	2537.726928
1000.740108	2542.155582
1001.034948	2541.888401
1001.329752	2539.014943
1001.624521	2539.307330
1001.919254	2532.494211
1002.213951	2537.270704
1002.508613	2533.038655
1002.803239	2536.033101
1003.097829	2531.896834
1003.392384	2538.896476
1003.686903	2537.724408
1003.981386	2541.510314
1004.275834	2538.299099
1004.570246	2538.742721
1004.864623	2540.307999
1005.158964	2538.208359
1005.453270	2540.141641
1005.747540	2539.609799
1006.041775	2536.610313
1006.335974	2539.292207
1006.630138	2537.305992
1006.924266	2538.147865
1007.218359	2536.360776
1007.512416	2539.831610
1007.806438	2535.667617
1008.100425	2539.052752
1008.394376	2538.283976
1008.688292	2538.034439
1008.982172	2537.593338
1009.276017	2538.745242
1009.569827	2538.251208
1009.863602	2540.857485
1010.157341	2539.650129
1010.451045	2540.136600
1010.744714	2539.362783
1011.038347	2540.847403
1011.331945	2537.185004
1011.625508	2538.825900
1011.919036	2536.322967
1012.212528	2537.467309
1012.505986	2537.207690
1012.799408	2540.628112
1013.092795	2541.417053
1013.386147	2535.392874
1013.679464	2538.505787
1013.972745	2534.298944
1014.265992	2537.449665
1014.559204	2540.287835
1014.852380	2539.808925
1015.145521	2540.320602
1015.438628	2536.413708
1015.731699	2538.248688
1016.024736	2537.212731
1016.317737	2538.283976
1016.610703	2538.314223
1016.903635	2533.099149
1017.196531	2533.348686
1017.489393	2533.701567
1017.782219	2531.392719
1018.075011	2535.279448
1018.367768	2538.132741
1018.660490	2537.590817
1018.953177	2537.590817
1019.245829	2537.590817
