Dividing Wavelength (nm)	Counts (n)	Blue Motor Position (mm): 18.600000	Red Motor Position (mm): 0.000000	
326.493990	2134.961421
326.888308	2134.961421
327.282561	2134.961421
327.676750	2103.141658
328.070874	2100.119487
328.464933	2105.261463
328.858929	2113.700355
329.252859	2121.176386
329.646726	2131.309105
330.040528	2145.172278
330.434265	2162.460916
330.827938	2179.419357
331.221547	2198.197655
331.615091	2215.186344
332.008571	2234.700650
332.401986	2253.972981
332.795338	2274.009047
333.188625	2293.795576
333.581847	2312.107568
333.975006	2329.917964
334.368100	2351.463856
334.761129	2364.046576
335.154095	2385.244628
335.546996	2403.410425
335.939833	2424.099321
336.332606	2437.196238
336.725315	2446.353494
337.117960	2462.560804
337.510540	2468.025415
337.903056	2478.921869
338.295508	2483.731130
338.687896	2494.856956
339.080220	2504.992196
339.472480	2508.611744
339.864676	2514.635923
340.256807	2518.444515
340.648875	2519.634227
341.040879	2523.374763
341.432818	2525.484486
341.824694	2529.134282
342.216506	2526.792666
342.608253	2527.294261
342.999937	2526.094466
343.391557	2526.999353
343.783113	2527.911802
344.174605	2524.521626
344.566033	2523.674712
344.957397	2521.562469
345.348697	2520.014834
345.739934	2520.493744
346.131106	2516.889319
346.522215	2516.591891
346.913260	2512.715244
347.304241	2511.681807
347.695159	2508.621827
348.086012	2507.921106
348.476802	2507.018740
348.867528	2506.549912
349.258191	2503.187463
349.648789	2502.935405
350.039324	2503.005981
350.429796	2502.103615
350.820203	2495.431648
351.210548	2499.091525
351.600828	2496.903665
351.991045	2495.991216
352.381198	2494.138592
352.771288	2493.873931
353.161314	2494.657831
353.551276	2494.304950
353.941175	2495.618170
354.331010	2495.960969
354.720782	2491.751605
355.110490	2493.778149
355.500135	2491.469301
355.889717	2493.395022
356.279235	2496.197903
356.668689	2497.120434
357.058080	2496.228150
357.447408	2496.187821
357.836672	2491.176914
358.225873	2492.432161
358.615010	2490.566934
359.004084	2495.396360
359.393095	2498.136227
359.782043	2498.111021
360.170927	2498.892400
360.559748	2501.153357
360.948505	2502.179232
361.337199	2501.788543
361.725830	2500.732421
362.114398	2502.186794
362.502903	2502.827020
362.891344	2504.155364
363.279722	2502.970693
363.668037	2504.001609
364.056289	2500.775271
364.444478	2501.924654
364.832603	2502.736280
365.220665	2504.450272
365.608665	2504.520848
365.996601	2504.440190
366.384474	2504.677124
366.772284	2504.667042
367.160031	2504.283914
367.547715	2505.488750
367.935336	2504.291476
368.322893	2506.428925
368.710388	2505.622340
369.097820	2509.670387
369.485189	2507.217865
369.872495	2506.176867
370.259738	2508.621827
370.646918	2507.316168
371.034035	2510.766838
371.421090	2509.738442
371.808081	2507.593431
372.195010	2509.965294
372.581875	2510.164420
372.968678	2512.216169
373.355418	2505.650067
373.742096	2511.396982
374.128710	2512.122908
374.515262	2511.860768
374.901751	2510.776920
375.288177	2514.260357
375.674540	2513.605007
376.060841	2513.317662
376.447079	2514.071314
376.833254	2513.345388
377.219367	2510.431601
377.605417	2511.971673
377.991404	2508.102588
378.377329	2508.619306
378.763191	2509.309944
379.148991	2512.937054
379.534727	2513.773886
379.920402	2512.251457
380.306013	2515.157683
380.691563	2515.571057
381.077049	2514.444359
381.462474	2513.514267
381.847835	2513.015192
382.233134	2514.267919
382.618371	2515.266068
383.003545	2517.390914
383.388657	2513.448732
383.773706	2515.823115
384.158693	2517.587519
384.543618	2515.873527
384.928480	2517.736233
385.313280	2515.951664
385.698017	2516.596932
386.082692	2516.995183
386.467305	2516.044926
386.851856	2518.648682
387.236344	2517.002745
387.620770	2518.792355
388.005133	2519.006604
388.389435	2519.510719
388.773674	2519.011645
389.157851	2518.809999
389.541965	2519.301511
389.926018	2518.162210
390.310008	2518.711696
390.693936	2521.368384
391.077802	2521.869979
391.461606	2519.417458
391.845348	2518.482324
392.229027	2520.942407
392.612645	2522.381656
392.996200	2522.981553
393.379694	2523.836029
393.763125	2518.457118
394.146494	2522.485000
394.529801	2521.257479
394.913047	2524.178827
395.296230	2524.226718
395.679351	2521.199506
396.062410	2521.907788
396.445408	2523.611698
396.828343	2524.304856
397.211217	2517.322858
397.594028	2521.464166
397.976778	2517.998373
398.359466	2524.123375
398.742092	2518.366377
399.124656	2526.197810
399.507158	2525.418951
399.889598	2526.001205
400.271977	2525.106400
400.654294	2525.855011
401.036549	2524.624970
401.418742	2527.838705
401.800874	2522.855525
402.182944	2525.378622
402.564952	2525.182017
402.946898	2525.323169
403.328783	2525.018180
403.710606	2526.633869
404.092367	2526.643952
404.474067	2528.398273
404.855705	2524.514064
405.237282	2525.194620
405.618797	2526.396935
406.000250	2528.567152
406.381642	2527.725279
406.762972	2524.403159
407.144240	2527.596730
407.525447	2528.267203
407.906593	2525.300484
408.287677	2525.751668
408.668700	2528.302491
409.049661	2528.151257
409.430560	2527.049765
409.811399	2526.364168
410.192176	2528.224353
410.572891	2527.460619
410.953545	2527.110258
411.334138	2527.899199
411.714669	2530.571011
412.095139	2530.341638
412.475547	2528.819210
412.855894	2530.031607
413.236180	2533.963707
413.616405	2530.364323
413.996568	2531.370033
414.376670	2529.282996
414.756711	2531.284334
415.136691	2533.731814
415.516609	2529.940866
415.896466	2531.301978
416.276262	2531.727955
416.655997	2525.849970
417.035670	2528.849457
417.415283	2529.275434
417.794834	2528.206709
418.174324	2529.245187
418.553753	2532.612678
418.933121	2531.740558
419.312428	2533.053779
419.691674	2532.169056
420.070859	2533.411701
420.449983	2532.831968
420.829045	2531.115455
421.208047	2531.238963
421.586988	2532.446320
421.965867	2535.052596
422.344686	2532.456402
422.723444	2534.664428
423.102141	2532.728624
423.480777	2532.708460
423.859352	2532.093439
424.237866	2535.027391
424.616319	2534.457740
424.994712	2534.311547
425.373044	2535.022349
425.751314	2535.833975
426.129524	2532.037986
426.507673	2537.563091
426.885762	2535.302133
427.263789	2536.461599
427.641756	2534.205682
428.019662	2536.602751
428.397508	2536.282638
428.775292	2536.794315
429.153016	2535.055117
429.530679	2536.517052
429.908282	2534.326670
430.285824	2536.925385
430.663305	2535.405477
431.040726	2536.017977
431.418086	2536.471681
431.795385	2535.997813
432.172624	2533.986392
432.549802	2538.962011
432.926920	2534.157792
433.303977	2537.782381
433.680974	2536.370858
434.057910	2535.428162
434.434786	2538.624254
434.811601	2537.681558
435.188355	2534.679551
435.565050	2540.053421
435.941683	2535.972607
436.318257	2535.952442
436.694770	2533.494880
437.071222	2536.907741
437.447614	2535.372710
437.823946	2536.590148
438.200218	2537.326157
438.576429	2538.397402
438.952580	2537.023688
439.328670	2541.323792
439.704700	2538.286497
440.080670	2539.418236
440.456580	2537.752134
440.832429	2539.264480
441.208218	2540.897814
441.583947	2539.249357
441.959616	2536.597710
442.335224	2538.679707
442.710773	2541.638864
443.086261	2539.198945
443.461689	2539.095602
443.837057	2541.601055
444.212365	2537.495035
444.587612	2539.554347
444.962800	2539.758513
445.337927	2540.900335
445.712995	2542.460572
446.088002	2541.280942
446.462949	2541.190201
446.837837	2542.324461
447.212664	2542.500901
447.587431	2539.093081
447.962139	2544.431663
448.336786	2541.427135
448.711374	2541.192722
449.085901	2543.196580
449.460369	2543.738504
449.834776	2542.571477
450.209124	2542.425284
450.583412	2541.275901
450.957640	2542.465613
451.331808	2543.292362
451.705917	2541.752290
452.079965	2543.123484
452.453954	2543.665408
452.827883	2543.211704
453.201752	2543.163813
453.575562	2540.224820
453.949311	2542.074924
454.323001	2542.884029
454.696632	2543.632640
455.070202	2543.766231
455.443713	2542.894111
455.817164	2539.415715
456.190556	2538.236085
456.563888	2540.590304
456.937160	2537.779861
457.310373	2545.414688
457.683526	2546.727909
458.056619	2546.082641
458.429653	2544.739173
458.802628	2545.412168
459.175542	2543.115922
459.548398	2545.601211
459.921194	2543.834286
460.293930	2546.737991
460.666607	2545.838145
461.039224	2543.209183
461.411782	2547.335368
461.784280	2545.835624
462.156719	2547.902497
462.529099	2545.659184
462.901419	2544.351005
463.273680	2546.259081
463.645882	2544.477033
464.018024	2546.571633
464.390106	2548.590615
464.762130	2546.206149
465.134094	2547.025337
465.505999	2544.608103
465.877845	2549.888712
466.249631	2549.034237
466.621358	2550.717982
466.993026	2549.598846
467.364634	2553.614125
467.736184	2549.871068
468.107674	2549.608928
468.479105	2548.325954
468.850477	2550.223949
469.221790	2546.785882
469.593043	2551.053219
469.964238	2547.922662
470.335373	2549.457693
470.706449	2547.262271
471.077467	2546.586756
471.448425	2550.228990
471.819324	2550.952396
472.190164	2551.491799
472.560945	2549.566078
472.931667	2550.808723
473.302330	2549.563558
473.672934	2551.101110
474.043479	2548.915769
474.413965	2549.233362
474.784393	2545.132383
475.154761	2548.895605
475.525070	2547.494164
475.895321	2548.096582
476.265513	2545.223124
476.635645	2551.524567
477.005719	2550.108002
477.375734	2553.203271
477.745691	2550.768393
478.115588	2552.192519
478.485427	2552.351316
478.855207	2550.682694
479.224928	2553.591440
479.594591	2552.305945
479.964194	2555.572613
480.333739	2551.983312
480.703226	2555.312994
481.072653	2554.798796
481.442022	2556.744681
481.811333	2553.604043
482.180584	2555.171841
482.549777	2556.159908
482.918912	2552.789896
483.287988	2553.878785
483.657005	2556.686708
484.025964	2555.774259
484.394864	2556.931204
484.763706	2554.667726
485.132489	2556.853066
485.501213	2557.135371
485.869879	2555.769218
486.238487	2556.840463
486.607036	2557.745350
486.975527	2556.616132
487.343959	2554.763508
487.712333	2558.980433
488.080648	2554.856769
488.448905	2557.836091
488.817104	2558.604867
489.185244	2561.024621
489.553326	2558.640155
489.921350	2558.647717
490.289315	2562.272307
490.657222	2563.956052
491.025070	2563.943449
491.392861	2562.330280
491.760593	2565.899417
492.128267	2564.515620
492.495883	2561.881617
492.863440	2563.777091
493.230939	2561.672409
493.598380	2563.162070
493.965763	2559.693756
494.333088	2559.194682
494.700354	2562.216854
495.067563	2563.048644
495.434713	2559.923129
495.801805	2568.190621
496.168839	2563.628377
496.535815	2566.862277
496.902733	2566.267421
497.269593	2569.276990
497.636395	2571.490056
498.003139	2571.429562
498.369825	2572.412587
498.736453	2575.346539
499.103023	2575.059193
499.469535	2576.379976
499.835989	2578.900553
500.202385	2580.372569
500.568723	2580.909452
500.935003	2584.473548
501.301226	2583.737540
501.667390	2590.391863
502.033497	2595.029724
502.399546	2594.936463
502.765537	2596.075764
503.131470	2600.794284
503.497345	2606.682351
503.863163	2606.780654
504.228923	2611.937754
504.594625	2615.736264
504.960269	2618.075359
505.325856	2626.574744
505.691385	2625.195989
506.056856	2635.565642
506.422270	2640.596714
506.787625	2646.026037
507.152924	2651.289001
507.518164	2658.407110
507.883347	2662.555980
508.248472	2668.565035
508.613540	2676.588032
508.978550	2682.607169
509.343503	2688.591019
509.708398	2699.694160
510.073236	2708.279245
510.438016	2719.029506
510.802738	2724.620146
511.167403	2735.524161
511.532010	2742.372569
511.896561	2759.247831
512.261053	2771.391971
512.625488	2775.331633
512.989866	2788.395783
513.354186	2799.758544
513.718449	2807.426139
514.082655	2825.473469
514.446803	2841.327898
514.810894	2857.205012
515.174927	2867.609954
515.538904	2880.837942
515.902822	2902.550191
516.266684	2912.118301
516.630488	2929.351486
516.994235	2947.166923
517.357925	2969.534523
517.721558	2987.118068
518.085133	3005.977024
518.448651	3026.401259
518.812112	3041.184443
519.175516	3062.690005
519.538863	3090.078594
519.902152	3107.205914
520.265385	3143.260246
520.628560	3151.482368
520.991678	3182.334230
521.354739	3207.081254
521.717743	3223.795199
522.080690	3242.596183
522.443580	3286.978501
522.806413	3310.457675
523.169189	3335.965914
523.531908	3368.960266
523.894569	3385.175137
524.257174	3416.006834
524.619722	3458.970068
524.982213	3479.487564
525.344647	3522.770911
525.707025	3544.959549
526.069345	3588.857917
526.431608	3621.143987
526.793815	3666.063188
527.155964	3678.101463
527.518057	3711.632698
527.880093	3745.201742
528.242072	3787.063483
528.603995	3817.249913
528.965860	3843.542050
529.327669	3886.563257
529.689421	3916.903442
530.051117	3949.239923
530.412755	4018.031508
530.774337	4026.954351
531.135862	4075.987134
531.497331	4112.419553
531.858743	4134.409066
532.220098	4208.256928
532.581396	4222.616655
532.942638	4261.148714
533.303824	4299.627842
533.664953	4355.267057
534.026025	4378.058113
534.387040	4443.676292
534.747999	4483.546778
535.108902	4551.743507
535.469748	4537.300602
535.830537	4603.609419
536.191270	4647.013753
536.551947	4702.806723
536.912567	4747.428497
537.273131	4772.488072
537.633638	4810.057272
537.994089	4860.302452
538.354483	4894.995673
538.714821	4974.255214
539.075103	5030.050705
539.435328	5072.053599
539.795497	5061.159665
540.155609	5172.980019
540.515665	5243.382253
540.875665	5212.411925
541.235609	5291.754645
541.595496	5333.538249
541.955328	5446.074447
542.315102	5451.959994
542.674821	5485.105580
543.034483	5535.607859
543.394090	5586.803297
543.753640	5611.789776
544.113134	5753.617599
544.472571	5748.503348
544.831953	5858.476119
545.191278	5838.150187
545.550548	5902.969343
545.909761	6003.351319
546.268918	6050.985182
546.628019	6135.701772
546.987064	6144.790972
547.346053	6142.880375
547.704986	6253.848774
548.063863	6292.511904
548.422684	6331.658984
548.781449	6353.514906
549.140158	6451.058713
549.498811	6446.229287
549.857408	6418.835657
550.215949	6590.252532
550.574434	6564.605662
550.932864	6673.910480
551.291237	6744.713486
551.649555	6787.686802
552.007817	6834.176323
552.366022	6861.554829
552.724173	6913.385452
553.082267	6946.072294
553.440305	7092.495128
553.798288	7013.044023
554.156215	7167.081520
554.514086	7202.157868
554.871902	7164.311406
555.229661	7235.941161
555.587365	7267.188753
555.945014	7242.938282
556.302606	7393.096611
556.660143	7356.301229
557.017625	7518.172679
557.375050	7497.451017
557.732421	7631.437324
558.089735	7622.912733
558.446994	7669.520721
558.804197	7743.401351
559.161345	7794.102756
559.518437	7734.778457
559.875474	7849.704162
560.232455	7918.586488
560.589381	7923.894823
560.946251	7987.766242
561.303065	8076.271260
561.659825	8093.743899
562.016528	8081.347702
562.373177	8033.519755
562.729770	8180.887805
563.086307	8153.000142
563.442789	8250.145697
563.799216	8224.844146
564.155587	8291.067264
564.511904	8304.060838
564.868164	8336.835899
565.224370	8376.661015
565.580520	8376.547589
565.936615	8395.966113
566.292654	8348.478444
566.648638	8478.157086
567.004567	8488.100762
567.360441	8508.257815
567.716260	8474.804718
568.072023	8582.929907
568.427732	8586.952747
568.783385	8538.650932
569.138982	8640.973752
569.494525	8674.769647
569.850013	8614.154814
570.205445	8716.772541
570.560823	8651.892891
570.916145	8630.135271
571.271412	8710.491264
571.626625	8693.452164
571.981782	8702.059934
572.336884	8722.133808
572.691931	8744.947550
573.046923	8731.273420
573.401860	8729.060354
573.756743	8702.203607
574.111570	8756.612780
574.466342	8769.409749
574.821059	8821.447060
575.175722	8755.717975
575.530330	8791.545456
575.884882	8799.868401
576.239380	8766.437989
576.593823	8770.176005
576.948211	8809.582704
577.302544	8723.363850
577.656823	8769.024101
578.011047	8783.081358
578.365216	8781.710165
578.719330	8739.182991
579.073389	8769.838247
579.427394	8740.559226
579.781344	8737.224502
580.135239	8707.864822
580.489080	8726.932987
580.842866	8661.196341
581.196597	8677.529679
581.550273	8736.017146
581.903895	8723.134477
582.257463	8792.543604
582.610975	8698.531126
582.964434	8737.637877
583.317837	8679.420112
583.671186	8679.629320
584.024481	8681.711316
584.377721	8624.743757
584.730906	8620.746122
585.084037	8662.549891
585.437113	8612.022406
585.790135	8649.606728
586.143103	8553.668529
586.496016	8552.632572
586.848874	8615.321841
587.201679	8612.196325
587.554428	8520.727109
587.907124	8568.663441
588.259765	8551.798261
588.612352	8565.477432
588.964884	8458.100855
589.317362	8484.161100
589.669786	8491.543870
590.022155	8541.131180
590.374470	8566.921723
590.726731	8515.244855
591.078937	8383.902632
591.431090	8505.119697
591.783188	8388.359012
592.135232	8398.587513
592.487222	8392.893530
592.839157	8444.325902
593.191038	8395.661124
593.542866	8345.932662
593.894639	8253.369515
594.246358	8307.629975
594.598022	8338.103750
594.949633	8247.922548
595.301190	8224.123261
595.652692	8254.322293
596.004141	8367.150878
596.355535	8157.353178
596.706876	8140.646795
597.058162	8086.928259
597.409395	8162.182604
597.760573	8226.439671
598.111698	8146.474368
598.462768	8135.613203
598.813785	8104.899973
599.164748	8076.309069
599.515657	8072.278666
599.866511	7989.386973
600.217312	8106.992052
600.568060	7978.982032
600.918753	8082.121519
601.269392	8056.336017
601.619978	7972.688151
601.970510	8036.186525
602.320988	8033.905403
602.671412	8097.008046
603.021783	8038.139972
603.372100	8016.586519
603.722363	8015.358998
604.072572	7995.305288
604.422728	8005.516145
604.772830	7941.828728
605.122878	7948.967002
605.472872	7946.983308
605.822813	7977.182340
606.172701	7922.785769
606.522534	8002.088161
606.872314	8004.618820
607.222041	7968.241854
607.571714	8031.213427
607.921333	7986.329514
608.270899	7997.261256
608.620411	8085.927590
608.969870	7997.162953
609.319276	7989.737334
609.668627	8002.544385
610.017926	8038.258439
610.367171	8085.178979
610.716362	8064.512769
611.065500	8061.170484
611.414585	8086.744257
611.763616	8071.209942
612.112594	8058.849032
612.461518	8072.878563
612.810389	8134.703274
613.159207	8075.993997
613.507971	8025.295112
613.856682	8145.882033
614.205340	8100.398222
614.553945	8180.585336
614.902496	8075.832680
615.250994	8130.042727
615.599439	8112.900284
615.947830	8129.896534
616.296169	8102.669262
616.644454	8119.821788
616.992686	8114.238710
617.340864	8172.554778
617.688990	8077.113133
618.037063	8166.989344
618.385082	8118.775749
618.733048	8198.841875
619.080961	8139.515056
619.428821	8156.458374
619.776628	8164.569590
620.124382	8111.360211
620.472083	8095.951925
620.819731	8127.832182
621.167326	8023.616408
621.514868	8030.101852
621.862357	7917.611025
622.209793	7937.238757
622.557176	7874.899849
622.904506	7844.617638
623.251783	7782.954244
623.599007	7736.273159
623.946179	7739.582677
624.293297	7696.082560
624.640363	7619.189841
624.987376	7594.684792
625.334336	7544.147225
625.681243	7497.471181
626.028097	7485.382494
626.374899	7469.613765
626.721647	7454.717155
627.068343	7388.854480
627.414987	7361.866663
627.761577	7317.970816
628.108115	7355.101435
628.454600	7248.879282
628.801032	7297.259236
629.147412	7260.065602
629.493739	7245.514312
629.840014	7188.314860
630.186236	7238.103816
630.532405	7126.313709
630.878521	7183.084663
631.224585	7141.253168
631.570597	7060.445992
631.916556	7095.073678
632.262462	7092.018739
632.608316	7053.269910
632.954117	7026.622371
633.299866	7017.235742
633.645562	7012.078642
633.991206	6929.902793
634.336797	6875.216356
634.682336	6830.965108
635.027823	6798.159799
635.373257	6788.649662
635.718639	6720.435289
636.063968	6733.907773
636.409245	6631.852134
636.754470	6631.915148
637.099642	6589.435865
637.444762	6536.415530
637.789829	6542.180089
638.134845	6482.679350
638.479808	6471.286342
638.824719	6472.150900
639.169577	6402.416619
639.514383	6425.064003
639.859137	6356.791656
640.203839	6360.733839
640.548489	6346.185069
640.893086	6323.388971
641.237632	6298.291587
641.582125	6317.533671
641.926566	6289.726666
642.270955	6301.351567
642.615292	6295.445855
642.959576	6312.764739
643.303809	6300.219828
643.647990	6311.910264
643.992118	6295.813859
644.336195	6245.729996
644.680219	6266.802019
645.024192	6261.009733
645.368112	6353.903075
645.711981	6377.861159
646.055797	6453.294464
646.399562	6407.636734
646.743274	6539.089862
647.086935	6589.584579
647.430544	6583.285658
647.774101	6603.591425
648.117606	6610.323886
648.461059	6604.229131
648.804460	6563.307565
649.147810	6474.038812
649.491108	6440.459687
649.834354	6418.598723
650.177548	6331.888356
650.520690	6249.024390
650.863781	6227.158385
651.206820	6248.001036
651.549807	6169.396844
651.892742	6114.753257
652.235626	6118.282065
652.578458	6109.046671
652.921238	6016.496128
653.263967	6053.772940
653.606644	5995.242623
653.949269	5997.304455
654.291843	5941.188851
654.634365	5982.813658
654.976836	5941.604746
655.319255	5939.376556
655.661622	5922.322333
656.003938	5920.625984
656.346203	5872.858531
656.688416	5907.125774
657.030577	5863.343353
657.372687	5826.421943
657.714746	5818.575387
658.056753	5859.970821
658.398708	5798.539321
658.740612	5793.331809
659.082465	5841.479869
659.424266	5833.882850
659.766016	5833.628272
660.107715	5806.373274
660.449362	5821.998330
660.790958	5811.096835
661.132503	5801.904291
661.473996	5839.249158
661.815438	5825.653167
662.156829	5823.114946
662.498168	5814.925591
662.839456	5788.830058
663.180693	5827.122663
663.521879	5828.151058
663.863013	5814.194624
664.204097	5839.004663
664.545129	5873.816350
664.886110	5871.772163
665.227040	5906.248614
665.567918	5874.396083
665.908746	5900.423560
666.249522	5904.126288
666.590248	5890.109360
666.930922	5916.046096
667.271545	5925.052118
667.612118	5929.415236
667.952639	5905.376494
668.293109	5928.212921
668.633528	5881.723400
668.973896	5887.881170
669.314213	5877.014963
669.654480	5861.664649
669.994695	5855.269945
670.334859	5845.956414
670.674973	5837.600701
671.015035	5843.955076
671.355047	5836.957954
671.695008	5824.629812
672.034918	5798.902284
672.374777	5804.528211
672.714585	5793.258712
673.054342	5802.504188
673.394049	5794.249299
673.733705	5823.183001
674.073310	5806.844622
674.412864	5771.405310
674.752368	5760.113125
675.091820	5767.332058
675.431223	5702.833015
675.770574	5702.165062
676.109875	5657.583618
676.449125	5662.957488
676.788324	5623.477692
677.127473	5567.546090
677.466571	5563.845883
677.805619	5551.827772
678.144616	5537.256317
678.483562	5516.143964
678.822458	5490.855016
679.161303	5482.748841
679.500098	5474.481348
679.838842	5451.317247
680.177535	5458.052228
680.516179	5473.662161
680.854771	5488.773020
681.193314	5567.853600
681.531805	5673.264127
681.870247	5822.464637
682.208638	5926.960194
682.546978	5936.644251
682.885268	5911.204068
683.223508	5831.037119
683.561697	5775.380260
683.899836	5742.650568
684.237925	5701.575247
684.575963	5663.602756
684.913951	5628.279391
685.251889	5691.563515
685.589776	5658.183515
685.927614	5629.438856
686.265401	5698.202715
686.603137	5680.470456
686.940824	5760.559267
687.278460	5781.215395
687.616046	5791.958094
687.953582	5854.339853
688.291068	5833.643395
688.628504	5903.170989
688.965889	5865.899218
689.303224	5809.115661
689.640510	5763.571357
689.977745	5683.613616
690.314930	5588.653401
690.652065	5532.076531
690.989150	5440.405669
691.326185	5364.269123
691.663170	5317.832534
692.000105	5240.062653
692.336990	5155.600641
692.673825	5135.413341
693.010610	5067.846756
693.347345	4998.808154
693.684030	4987.122759
694.020665	4945.588693
694.357251	4855.397409
694.693786	4868.302763
695.030272	4829.901774
695.366707	4793.875168
695.703093	4761.581536
696.039429	4785.466523
696.375716	4766.158904
696.711952	4744.600409
697.048139	4730.175148
697.384276	4712.205955
697.720363	4726.205239
698.056400	4734.858380
698.392388	4680.779402
698.728326	4660.841638
699.064214	4639.898165
699.400053	4632.717041
699.735842	4601.640848
700.071581	4576.102363
700.407270	4556.492274
700.742910	4532.882030
701.078501	4478.303978
701.414042	4479.060151
701.749533	4448.818269
702.084974	4382.693454
702.420366	4442.090849
702.755709	4382.002816
703.091002	4327.497861
703.426246	4373.410169
703.761440	4331.893747
704.096584	4293.260864
704.431679	4316.316582
704.766725	4303.348213
705.101721	4289.774907
705.436668	4317.773475
705.771565	4264.392697
706.106413	4295.738592
706.441212	4328.944672
706.775961	4336.571938
707.110661	4314.060665
707.445311	4339.576465
707.779913	4365.803068
708.114465	4375.920664
708.448967	4401.144077
708.783421	4461.290084
709.117825	4500.507740
709.452180	4505.037217
709.786485	4550.899114
710.120742	4636.082011
710.454949	4622.591883
710.789107	4685.460113
711.123216	4758.541720
711.457275	4749.621399
711.791286	4824.790044
712.125247	4836.006611
712.459159	4741.777363
712.793023	4819.262418
713.126837	4778.784474
713.460602	4768.739975
713.794318	4691.322975
714.127985	4698.128533
714.461602	4614.548722
714.795171	4582.534875
715.128691	4519.820401
715.462162	4462.378973
715.795584	4416.438938
716.128957	4399.997215
716.462281	4346.084595
716.795556	4320.208352
717.128782	4280.547074
717.461960	4215.087692
717.795088	4227.294846
718.128167	4186.282539
718.461198	4124.268785
718.794180	4121.523876
719.127113	4101.349179
719.459997	4079.687341
719.792833	4035.110938
720.125619	4027.647509
720.458357	3992.306500
720.791046	3999.875793
721.123686	3971.118531
721.456278	3930.232252
721.788821	3947.155406
722.121315	3920.888474
722.453761	3894.752612
722.786158	3905.676792
723.118506	3933.234260
723.450805	3881.567474
723.783056	3903.809045
724.115259	3920.081889
724.447412	3922.637754
724.779518	3917.326899
725.111574	3922.647837
725.443582	3951.069862
725.775542	3940.793470
726.107453	3991.794823
726.439315	3989.241479
726.771129	4003.928881
727.102895	4041.571176
727.434612	4083.485850
727.766281	4096.923046
728.097901	4096.116461
728.429473	4102.836319
728.760996	4107.822020
729.092471	4101.150053
729.423897	4090.659412
729.755276	4097.933797
730.086606	4095.599743
730.417887	4128.226090
730.749120	4195.593550
731.080305	4258.643261
731.411442	4283.599493
731.742530	4258.338271
732.073570	4263.689456
732.404562	4316.709792
732.735506	4303.053306
733.066401	4268.637348
733.397249	4204.047565
733.728048	4125.897077
734.058798	4046.377917
734.389501	3976.648677
734.720156	3914.360180
735.050762	3869.040207
735.381320	3861.780945
735.711831	3809.743634
736.042293	3788.270840
736.372707	3809.441165
736.703073	3776.129221
737.033391	3767.292078
737.363661	3785.079789
737.693883	3811.777740
738.024056	3820.133453
738.354182	3816.614727
738.684260	3877.751320
739.014290	3899.042634
739.344272	3893.126840
739.674207	3936.485804
740.004093	3941.169036
740.333931	3936.584106
740.663722	3935.898509
740.993464	3935.044034
741.323159	3909.434972
741.652806	3878.878018
741.982405	3852.056559
742.311956	3822.006241
742.641460	3818.729491
742.970915	3788.832928
743.300323	3748.415477
743.629683	3711.642781
743.958996	3703.957542
744.288260	3680.347298
744.617477	3645.906134
744.946647	3634.971872
745.275768	3607.439610
745.604842	3607.144702
745.933869	3559.967064
746.262847	3550.081362
746.591778	3590.070314
746.920662	3557.214594
747.249498	3531.839946
747.578286	3573.787388
747.907027	3591.844801
748.235720	3588.036209
748.564365	3613.824231
748.892963	3614.245168
749.221514	3598.909978
749.550017	3578.024477
749.878473	3573.893252
750.206881	3541.715567
750.535242	3539.550391
750.863555	3541.730690
751.191821	3535.746841
751.520039	3515.950229
751.848210	3494.850480
752.176334	3526.400541
752.504411	3535.419166
752.832440	3491.941734
753.160421	3476.760299
753.488356	3487.001403
753.816243	3498.041530
754.144082	3458.120633
754.471875	3441.084054
754.799620	3461.034420
755.127318	3450.889098
755.454969	3452.593008
755.782572	3455.171558
756.110129	3435.155657
756.437638	3427.203237
756.765100	3439.294444
757.092515	3448.237451
757.419882	3455.960499
757.747203	3430.399328
758.074477	3431.105090
758.401703	3444.907769
758.728882	3466.128506
759.056014	3476.120073
759.383099	3477.166112
759.710138	3472.089670
760.037129	3491.780417
760.364073	3520.726723
760.690970	3506.845906
761.017820	3481.188953
761.344623	3499.984895
761.671379	3547.603634
761.998088	3599.772015
762.324751	3722.496385
762.651366	3968.855053
762.977935	4437.465591
763.304456	4870.697311
763.630931	4958.194098
763.957359	4602.702011
764.283740	4266.550311
764.610074	4078.704316
764.936362	3887.291704
765.262602	3727.895461
765.588796	3619.813122
765.914943	3533.306922
766.241044	3445.510187
766.567097	3414.902821
766.893104	3366.611088
767.219064	3339.338446
767.544978	3315.309786
767.870845	3259.647886
768.196665	3236.093094
768.522438	3247.176071
768.848165	3244.295052
769.173846	3207.111501
769.499479	3194.231353
769.825066	3174.860719
770.150607	3158.897905
770.476101	3172.713187
770.801548	3169.244874
771.126949	3122.367184
771.452303	3106.676593
771.777611	3112.569702
772.102872	3117.106740
772.428087	3094.595467
772.753256	3086.461566
773.078378	3077.831110
773.403453	3040.672765
773.728482	3032.574152
774.053465	3053.779765
774.378401	3038.550440
774.703291	3008.001047
775.028135	3011.882736
775.352932	3004.384019
775.677683	2994.679798
776.002388	2988.453973
776.327046	2993.900940
776.651658	2978.966522
776.976224	2970.487301
777.300743	2969.395891
777.625216	2963.384315
777.949643	2955.683953
778.274024	2958.827112
778.598359	2948.719599
778.922647	2951.013324
779.246889	2953.181020
779.571086	2935.688216
779.895236	2930.321908
780.219339	2945.142900
780.543397	2953.659929
780.867409	2958.711166
781.191374	2948.389403
781.515294	2948.419650
781.839167	2946.249433
782.162995	2938.654935
782.486776	2946.531738
782.810511	2943.154165
783.134201	2931.846857
783.457844	2937.911365
783.781441	2927.261927
784.104993	2910.248033
784.428498	2908.075296
784.751958	2925.986515
785.075372	2917.862696
785.398739	2900.989954
785.722061	2918.122315
786.045337	2929.089346
786.368568	2914.472520
786.691752	2906.406674
787.014891	2954.562296
787.337983	2984.910042
787.661030	3011.025740
787.984031	3079.663570
788.306987	3123.372894
788.629897	3114.306379
788.952760	3096.543873
789.275579	3083.547779
789.598351	3025.753471
789.921078	2983.727892
790.243759	2971.419914
790.566395	2956.450208
790.888984	2930.016918
791.211529	2914.530493
791.534027	2902.668658
791.856480	2895.432082
792.178888	2879.615462
792.501249	2872.472147
792.823566	2875.201932
793.145836	2866.788246
793.468062	2864.386136
793.790241	2861.137112
794.112375	2868.088863
794.434464	2878.970194
794.756507	2882.153683
795.078505	2890.910167
795.400457	2901.483987
795.722364	2940.189966
796.044226	2962.371043
796.366042	2967.626446
796.687812	2955.683953
797.009538	2973.242292
797.331218	2960.465487
797.652852	2948.951492
797.974442	2932.532454
798.295986	2928.224788
798.617484	2922.475352
798.938938	2906.716705
799.260346	2890.295146
799.581709	2882.899773
799.903026	2879.260060
800.224299	2871.665562
800.545526	2865.744727
800.866708	2847.662108
801.187845	2837.549553
801.508936	2840.407888
801.829983	2848.035153
802.150984	2829.932370
802.471940	2823.641010
802.792851	2825.201247
803.113717	2823.265444
803.434538	2828.649396
803.755314	2819.635813
804.076045	2814.206491
804.396731	2816.192705
804.717372	2814.619865
805.037967	2808.888073
805.358518	2815.431491
805.679024	2827.487410
805.999485	2821.871565
806.319901	2828.934222
806.640272	2817.679846
806.960598	2826.980774
807.280879	2835.646518
807.601115	2843.603979
807.921306	2827.563028
808.241453	2825.176041
808.561554	2828.979592
808.881611	2832.377330
809.201623	2825.445743
809.521590	2827.900785
809.841513	2819.892912
810.161390	2826.733758
810.481223	2820.412151
810.801011	2810.765903
811.120755	2809.177940
811.440453	2810.886891
811.760107	2810.120635
812.079716	2805.734832
812.399281	2798.127730
812.718801	2791.869138
813.038276	2788.173972
813.357707	2791.944755
813.677093	2800.197124
813.996434	2792.499282
814.315731	2789.358643
814.634983	2782.018723
814.954191	2788.426030
815.273354	2801.243163
815.592473	2808.169709
815.911547	2809.298927
816.230577	2818.562047
816.549562	2827.774756
816.868502	2825.533963
817.187399	2835.102073
817.506250	2850.689321
817.825058	2844.206397
818.143821	2857.484796
818.462539	2870.672455
818.781213	2898.839902
819.099843	2932.413987
819.418429	2991.254334
819.736970	3050.606359
820.055466	3124.388687
820.373919	3222.156824
820.692327	3363.104965
821.010691	3529.624359
821.329011	3962.034372
821.647286	4844.130430
821.965517	6203.180137
822.283704	6923.170332
822.601847	6890.478449
822.919945	6272.649757
823.237999	5774.861021
823.556010	5207.557293
823.873976	4667.858924
824.191897	4266.550311
824.509775	3979.474243
824.827609	3717.553533
825.145398	3594.478803
825.463144	3584.653595
825.780845	3676.284127
826.098502	3780.348666
826.416116	4059.336202
826.733685	4362.974981
827.051210	4421.608641
827.368692	4314.630316
827.686129	4050.927558
828.003522	3731.343610
828.320872	3480.077379
828.638177	3288.445477
828.955439	3156.533604
829.272656	3075.953281
829.589830	3009.384844
829.906960	2961.463636
830.224046	2915.793302
830.541088	2885.196019
830.858086	2869.137423
831.175041	2850.028930
831.491952	2851.929445
831.808819	2865.026362
832.125642	2889.196175
832.442421	2933.016404
832.759157	3011.048425
833.075849	3185.714323
833.392497	3463.456694
833.709101	3661.546314
834.025662	3612.198459
834.342179	3453.850776
834.658653	3282.224693
834.975083	3136.857981
835.291469	3039.034390
835.607811	2957.435754
835.924110	2899.472567
836.240366	2850.853158
836.556578	2809.740028
836.872746	2788.103396
837.188871	2764.339397
837.504952	2749.349526
837.820990	2742.969946
838.136984	2727.049982
838.452935	2721.028323
838.768842	2719.498333
839.084706	2736.945767
839.400526	2817.581543
839.716303	2944.941254
840.032037	3021.730630
840.347727	3003.322857
840.663373	2945.533589
840.978977	2872.341077
841.294537	2806.327167
841.610054	2755.661050
841.925527	2735.017525
842.240957	2713.017930
842.556344	2692.770136
842.871687	2676.325892
843.186987	2668.474295
843.502244	2666.472957
843.817458	2658.896102
844.132629	2648.186171
844.447756	2640.367341
844.762840	2632.520785
845.077881	2635.782412
845.392879	2635.903400
845.707833	2630.222019
846.022745	2625.397635
846.337613	2630.766464
846.652438	2623.701287
846.967221	2628.513068
847.281960	2623.391256
847.596656	2623.353447
847.911309	2623.240021
848.225919	2618.639968
848.540485	2613.941613
848.855009	2614.309617
849.169490	2614.556634
849.483928	2614.738115
849.798323	2615.731223
850.112675	2613.792899
850.426984	2612.852724
850.741251	2613.382045
851.055474	2612.010851
851.369654	2615.605194
851.683792	2616.716768
851.997887	2612.686366
852.311938	2610.745521
852.625947	2612.643516
852.939914	2616.580657
853.253837	2616.505040
853.567718	2613.477827
853.881555	2613.177878
854.195350	2614.039915
854.509103	2613.031685
854.822812	2612.698968
855.136479	2614.022271
855.450103	2612.552775
855.763685	2614.526387
856.077224	2612.598145
856.390720	2611.499174
856.704173	2614.342385
857.017584	2616.189967
857.330953	2617.488065
857.644278	2621.163066
857.957561	2621.432768
858.270802	2615.274998
858.584000	2615.645523
858.897155	2617.432612
859.210268	2620.104423
859.523339	2616.318517
859.836367	2609.162599
860.149352	2612.877929
860.462295	2613.059411
860.775195	2612.018413
861.088054	2610.586725
861.400869	2606.475664
861.713642	2605.565736
862.026373	2606.016919
862.339062	2610.173350
862.651708	2615.448918
862.964312	2613.760131
863.276873	2613.550923
863.589392	2615.630399
863.901869	2619.970833
864.214303	2627.172121
864.526696	2631.578090
864.839045	2630.685805
865.151353	2631.724283
865.463619	2632.997174
865.775842	2632.054479
866.088023	2633.760909
866.400162	2632.392236
866.712258	2631.046248
867.024313	2632.603964
867.336325	2628.298819
867.648296	2625.737913
867.960224	2633.491207
868.272110	2629.934673
868.583954	2624.893520
868.895755	2626.100876
869.207515	2633.713018
869.519233	2639.893473
869.830909	2632.883748
870.142542	2630.156484
870.454134	2631.719242
870.765684	2638.968421
871.077191	2637.521610
871.388657	2643.780202
871.700081	2641.057979
872.011463	2641.766262
872.322803	2641.461272
872.634101	2644.475882
872.945357	2654.066677
873.256571	2659.949703
873.567744	2654.691780
873.878874	2653.751605
874.189963	2655.906698
874.501010	2661.275527
874.812015	2666.684685
875.122979	2664.559839
875.433900	2656.599857
875.744780	2654.469969
876.055618	2659.680002
876.366415	2665.729386
876.677169	2664.968172
876.987882	2659.362409
877.298554	2658.893582
877.609183	2669.280879
877.919771	2676.656087
878.230317	2682.193795
878.540822	2691.605629
878.851285	2705.521734
879.161707	2728.620301
879.472087	2761.886875
879.782425	2809.309010
880.092722	2919.985022
880.402977	3104.970162
880.713191	3355.520549
881.023363	3638.039414
881.333494	3822.354081
881.643583	3989.722909
881.953631	3989.410357
882.263637	3811.997030
882.573602	3599.489710
882.883526	3473.239053
883.193408	3361.990870
883.503248	3266.266921
883.813048	3151.966319
884.122806	3041.353321
884.432522	2962.345837
884.742197	2895.933677
885.051831	2865.956455
885.361424	2829.244252
885.670975	2798.223512
885.980485	2767.308636
886.289954	2750.501429
886.599382	2734.805797
886.908768	2725.114179
887.218113	2705.564584
887.527417	2694.489169
887.836680	2686.831656
888.145901	2682.934844
888.455082	2673.177691
888.764221	2661.066319
889.073319	2653.454177
889.382376	2654.084321
889.691392	2658.399549
890.000366	2657.169507
890.309300	2653.529794
890.618193	2655.614311
890.927044	2660.589930
891.235855	2658.270999
891.544625	2658.717141
891.853353	2657.540032
892.162041	2664.980775
892.470687	2684.931141
892.779293	2698.759026
893.087858	2701.761033
893.396381	2725.101576
893.704864	2764.563728
894.013306	2833.819100
894.321707	2923.977616
894.630068	2971.019143
894.938387	2988.693428
895.246665	2980.685555
895.554903	2944.038887
895.863100	2897.624984
896.171256	2844.962570
896.479371	2783.528549
896.787446	2746.551685
897.095480	2729.492421
897.403473	2724.277347
897.711425	2706.235057
898.019336	2692.371884
898.327207	2676.119204
898.635038	2677.422343
898.942827	2674.367403
899.250576	2666.377175
899.558284	2653.928045
899.865952	2648.980153
900.173579	2647.374545
900.481165	2646.245327
900.788711	2640.057310
901.096216	2634.474232
901.403681	2628.588685
901.711105	2628.533233
902.018489	2628.659262
902.325832	2630.887452
902.633135	2632.586320
902.940397	2646.938485
903.247619	2682.130780
903.554800	2749.031933
903.861941	2868.842516
904.169041	2991.261896
904.476101	3047.692572
904.783121	3042.560678
905.090100	2988.038078
905.397039	2914.883374
905.703938	2845.537262
906.010796	2784.453601
906.317614	2736.229923
906.624391	2702.915458
906.931129	2677.858402
907.237826	2656.980464
907.544483	2637.788791
907.851099	2625.649693
908.157675	2618.035030
908.464211	2610.470778
908.770707	2600.501897
909.077163	2596.123655
909.383578	2591.233735
909.689954	2590.442274
909.996289	2588.531677
910.302584	2588.511512
910.608839	2585.675863
910.915054	2584.723085
911.221229	2591.407655
911.527363	2592.564600
911.833458	2590.969075
912.139513	2592.700711
912.445527	2593.335897
912.751502	2595.364961
913.057436	2603.075406
913.363331	2608.774430
913.669186	2620.885802
913.975000	2631.111783
914.280775	2648.778507
914.586510	2663.697801
914.892205	2695.189889
915.197859	2759.850249
915.503475	2843.273784
915.809050	2906.504976
916.114585	2919.513674
916.420081	2926.765374
916.725536	2939.683330
917.030952	2915.823549
917.336328	2869.492825
917.641665	2821.914415
917.946961	2774.794750
918.252218	2743.635378
918.557435	2719.672253
918.862612	2699.580734
919.167750	2682.987777
919.472848	2666.961948
919.777906	2653.280257
920.082925	2640.029584
920.387904	2631.328552
920.692843	2624.165073
920.997743	2622.209105
921.302603	2616.804988
921.607423	2607.188987
921.912204	2602.798142
922.216946	2602.934253
922.521647	2600.680858
922.826310	2592.983016
923.130932	2592.730958
923.435516	2586.285843
923.740059	2584.952458
924.044564	2585.028075
924.349028	2582.071438
924.653454	2575.165057
924.957840	2573.065417
925.262186	2566.837071
925.566493	2572.894018
925.870761	2565.864129
926.174989	2567.928481
926.479178	2562.037893
926.783328	2563.822461
927.087438	2563.010836
927.391509	2563.832544
927.695541	2562.388253
927.999533	2557.392470
928.303486	2559.955896
928.607400	2558.413303
928.911275	2557.949517
929.215110	2557.679815
929.518906	2555.093703
929.822663	2558.078067
930.126381	2555.509599
930.430060	2556.409445
930.733699	2558.889692
931.037299	2557.210988
931.340861	2561.700136
931.644383	2556.817778
931.947866	2559.429096
932.251309	2558.161246
932.554714	2556.099414
932.858080	2559.532439
933.161407	2557.924311
933.464694	2557.916750
933.767943	2558.766184
934.071153	2557.568910
934.374323	2552.318548
934.677455	2552.666388
934.980548	2553.611604
935.283602	2556.149825
935.586617	2556.059084
935.889593	2552.106820
936.192530	2555.544887
936.495428	2556.805175
936.798287	2554.824002
937.101108	2557.921791
937.403890	2559.151832
937.706632	2564.886145
938.009336	2566.242215
938.312002	2568.513255
938.614628	2574.668504
938.917216	2575.470047
939.219765	2575.916189
939.522275	2575.875860
939.824747	2575.056673
940.127179	2570.406208
940.429573	2567.772205
940.731929	2567.462174
941.034246	2566.146433
941.336524	2566.300188
941.638763	2567.328584
941.940964	2567.242884
942.243126	2564.787842
942.545250	2565.007132
942.847335	2563.542677
943.149381	2560.124775
943.451389	2559.676112
943.753359	2559.971020
944.055290	2559.668551
944.357182	2560.023952
944.659036	2558.393139
944.960851	2560.215516
945.262628	2556.296019
945.564367	2558.619991
945.866067	2557.294167
946.167729	2559.542522
946.469352	2556.958930
946.770937	2558.622511
947.072484	2555.812068
947.373992	2557.727706
947.675462	2556.787531
947.976893	2554.498847
948.278286	2557.647048
948.579641	2554.985319
948.880958	2553.697304
949.182236	2554.445915
949.483476	2556.752243
949.784678	2555.028168
950.085841	2553.472972
950.386967	2554.335010
950.688054	2554.617314
950.989103	2555.905329
951.290114	2555.814588
951.591087	2557.979764
951.892021	2558.912377
952.192917	2560.719631
952.493776	2559.159394
952.794596	2560.548232
953.095378	2561.437996
953.396122	2561.982440
953.696828	2560.094528
953.997496	2560.263407
954.298126	2559.071174
954.598718	2560.591082
954.899272	2556.757284
955.199788	2558.438509
955.500266	2552.396686
955.800706	2552.694114
956.101108	2546.077600
956.401472	2545.525593
956.701798	2542.662218
957.002087	2546.899308
957.302337	2547.156407
957.602550	2546.677497
957.902724	2544.141797
958.202861	2546.690100
958.502960	2544.449307
958.803022	2547.189174
959.103045	2543.831766
959.403031	2543.400747
959.702979	2543.844369
960.002889	2544.976108
960.302762	2542.783206
960.602596	2545.248330
960.902393	2542.311858
961.202153	2545.765048
961.501875	2540.325643
961.801559	2542.810932
962.101205	2539.977804
962.400814	2542.339584
962.700385	2541.432177
962.999918	2542.374872
963.299414	2541.442259
963.598873	2542.334543
963.898293	2541.202804
964.197677	2540.471837
964.497022	2540.257588
964.796331	2541.318751
965.095601	2543.166333
965.394835	2544.046015
965.694030	2541.860675
965.993189	2538.962011
966.292309	2541.313709
966.591393	2540.731456
966.890439	2540.955788
967.189447	2541.717002
967.488419	2537.573173
967.787353	2542.332022
968.086249	2539.685417
968.385108	2541.054090
968.683930	2543.201622
968.982714	2542.488298
969.281462	2541.540561
969.580172	2539.377906
969.878844	2542.722712
970.177480	2540.524769
970.476078	2542.352187
970.774639	2540.139121
971.073162	2541.815304
971.371649	2539.662732
971.670098	2539.851775
971.968510	2537.195087
972.266885	2538.026877
972.565223	2540.081147
972.863524	2540.943185
973.161788	2542.909235
973.460014	2543.178936
973.758204	2542.924358
974.056356	2542.326981
974.354471	2541.653987
974.652550	2541.870757
974.950591	2544.298073
975.248595	2540.189532
975.546563	2542.243802
975.844493	2542.916796
976.142386	2543.304965
976.440243	2537.391692
976.738062	2541.520397
977.035845	2541.472506
977.333590	2541.893442
977.631299	2541.659028
977.928971	2536.847247
978.226606	2541.291024
978.524204	2538.657021
978.821765	2540.723894
979.119290	2540.103833
979.416777	2539.408153
979.714228	2540.678524
980.011642	2542.931920
980.309020	2541.351518
980.606360	2539.382947
980.903664	2541.475026
981.200931	2539.219110
981.498162	2541.250695
981.795356	2544.524924
982.092513	2548.308310
982.389633	2549.755122
982.686717	2550.612118
982.983764	2551.522046
983.280775	2552.532797
983.577749	2554.193857
983.874686	2551.322920
984.171587	2549.591284
984.468451	2549.465255
984.765279	2549.712272
985.062070	2544.575336
985.358824	2544.764379
985.655543	2540.602907
985.952224	2540.091230
986.248869	2541.109543
986.545478	2537.696682
986.842050	2537.447144
987.138586	2536.113759
987.435086	2534.087215
987.731549	2532.675692
988.027975	2538.420087
988.324366	2536.411187
988.620719	2537.595858
988.917037	2536.199459
989.213318	2539.302289
989.509563	2536.136444
989.805772	2539.017464
990.101944	2537.749614
990.398080	2538.299099
990.694180	2538.470499
990.990244	2538.851106
991.286271	2536.368338
991.582262	2538.321785
991.878217	2537.578214
992.174136	2537.545447
992.470019	2539.821528
992.765865	2536.280117
993.061676	2538.752803
993.357450	2540.088709
993.653188	2536.310364
993.948890	2537.258101
994.244556	2538.813297
994.540186	2539.206507
994.835780	2537.489994
995.131337	2539.839172
995.426859	2539.025026
995.722345	2536.418749
996.017795	2540.527289
996.313208	2542.117773
996.608586	2543.741025
996.903928	2540.333205
997.199234	2541.172557
997.494504	2540.275232
997.789738	2541.613658
998.084936	2539.957639
998.380099	2541.157434
998.675225	2539.176260
998.970316	2539.529141
999.265371	2538.878832
999.560390	2539.655170
999.855373	2538.906558
1000.150320	2536.995961
1000.445232	2537.810107
1000.740108	2536.113759
1001.034948	2537.452186
1001.329752	2538.588966
1001.624521	2537.850437
1001.919254	2531.077647
1002.213951	2534.881197
1002.508613	2536.388502
1002.803239	2536.015457
1003.097829	2530.681916
1003.392384	2537.134593
1003.686903	2536.015457
1003.981386	2535.728111
1004.275834	2536.733821
1004.570246	2537.842875
1004.864623	2535.896990
1005.158964	2535.541588
1005.453270	2534.258615
1005.747540	2538.180632
1006.041775	2533.351207
1006.335974	2534.543440
1006.630138	2535.904551
1006.924266	2538.866229
1007.218359	2534.198121
1007.512416	2537.104346
1007.806438	2535.521424
1008.100425	2534.049407
1008.394376	2535.607123
1008.688292	2537.265663
1008.982172	2532.932791
1009.276017	2533.913296
1009.569827	2535.907072
1009.863602	2538.377237
1010.157341	2535.917154
1010.451045	2534.838347
1010.744714	2534.946732
1011.038347	2535.002185
1011.331945	2534.553522
1011.625508	2533.510003
1011.919036	2534.067051
1012.212528	2535.513862
1012.505986	2535.395395
1012.799408	2532.663089
1013.092795	2533.172246
1013.386147	2534.354397
1013.679464	2535.975128
1013.972745	2534.556043
1014.265992	2535.995292
1014.559204	2536.640560
1014.852380	2535.448327
1015.145521	2536.375899
1015.438628	2536.922864
1015.731699	2535.967566
1016.024736	2535.108049
1016.317737	2537.106867
1016.610703	2535.476053
1016.903635	2534.631660
1017.196531	2531.090249
1017.489393	2532.869777
1017.782219	2531.594365
1018.075011	2532.968079
1018.367768	2535.435724
1018.660490	2533.726773
1018.953177	2533.726773
1019.245829	2533.726773
