Dividing Wavelength (nm)	Counts (n)	Blue Motor Position (mm): 10.600000	Red Motor Position (mm): 0.000000	
326.493990	2059.893599
326.888308	2059.893599
327.282561	2059.893599
327.676750	2036.205217
328.070874	2039.252595
328.464933	2044.170241
328.858929	2054.469318
329.252859	2062.557849
329.646726	2076.501681
330.040528	2094.367530
330.434265	2112.777824
330.827938	2134.590897
331.221547	2153.724596
331.615091	2172.248316
332.008571	2193.554753
332.401986	2216.267671
332.795338	2234.942626
333.188625	2252.947107
333.581847	2272.373193
333.975006	2290.478497
334.368100	2309.650005
334.761129	2324.949907
335.154095	2341.270643
335.546996	2376.901518
335.939833	2437.425611
336.332606	2448.977415
336.725315	2459.974692
337.117960	2470.341825
337.510540	2479.516725
337.903056	2488.610967
338.295508	2497.591782
338.687896	2504.997237
339.080220	2508.074862
339.472480	2512.521159
339.864676	2515.760101
340.256807	2517.743795
340.648875	2521.945596
341.040879	2519.112468
341.432818	2524.380474
341.824694	2523.457942
342.216506	2524.496420
342.608253	2521.411234
342.999937	2522.779907
343.391557	2520.307221
343.783113	2519.036851
344.174605	2515.669360
344.566033	2515.508043
344.957397	2516.884278
345.348697	2515.500481
345.739934	2511.868330
346.131106	2510.081241
346.522215	2506.716271
346.913260	2505.859274
347.304241	2504.024294
347.695159	2502.726197
348.086012	2503.696619
348.476802	2502.075888
348.867528	2497.150681
349.258191	2493.452995
349.648789	2491.736482
350.039324	2491.053406
350.429796	2494.630104
350.820203	2493.228663
351.210548	2492.709425
351.600828	2491.744044
351.991045	2489.871255
352.381198	2489.649444
352.771288	2490.387973
353.161314	2486.120637
353.551276	2491.277737
353.941175	2489.541059
354.331010	2489.609115
354.720782	2494.662872
355.110490	2493.594147
355.500135	2489.578868
355.889717	2490.181286
356.279235	2490.186327
356.668689	2493.531133
357.058080	2489.515854
357.447408	2491.393683
357.836672	2490.269506
358.225873	2494.120948
358.615010	2492.117089
359.004084	2492.273365
359.393095	2494.433499
359.782043	2492.253200
360.170927	2495.136740
360.559748	2495.461895
360.948505	2494.468787
361.337199	2496.656648
361.725830	2497.937101
362.114398	2495.325783
362.502903	2497.191010
362.891344	2496.495331
363.279722	2497.289313
363.668037	2499.847698
364.056289	2500.266114
364.444478	2500.064468
364.832603	2500.240908
365.220665	2501.309633
365.608665	2502.766527
365.996601	2498.121103
366.384474	2502.418687
366.772284	2501.468429
367.160031	2501.725528
367.547715	2503.172339
367.935336	2503.255518
368.322893	2500.457678
368.710388	2496.490290
369.097820	2501.677637
369.485189	2499.870384
369.872495	2506.202073
370.259738	2504.793070
370.646918	2504.813235
371.034035	2503.023625
371.421090	2504.314161
371.808081	2503.187463
372.195010	2505.917248
372.581875	2504.732577
372.968678	2504.755262
373.355418	2508.483195
373.742096	2504.041938
374.128710	2506.002947
374.515262	2509.645181
374.901751	2506.028153
375.288177	2506.948164
375.674540	2505.997906
376.060841	2509.141066
376.447079	2508.268946
376.833254	2508.218534
377.219367	2507.926147
377.605417	2507.706857
377.991404	2508.329440
378.377329	2507.260715
378.763191	2510.504698
379.148991	2507.134686
379.534727	2508.647033
379.920402	2512.863958
380.306013	2510.895387
380.691563	2510.267763
381.077049	2510.020747
381.462474	2512.092661
381.847835	2512.808505
382.233134	2513.584843
382.618371	2509.766169
383.003545	2509.715757
383.388657	2512.707682
383.773706	2513.148783
384.158693	2514.666170
384.543618	2514.363701
384.928480	2512.576612
385.313280	2512.443021
385.698017	2510.988648
386.082692	2511.807836
386.467305	2513.020233
386.851856	2514.063752
387.236344	2513.030316
387.620770	2510.424039
388.005133	2512.037208
388.389435	2510.560150
388.773674	2508.669718
389.157851	2512.196005
389.541965	2513.383197
389.926018	2512.851355
390.310008	2516.226407
390.693936	2515.727333
391.077802	2517.842097
391.461606	2516.077693
391.845348	2515.485358
392.229027	2514.572909
392.612645	2514.835049
392.996200	2518.568023
393.379694	2517.655574
393.763125	2517.259844
394.146494	2515.417302
394.529801	2518.764628
394.913047	2520.886954
395.296230	2518.016017
395.679351	2517.005266
396.062410	2513.927641
396.445408	2519.447705
396.828343	2521.126409
397.211217	2518.404186
397.594028	2519.067097
397.976778	2519.679598
398.359466	2518.336130
398.742092	2516.783455
399.124656	2519.241017
399.507158	2520.637417
399.889598	2521.708662
400.271977	2519.573733
400.654294	2520.881913
401.036549	2521.401152
401.418742	2518.618435
401.800874	2523.936852
402.182944	2520.980215
402.564952	2520.849145
402.946898	2520.914680
403.328783	2523.538601
403.710606	2520.014834
404.092367	2522.623632
404.474067	2522.812675
404.855705	2520.687828
405.237282	2522.227901
405.618797	2522.663961
406.000250	2521.920391
406.381642	2522.800072
406.762972	2522.515247
407.144240	2517.960564
407.525447	2520.828981
407.906593	2519.435102
408.287677	2525.880217
408.668700	2522.724455
409.049661	2523.815864
409.430560	2523.011800
409.811399	2522.091790
410.192176	2526.807789
410.572891	2521.396111
410.953545	2522.656399
411.334138	2523.528519
411.714669	2525.262676
412.095139	2524.340144
412.475547	2525.880217
412.855894	2522.522808
413.236180	2524.042716
413.616405	2527.768129
413.996568	2525.454239
414.376670	2525.459281
414.756711	2524.153622
415.136691	2526.890968
415.516609	2525.091276
415.896466	2525.996163
416.276262	2526.712007
416.655997	2528.118489
417.035670	2525.194620
417.415283	2528.254600
417.794834	2525.214785
418.174324	2526.079342
418.553753	2523.906605
418.933121	2528.095804
419.312428	2526.031452
419.691674	2525.872655
420.070859	2528.063037
420.449983	2525.481966
420.829045	2529.154446
421.208047	2528.534384
421.586988	2525.839888
421.965867	2528.327697
422.344686	2524.884589
422.723444	2529.242667
423.102141	2528.032790
423.480777	2527.321987
423.859352	2525.572707
424.237866	2528.362985
424.616319	2527.314425
424.994712	2531.019673
425.373044	2525.083715
425.751314	2526.903571
426.129524	2524.645134
426.507673	2528.196627
426.885762	2525.343334
427.263789	2526.558252
427.641756	2529.164529
428.019662	2530.235774
428.397508	2529.366175
428.775292	2529.414066
429.153016	2529.262831
429.530679	2527.621936
429.908282	2528.778880
430.285824	2528.773839
430.663305	2527.004394
431.040726	2527.604292
431.418086	2525.968437
431.795385	2527.959693
432.172624	2527.412728
432.549802	2529.310722
432.926920	2527.027079
433.303977	2529.562780
433.680974	2527.879034
434.057910	2527.717717
434.434786	2529.290557
434.811601	2527.742923
435.188355	2526.739734
435.565050	2528.579755
435.941683	2530.044210
436.318257	2525.217305
436.694770	2527.367357
437.071222	2530.460105
437.447614	2528.879703
437.823946	2527.886596
438.200218	2528.279806
438.576429	2530.185362
438.952580	2528.579755
439.328670	2527.246370
439.704700	2529.265352
440.080670	2528.433561
440.456580	2528.138654
440.832429	2530.472708
441.208218	2527.634538
441.583947	2529.230064
441.959616	2526.641431
442.335224	2528.037831
442.710773	2526.817872
443.086261	2530.316432
443.461689	2529.454395
443.837057	2532.650487
444.212365	2527.611853
444.587612	2528.047913
444.962800	2527.939528
445.337927	2528.811648
445.712995	2526.638911
446.088002	2528.733510
446.462949	2529.865249
446.837837	2529.343490
447.212664	2530.429858
447.587431	2527.735362
447.962139	2531.806093
448.336786	2529.555218
448.711374	2529.156967
449.085901	2530.379447
449.460369	2530.581093
449.834776	2529.693850
450.209124	2530.034128
450.583412	2533.603265
450.957640	2530.354241
451.331808	2530.659231
451.705917	2529.706453
452.079965	2529.908099
452.453954	2527.818541
452.827883	2528.975485
453.201752	2527.979857
453.575562	2532.756351
453.949311	2531.100332
454.323001	2530.641587
454.696632	2528.068078
455.070202	2529.880373
455.443713	2527.647141
455.817164	2529.063706
456.190556	2528.362985
456.563888	2531.856505
456.937160	2528.607481
457.310373	2532.700898
457.683526	2528.998171
458.056619	2532.204344
458.429653	2531.922040
458.802628	2532.910106
459.175542	2530.790301
459.548398	2529.842564
459.921194	2531.178470
460.293930	2531.548994
460.666607	2530.928932
461.039224	2531.022194
461.411782	2530.318953
461.784280	2530.495393
462.156719	2531.024714
462.529099	2532.821886
462.901419	2529.570342
463.273680	2529.605630
463.645882	2525.602953
464.018024	2525.923067
464.390106	2528.204189
464.762130	2530.044210
465.134094	2531.644776
465.505999	2532.315250
465.877845	2531.228881
466.249631	2533.212575
466.621358	2532.083357
466.993026	2531.168387
467.364634	2535.521424
467.736184	2530.571011
468.107674	2534.109901
468.479105	2531.816176
468.850477	2532.910106
469.221790	2531.879190
469.593043	2532.534540
469.964238	2533.492359
470.335373	2530.555887
470.706449	2532.718542
471.077467	2533.056299
471.448425	2533.827596
471.819324	2531.344828
472.190164	2533.237781
472.560945	2533.648635
472.931667	2531.753161
473.302330	2532.539581
473.672934	2531.186031
474.043479	2534.203162
474.413965	2532.141330
474.784393	2531.546474
475.154761	2534.288862
475.525070	2533.764582
475.895321	2534.218285
476.265513	2532.143851
476.635645	2532.892462
477.005719	2533.104190
477.375734	2531.846422
477.745691	2534.921526
478.115588	2536.484284
478.485427	2536.398584
478.855207	2535.586959
479.224928	2534.740045
479.594591	2535.776002
479.964194	2535.718029
480.333739	2536.703574
480.703226	2535.748276
481.072653	2536.663245
481.442022	2536.983358
481.811333	2533.257946
482.180584	2530.840712
482.549777	2533.991433
482.918912	2533.257946
483.287988	2537.121990
483.657005	2537.575694
484.025964	2537.111908
484.394864	2538.082330
484.763706	2533.114273
485.132489	2534.707277
485.501213	2535.186187
485.869879	2536.116280
486.238487	2536.136444
486.607036	2537.817669
486.975527	2536.799356
487.343959	2535.503780
487.712333	2537.195087
488.080648	2535.745755
488.448905	2537.946219
488.817104	2536.186856
489.185244	2539.937474
489.553326	2537.124511
489.921350	2539.163657
490.289315	2541.356559
490.657222	2539.297248
491.025070	2542.193391
491.392861	2541.774975
491.760593	2540.302958
492.128267	2537.442103
492.495883	2539.972763
492.863440	2536.290200
493.230939	2540.348328
493.598380	2539.428318
493.965763	2536.741383
494.333088	2539.221631
494.700354	2535.181146
495.067563	2536.307844
495.434713	2536.479243
495.801805	2538.097453
496.168839	2538.921682
496.535815	2537.492515
496.902733	2538.830941
497.269593	2541.631302
497.636395	2539.566950
498.003139	2537.361445
498.369825	2542.347146
498.736453	2536.426311
499.103023	2538.689789
499.469535	2539.703061
499.835989	2540.955787
500.202385	2537.618544
500.568723	2537.447144
500.935003	2536.391023
501.301226	2532.572349
501.667390	2541.850592
502.033497	2539.932433
502.399546	2539.317413
502.765537	2537.931095
503.131470	2539.607279
503.497345	2540.620551
503.863163	2536.443955
504.228923	2538.117618
504.594625	2538.407484
504.960269	2539.322454
505.325856	2541.132228
505.691385	2537.865560
506.056856	2539.287166
506.422270	2538.407484
506.787625	2537.001002
507.152924	2542.145500
507.518164	2540.461754
507.883347	2538.616692
508.248472	2538.480581
508.613540	2541.167516
508.978550	2543.254554
509.343503	2540.817156
509.708398	2542.200953
510.073236	2541.722043
510.438016	2545.071890
510.802738	2540.804553
511.167403	2543.506611
511.532010	2543.637681
511.896561	2545.959133
512.261053	2543.874616
512.625488	2546.130532
512.989866	2543.645243
513.354186	2548.081458
513.718449	2545.205480
514.082655	2546.347302
514.446803	2545.810419
514.810894	2550.080276
515.174927	2550.672612
515.538904	2547.892415
515.902822	2550.110523
516.266684	2549.326623
516.630488	2548.051212
516.994235	2550.012220
517.357925	2551.254865
517.721558	2550.833928
518.085133	2552.437015
518.448651	2551.882488
518.812112	2549.951727
519.175516	2552.275698
519.538863	2550.377704
519.902152	2557.576472
520.265385	2559.509754
520.628560	2557.274002
520.991678	2558.728375
521.354739	2561.947152
521.717743	2562.143757
522.080690	2561.899261
522.443580	2564.437482
522.806413	2565.014694
523.169189	2563.532595
523.531908	2566.552246
523.894569	2567.217678
524.257174	2569.077864
524.619722	2572.856209
524.982213	2573.017526
525.344647	2572.957032
525.707025	2570.746486
526.069345	2575.999368
526.431608	2576.506004
526.793815	2576.256467
527.155964	2576.357290
527.518057	2577.312589
527.880093	2579.787796
528.242072	2581.458938
528.603995	2583.979515
528.965860	2581.446335
529.327669	2584.808785
529.689421	2583.354412
530.051117	2584.332396
530.412755	2585.784248
530.774337	2587.097469
531.135862	2590.558221
531.497331	2587.268868
531.858743	2591.289188
532.220098	2592.882193
532.581396	2591.422779
532.942638	2595.269179
533.303824	2595.475866
533.664953	2594.528129
534.026025	2598.359406
534.387040	2599.294540
534.747999	2602.137751
535.108902	2599.687750
535.469748	2603.438369
535.830537	2603.818976
536.191270	2603.145982
536.551947	2603.839141
536.912567	2604.431476
537.273131	2605.795108
537.633638	2604.174377
537.994089	2609.833072
538.354483	2612.267950
538.714821	2616.124433
539.075103	2617.009155
539.435328	2616.840276
539.795497	2616.936058
540.155609	2620.159876
540.515665	2621.863786
540.875665	2621.215998
541.235609	2624.981740
541.595496	2622.509054
541.955328	2627.025928
542.315102	2628.001391
542.674821	2625.521143
543.034483	2629.105404
543.394090	2628.170270
543.753640	2627.557769
544.113134	2632.545991
544.472571	2629.670013
544.831953	2636.344501
545.191278	2633.934829
545.550548	2633.566825
545.909761	2636.036990
546.268918	2639.916158
546.628019	2640.856333
546.987064	2638.486991
547.346053	2638.308030
547.704986	2641.791467
548.063863	2640.737866
548.422684	2642.535037
548.781449	2644.745583
549.140158	2642.419091
549.498811	2645.390851
549.857408	2645.272384
550.215949	2646.197436
550.574434	2643.210552
550.932864	2645.403454
551.291237	2651.377221
551.649555	2650.361429
552.007817	2651.301604
552.366022	2647.157776
552.724173	2649.096099
553.082267	2650.459731
553.440305	2652.347643
553.798288	2652.544248
554.156215	2652.314876
554.514086	2653.769249
554.871902	2650.240441
555.229661	2653.688590
555.587365	2647.460245
555.945014	2652.456028
556.302606	2653.398724
556.660143	2653.612973
557.017625	2655.268992
557.375050	2655.329486
557.732421	2656.302429
558.089735	2658.092038
558.446994	2658.263437
558.804197	2659.652275
559.161345	2658.092038
559.518437	2657.431647
559.875474	2658.860814
560.232455	2662.787873
560.589381	2658.608757
560.946251	2659.879127
561.303065	2659.165804
561.659825	2660.726041
562.016528	2660.821823
562.373177	2656.042809
562.729770	2660.352996
563.086307	2660.148829
563.442789	2662.901299
563.799216	2660.436175
564.155587	2658.757471
564.511904	2660.078253
564.868164	2660.529436
565.224370	2662.263593
565.580520	2660.773932
565.936615	2661.482214
566.292654	2660.766370
566.648638	2662.850888
567.004567	2664.164108
567.360441	2663.629746
567.716260	2664.335507
568.072023	2663.581855
568.427732	2664.398522
568.783385	2664.169149
569.138982	2666.949346
569.494525	2664.985816
569.850013	2663.115548
570.205445	2665.321053
570.560823	2666.180570
570.916145	2665.764674
571.271412	2666.828358
571.626625	2666.515806
571.981782	2666.503203
572.336884	2666.241063
572.691931	2663.234015
573.046923	2663.879283
573.401860	2663.780980
573.756743	2665.550425
574.111570	2668.257525
574.466342	2669.094357
574.821059	2672.345901
575.175722	2671.347752
575.530330	2671.108297
575.884882	2670.805828
576.239380	2670.140396
576.593823	2672.366065
576.948211	2671.463699
577.302544	2670.901610
577.656823	2673.807835
578.011047	2673.379337
578.365216	2674.064934
578.719330	2674.823628
579.073389	2676.192301
579.427394	2675.065603
579.781344	2678.276818
580.135239	2677.611386
580.489080	2677.588701
580.842866	2679.133814
581.196597	2684.046419
581.550273	2683.070956
581.903895	2689.342151
582.257463	2691.351051
582.610975	2690.453725
582.964434	2691.819878
583.317837	2693.148222
583.671186	2698.007894
584.024481	2697.468491
584.377721	2697.891948
584.730906	2699.686599
585.084037	2703.601055
585.437113	2706.121632
585.790135	2708.067517
586.143103	2710.938454
586.496016	2715.188147
586.848874	2717.176882
587.201679	2720.879609
587.554428	2719.939434
587.907124	2726.697101
588.259765	2729.202554
588.612352	2734.392422
588.964884	2733.447206
589.317362	2739.360479
589.669786	2740.552712
590.022155	2745.130080
590.374470	2749.533528
590.726731	2753.566451
591.078937	2752.467479
591.431090	2760.372009
591.783188	2763.386619
592.135232	2765.098090
592.487222	2773.315171
592.839157	2780.708023
593.191038	2782.563168
593.542866	2788.673046
593.894639	2787.266564
594.246358	2798.563790
594.598022	2801.807773
594.949633	2806.556540
595.301190	2813.536017
595.652692	2817.740339
596.004141	2824.760146
596.355535	2825.279385
596.706876	2832.357165
597.058162	2834.222392
597.409395	2848.277129
597.760573	2858.256093
598.111698	2859.468490
598.462768	2866.558873
598.813785	2872.008361
599.164748	2878.271994
599.515657	2886.579816
599.866511	2892.344375
600.217312	2907.941705
600.568060	2907.218300
600.918753	2926.785538
601.269392	2934.669903
601.619978	2941.593928
601.970510	2950.935186
602.320988	2967.039152
602.671412	2979.823518
603.021783	2988.138901
603.372100	2993.172493
603.722363	3006.125738
604.072572	3018.731143
604.422728	3027.396887
604.772830	3035.172867
605.122878	3049.464538
605.472872	3063.360478
605.822813	3079.328333
606.172701	3088.934252
606.522534	3109.398816
606.872314	3125.933800
607.222041	3137.687251
607.571714	3155.898419
607.921333	3159.722134
608.270899	3179.884229
608.620411	3200.053885
608.969870	3215.338664
609.319276	3233.315418
609.668627	3253.104468
610.017926	3275.862757
610.367171	3300.365285
610.716362	3319.619972
611.065500	3335.807117
611.414585	3364.302239
611.763616	3384.204715
612.112594	3407.583066
612.461518	3431.074843
612.810389	3457.220787
613.159207	3480.498315
613.507971	3499.105214
613.856682	3539.447048
614.205340	3561.547466
614.553945	3604.984568
614.902496	3609.642594
615.250994	3645.182729
615.599439	3674.837316
615.947830	3707.246894
616.296169	3739.714446
616.644454	3771.047737
616.992686	3808.667348
617.340864	3857.553938
617.688990	3872.382492
618.037063	3932.813323
618.385082	3965.021255
618.733048	4012.178729
619.080961	4040.973800
619.428821	4074.525199
619.776628	4110.793780
620.124382	4132.281699
620.472083	4173.162936
620.819731	4204.115620
621.167326	4214.691961
621.514868	4244.586003
621.862357	4250.229575
622.209793	4280.237043
622.557176	4291.032674
622.904506	4308.777536
623.251783	4323.800174
623.599007	4336.266948
623.946179	4364.449518
624.293297	4384.931727
624.640363	4390.177047
624.987376	4412.312754
625.334336	4440.593627
625.681243	4451.593424
626.028097	4481.585769
626.374899	4512.432590
626.721647	4542.611457
627.068343	4571.267896
627.414987	4594.734467
627.761577	4617.114670
628.108115	4672.234646
628.454600	4672.101055
628.801032	4724.939909
629.147412	4762.695631
629.493739	4796.398265
629.840014	4810.647087
630.186236	4876.008167
630.532405	4888.921082
630.878521	4942.798414
631.224585	4976.576665
631.570597	5000.927959
631.916556	5058.225714
632.262462	5096.021765
632.608316	5132.814626
632.954117	5166.635727
633.299866	5208.701635
633.645562	5239.929063
633.991206	5240.236573
634.336797	5247.669755
634.682336	5274.246718
635.027823	5291.946209
635.373257	5314.495290
635.718639	5329.107074
636.063968	5353.796125
636.409245	5338.133260
636.754470	5371.059557
637.099642	5396.038474
637.444762	5381.288058
637.789829	5432.738074
638.134845	5444.534374
638.479808	5473.899095
638.824719	5510.845712
639.169577	5509.030896
639.514383	5560.049894
639.859137	5564.571809
640.203839	5623.447445
640.548489	5628.317199
640.893086	5675.613305
641.237632	5692.657446
641.582125	5738.562193
641.926566	5766.797695
642.270955	5812.634387
642.615292	5843.834088
642.959576	5880.722731
643.303809	5922.203866
643.647990	5985.301468
643.992118	6024.481315
644.336195	6051.335542
644.680219	6113.722341
645.024192	6188.875863
645.368112	6300.570188
645.711981	6358.135124
646.055797	6507.948134
646.399562	6545.393825
646.743274	6714.025462
647.086935	6828.946126
647.430544	6890.110445
647.774101	6949.323838
648.117606	7044.538632
648.461059	7115.502954
648.804460	7111.908612
649.147810	7085.377019
649.491108	7080.265289
649.834354	7103.815039
650.177548	7040.225924
650.520690	7009.789958
650.863781	7056.990282
651.206820	7076.270174
651.549807	7066.649132
651.892742	7034.771396
652.235626	7066.843217
652.578458	7098.577280
652.921238	7040.198198
653.263967	7139.733260
653.606644	7146.115361
653.949269	7176.153076
654.291843	7167.956160
654.634365	7278.405320
654.976836	7253.033193
655.319255	7316.219015
655.661622	7343.158941
656.003938	7376.672532
656.346203	7387.253914
656.688416	7486.698235
657.030577	7496.110070
657.372687	7512.682863
657.714746	7587.700273
658.056753	7678.337699
658.398708	7614.095755
658.740612	7674.955085
659.082465	7772.153572
659.424266	7800.552912
659.766016	7858.347220
660.107715	7881.912094
660.449362	7953.683001
660.790958	8007.192329
661.132503	8045.817650
661.473996	8112.915407
661.815438	8184.910646
662.156829	8264.996937
662.498168	8275.127135
662.839456	8323.658323
663.180693	8405.806446
663.521879	8481.862334
663.863013	8522.806585
664.204097	8575.005213
664.545129	8717.589208
664.886110	8766.919419
665.227040	8839.146551
665.567918	8902.435717
665.908746	8977.528745
666.249522	9060.226353
666.590248	9122.900498
666.930922	9204.536943
667.271545	9259.107434
667.612118	9332.544443
667.952639	9340.990896
668.293109	9401.227643
668.633528	9428.507847
668.973896	9476.867636
669.314213	9526.991829
669.654480	9534.682109
669.994695	9584.193801
670.334859	9619.338205
670.674973	9631.744485
671.015035	9738.306916
671.355047	9771.739848
671.695008	9817.846241
672.034918	9856.426191
672.374777	9940.076578
672.714585	9965.242018
673.054342	10058.132839
673.394049	10073.999871
673.733705	10190.601759
674.073310	10167.518316
674.412864	10236.889634
674.752368	10210.017763
675.091820	10324.653602
675.431223	10274.355489
675.770574	10269.647052
676.109875	10270.619994
676.449125	10265.692266
676.788324	10292.082707
677.127473	10209.780829
677.466571	10225.935207
677.805619	10200.449653
678.144616	10237.776877
678.483562	10271.950859
678.822458	10222.938241
679.161303	10256.119115
679.500098	10281.614751
679.838842	10317.016254
680.177535	10392.774714
680.516179	10524.048880
680.854771	10626.303645
681.193314	10928.268760
681.531805	11305.485700
681.870247	11612.902823
682.208638	11919.614185
682.546978	12057.746841
682.885268	12159.565546
683.223508	12072.643451
683.561697	12028.881194
683.899836	12044.977599
684.237925	11968.709982
684.575963	11967.222842
684.913951	11901.365208
685.251889	12022.037828
685.589776	12082.690471
685.927614	12141.825726
686.265401	12259.824014
686.603137	12368.901980
686.940824	12611.888116
687.278460	12793.208338
687.616046	12927.938215
687.953582	13232.333167
688.291068	13266.222324
688.628504	13439.748921
688.965889	13493.119617
689.303224	13456.155357
689.640510	13409.829673
689.977745	13232.328126
690.314930	12994.057989
690.652065	12888.289540
690.989150	12679.984022
691.326185	12404.941189
691.663170	12203.816795
692.000105	11970.527318
692.336990	11789.197014
692.673825	11671.614621
693.010610	11523.316478
693.347345	11370.597243
693.684030	11169.009062
694.020665	11129.073042
694.357251	10910.468446
694.693786	10951.725249
695.030272	10895.544110
695.366707	10749.106153
695.703093	10673.466160
696.039429	10738.950748
696.375716	10678.618219
696.711952	10714.964938
697.048139	10701.063957
697.384276	10663.514922
697.720363	10750.139589
698.056400	10745.388302
698.392388	10714.775895
698.728326	10748.508776
699.064214	10717.558612
699.400053	10755.957081
699.735842	10627.909253
700.071581	10579.932591
700.407270	10506.440130
700.742910	10475.822682
701.078501	10394.065249
701.414042	10342.224543
701.749533	10250.331871
702.084974	10140.190221
702.420366	10266.962637
702.755709	10126.901739
703.091002	10019.023568
703.426246	10088.452859
703.761440	10082.355583
704.096584	10014.599955
704.431679	10008.669038
704.766725	10021.208908
705.101721	10021.776038
705.436668	10106.003636
705.771565	10011.451754
706.106413	10185.840389
706.441212	10242.134954
706.775961	10328.119395
707.110661	10396.805116
707.445311	10595.540004
707.779913	10568.143853
708.114465	10745.017777
708.448967	10915.065978
708.783421	11242.791390
709.117825	11451.328801
709.452180	11586.398957
709.786485	11830.889877
710.120742	12226.484343
710.454949	12314.255872
710.789107	12576.174062
711.123216	12961.897948
711.457275	13100.534720
711.791286	13402.449424
712.125247	13508.812729
712.459159	13407.021751
712.793023	13814.430160
713.126837	13351.437988
713.460602	13518.539635
713.794318	13402.406574
714.127985	13311.476762
714.461602	12904.191860
714.795171	12939.921038
715.128691	12467.262453
715.462162	12239.946744
715.795584	12054.465050
716.128957	11947.368257
716.462281	11797.015844
716.795556	11684.898062
717.128782	11472.907460
717.461960	11186.650580
717.795088	11195.056704
718.128167	11047.300485
718.461198	10828.584984
718.794180	10797.470983
719.127113	10645.928857
719.459997	10572.161653
719.792833	10396.976515
720.125619	10442.546026
720.458357	10284.236151
720.791046	10223.225586
721.123686	10167.493110
721.456278	10062.536287
721.788821	10090.270195
722.121315	9960.089958
722.453761	10033.935301
722.786158	9990.783024
723.118506	10056.731398
723.450805	10018.577425
723.783056	10127.410896
724.115259	10093.342778
724.447412	10104.294685
724.779518	10249.943702
725.111574	10298.207709
725.443582	10467.267844
725.775542	10460.321134
726.107453	10773.122210
726.439315	10739.119627
726.771129	10992.649336
727.102895	11242.569579
727.434612	11402.754763
727.766281	11523.709688
728.097901	11717.398381
728.429473	11787.692230
728.760996	11820.220275
729.092471	11924.451172
729.423897	11892.540668
729.755276	11844.541322
730.086606	11937.457349
730.417887	12306.230356
730.749120	12666.572033
731.080305	12824.168584
731.411442	13106.468158
731.742530	13220.236918
732.073570	13338.512470
732.404562	13551.995253
732.735506	13481.426661
733.066401	13395.001119
733.397249	13133.282056
733.728048	12782.327007
734.058798	12286.947942
734.389501	11870.087369
734.720156	11586.711508
735.050762	11258.237485
735.381320	11043.910309
735.711831	10895.309697
736.042293	10681.589979
736.372707	10720.903417
736.703073	10602.663154
737.033391	10745.650442
737.363661	10755.906669
737.693883	10843.242139
738.024056	10973.003960
738.354182	11115.978644
738.684260	11343.140598
739.014290	11526.406705
739.344272	11663.480720
739.674207	11893.760627
740.004093	12021.657221
740.333931	12069.865775
740.663722	12135.065538
740.993464	12189.633508
741.323159	12126.044394
741.652806	11964.732512
741.982405	11897.475958
742.311956	11699.940865
742.641460	11649.161322
742.970915	11469.988632
743.300323	11273.265165
743.629683	11163.599904
743.958996	10974.695267
744.288260	10798.063318
744.617477	10609.584658
744.946647	10610.434093
745.275768	10421.171533
745.604842	10304.942690
745.933869	10202.899654
746.262847	10196.131905
746.591778	10152.276387
746.920662	10097.269837
747.249498	10115.223906
747.578286	10229.320341
747.907027	10355.124856
748.235720	10541.420697
748.564365	10601.138205
748.892963	10555.246061
749.221514	10637.391663
749.550017	10561.207225
749.878473	10561.923069
750.206881	10425.189333
750.535242	10391.398479
750.863555	10352.289207
751.191821	10292.927100
751.520039	10321.240741
751.848210	10292.299476
752.176334	10336.449902
752.504411	10285.304875
752.832440	10176.471405
753.160421	10261.659343
753.488356	10194.123005
753.816243	10148.296396
754.144082	10044.763699
754.471875	10021.075317
754.799620	10007.103759
755.127318	9997.691925
755.454969	10003.627884
755.782572	9999.841977
756.110129	10012.051652
756.437638	9960.163055
756.765100	9970.837698
757.092515	9998.990022
757.419882	10030.892964
757.747203	10052.577487
758.074477	10115.420511
758.401703	10107.727711
758.728882	10250.909083
759.056014	10294.469693
759.383099	10418.489639
759.710138	10513.938846
760.037129	10613.305030
760.364073	10652.068982
760.690970	10689.486947
761.017820	10717.730011
761.344623	10901.782538
761.671379	11193.030160
761.998088	11718.056251
762.324751	13020.476156
762.651366	15424.811633
762.977935	18657.232247
763.304456	20824.509985
763.630931	21628.178293
763.957359	20823.335396
764.283740	19230.212313
764.610074	17601.473479
764.936362	15710.037597
765.262602	14377.557292
765.588796	13008.866379
765.914943	12058.931513
766.241044	11262.761921
766.567097	10695.932062
766.893104	10189.021357
767.219064	9854.288742
767.544978	9516.828863
767.870845	9236.724711
768.196665	9085.477493
768.522438	8919.545393
768.848165	8775.431407
769.173846	8631.211558
769.499479	8543.926499
769.825066	8424.594826
770.150607	8258.118282
770.476101	8208.788071
770.801548	8119.947817
771.126949	8009.173502
771.452303	7933.155423
771.777611	7787.455994
772.102872	7784.025489
772.428087	7688.404883
772.753256	7567.089516
773.078378	7509.907708
773.403453	7371.389403
773.728482	7290.705736
774.053465	7239.162458
774.378401	7166.665625
774.703291	7077.338899
775.028135	6985.363047
775.352932	6963.401260
775.677683	6887.564662
776.002388	6814.946841
776.327046	6826.702812
776.651658	6756.640856
776.976224	6681.971285
777.300743	6686.024373
777.625216	6625.041535
777.949643	6592.115238
778.274024	6604.236693
778.598359	6538.116919
778.922647	6558.820938
779.246889	6523.873139
779.571086	6530.519900
779.895236	6535.994593
780.219339	6547.279216
780.543397	6551.067643
780.867409	6609.237518
781.191374	6627.151258
781.515294	6604.246775
781.839167	6684.317942
782.162995	6667.321692
782.486776	6628.250229
782.810511	6596.773265
783.134201	6533.426125
783.457844	6536.826384
783.781441	6502.271795
784.104993	6455.222706
784.428498	6436.605725
784.751958	6432.280415
785.075372	6411.034472
785.398739	6370.914449
785.722061	6410.406848
786.045337	6420.456388
786.368568	6547.664864
786.691752	6571.123874
787.014891	6829.493091
787.337983	7111.187727
787.661030	7578.190137
787.984031	8084.236283
788.306987	8415.697190
788.629897	8589.919467
788.952760	8566.248729
789.275579	8403.686641
789.598351	8095.591482
789.921078	7823.134761
790.243759	7491.636046
790.566395	7265.116839
790.888984	7066.084523
791.211529	6902.131077
791.534027	6727.074489
791.856480	6565.876033
792.178888	6511.534915
792.501249	6432.875271
792.823566	6305.999511
793.145836	6308.751981
793.468062	6294.664476
793.790241	6254.781388
794.112375	6313.992260
794.434464	6437.319048
794.756507	6474.016127
795.078505	6602.782320
795.400457	6846.481779
795.722364	7126.548122
796.044226	7353.301743
796.366042	7587.705314
796.687812	7550.042854
797.009538	7625.952549
797.331218	7544.454735
797.652852	7483.033317
797.974442	7364.747683
798.295986	7298.942981
798.617484	7141.560678
798.938938	7036.830707
799.260346	6952.812317
799.581709	6790.144364
799.903026	6732.113122
800.224299	6648.523229
800.545526	6507.774214
800.866708	6432.396361
801.187845	6377.409976
801.508936	6293.321009
801.829983	6259.318426
802.150984	6131.603314
802.471940	6100.227173
802.792851	6087.672179
803.113717	6064.208128
803.434538	6031.692686
803.755314	5989.125183
804.076045	5995.222458
804.396731	5947.974244
804.717372	5975.720755
805.037967	5972.141536
805.358518	6007.575806
805.679024	6071.641310
805.999485	6082.646148
806.319901	6118.982785
806.640272	6137.088089
806.960598	6204.526125
807.280879	6208.851435
807.601115	6278.177383
807.921306	6237.132308
808.241453	6247.849801
808.561554	6267.023830
808.881611	6245.944245
809.201623	6257.196100
809.521590	6213.869904
809.841513	6200.886412
810.161390	6235.196505
810.481223	6129.947295
810.801011	6123.592921
811.120755	6104.396207
811.440453	6044.111568
811.760107	6018.648700
812.079716	5996.404609
812.399281	5943.389315
812.718801	5937.962513
813.038276	5899.311986
813.357707	5853.341704
813.677093	5891.936778
813.996434	5815.591023
814.315731	5847.960272
814.634983	5850.508576
814.954191	5863.567685
815.273354	5953.300223
815.592473	6014.068812
815.911547	6119.113855
816.230577	6192.205545
816.549562	6319.303116
816.868502	6407.639255
817.187399	6495.375496
817.506250	6631.121166
817.825058	6665.476630
818.143821	6892.046248
818.462539	7126.674151
818.781213	7442.081503
819.099843	7917.217815
819.418429	8771.758927
819.736970	9599.740720
820.055466	10613.781419
820.373919	11909.531877
820.692327	13960.648828
821.010691	17410.474242
821.329011	24730.703495
821.647286	34967.681349
821.965517	46341.033583
822.283704	52609.920119
822.601847	55562.856643
822.919945	52452.479843
823.237999	47882.189931
823.556010	42225.060017
823.873976	36592.808197
824.191897	31169.146720
824.509775	27126.446326
824.827609	23406.659561
825.145398	21286.138525
825.463144	20178.869247
825.780845	20460.001794
826.098502	21943.222682
826.416116	25091.491314
826.733685	28161.932093
827.051210	29142.204623
827.368692	27656.327048
827.686129	24365.335788
828.003522	20901.352293
828.320872	17746.575531
828.638177	15348.775910
828.955439	13518.769008
829.272656	11938.957092
829.589830	10709.775070
829.906960	9622.025140
830.224046	8817.109147
830.541088	8168.148809
830.858086	7778.812936
831.175041	7451.480735
831.491952	7358.123607
831.808819	7398.722539
832.125642	7771.006709
832.442421	8555.957213
832.759157	10108.836764
833.075849	12592.666197
833.392497	15320.371528
833.709101	17156.321950
834.025662	17040.216616
834.342179	15648.343956
834.658653	13789.826809
834.975083	12111.147784
835.291469	10743.563404
835.607811	9592.360471
835.924110	8793.486300
836.240366	8039.932102
836.556578	7332.358269
836.872746	6779.053826
837.188871	6346.729513
837.504952	5976.920549
837.820990	5701.786975
838.136984	5508.746071
838.452935	5427.621303
838.768842	5462.369976
839.084706	5828.312375
839.400526	6879.395473
839.716303	8252.000842
840.032037	9211.350063
840.347727	9152.303028
840.663373	8316.419226
840.978977	7400.774289
841.294537	6702.899635
841.610054	6173.621331
841.925527	5788.988855
842.240957	5471.421368
842.556344	5175.934135
842.871687	4925.552627
843.186987	4676.592723
843.502244	4482.041994
843.817458	4335.329293
844.132629	4214.036611
844.447756	4134.832523
844.762840	4063.459866
845.077881	3998.323117
845.392879	3940.493521
845.707833	3895.065163
846.022745	3856.777600
846.337613	3832.277592
846.652438	3793.395173
846.967221	3781.727422
847.281960	3752.581991
847.596656	3732.800503
847.911309	3717.210735
848.225919	3694.160059
848.540485	3684.433153
848.855009	3668.656862
849.169490	3650.980056
849.483928	3644.292965
849.798323	3637.154691
850.112675	3619.760190
850.426984	3622.142135
850.741251	3612.037142
851.055474	3608.745269
851.369654	3612.727780
851.683792	3606.945577
851.997887	3614.247688
852.311938	3618.426805
852.625947	3617.491671
852.939914	3611.921196
853.253837	3618.260447
853.567718	3619.180457
853.881555	3608.646966
854.195350	3622.759677
854.509103	3618.807412
854.822812	3617.683235
855.136479	3612.037142
855.450103	3620.927217
855.763685	3610.285341
856.077224	3613.249540
856.390720	3624.859317
856.704173	3642.868839
857.017584	3658.471210
857.330953	3666.955472
857.644278	3684.042463
857.957561	3691.778114
858.270802	3690.091848
858.584000	3697.630893
858.897155	3687.142773
859.210268	3674.630629
859.523339	3656.863082
859.836367	3653.800581
860.149352	3651.065755
860.462295	3640.343221
860.775195	3633.298209
861.088054	3632.234525
861.400869	3631.228815
861.713642	3626.568268
862.026373	3639.476143
862.339062	3644.323212
862.651708	3661.770646
862.964312	3692.763659
863.276873	3703.443344
863.589392	3753.257506
863.901869	3795.542704
864.214303	3837.348993
864.526696	3869.118344
864.839045	3909.238367
865.151353	3933.609826
865.463619	3943.233388
865.775842	3950.175057
866.088023	3964.534784
866.400162	3959.120585
866.712258	3962.261223
867.024313	3971.751196
867.336325	3967.635093
867.648296	3978.574397
867.960224	3974.755723
868.272110	3988.197960
868.583954	3983.484481
868.895755	4002.023324
869.207515	3998.892768
869.519233	4037.762585
869.830909	4050.509142
870.142542	4071.626536
870.454134	4087.060028
870.765684	4112.739666
871.077191	4149.366169
871.388657	4168.842667
871.700081	4202.807441
872.011463	4238.849170
872.322803	4271.601547
872.634101	4301.714879
872.945357	4335.994726
873.256571	4380.331674
873.567744	4411.894338
873.878874	4428.131894
874.189963	4468.014983
874.501010	4474.462619
874.812015	4476.292558
875.122979	4512.977034
875.433900	4518.129093
875.744780	4526.804919
876.055618	4554.120411
876.366415	4555.685690
876.677169	4576.485490
876.987882	4615.070482
877.298554	4672.161549
877.609183	4745.311212
877.919771	4848.803580
878.230317	4979.727387
878.540822	5180.569476
878.851285	5479.474611
879.161707	5904.693418
879.472087	6604.249296
879.782425	7733.470278
880.092722	9697.584475
880.402977	12527.151361
880.713191	15607.150168
881.023363	18578.670905
881.333494	20360.945642
881.643583	21494.741471
881.953631	21702.847863
882.263637	21148.467134
882.573602	19973.117073
882.883526	18666.094595
883.193408	17200.900874
883.503248	15759.156080
883.813048	14413.019289
884.122806	13159.760716
884.432522	11840.725168
884.742197	10747.533313
885.051831	9791.856572
885.361424	8901.004029
885.670975	8167.090167
885.980485	7546.254427
886.289954	7031.953391
886.599382	6601.975735
886.908768	6266.081134
887.218113	5932.586122
887.527417	5673.337224
887.836680	5424.518473
888.145901	5222.612699
888.455082	5078.178601
888.764221	4940.292961
889.073319	4820.389116
889.382376	4748.673662
889.691392	4693.709961
890.000366	4677.600954
890.309300	4657.769055
890.618193	4659.719982
890.927044	4650.197242
891.235855	4670.777752
891.544625	4699.290519
891.853353	4753.596348
892.162041	4867.604563
892.470687	5035.817785
892.779293	5265.580974
893.087858	5612.545949
893.396381	6139.981712
893.704864	6868.347784
894.013306	7915.118174
894.321707	8989.317483
894.630068	9720.925017
894.938387	9914.061703
895.246665	9709.665600
895.554903	9169.538733
895.863100	8535.409470
896.171256	8028.904578
896.479371	7560.641880
896.787446	7106.431398
897.095480	6718.020576
897.403473	6425.376554
897.711425	6130.789168
898.019336	5885.665583
898.327207	5632.337519
898.635038	5424.785654
898.942827	5198.498340
899.250576	5021.024519
899.558284	4847.013970
899.865952	4727.911670
900.173579	4592.113067
900.481165	4495.743850
900.788711	4412.068258
901.096216	4345.257846
901.403681	4284.683341
901.711105	4261.594857
902.018489	4247.230089
902.325832	4314.436231
902.633135	4431.096093
902.940397	4749.719701
903.247619	5480.800435
903.554800	6786.383664
903.861941	8521.881534
904.169041	9900.763139
904.476101	10469.163318
904.783121	10164.433130
905.090100	9508.251339
905.397039	8750.969208
905.703938	8066.095691
906.010796	7423.252794
906.317614	6918.298057
906.624391	6426.745228
906.931129	6037.023706
907.237826	5664.978991
907.544483	5324.123894
907.851099	4975.402077
908.157675	4650.532479
908.464211	4353.323692
908.770707	4140.266886
909.077163	3952.264615
909.383578	3819.528514
909.689954	3712.252760
909.996289	3650.372597
910.302584	3586.382710
910.608839	3555.397258
910.915054	3527.542363
911.221229	3513.104498
911.527363	3525.977084
911.833458	3536.467726
912.139513	3566.427303
912.445527	3598.897375
912.751502	3671.399249
913.057436	3767.128240
913.363331	3893.477200
913.669186	4085.918207
913.975000	4328.881658
914.280775	4723.903952
914.586510	5260.766672
914.892205	5990.942519
915.197859	6944.859897
915.503475	8056.764515
915.809050	9022.871403
916.114585	9612.515004
916.420081	9859.594557
916.725536	9836.221247
917.030952	9434.915154
917.336328	9063.707270
917.641665	8690.094755
917.946961	8240.300324
918.252218	7856.900409
918.557435	7382.132102
918.862612	6990.878069
919.167750	6651.560525
919.472848	6255.920688
919.777906	5909.338841
920.082925	5578.888686
920.387904	5238.817488
920.692843	4991.798429
920.997743	4766.484058
921.302603	4546.604051
921.607423	4398.469745
921.912204	4246.753700
922.216946	4137.620281
922.521647	4026.130122
922.826310	3927.903239
923.130932	3834.505782
923.435516	3751.853544
923.740059	3680.758152
924.044564	3609.556895
924.349028	3555.404820
924.653454	3493.653206
924.957840	3426.895726
925.262186	3386.793347
925.566493	3327.516940
925.870761	3276.911317
926.174989	3239.276583
926.479178	3209.304403
926.783328	3163.641631
927.087438	3140.447282
927.391509	3107.649535
927.695541	3079.955957
927.999533	3054.019220
928.303486	3038.303423
928.607400	3021.287008
928.911275	3010.153620
929.215110	2992.686022
929.518906	2983.443066
929.822663	2983.143118
930.126381	2983.085144
930.430060	2988.343068
930.733699	2988.761484
931.037299	2999.668020
931.340861	2998.435458
931.644383	3005.893845
931.947866	3006.256808
932.251309	2999.168946
932.554714	2999.461333
932.858080	2995.309943
933.161407	2987.486072
933.464694	2979.528610
933.767943	2971.833289
934.071153	2967.515541
934.374323	2957.844087
934.677455	2955.555403
934.980548	2946.685493
935.283602	2938.801128
935.586617	2936.530089
935.889593	2948.717078
936.192530	2951.877882
936.495428	2968.594348
936.798287	2983.306955
937.101108	3018.108561
937.403890	3065.397104
937.706632	3123.718213
938.009336	3196.827547
938.312002	3264.724327
938.614628	3328.401662
938.917216	3374.273642
939.219765	3402.693147
939.522275	3433.184566
939.824747	3438.084567
940.127179	3436.620112
940.429573	3434.568362
940.731929	3432.836726
941.034246	3416.649581
941.336524	3404.674320
941.638763	3393.200654
941.940964	3382.722616
942.243126	3337.228723
942.545250	3319.136022
942.847335	3282.441463
943.149381	3248.920310
943.451389	3221.108264
943.753359	3188.242462
944.055290	3165.181704
944.357182	3141.274032
944.659036	3126.684932
944.960851	3116.441308
945.262628	3102.021087
945.564367	3102.933536
945.866067	3100.654934
946.167729	3095.255859
946.469352	3095.127309
946.770937	3091.507761
947.072484	3077.526121
947.373992	3079.540062
947.675462	3073.709967
947.976893	3059.491393
948.278286	3048.872202
948.579641	3040.435831
948.880958	3036.660007
949.182236	3042.013712
949.483476	3034.167156
949.784678	3033.476518
950.085841	3036.365099
950.386967	3046.011347
950.688054	3062.284192
950.989103	3079.043508
951.290114	3100.607043
951.591087	3127.746095
951.892021	3152.634272
952.192917	3177.235102
952.493776	3204.054041
952.794596	3211.809856
953.095378	3214.393447
953.396122	3209.629557
953.696828	3206.360369
953.997496	3194.528781
954.298126	3168.861746
954.598718	3150.486740
954.899272	3128.890437
955.199788	3101.834564
955.500266	3072.855492
955.800706	3038.008516
956.101108	3007.922909
956.401472	2974.560553
956.701798	2944.918569
957.002087	2903.016498
957.302337	2878.501367
957.602550	2847.072293
957.902724	2825.128150
958.202861	2803.181487
958.502960	2780.549227
958.803022	2761.536515
959.103045	2742.009606
959.403031	2725.038561
959.702979	2717.131512
960.002889	2700.954449
960.302762	2688.517922
960.602596	2681.548527
960.902393	2669.714418
961.202153	2664.111176
961.501875	2657.260248
961.801559	2647.326654
962.101205	2643.548309
962.400814	2637.314923
962.700385	2632.798049
962.999918	2626.423510
963.299414	2620.391769
963.598873	2619.121398
963.898293	2610.274173
964.197677	2612.262909
964.497022	2611.295007
964.796331	2608.681169
965.095601	2604.910386
965.394835	2603.733276
965.694030	2603.329984
965.993189	2601.313522
966.292309	2598.167842
966.591393	2598.861001
966.890439	2600.189345
967.189447	2598.833275
967.488419	2600.101125
967.787353	2600.496856
968.086249	2599.854108
968.385108	2603.942484
968.683930	2604.113883
968.982714	2608.280397
969.281462	2610.581684
969.580172	2621.279012
969.878844	2623.799589
970.177480	2633.423152
970.476078	2641.108391
970.774639	2648.740698
971.073162	2652.536687
971.371649	2662.303922
971.670098	2662.992040
971.968510	2668.978410
972.266885	2674.616941
972.565223	2676.562826
972.863524	2679.201870
973.161788	2683.948116
973.460014	2687.751667
973.758204	2689.637058
974.056356	2689.697552
974.354471	2695.409180
974.652550	2693.546473
974.950591	2691.361133
975.248595	2690.708304
975.546563	2689.816019
975.844493	2684.086748
976.142386	2681.062056
976.440243	2674.974862
976.738062	2671.428411
977.035845	2665.159736
977.333590	2657.275371
977.631299	2657.552635
977.928971	2647.722385
978.226606	2641.796508
978.524204	2639.948926
978.821765	2636.001702
979.119290	2637.919861
979.416777	2638.484470
979.714228	2641.539410
980.011642	2645.302631
980.309020	2653.426450
980.606360	2666.455312
980.903664	2688.860721
981.200931	2723.188458
981.498162	2768.168153
981.795356	2839.482836
982.092513	2924.146494
982.389633	3017.755680
982.686717	3107.798249
982.983764	3176.703261
983.280775	3223.646485
983.577749	3229.269892
983.874686	3216.170454
984.171587	3188.360929
984.468451	3149.541524
984.765279	3113.963581
985.062070	3067.305181
985.358824	3022.670805
985.655543	2969.481591
985.952224	2921.331010
986.248869	2862.601567
986.545478	2807.224492
986.842050	2756.074425
987.138586	2714.043805
987.435086	2679.501819
987.731549	2647.540903
988.027975	2625.531226
988.324366	2610.417846
988.620719	2597.396546
988.917037	2586.500092
989.213318	2577.375603
989.509563	2569.909655
989.805772	2564.833213
990.101944	2565.216340
990.398080	2559.222408
990.694180	2555.232335
990.990244	2554.037582
991.286271	2556.734599
991.582262	2559.834909
991.878217	2564.016546
992.174136	2568.268759
992.470019	2566.141392
992.765865	2572.049624
993.061676	2572.679769
993.357450	2583.155286
993.653188	2590.175093
993.948890	2608.071189
994.244556	2623.635752
994.540186	2649.509474
994.835780	2678.521314
995.131337	2715.881305
995.426859	2752.467479
995.722345	2796.920374
996.017795	2844.352591
996.313208	2879.819628
996.608586	2903.235788
996.903928	2920.955444
997.199234	2916.667943
997.494504	2912.529155
997.789738	2899.079357
998.084936	2878.463558
998.380099	2848.698065
998.675225	2820.172696
998.970316	2792.305198
999.265371	2756.762542
999.560390	2725.590568
999.855373	2694.083356
1000.150320	2666.616629
1000.445232	2645.534524
1000.740108	2627.283027
1001.034948	2609.079420
1001.329752	2593.547625
1001.624521	2582.167220
1001.919254	2574.842424
1002.213951	2567.401681
1002.508613	2555.741492
1002.803239	2549.606407
1003.097829	2546.848896
1003.392384	2540.350849
1003.686903	2532.658048
1003.981386	2534.674510
1004.275834	2531.090249
1004.570246	2527.319466
1004.864623	2524.524147
1005.158964	2526.306194
1005.453270	2520.778569
1005.747540	2522.623632
1006.041775	2517.960564
1006.335974	2517.779083
1006.630138	2516.846469
1006.924266	2518.431912
1007.218359	2514.129287
1007.512416	2512.629544
1007.806438	2509.458658
1008.100425	2511.429749
1008.394376	2508.641991
1008.688292	2512.599297
1008.982172	2512.243896
1009.276017	2514.814884
1009.569827	2507.842968
1009.863602	2512.057373
1010.157341	2512.763135
1010.451045	2509.083092
1010.744714	2507.721981
1011.038347	2509.541837
1011.331945	2505.702999
1011.625508	2507.878257
1011.919036	2506.444048
1012.212528	2503.396671
1012.505986	2505.032525
1012.799408	2502.963132
1013.092795	2503.593276
1013.386147	2503.011023
1013.679464	2504.046980
1013.972745	2503.691578
1014.265992	2502.257370
1014.559204	2505.340036
1014.852380	2503.079078
1015.145521	2502.650580
1015.438628	2502.582524
1015.731699	2502.874911
1016.024736	2505.007319
1016.317737	2505.791219
1016.610703	2505.609737
1016.903635	2507.706857
1017.196531	2509.173833
1017.489393	2509.743483
1017.782219	2512.422857
1018.075011	2511.623834
1018.367768	2511.525531
1018.660490	2514.620800
1018.953177	2514.620800
1019.245829	2514.620800
