Dividing Wavelength (nm)	Counts (n)	Blue Motor Position (mm): 6.600000	Red Motor Position (mm): 0.000000	
326.493990	2185.340192
326.888308	2185.340192
327.282561	2185.340192
327.676750	2124.846346
328.070874	2026.543846
328.464933	2059.311346
328.858929	2122.325769
329.252859	2081.996538
329.646726	2039.146731
330.040528	2036.626154
330.434265	2097.120000
330.827938	2079.475962
331.221547	2139.969808
331.615091	2213.066538
332.008571	2187.860769
332.401986	2208.025385
332.795338	2233.231154
333.188625	2233.231154
333.581847	2235.751731
333.975006	2228.190000
334.368100	2253.395769
334.761129	2321.451346
335.154095	2225.669423
335.546996	2291.204423
335.939833	2404.630385
336.332606	2417.233269
336.725315	2455.041923
337.117960	2366.821731
337.510540	2444.959615
337.903056	2472.685962
338.295508	2417.233269
338.687896	2371.862885
339.080220	2502.932885
339.472480	2397.068654
339.864676	2465.124231
340.256807	2452.521346
340.648875	2515.535769
341.040879	2465.124231
341.432818	2548.303269
341.824694	2482.768269
342.216506	2409.671538
342.608253	2543.262115
342.999937	2427.315577
343.391557	2513.015192
343.783113	2399.589231
344.174605	2429.836154
344.566033	2439.918462
344.957397	2568.467885
345.348697	2480.247692
345.739934	2555.865000
346.131106	2444.959615
346.522215	2500.412308
346.913260	2528.138654
347.304241	2490.330000
347.695159	2497.891731
348.086012	2457.562500
348.476802	2470.165385
348.867528	2457.562500
349.258191	2424.795000
349.648789	2427.315577
350.039324	2442.439038
350.429796	2399.589231
350.820203	2472.685962
351.210548	2482.768269
351.600828	2381.945192
351.991045	2444.959615
352.381198	2465.124231
352.771288	2389.506923
353.161314	2444.959615
353.551276	2450.000769
353.941175	2487.809423
354.331010	2341.615962
354.720782	2414.712692
355.110490	2518.056346
355.500135	2444.959615
355.889717	2432.356731
356.279235	2419.753846
356.668689	2427.315577
357.058080	2467.644808
357.447408	2518.056346
357.836672	2455.041923
358.225873	2419.753846
358.615010	2422.274423
359.004084	2482.768269
359.393095	2392.027500
359.782043	2366.821731
360.170927	2485.288846
360.559748	2399.589231
360.948505	2450.000769
361.337199	2525.618077
361.725830	2457.562500
362.114398	2502.932885
362.502903	2510.494615
362.891344	2510.494615
363.279722	2432.356731
363.668037	2518.056346
364.056289	2429.836154
364.444478	2349.177692
364.832603	2359.260000
365.220665	2475.206538
365.608665	2523.097500
365.996601	2369.342308
366.384474	2455.041923
366.772284	2460.083077
367.160031	2472.685962
367.547715	2429.836154
367.935336	2465.124231
368.322893	2462.603654
368.710388	2490.330000
369.097820	2434.877308
369.485189	2530.659231
369.872495	2437.397885
370.259738	2550.823846
370.646918	2414.712692
371.034035	2573.509038
371.421090	2419.753846
371.808081	2457.562500
372.195010	2490.330000
372.581875	2467.644808
372.968678	2414.712692
373.355418	2480.247692
373.742096	2412.192115
374.128710	2404.630385
374.515262	2528.138654
374.901751	2437.397885
375.288177	2424.795000
375.674540	2465.124231
376.060841	2492.850577
376.447079	2432.356731
376.833254	2507.974038
377.219367	2518.056346
377.605417	2447.480192
377.991404	2475.206538
378.377329	2500.412308
378.763191	2573.509038
379.148991	2432.356731
379.534727	2452.521346
379.920402	2346.657115
380.306013	2444.959615
380.691563	2505.453462
381.077049	2510.494615
381.462474	2495.371154
381.847835	2427.315577
382.233134	2412.192115
382.618371	2457.562500
383.003545	2480.247692
383.388657	2442.439038
383.773706	2487.809423
384.158693	2485.288846
384.543618	2502.932885
384.928480	2439.918462
385.313280	2404.630385
385.698017	2402.109808
386.082692	2452.521346
386.467305	2444.959615
386.851856	2450.000769
387.236344	2513.015192
387.620770	2520.576923
388.005133	2505.453462
388.389435	2513.015192
388.773674	2399.589231
389.157851	2389.506923
389.541965	2500.412308
389.926018	2467.644808
390.310008	2414.712692
390.693936	2545.782692
391.077802	2455.041923
391.461606	2480.247692
391.845348	2407.150962
392.229027	2447.480192
392.612645	2543.262115
392.996200	2366.821731
393.379694	2510.494615
393.763125	2518.056346
394.146494	2437.397885
394.529801	2444.959615
394.913047	2467.644808
395.296230	2525.618077
395.679351	2497.891731
396.062410	2492.850577
396.445408	2472.685962
396.828343	2447.480192
397.211217	2487.809423
397.594028	2402.109808
397.976778	2414.712692
398.359466	2399.589231
398.742092	2331.533654
399.124656	2472.685962
399.507158	2455.041923
399.889598	2432.356731
400.271977	2455.041923
400.654294	2424.795000
401.036549	2515.535769
401.418742	2487.809423
401.800874	2520.576923
402.182944	2402.109808
402.564952	2558.385577
402.946898	2502.932885
403.328783	2427.315577
403.710606	2475.206538
404.092367	2495.371154
404.474067	2492.850577
404.855705	2470.165385
405.237282	2487.809423
405.618797	2392.027500
406.000250	2457.562500
406.381642	2495.371154
406.762972	2399.589231
407.144240	2376.904038
407.525447	2500.412308
407.906593	2513.015192
408.287677	2407.150962
408.668700	2419.753846
409.049661	2518.056346
409.430560	2460.083077
409.811399	2424.795000
410.192176	2472.685962
410.572891	2540.741538
410.953545	2538.220962
411.334138	2485.288846
411.714669	2492.850577
412.095139	2465.124231
412.475547	2480.247692
412.855894	2533.179808
413.236180	2472.685962
413.616405	2485.288846
413.996568	2507.974038
414.376670	2429.836154
414.756711	2495.371154
415.136691	2475.206538
415.516609	2477.727115
415.896466	2462.603654
416.276262	2414.712692
416.655997	2598.714808
417.035670	2467.644808
417.415283	2452.521346
417.794834	2500.412308
418.174324	2472.685962
418.553753	2452.521346
418.933121	2457.562500
419.312428	2465.124231
419.691674	2399.589231
420.070859	2485.288846
420.449983	2404.630385
420.829045	2462.603654
421.208047	2467.644808
421.586988	2520.576923
421.965867	2462.603654
422.344686	2492.850577
422.723444	2485.288846
423.102141	2497.891731
423.480777	2495.371154
423.859352	2510.494615
424.237866	2490.330000
424.616319	2467.644808
424.994712	2457.562500
425.373044	2452.521346
425.751314	2530.659231
426.129524	2520.576923
426.507673	2502.932885
426.885762	2518.056346
427.263789	2439.918462
427.641756	2520.576923
428.019662	2444.959615
428.397508	2485.288846
428.775292	2477.727115
429.153016	2424.795000
429.530679	2535.700385
429.908282	2492.850577
430.285824	2487.809423
430.663305	2523.097500
431.040726	2482.768269
431.418086	2492.850577
431.795385	2429.836154
432.172624	2502.932885
432.549802	2439.918462
432.926920	2535.700385
433.303977	2591.153077
433.680974	2414.712692
434.057910	2450.000769
434.434786	2419.753846
434.811601	2457.562500
435.188355	2439.918462
435.565050	2447.480192
435.941683	2475.206538
436.318257	2495.371154
436.694770	2462.603654
437.071222	2450.000769
437.447614	2417.233269
437.823946	2518.056346
438.200218	2452.521346
438.576429	2505.453462
438.952580	2460.083077
439.328670	2467.644808
439.704700	2523.097500
440.080670	2485.288846
440.456580	2447.480192
440.832429	2455.041923
441.208218	2543.262115
441.583947	2485.288846
441.959616	2502.932885
442.335224	2502.932885
442.710773	2497.891731
443.086261	2525.618077
443.461689	2467.644808
443.837057	2470.165385
444.212365	2455.041923
444.587612	2442.439038
444.962800	2472.685962
445.337927	2462.603654
445.712995	2434.877308
446.088002	2482.768269
446.462949	2515.535769
446.837837	2465.124231
447.212664	2570.988462
447.587431	2543.262115
447.962139	2450.000769
448.336786	2462.603654
448.711374	2447.480192
449.085901	2520.576923
449.460369	2530.659231
449.834776	2475.206538
450.209124	2450.000769
450.583412	2538.220962
450.957640	2515.535769
451.331808	2490.330000
451.705917	2533.179808
452.079965	2510.494615
452.453954	2507.974038
452.827883	2482.768269
453.201752	2535.700385
453.575562	2470.165385
453.949311	2439.918462
454.323001	2548.303269
454.696632	2439.918462
455.070202	2487.809423
455.443713	2414.712692
455.817164	2520.576923
456.190556	2472.685962
456.563888	2414.712692
456.937160	2502.932885
457.310373	2507.974038
457.683526	2515.535769
458.056619	2455.041923
458.429653	2538.220962
458.802628	2480.247692
459.175542	2538.220962
459.548398	2467.644808
459.921194	2482.768269
460.293930	2533.179808
460.666607	2480.247692
461.039224	2467.644808
461.411782	2442.439038
461.784280	2550.823846
462.156719	2515.535769
462.529099	2455.041923
462.901419	2437.397885
463.273680	2530.659231
463.645882	2475.206538
464.018024	2427.315577
464.390106	2533.179808
464.762130	2457.562500
465.134094	2535.700385
465.505999	2523.097500
465.877845	2497.891731
466.249631	2510.494615
466.621358	2487.809423
466.993026	2492.850577
467.364634	2444.959615
467.736184	2467.644808
468.107674	2465.124231
468.479105	2432.356731
468.850477	2530.659231
469.221790	2563.426731
469.593043	2477.727115
469.964238	2507.974038
470.335373	2414.712692
470.706449	2429.836154
471.077467	2500.412308
471.448425	2492.850577
471.819324	2487.809423
472.190164	2598.714808
472.560945	2465.124231
472.931667	2465.124231
473.302330	2495.371154
473.672934	2497.891731
474.043479	2457.562500
474.413965	2492.850577
474.784393	2482.768269
475.154761	2452.521346
475.525070	2402.109808
475.895321	2507.974038
476.265513	2450.000769
476.635645	2530.659231
477.005719	2520.576923
477.375734	2439.918462
477.745691	2442.439038
478.115588	2439.918462
478.485427	2480.247692
478.855207	2490.330000
479.224928	2530.659231
479.594591	2560.906154
479.964194	2490.330000
480.333739	2389.506923
480.703226	2510.494615
481.072653	2384.465769
481.442022	2515.535769
481.811333	2444.959615
482.180584	2525.618077
482.549777	2450.000769
482.918912	2472.685962
483.287988	2543.262115
483.657005	2457.562500
484.025964	2502.932885
484.394864	2535.700385
484.763706	2444.959615
485.132489	2550.823846
485.501213	2568.467885
485.869879	2586.111923
486.238487	2437.397885
486.607036	2457.562500
486.975527	2434.877308
487.343959	2447.480192
487.712333	2507.974038
488.080648	2407.150962
488.448905	2507.974038
488.817104	2538.220962
489.185244	2452.521346
489.553326	2452.521346
489.921350	2502.932885
490.289315	2467.644808
490.657222	2543.262115
491.025070	2490.330000
491.392861	2480.247692
491.760593	2460.083077
492.128267	2528.138654
492.495883	2450.000769
492.863440	2525.618077
493.230939	2475.206538
493.598380	2475.206538
493.965763	2548.303269
494.333088	2439.918462
494.700354	2487.809423
495.067563	2497.891731
495.434713	2487.809423
495.801805	2507.974038
496.168839	2444.959615
496.535815	2437.397885
496.902733	2497.891731
497.269593	2452.521346
497.636395	2583.591346
498.003139	2533.179808
498.369825	2513.015192
498.736453	2447.480192
499.103023	2555.865000
499.469535	2439.918462
499.835989	2545.782692
500.202385	2530.659231
500.568723	2518.056346
500.935003	2593.673654
501.301226	2515.535769
501.667390	2502.932885
502.033497	2455.041923
502.399546	2563.426731
502.765537	2414.712692
503.131470	2457.562500
503.497345	2530.659231
503.863163	2568.467885
504.228923	2475.206538
504.594625	2427.315577
504.960269	2507.974038
505.325856	2570.988462
505.691385	2402.109808
506.056856	2492.850577
506.422270	2457.562500
506.787625	2472.685962
507.152924	2379.424615
507.518164	2505.453462
507.883347	2455.041923
508.248472	2502.932885
508.613540	2490.330000
508.978550	2419.753846
509.343503	2533.179808
509.708398	2492.850577
510.073236	2429.836154
510.438016	2520.576923
510.802738	2500.412308
511.167403	2465.124231
511.532010	2545.782692
511.896561	2596.194231
512.261053	2565.947308
512.625488	2480.247692
512.989866	2518.056346
513.354186	2523.097500
513.718449	2462.603654
514.082655	2513.015192
514.446803	2439.918462
514.810894	2548.303269
515.174927	2465.124231
515.538904	2525.618077
515.902822	2470.165385
516.266684	2455.041923
516.630488	2573.509038
516.994235	2452.521346
517.357925	2427.315577
517.721558	2545.782692
518.085133	2507.974038
518.448651	2444.959615
518.812112	2475.206538
519.175516	2492.850577
519.538863	2482.768269
519.902152	2422.274423
520.265385	2487.809423
520.628560	2502.932885
520.991678	2525.618077
521.354739	2439.918462
521.717743	2495.371154
522.080690	2412.192115
522.443580	2485.288846
522.806413	2442.439038
523.169189	2480.247692
523.531908	2553.344423
523.894569	2540.741538
524.257174	2518.056346
524.619722	2530.659231
524.982213	2455.041923
525.344647	2576.029615
525.707025	2540.741538
526.069345	2422.274423
526.431608	2555.865000
526.793815	2507.974038
527.155964	2392.027500
527.518057	2570.988462
527.880093	2460.083077
528.242072	2533.179808
528.603995	2507.974038
528.965860	2520.576923
529.327669	2591.153077
529.689421	2500.412308
530.051117	2520.576923
530.412755	2452.521346
530.774337	2500.412308
531.135862	2525.618077
531.497331	2470.165385
531.858743	2475.206538
532.220098	2409.671538
532.581396	2505.453462
532.942638	2513.015192
533.303824	2475.206538
533.664953	2467.644808
534.026025	2429.836154
534.387040	2548.303269
534.747999	2530.659231
535.108902	2477.727115
535.469748	2543.262115
535.830537	2510.494615
536.191270	2477.727115
536.551947	2439.918462
536.912567	2528.138654
537.273131	2485.288846
537.633638	2540.741538
537.994089	2437.397885
538.354483	2515.535769
538.714821	2467.644808
539.075103	2502.932885
539.435328	2505.453462
539.795497	2452.521346
540.155609	2502.932885
540.515665	2412.192115
540.875665	2560.906154
541.235609	2502.932885
541.595496	2404.630385
541.955328	2515.535769
542.315102	2414.712692
542.674821	2490.330000
543.034483	2460.083077
543.394090	2422.274423
543.753640	2568.467885
544.113134	2558.385577
544.472571	2535.700385
544.831953	2490.330000
545.191278	2475.206538
545.550548	2467.644808
545.909761	2477.727115
546.268918	2528.138654
546.628019	2409.671538
546.987064	2412.192115
547.346053	2608.797115
547.704986	2502.932885
548.063863	2518.056346
548.422684	2450.000769
548.781449	2495.371154
549.140158	2507.974038
549.498811	2450.000769
549.857408	2553.344423
550.215949	2520.576923
550.574434	2492.850577
550.932864	2492.850577
551.291237	2550.823846
551.649555	2500.412308
552.007817	2460.083077
552.366022	2490.330000
552.724173	2450.000769
553.082267	2505.453462
553.440305	2455.041923
553.798288	2490.330000
554.156215	2485.288846
554.514086	2480.247692
554.871902	2513.015192
555.229661	2497.891731
555.587365	2404.630385
555.945014	2432.356731
556.302606	2520.576923
556.660143	2550.823846
557.017625	2538.220962
557.375050	2457.562500
557.732421	2520.576923
558.089735	2550.823846
558.446994	2455.041923
558.804197	2518.056346
559.161345	2588.632500
559.518437	2545.782692
559.875474	2515.535769
560.232455	2518.056346
560.589381	2518.056346
560.946251	2523.097500
561.303065	2472.685962
561.659825	2497.891731
562.016528	2437.397885
562.373177	2523.097500
562.729770	2465.124231
563.086307	2465.124231
563.442789	2492.850577
563.799216	2538.220962
564.155587	2460.083077
564.511904	2513.015192
564.868164	2452.521346
565.224370	2450.000769
565.580520	2407.150962
565.936615	2429.836154
566.292654	2515.535769
566.648638	2540.741538
567.004567	2460.083077
567.360441	2507.974038
567.716260	2475.206538
568.072023	2568.467885
568.427732	2434.877308
568.783385	2520.576923
569.138982	2432.356731
569.494525	2457.562500
569.850013	2472.685962
570.205445	2507.974038
570.560823	2495.371154
570.916145	2444.959615
571.271412	2538.220962
571.626625	2555.865000
571.981782	2432.356731
572.336884	2457.562500
572.691931	2513.015192
573.046923	2568.467885
573.401860	2533.179808
573.756743	2505.453462
574.111570	2412.192115
574.466342	2500.412308
574.821059	2437.397885
575.175722	2495.371154
575.530330	2472.685962
575.884882	2490.330000
576.239380	2545.782692
576.593823	2462.603654
576.948211	2502.932885
577.302544	2485.288846
577.656823	2535.700385
578.011047	2482.768269
578.365216	2424.795000
578.719330	2470.165385
579.073389	2507.974038
579.427394	2528.138654
579.781344	2460.083077
580.135239	2538.220962
580.489080	2520.576923
580.842866	2452.521346
581.196597	2513.015192
581.550273	2490.330000
581.903895	2523.097500
582.257463	2475.206538
582.610975	2444.959615
582.964434	2470.165385
583.317837	2525.618077
583.671186	2500.412308
584.024481	2477.727115
584.377721	2528.138654
584.730906	2465.124231
585.084037	2497.891731
585.437113	2439.918462
585.790135	2447.480192
586.143103	2507.974038
586.496016	2513.015192
586.848874	2442.439038
587.201679	2565.947308
587.554428	2497.891731
587.907124	2497.891731
588.259765	2591.153077
588.612352	2495.371154
588.964884	2593.673654
589.317362	2477.727115
589.669786	2518.056346
590.022155	2530.659231
590.374470	2452.521346
590.726731	2525.618077
591.078937	2477.727115
591.431090	2462.603654
591.783188	2480.247692
592.135232	2515.535769
592.487222	2533.179808
592.839157	2497.891731
593.191038	2530.659231
593.542866	2545.782692
593.894639	2487.809423
594.246358	2515.535769
594.598022	2472.685962
594.949633	2535.700385
595.301190	2462.603654
595.652692	2442.439038
596.004141	2523.097500
596.355535	2555.865000
596.706876	2553.344423
597.058162	2439.918462
597.409395	2525.618077
597.760573	2545.782692
598.111698	2442.439038
598.462768	2495.371154
598.813785	2470.165385
599.164748	2467.644808
599.515657	2553.344423
599.866511	2485.288846
600.217312	2477.727115
600.568060	2510.494615
600.918753	2543.262115
601.269392	2419.753846
601.619978	2487.809423
601.970510	2492.850577
602.320988	2500.412308
602.671412	2485.288846
603.021783	2591.153077
603.372100	2427.315577
603.722363	2439.918462
604.072572	2560.906154
604.422728	2477.727115
604.772830	2586.111923
605.122878	2507.974038
605.472872	2470.165385
605.822813	2505.453462
606.172701	2528.138654
606.522534	2533.179808
606.872314	2472.685962
607.222041	2510.494615
607.571714	2502.932885
607.921333	2467.644808
608.270899	2515.535769
608.620411	2470.165385
608.969870	2560.906154
609.319276	2460.083077
609.668627	2538.220962
610.017926	2558.385577
610.367171	2465.124231
610.716362	2313.889615
611.065500	2480.247692
611.414585	2442.439038
611.763616	2477.727115
612.112594	2518.056346
612.461518	2573.509038
612.810389	2500.412308
613.159207	2480.247692
613.507971	2518.056346
613.856682	2437.397885
614.205340	2455.041923
614.553945	2470.165385
614.902496	2581.070769
615.250994	2528.138654
615.599439	2513.015192
615.947830	2603.755962
616.296169	2475.206538
616.644454	2520.576923
616.992686	2432.356731
617.340864	2530.659231
617.688990	2470.165385
618.037063	2482.768269
618.385082	2495.371154
618.733048	2429.836154
619.080961	2550.823846
619.428821	2525.618077
619.776628	2490.330000
620.124382	2538.220962
620.472083	2510.494615
620.819731	2560.906154
621.167326	2482.768269
621.514868	2510.494615
621.862357	2533.179808
622.209793	2490.330000
622.557176	2581.070769
622.904506	2505.453462
623.251783	2545.782692
623.599007	2374.383462
623.946179	2555.865000
624.293297	2495.371154
624.640363	2477.727115
624.987376	2583.591346
625.334336	2507.974038
625.681243	2568.467885
626.028097	2502.932885
626.374899	2427.315577
626.721647	2394.548077
627.068343	2528.138654
627.414987	2457.562500
627.761577	2520.576923
628.108115	2543.262115
628.454600	2538.220962
628.801032	2422.274423
629.147412	2447.480192
629.493739	2485.288846
629.840014	2465.124231
630.186236	2548.303269
630.532405	2490.330000
630.878521	2533.179808
631.224585	2472.685962
631.570597	2507.974038
631.916556	2518.056346
632.262462	2495.371154
632.608316	2490.330000
632.954117	2525.618077
633.299866	2507.974038
633.645562	2548.303269
633.991206	2497.891731
634.336797	2505.453462
634.682336	2563.426731
635.027823	2467.644808
635.373257	2533.179808
635.718639	2492.850577
636.063968	2538.220962
636.409245	2434.877308
636.754470	2482.768269
637.099642	2515.535769
637.444762	2490.330000
637.789829	2457.562500
638.134845	2482.768269
638.479808	2621.400000
638.824719	2573.509038
639.169577	2490.330000
639.514383	2563.426731
639.859137	2530.659231
640.203839	2450.000769
640.548489	2525.618077
640.893086	2475.206538
641.237632	2611.317692
641.582125	2444.959615
641.926566	2525.618077
642.270955	2472.685962
642.615292	2467.644808
642.959576	2450.000769
643.303809	2457.562500
643.647990	2497.891731
643.992118	2591.153077
644.336195	2467.644808
644.680219	2555.865000
645.024192	2583.591346
645.368112	2392.027500
645.711981	2419.753846
646.055797	2538.220962
646.399562	2513.015192
646.743274	2505.453462
647.086935	2505.453462
647.430544	2545.782692
647.774101	2518.056346
648.117606	2510.494615
648.461059	2563.426731
648.804460	2407.150962
649.147810	2477.727115
649.491108	2457.562500
649.834354	2576.029615
650.177548	2414.712692
650.520690	2563.426731
650.863781	2533.179808
651.206820	2467.644808
651.549807	2437.397885
651.892742	2518.056346
652.235626	2535.700385
652.578458	2525.618077
652.921238	2482.768269
653.263967	2523.097500
653.606644	2462.603654
653.949269	2477.727115
654.291843	2492.850577
654.634365	2515.535769
654.976836	2540.741538
655.319255	2525.618077
655.661622	2432.356731
656.003938	2490.330000
656.346203	2457.562500
656.688416	2550.823846
657.030577	2573.509038
657.372687	2515.535769
657.714746	2525.618077
658.056753	2502.932885
658.398708	2429.836154
658.740612	2505.453462
659.082465	2462.603654
659.424266	2523.097500
659.766016	2495.371154
660.107715	2515.535769
660.449362	2563.426731
660.790958	2500.412308
661.132503	2450.000769
661.473996	2492.850577
661.815438	2497.891731
662.156829	2500.412308
662.498168	2460.083077
662.839456	2490.330000
663.180693	2510.494615
663.521879	2588.632500
663.863013	2495.371154
664.204097	2455.041923
664.545129	2495.371154
664.886110	2495.371154
665.227040	2452.521346
665.567918	2588.632500
665.908746	2543.262115
666.249522	2558.385577
666.590248	2457.562500
666.930922	2525.618077
667.271545	2487.809423
667.612118	2450.000769
667.952639	2507.974038
668.293109	2523.097500
668.633528	2482.768269
668.973896	2497.891731
669.314213	2520.576923
669.654480	2558.385577
669.994695	2576.029615
670.334859	2379.424615
670.674973	2447.480192
671.015035	2520.576923
671.355047	2442.439038
671.695008	2392.027500
672.034918	2465.124231
672.374777	2538.220962
672.714585	2399.589231
673.054342	2485.288846
673.394049	2460.083077
673.733705	2573.509038
674.073310	2477.727115
674.412864	2500.412308
674.752368	2568.467885
675.091820	2500.412308
675.431223	2414.712692
675.770574	2472.685962
676.109875	2485.288846
676.449125	2487.809423
676.788324	2465.124231
677.127473	2482.768269
677.466571	2485.288846
677.805619	2457.562500
678.144616	2558.385577
678.483562	2482.768269
678.822458	2495.371154
679.161303	2472.685962
679.500098	2432.356731
679.838842	2563.426731
680.177535	2404.630385
680.516179	2487.809423
680.854771	2540.741538
681.193314	2596.194231
681.531805	2475.206538
681.870247	2417.233269
682.208638	2442.439038
682.546978	2510.494615
682.885268	2462.603654
683.223508	2543.262115
683.561697	2492.850577
683.899836	2565.947308
684.237925	2570.988462
684.575963	2540.741538
684.913951	2475.206538
685.251889	2485.288846
685.589776	2462.603654
685.927614	2419.753846
686.265401	2475.206538
686.603137	2432.356731
686.940824	2437.397885
687.278460	2480.247692
687.616046	2439.918462
687.953582	2492.850577
688.291068	2485.288846
688.628504	2457.562500
688.965889	2465.124231
689.303224	2550.823846
689.640510	2540.741538
689.977745	2553.344423
690.314930	2513.015192
690.652065	2467.644808
690.989150	2565.947308
691.326185	2530.659231
691.663170	2505.453462
692.000105	2465.124231
692.336990	2507.974038
692.673825	2462.603654
693.010610	2465.124231
693.347345	2452.521346
693.684030	2477.727115
694.020665	2528.138654
694.357251	2510.494615
694.693786	2502.932885
695.030272	2434.877308
695.366707	2462.603654
695.703093	2543.262115
696.039429	2470.165385
696.375716	2470.165385
696.711952	2462.603654
697.048139	2460.083077
697.384276	2450.000769
697.720363	2495.371154
698.056400	2520.576923
698.392388	2540.741538
698.728326	2475.206538
699.064214	2525.618077
699.400053	2487.809423
699.735842	2500.412308
700.071581	2520.576923
700.407270	2447.480192
700.742910	2523.097500
701.078501	2472.685962
701.414042	2525.618077
701.749533	2535.700385
702.084974	2502.932885
702.420366	2465.124231
702.755709	2515.535769
703.091002	2457.562500
703.426246	2472.685962
703.761440	2485.288846
704.096584	2548.303269
704.431679	2497.891731
704.766725	2528.138654
705.101721	2510.494615
705.436668	2477.727115
705.771565	2568.467885
706.106413	2568.467885
706.441212	2462.603654
706.775961	2480.247692
707.110661	2422.274423
707.445311	2492.850577
707.779913	2538.220962
708.114465	2505.453462
708.448967	2515.535769
708.783421	2515.535769
709.117825	2470.165385
709.452180	2427.315577
709.786485	2568.467885
710.120742	2497.891731
710.454949	2563.426731
710.789107	2480.247692
711.123216	2467.644808
711.457275	2447.480192
711.791286	2472.685962
712.125247	2444.959615
712.459159	2450.000769
712.793023	2487.809423
713.126837	2457.562500
713.460602	2530.659231
713.794318	2543.262115
714.127985	2399.589231
714.461602	2502.932885
714.795171	2467.644808
715.128691	2490.330000
715.462162	2470.165385
715.795584	2581.070769
716.128957	2485.288846
716.462281	2492.850577
716.795556	2515.535769
717.128782	2465.124231
717.461960	2540.741538
717.795088	2553.344423
718.128167	2450.000769
718.461198	2497.891731
718.794180	2492.850577
719.127113	2525.618077
719.459997	2495.371154
719.792833	2460.083077
720.125619	2452.521346
720.458357	2505.453462
720.791046	2598.714808
721.123686	2492.850577
721.456278	2500.412308
721.788821	2515.535769
722.121315	2472.685962
722.453761	2538.220962
722.786158	2586.111923
723.118506	2540.741538
723.450805	2513.015192
723.783056	2394.548077
724.115259	2553.344423
724.447412	2437.397885
724.779518	2505.453462
725.111574	2500.412308
725.443582	2523.097500
725.775542	2399.589231
726.107453	2538.220962
726.439315	2452.521346
726.771129	2565.947308
727.102895	2525.618077
727.434612	2450.000769
727.766281	2487.809423
728.097901	2490.330000
728.429473	2467.644808
728.760996	2513.015192
729.092471	2545.782692
729.423897	2437.397885
729.755276	2480.247692
730.086606	2467.644808
730.417887	2434.877308
730.749120	2553.344423
731.080305	2407.150962
731.411442	2444.959615
731.742530	2452.521346
732.073570	2528.138654
732.404562	2515.535769
732.735506	2513.015192
733.066401	2462.603654
733.397249	2591.153077
733.728048	2528.138654
734.058798	2533.179808
734.389501	2434.877308
734.720156	2565.947308
735.050762	2455.041923
735.381320	2472.685962
735.711831	2429.836154
736.042293	2422.274423
736.372707	2462.603654
736.703073	2427.315577
737.033391	2535.700385
737.363661	2495.371154
737.693883	2455.041923
738.024056	2444.959615
738.354182	2417.233269
738.684260	2548.303269
739.014290	2568.467885
739.344272	2548.303269
739.674207	2477.727115
740.004093	2457.562500
740.333931	2543.262115
740.663722	2472.685962
740.993464	2492.850577
741.323159	2417.233269
741.652806	2533.179808
741.982405	2505.453462
742.311956	2480.247692
742.641460	2500.412308
742.970915	2533.179808
743.300323	2540.741538
743.629683	2538.220962
743.958996	2530.659231
744.288260	2500.412308
744.617477	2470.165385
744.946647	2515.535769
745.275768	2528.138654
745.604842	2515.535769
745.933869	2495.371154
746.262847	2515.535769
746.591778	2588.632500
746.920662	2518.056346
747.249498	2518.056346
747.578286	2432.356731
747.907027	2452.521346
748.235720	2371.862885
748.564365	2502.932885
748.892963	2518.056346
749.221514	2490.330000
749.550017	2470.165385
749.878473	2505.453462
750.206881	2550.823846
750.535242	2376.904038
750.863555	2560.906154
751.191821	2475.206538
751.520039	2417.233269
751.848210	2500.412308
752.176334	2472.685962
752.504411	2480.247692
752.832440	2634.002885
753.160421	2487.809423
753.488356	2515.535769
753.816243	2444.959615
754.144082	2444.959615
754.471875	2485.288846
754.799620	2442.439038
755.127318	2452.521346
755.454969	2492.850577
755.782572	2467.644808
756.110129	2492.850577
756.437638	2404.630385
756.765100	2424.795000
757.092515	2576.029615
757.419882	2467.644808
757.747203	2530.659231
758.074477	2523.097500
758.401703	2482.768269
758.728882	2528.138654
759.056014	2477.727115
759.383099	2389.506923
759.710138	2500.412308
760.037129	2475.206538
760.364073	2482.768269
760.690970	2533.179808
761.017820	2409.671538
761.344623	2434.877308
761.671379	2467.644808
761.998088	2611.317692
762.324751	2490.330000
762.651366	2460.083077
762.977935	2472.685962
763.304456	2548.303269
763.630931	2540.741538
763.957359	2465.124231
764.283740	2399.589231
764.610074	2515.535769
764.936362	2523.097500
765.262602	2510.494615
765.588796	2492.850577
765.914943	2490.330000
766.241044	2462.603654
766.567097	2455.041923
766.893104	2490.330000
767.219064	2576.029615
767.544978	2525.618077
767.870845	2535.700385
768.196665	2533.179808
768.522438	2450.000769
768.848165	2502.932885
769.173846	2467.644808
769.499479	2513.015192
769.825066	2409.671538
770.150607	2475.206538
770.476101	2439.918462
770.801548	2558.385577
771.126949	2490.330000
771.452303	2530.659231
771.777611	2472.685962
772.102872	2470.165385
772.428087	2487.809423
772.753256	2550.823846
773.078378	2475.206538
773.403453	2465.124231
773.728482	2500.412308
774.053465	2528.138654
774.378401	2450.000769
774.703291	2528.138654
775.028135	2402.109808
775.352932	2540.741538
775.677683	2513.015192
776.002388	2460.083077
776.327046	2472.685962
776.651658	2434.877308
776.976224	2465.124231
777.300743	2495.371154
777.625216	2475.206538
777.949643	2460.083077
778.274024	2563.426731
778.598359	2437.397885
778.922647	2482.768269
779.246889	2467.644808
779.571086	2439.918462
779.895236	2465.124231
780.219339	2523.097500
780.543397	2444.959615
780.867409	2598.714808
781.191374	2545.782692
781.515294	2502.932885
781.839167	2510.494615
782.162995	2422.274423
782.486776	2507.974038
782.810511	2492.850577
783.134201	2505.453462
783.457844	2555.865000
783.781441	2540.741538
784.104993	2513.015192
784.428498	2490.330000
784.751958	2518.056346
785.075372	2553.344423
785.398739	2520.576923
785.722061	2434.877308
786.045337	2495.371154
786.368568	2523.097500
786.691752	2601.235385
787.014891	2540.741538
787.337983	2492.850577
787.661030	2482.768269
787.984031	2505.453462
788.306987	2460.083077
788.629897	2490.330000
788.952760	2409.671538
789.275579	2490.330000
789.598351	2523.097500
789.921078	2545.782692
790.243759	2429.836154
790.566395	2505.453462
790.888984	2495.371154
791.211529	2520.576923
791.534027	2543.262115
791.856480	2480.247692
792.178888	2407.150962
792.501249	2507.974038
792.823566	2535.700385
793.145836	2429.836154
793.468062	2424.795000
793.790241	2371.862885
794.112375	2482.768269
794.434464	2437.397885
794.756507	2505.453462
795.078505	2412.192115
795.400457	2525.618077
795.722364	2475.206538
796.044226	2502.932885
796.366042	2528.138654
796.687812	2485.288846
797.009538	2523.097500
797.331218	2608.797115
797.652852	2540.741538
797.974442	2507.974038
798.295986	2487.809423
798.617484	2480.247692
798.938938	2422.274423
799.260346	2439.918462
799.581709	2513.015192
799.903026	2533.179808
800.224299	2520.576923
800.545526	2535.700385
800.866708	2581.070769
801.187845	2495.371154
801.508936	2515.535769
801.829983	2490.330000
802.150984	2497.891731
802.471940	2475.206538
802.792851	2477.727115
803.113717	2487.809423
803.434538	2465.124231
803.755314	2507.974038
804.076045	2457.562500
804.396731	2477.727115
804.717372	2462.603654
805.037967	2482.768269
805.358518	2467.644808
805.679024	2538.220962
805.999485	2523.097500
806.319901	2530.659231
806.640272	2434.877308
806.960598	2568.467885
807.280879	2417.233269
807.601115	2530.659231
807.921306	2485.288846
808.241453	2543.262115
808.561554	2467.644808
808.881611	2518.056346
809.201623	2515.535769
809.521590	2467.644808
809.841513	2540.741538
810.161390	2437.397885
810.481223	2507.974038
810.801011	2457.562500
811.120755	2487.809423
811.440453	2444.959615
811.760107	2492.850577
812.079716	2482.768269
812.399281	2528.138654
812.718801	2432.356731
813.038276	2487.809423
813.357707	2490.330000
813.677093	2485.288846
813.996434	2472.685962
814.315731	2389.506923
814.634983	2432.356731
814.954191	2475.206538
815.273354	2442.439038
815.592473	2570.988462
815.911547	2495.371154
816.230577	2510.494615
816.549562	2427.315577
816.868502	2530.659231
817.187399	2465.124231
817.506250	2578.550192
817.825058	2470.165385
818.143821	2528.138654
818.462539	2495.371154
818.781213	2482.768269
819.099843	2502.932885
819.418429	2535.700385
819.736970	2477.727115
820.055466	2563.426731
820.373919	2480.247692
820.692327	2550.823846
821.010691	2523.097500
821.329011	2447.480192
821.647286	2409.671538
821.965517	2490.330000
822.283704	2475.206538
822.601847	2495.371154
822.919945	2467.644808
823.237999	2515.535769
823.556010	2550.823846
823.873976	2452.521346
824.191897	2563.426731
824.509775	2477.727115
824.827609	2447.480192
825.145398	2535.700385
825.463144	2495.371154
825.780845	2455.041923
826.098502	2472.685962
826.416116	2427.315577
826.733685	2533.179808
827.051210	2548.303269
827.368692	2553.344423
827.686129	2460.083077
828.003522	2497.891731
828.320872	2480.247692
828.638177	2467.644808
828.955439	2535.700385
829.272656	2555.865000
829.589830	2392.027500
829.906960	2500.412308
830.224046	2366.821731
830.541088	2492.850577
830.858086	2412.192115
831.175041	2490.330000
831.491952	2520.576923
831.808819	2563.426731
832.125642	2540.741538
832.442421	2505.453462
832.759157	2485.288846
833.075849	2560.906154
833.392497	2586.111923
833.709101	2480.247692
834.025662	2523.097500
834.342179	2442.439038
834.658653	2535.700385
834.975083	2558.385577
835.291469	2505.453462
835.607811	2550.823846
835.924110	2475.206538
836.240366	2492.850577
836.556578	2513.015192
836.872746	2492.850577
837.188871	2455.041923
837.504952	2528.138654
837.820990	2455.041923
838.136984	2500.412308
838.452935	2485.288846
838.768842	2507.974038
839.084706	2487.809423
839.400526	2381.945192
839.716303	2530.659231
840.032037	2437.397885
840.347727	2457.562500
840.663373	2513.015192
840.978977	2505.453462
841.294537	2460.083077
841.610054	2563.426731
841.925527	2472.685962
842.240957	2550.823846
842.556344	2513.015192
842.871687	2545.782692
843.186987	2470.165385
843.502244	2465.124231
843.817458	2429.836154
844.132629	2470.165385
844.447756	2563.426731
844.762840	2500.412308
845.077881	2502.932885
845.392879	2444.959615
845.707833	2525.618077
846.022745	2530.659231
846.337613	2520.576923
846.652438	2439.918462
846.967221	2598.714808
847.281960	2523.097500
847.596656	2444.959615
847.911309	2535.700385
848.225919	2460.083077
848.540485	2447.480192
848.855009	2520.576923
849.169490	2477.727115
849.483928	2467.644808
849.798323	2520.576923
850.112675	2568.467885
850.426984	2510.494615
850.741251	2472.685962
851.055474	2457.562500
851.369654	2550.823846
851.683792	2487.809423
851.997887	2505.453462
852.311938	2480.247692
852.625947	2452.521346
852.939914	2535.700385
853.253837	2533.179808
853.567718	2502.932885
853.881555	2530.659231
854.195350	2495.371154
854.509103	2452.521346
854.822812	2495.371154
855.136479	2555.865000
855.450103	2455.041923
855.763685	2523.097500
856.077224	2470.165385
856.390720	2457.562500
856.704173	2457.562500
857.017584	2467.644808
857.330953	2439.918462
857.644278	2545.782692
857.957561	2497.891731
858.270802	2507.974038
858.584000	2452.521346
858.897155	2616.358846
859.210268	2548.303269
859.523339	2482.768269
859.836367	2407.150962
860.149352	2485.288846
860.462295	2457.562500
860.775195	2543.262115
861.088054	2389.506923
861.400869	2558.385577
861.713642	2543.262115
862.026373	2548.303269
862.339062	2480.247692
862.651708	2520.576923
862.964312	2452.521346
863.276873	2535.700385
863.589392	2533.179808
863.901869	2510.494615
864.214303	2520.576923
864.526696	2535.700385
864.839045	2467.644808
865.151353	2540.741538
865.463619	2450.000769
865.775842	2475.206538
866.088023	2437.397885
866.400162	2407.150962
866.712258	2434.877308
867.024313	2505.453462
867.336325	2482.768269
867.648296	2613.838269
867.960224	2553.344423
868.272110	2417.233269
868.583954	2467.644808
868.895755	2439.918462
869.207515	2450.000769
869.519233	2485.288846
869.830909	2482.768269
870.142542	2502.932885
870.454134	2515.535769
870.765684	2475.206538
871.077191	2523.097500
871.388657	2490.330000
871.700081	2470.165385
872.011463	2487.809423
872.322803	2472.685962
872.634101	2495.371154
872.945357	2540.741538
873.256571	2480.247692
873.567744	2447.480192
873.878874	2485.288846
874.189963	2442.439038
874.501010	2399.589231
874.812015	2409.671538
875.122979	2422.274423
875.433900	2523.097500
875.744780	2495.371154
876.055618	2419.753846
876.366415	2495.371154
876.677169	2545.782692
876.987882	2505.453462
877.298554	2477.727115
877.609183	2460.083077
877.919771	2507.974038
878.230317	2472.685962
878.540822	2492.850577
878.851285	2472.685962
879.161707	2465.124231
879.472087	2492.850577
879.782425	2500.412308
880.092722	2434.877308
880.402977	2475.206538
880.713191	2492.850577
881.023363	2455.041923
881.333494	2470.165385
881.643583	2492.850577
881.953631	2507.974038
882.263637	2505.453462
882.573602	2513.015192
882.883526	2525.618077
883.193408	2490.330000
883.503248	2538.220962
883.813048	2492.850577
884.122806	2424.795000
884.432522	2462.603654
884.742197	2434.877308
885.051831	2523.097500
885.361424	2485.288846
885.670975	2502.932885
885.980485	2409.671538
886.289954	2548.303269
886.599382	2485.288846
886.908768	2457.562500
887.218113	2460.083077
887.527417	2505.453462
887.836680	2538.220962
888.145901	2452.521346
888.455082	2467.644808
888.764221	2525.618077
889.073319	2523.097500
889.382376	2487.809423
889.691392	2515.535769
890.000366	2462.603654
890.309300	2462.603654
890.618193	2439.918462
890.927044	2502.932885
891.235855	2442.439038
891.544625	2439.918462
891.853353	2500.412308
892.162041	2460.083077
892.470687	2470.165385
892.779293	2545.782692
893.087858	2495.371154
893.396381	2460.083077
893.704864	2480.247692
894.013306	2510.494615
894.321707	2507.974038
894.630068	2386.986346
894.938387	2495.371154
895.246665	2455.041923
895.554903	2515.535769
895.863100	2477.727115
896.171256	2497.891731
896.479371	2437.397885
896.787446	2487.809423
897.095480	2442.439038
897.403473	2513.015192
897.711425	2487.809423
898.019336	2497.891731
898.327207	2528.138654
898.635038	2535.700385
898.942827	2505.453462
899.250576	2487.809423
899.558284	2502.932885
899.865952	2472.685962
900.173579	2528.138654
900.481165	2432.356731
900.788711	2462.603654
901.096216	2500.412308
901.403681	2540.741538
901.711105	2502.932885
902.018489	2515.535769
902.325832	2444.959615
902.633135	2535.700385
902.940397	2485.288846
903.247619	2535.700385
903.554800	2437.397885
903.861941	2502.932885
904.169041	2563.426731
904.476101	2538.220962
904.783121	2462.603654
905.090100	2472.685962
905.397039	2515.535769
905.703938	2414.712692
906.010796	2477.727115
906.317614	2460.083077
906.624391	2530.659231
906.931129	2437.397885
907.237826	2497.891731
907.544483	2558.385577
907.851099	2520.576923
908.157675	2465.124231
908.464211	2467.644808
908.770707	2533.179808
909.077163	2533.179808
909.383578	2500.412308
909.689954	2407.150962
909.996289	2507.974038
910.302584	2475.206538
910.608839	2500.412308
910.915054	2450.000769
911.221229	2467.644808
911.527363	2588.632500
911.833458	2507.974038
912.139513	2515.535769
912.445527	2510.494615
912.751502	2472.685962
913.057436	2482.768269
913.363331	2462.603654
913.669186	2538.220962
913.975000	2470.165385
914.280775	2510.494615
914.586510	2490.330000
914.892205	2485.288846
915.197859	2457.562500
915.503475	2444.959615
915.809050	2500.412308
916.114585	2450.000769
916.420081	2502.932885
916.725536	2442.439038
917.030952	2482.768269
917.336328	2429.836154
917.641665	2419.753846
917.946961	2525.618077
918.252218	2429.836154
918.557435	2480.247692
918.862612	2455.041923
919.167750	2520.576923
919.472848	2472.685962
919.777906	2429.836154
920.082925	2555.865000
920.387904	2482.768269
920.692843	2525.618077
920.997743	2444.959615
921.302603	2439.918462
921.607423	2492.850577
921.912204	2570.988462
922.216946	2543.262115
922.521647	2492.850577
922.826310	2460.083077
923.130932	2470.165385
923.435516	2495.371154
923.740059	2444.959615
924.044564	2495.371154
924.349028	2485.288846
924.653454	2450.000769
924.957840	2497.891731
925.262186	2497.891731
925.566493	2467.644808
925.870761	2427.315577
926.174989	2495.371154
926.479178	2492.850577
926.783328	2502.932885
927.087438	2477.727115
927.391509	2563.426731
927.695541	2487.809423
927.999533	2505.453462
928.303486	2490.330000
928.607400	2472.685962
928.911275	2535.700385
929.215110	2487.809423
929.518906	2518.056346
929.822663	2515.535769
930.126381	2510.494615
930.430060	2482.768269
930.733699	2482.768269
931.037299	2397.068654
931.340861	2523.097500
931.644383	2565.947308
931.947866	2424.795000
932.251309	2500.412308
932.554714	2457.562500
932.858080	2515.535769
933.161407	2543.262115
933.464694	2432.356731
933.767943	2485.288846
934.071153	2437.397885
934.374323	2492.850577
934.677455	2495.371154
934.980548	2444.959615
935.283602	2553.344423
935.586617	2477.727115
935.889593	2480.247692
936.192530	2402.109808
936.495428	2518.056346
936.798287	2490.330000
937.101108	2513.015192
937.403890	2460.083077
937.706632	2500.412308
938.009336	2437.397885
938.312002	2530.659231
938.614628	2555.865000
938.917216	2525.618077
939.219765	2505.453462
939.522275	2477.727115
939.824747	2586.111923
940.127179	2563.426731
940.429573	2467.644808
940.731929	2492.850577
941.034246	2538.220962
941.336524	2497.891731
941.638763	2565.947308
941.940964	2538.220962
942.243126	2455.041923
942.545250	2523.097500
942.847335	2457.562500
943.149381	2467.644808
943.451389	2467.644808
943.753359	2558.385577
944.055290	2540.741538
944.357182	2467.644808
944.659036	2472.685962
944.960851	2507.974038
945.262628	2502.932885
945.564367	2535.700385
945.866067	2533.179808
946.167729	2515.535769
946.469352	2487.809423
946.770937	2490.330000
947.072484	2447.480192
947.373992	2500.412308
947.675462	2573.509038
947.976893	2487.809423
948.278286	2419.753846
948.579641	2467.644808
948.880958	2525.618077
949.182236	2470.165385
949.483476	2578.550192
949.784678	2455.041923
950.085841	2563.426731
950.386967	2477.727115
950.688054	2439.918462
950.989103	2497.891731
951.290114	2502.932885
951.591087	2389.506923
951.892021	2482.768269
952.192917	2480.247692
952.493776	2502.932885
952.794596	2429.836154
953.095378	2495.371154
953.396122	2475.206538
953.696828	2394.548077
953.997496	2490.330000
954.298126	2535.700385
954.598718	2558.385577
954.899272	2548.303269
955.199788	2472.685962
955.500266	2465.124231
955.800706	2538.220962
956.101108	2528.138654
956.401472	2437.397885
956.701798	2485.288846
957.002087	2487.809423
957.302337	2472.685962
957.602550	2472.685962
957.902724	2472.685962
958.202861	2457.562500
958.502960	2452.521346
958.803022	2535.700385
959.103045	2414.712692
959.403031	2495.371154
959.702979	2462.603654
960.002889	2490.330000
960.302762	2482.768269
960.602596	2442.439038
960.902393	2467.644808
961.202153	2455.041923
961.501875	2480.247692
961.801559	2480.247692
962.101205	2485.288846
962.400814	2437.397885
962.700385	2553.344423
962.999918	2545.782692
963.299414	2535.700385
963.598873	2376.904038
963.898293	2513.015192
964.197677	2480.247692
964.497022	2513.015192
964.796331	2462.603654
965.095601	2467.644808
965.394835	2490.330000
965.694030	2414.712692
965.993189	2490.330000
966.292309	2429.836154
966.591393	2492.850577
966.890439	2560.906154
967.189447	2568.467885
967.488419	2460.083077
967.787353	2611.317692
968.086249	2465.124231
968.385108	2419.753846
968.683930	2497.891731
968.982714	2480.247692
969.281462	2485.288846
969.580172	2467.644808
969.878844	2485.288846
970.177480	2482.768269
970.476078	2540.741538
970.774639	2462.603654
971.073162	2442.439038
971.371649	2477.727115
971.670098	2500.412308
971.968510	2525.618077
972.266885	2500.412308
972.565223	2470.165385
972.863524	2467.644808
973.161788	2409.671538
973.460014	2507.974038
973.758204	2500.412308
974.056356	2455.041923
974.354471	2407.150962
974.652550	2545.782692
974.950591	2507.974038
975.248595	2490.330000
975.546563	2462.603654
975.844493	2563.426731
976.142386	2407.150962
976.440243	2533.179808
976.738062	2510.494615
977.035845	2460.083077
977.333590	2560.906154
977.631299	2477.727115
977.928971	2470.165385
978.226606	2455.041923
978.524204	2480.247692
978.821765	2490.330000
979.119290	2467.644808
979.416777	2475.206538
979.714228	2507.974038
980.011642	2490.330000
980.309020	2500.412308
980.606360	2442.439038
980.903664	2477.727115
981.200931	2563.426731
981.498162	2455.041923
981.795356	2500.412308
982.092513	2520.576923
982.389633	2462.603654
982.686717	2379.424615
982.983764	2528.138654
983.280775	2485.288846
983.577749	2500.412308
983.874686	2495.371154
984.171587	2510.494615
984.468451	2477.727115
984.765279	2482.768269
985.062070	2439.918462
985.358824	2618.879423
985.655543	2495.371154
985.952224	2492.850577
986.248869	2490.330000
986.545478	2510.494615
986.842050	2563.426731
987.138586	2422.274423
987.435086	2399.589231
987.731549	2505.453462
988.027975	2560.906154
988.324366	2389.506923
988.620719	2505.453462
988.917037	2530.659231
989.213318	2477.727115
989.509563	2550.823846
989.805772	2470.165385
990.101944	2538.220962
990.398080	2515.535769
990.694180	2472.685962
990.990244	2439.918462
991.286271	2540.741538
991.582262	2427.315577
991.878217	2528.138654
992.174136	2510.494615
992.470019	2505.453462
992.765865	2490.330000
993.061676	2573.509038
993.357450	2467.644808
993.653188	2515.535769
993.948890	2477.727115
994.244556	2450.000769
994.540186	2434.877308
994.835780	2548.303269
995.131337	2497.891731
995.426859	2477.727115
995.722345	2540.741538
996.017795	2502.932885
996.313208	2477.727115
996.608586	2497.891731
996.903928	2492.850577
997.199234	2505.453462
997.494504	2550.823846
997.789738	2563.426731
998.084936	2482.768269
998.380099	2450.000769
998.675225	2518.056346
998.970316	2404.630385
999.265371	2450.000769
999.560390	2636.523462
999.855373	2505.453462
1000.150320	2462.603654
1000.445232	2482.768269
1000.740108	2470.165385
1001.034948	2518.056346
1001.329752	2437.397885
1001.624521	2409.671538
1001.919254	2495.371154
1002.213951	2510.494615
1002.508613	2462.603654
1002.803239	2417.233269
1003.097829	2429.836154
1003.392384	2467.644808
1003.686903	2444.959615
1003.981386	2560.906154
1004.275834	2477.727115
1004.570246	2470.165385
1004.864623	2407.150962
1005.158964	2502.932885
1005.453270	2439.918462
1005.747540	2407.150962
1006.041775	2555.865000
1006.335974	2518.056346
1006.630138	2444.959615
1006.924266	2520.576923
1007.218359	2553.344423
1007.512416	2573.509038
1007.806438	2502.932885
1008.100425	2528.138654
1008.394376	2465.124231
1008.688292	2490.330000
1008.982172	2495.371154
1009.276017	2495.371154
1009.569827	2447.480192
1009.863602	2533.179808
1010.157341	2616.358846
1010.451045	2487.809423
1010.744714	2417.233269
1011.038347	2543.262115
1011.331945	2460.083077
1011.625508	2543.262115
1011.919036	2497.891731
1012.212528	2487.809423
1012.505986	2480.247692
1012.799408	2439.918462
1013.092795	2515.535769
1013.386147	2502.932885
1013.679464	2533.179808
1013.972745	2450.000769
1014.265992	2424.795000
1014.559204	2523.097500
1014.852380	2480.247692
1015.145521	2485.288846
1015.438628	2515.535769
1015.731699	2457.562500
1016.024736	2500.412308
1016.317737	2490.330000
1016.610703	2447.480192
1016.903635	2578.550192
1017.196531	2573.509038
1017.489393	2460.083077
1017.782219	2480.247692
1018.075011	2553.344423
1018.367768	2502.932885
1018.660490	2550.823846
1018.953177	2550.823846
1019.245829	2550.823846
