Dividing Wavelength (nm)	Counts (n)	Blue Motor Position (mm): 48.000000	Red Motor Position (mm): 0.000000	
326.493990	2049.508823
326.888308	2049.508823
327.282561	2049.508823
327.676750	2024.769360
328.070874	2021.522857
328.464933	2031.043076
328.858929	2037.894004
329.252859	2050.045705
329.646726	2063.069526
330.040528	2081.068966
330.434265	2096.522623
330.827938	2119.298556
331.221547	2139.352266
331.615091	2157.581079
332.008571	2177.002124
332.401986	2201.547502
332.795338	2219.373022
333.188625	2239.822463
333.581847	2258.638569
333.975006	2275.289500
334.368100	2295.033179
334.761129	2311.061528
335.154095	2326.048878
335.546996	2376.830942
335.939833	2487.010400
336.332606	2494.899806
336.725315	2508.029491
337.117960	2518.704134
337.510540	2528.640249
337.903056	2535.972607
338.295508	2543.690613
338.687896	2552.434495
339.080220	2555.943138
339.472480	2560.880948
339.864676	2566.080898
340.256807	2566.668193
340.648875	2567.003429
341.040879	2570.038204
341.432818	2569.599624
341.824694	2572.226065
342.216506	2573.529203
342.608253	2570.418811
342.999937	2570.444017
343.391557	2570.232288
343.783113	2567.520148
344.174605	2567.540312
344.566033	2565.849005
344.957397	2562.652914
345.348697	2561.145609
345.739934	2559.797100
346.131106	2560.966648
346.522215	2558.133519
346.913260	2556.321224
347.304241	2555.219732
347.695159	2554.173693
348.086012	2551.907694
348.476802	2549.140101
348.867528	2546.828732
349.258191	2540.950746
349.648789	2542.722712
350.039324	2539.322454
350.429796	2543.695655
350.820203	2543.592311
351.210548	2542.594163
351.600828	2540.456713
351.991045	2539.345139
352.381198	2538.931764
352.771288	2540.706250
353.161314	2535.586959
353.551276	2541.273380
353.941175	2538.601569
354.331010	2540.587783
354.720782	2541.606096
355.110490	2544.197249
355.500135	2540.441590
355.889717	2539.824048
356.279235	2539.508976
356.668689	2543.259595
357.058080	2543.741025
357.447408	2541.628782
357.836672	2543.108360
358.225873	2542.621889
358.615010	2545.293700
359.004084	2545.286139
359.393095	2548.104144
359.782043	2543.998124
360.170927	2547.736139
360.559748	2544.721529
360.948505	2546.566592
361.337199	2550.115564
361.725830	2549.198074
362.114398	2550.604556
362.502903	2548.290666
362.891344	2548.197405
363.279722	2549.755122
363.668037	2554.942469
364.056289	2548.903167
364.444478	2555.267623
364.832603	2552.865513
365.220665	2553.641851
365.608665	2553.833415
365.996601	2556.129661
366.384474	2556.187634
366.772284	2555.975905
367.160031	2558.183931
367.547715	2558.163766
367.935336	2554.995401
368.322893	2554.645041
368.710388	2556.434650
369.097820	2555.128992
369.485189	2554.380380
369.872495	2560.144940
370.259738	2557.689898
370.646918	2561.198541
371.034035	2561.027142
371.421090	2561.992522
371.808081	2561.614436
372.195010	2559.189641
372.581875	2562.736093
372.968678	2560.132337
373.355418	2565.120558
373.742096	2566.390929
374.128710	2566.196845
374.515262	2568.339335
374.901751	2567.010991
375.288177	2568.916547
375.674540	2571.323698
376.060841	2574.981055
376.447079	2576.042218
376.833254	2576.679924
377.219367	2581.292580
377.605417	2583.578743
377.991404	2584.460945
378.377329	2591.853797
378.763191	2593.966041
379.148991	2596.549632
379.534727	2604.648246
379.920402	2607.756117
380.306013	2614.002107
380.691563	2619.668364
381.077049	2626.625156
381.462474	2634.587658
381.847835	2643.104688
382.233134	2654.298570
382.618371	2658.023983
383.003545	2672.076199
383.388657	2679.529545
383.773706	2694.993284
384.158693	2703.570808
384.543618	2717.353322
384.928480	2728.012842
385.313280	2742.012126
385.698017	2755.282964
386.082692	2771.081940
386.467305	2785.275309
386.851856	2802.064872
387.236344	2824.828202
387.620770	2833.370437
388.005133	2854.578571
388.389435	2880.059083
388.773674	2891.499982
389.157851	2917.232552
389.541965	2943.116356
389.926018	2955.711679
390.310008	2981.872747
390.693936	3003.774040
391.077802	3029.592309
391.461606	3058.100034
391.845348	3072.734504
392.229027	3102.429421
392.612645	3138.665234
392.996200	3165.053154
393.379694	3199.640511
393.763125	3239.619381
394.146494	3261.893720
394.529801	3299.674647
394.913047	3342.295082
395.296230	3348.576360
395.679351	3373.159547
396.062410	3423.707196
396.445408	3412.961977
396.828343	3453.069397
397.211217	3482.408912
397.594028	3466.990543
397.976778	3514.800846
398.359466	3547.996844
398.742092	3564.385636
399.124656	3577.593459
399.507158	3635.496152
399.889598	3643.493942
400.271977	3702.523333
400.654294	3699.463353
401.036549	3752.592073
401.418742	3761.003238
401.800874	3822.971622
402.182944	3850.574460
402.564952	3928.273764
402.946898	3927.938527
403.328783	3929.027417
403.710606	3975.721104
404.092367	4038.115465
404.474067	4100.850104
404.855705	4087.181016
405.237282	4065.572110
405.618797	4155.985204
406.000250	4231.335331
406.381642	4305.379798
406.762972	4306.584634
407.144240	4271.576341
407.525447	4334.641176
407.906593	4345.172146
408.287677	4425.868416
408.668700	4450.481850
409.049661	4492.676308
409.430560	4523.228221
409.811399	4513.821427
410.192176	4555.342891
410.572891	4630.307369
410.953545	4722.724322
411.334138	4626.433243
411.714669	4733.101537
412.095139	4658.424405
412.475547	4753.734980
412.855894	4763.229993
413.236180	4854.263150
413.616405	4791.523469
413.996568	4883.395978
414.376670	4889.825969
414.756711	4884.797418
415.136691	4948.794867
415.516609	5030.312845
415.896466	5064.486827
416.276262	5142.483559
416.655997	5253.968676
417.035670	5336.091593
417.415283	5460.542558
417.794834	5514.185476
418.174324	5473.420186
418.553753	5470.377849
418.933121	5628.896932
419.312428	5634.101923
419.691674	5576.221915
420.070859	5777.192555
420.449983	5672.578530
420.829045	5856.588207
421.208047	5787.811745
421.586988	5937.027378
421.965867	6003.565568
422.344686	6079.767650
422.723444	6238.379994
423.102141	5887.273711
423.480777	6243.141363
423.859352	6078.552732
424.237866	6418.525626
424.616319	6407.379635
424.994712	6560.154323
425.373044	6479.972251
425.751314	6774.047960
426.129524	6515.658579
426.507673	6771.265243
426.885762	6803.878988
427.263789	6836.197825
427.641756	6924.599499
428.019662	6992.786146
428.397508	7030.317537
428.775292	7025.576331
429.153016	7166.325347
429.530679	7120.970086
429.908282	7163.983731
430.285824	7111.890968
430.663305	7357.017073
431.040726	7267.309741
431.418086	7264.839575
431.795385	7395.453351
432.172624	7570.918272
432.549802	7457.787218
432.926920	7587.160870
433.303977	7542.377780
433.680974	7589.941066
434.057910	7767.193077
434.434786	7817.884399
434.811601	7777.834952
435.188355	8107.075231
435.565050	8005.904314
435.941683	8018.986108
436.318257	8325.455495
436.694770	8271.116897
437.071222	8484.178744
437.447614	8255.890092
437.823946	8229.121565
438.200218	8362.838171
438.576429	8269.236547
438.952580	8420.526615
439.328670	8428.307636
439.704700	8512.820060
440.080670	8404.503308
440.456580	8654.431112
440.832429	8644.719329
441.208218	8385.120071
441.583947	8502.321857
441.959616	8603.172660
442.335224	8639.088361
442.710773	8723.724292
443.086261	8896.139316
443.461689	8636.960994
443.837057	8779.250082
444.212365	8978.852047
444.587612	8979.633426
444.962800	8866.378864
445.337927	9008.350359
445.712995	8566.924243
446.088002	9202.654073
446.462949	9261.638093
446.837837	9276.270042
447.212664	9326.565634
447.587431	10224.816070
447.962139	11185.886845
448.336786	11926.182808
448.711374	11525.602641
449.085901	10386.553930
449.460369	10365.383604
449.834776	10285.015009
450.209124	11211.931967
450.583412	10980.847995
450.957640	11180.412152
451.331808	10771.645152
451.705917	10297.378439
452.079965	10214.569925
452.453954	10409.707949
452.827883	10366.845539
453.201752	10333.430251
453.575562	10351.084371
453.949311	10705.918588
454.323001	10783.365834
454.696632	10701.875582
455.070202	11282.203131
455.443713	11339.233704
455.817164	11483.587145
456.190556	11793.913014
456.563888	11631.146759
456.937160	11835.200064
457.310373	11347.322236
457.683526	11383.875642
458.056619	11422.846282
458.429653	11502.859476
458.802628	11674.757781
459.175542	11737.941083
459.548398	12280.394442
459.921194	12852.220085
460.293930	13193.594420
460.666607	14011.617414
461.039224	14731.290016
461.411782	14971.369927
461.784280	14586.543366
462.156719	14476.999093
462.529099	14379.188105
462.901419	13817.911077
463.273680	13462.386223
463.645882	13692.666130
464.018024	13653.622394
464.390106	14078.049739
464.762130	15243.385547
465.134094	16929.553206
465.505999	19204.507470
465.877845	21190.286026
466.249631	22053.129918
466.621358	21372.317050
466.993026	20524.601660
467.364634	19825.645679
467.736184	19126.694740
468.107674	18590.121886
468.479105	18449.171225
468.850477	18181.243980
469.221790	17755.740348
469.593043	17123.884646
469.964238	16793.316024
470.335373	16898.900470
470.706449	17755.788239
471.077467	18908.367408
471.448425	21241.995661
471.819324	22727.757290
472.190164	22203.210109
472.560945	20524.440343
472.931667	19133.427201
473.302330	18887.330673
473.672934	18437.211087
474.043479	18875.241986
474.413965	18680.590433
474.784393	18536.481489
475.154761	19144.482451
475.525070	19298.146903
475.895321	19142.062697
476.265513	19644.703544
476.635645	20222.939014
477.005719	20289.058788
477.375734	20667.409987
477.745691	21266.588930
478.115588	21937.460643
478.485427	23191.898845
478.855207	25071.508180
479.224928	26783.746167
479.594591	27942.778012
479.964194	27388.256130
480.333739	27751.350277
480.703226	28021.236010
481.072653	28530.755511
481.442022	29028.919814
481.811333	29326.398302
482.180584	28826.162086
482.549777	28625.619944
482.918912	28417.574046
483.287988	28375.825730
483.657005	28187.954529
484.025964	27837.450664
484.394864	28031.227577
484.763706	27983.997006
485.132489	27477.310633
485.501213	27558.563951
485.869879	27746.747703
486.238487	27707.794708
486.607036	27974.441499
486.975527	27709.682620
487.343959	28035.084059
487.712333	28362.620428
488.080648	28336.144288
488.448905	28762.121788
488.817104	28680.603809
489.185244	29574.405427
489.553326	30741.278788
489.921350	32671.604651
490.289315	35050.336108
490.657222	35715.932253
491.025070	36103.604545
491.392861	35702.908432
491.760593	34885.311416
492.128267	33879.424783
492.495883	32926.714762
492.863440	32101.535851
493.230939	31227.225854
493.598380	30737.296276
493.965763	30617.314294
494.333088	30169.458186
494.700354	29990.088891
495.067563	29981.408024
495.434713	29889.356555
495.801805	30189.529540
496.168839	30049.367819
496.535815	29934.782392
496.902733	30080.537274
497.269593	29893.213038
497.636395	30055.167667
498.003139	30348.436792
498.369825	30136.393258
498.736453	30539.751101
499.103023	30386.832740
499.469535	30483.706073
499.835989	30621.369902
500.202385	30489.722690
500.568723	30572.279146
500.935003	30898.416594
501.301226	30805.142645
501.667390	31486.053816
502.033497	31690.568386
502.399546	31490.981544
502.765537	31093.078229
503.131470	31578.266602
503.497345	32002.096570
503.863163	31007.948264
504.228923	31751.238673
504.594625	32155.468635
504.960269	31656.850629
505.325856	32335.941943
505.691385	32044.374207
506.056856	32344.055680
506.422270	32843.102184
506.787625	32385.262071
507.152924	32851.447814
507.518164	33047.836045
507.883347	32629.354741
508.248472	32789.958340
508.613540	33459.983139
508.978550	33700.899882
509.343503	33570.454985
509.708398	33941.645225
510.073236	34540.675454
510.438016	34635.096265
510.802738	34336.375133
511.167403	34906.406124
511.532010	35161.158313
511.896561	35648.151419
512.261053	36379.471607
512.625488	36178.732861
512.989866	36117.432430
513.354186	36173.338827
513.718449	36153.771588
514.082655	37025.636625
514.446803	36725.108238
514.810894	37365.677575
515.174927	37374.408854
515.538904	37380.092755
515.902822	38023.084366
516.266684	37724.479180
516.630488	38096.102959
516.994235	38108.524362
517.357925	38691.259062
517.721558	38963.859456
518.085133	39335.826033
518.448651	39518.033498
518.812112	39426.332389
519.175516	39583.563457
519.538863	40023.880519
519.902152	40093.589594
520.265385	40626.623558
520.628560	40641.023614
520.991678	40610.028080
521.354739	40852.920954
521.717743	41205.138812
522.080690	41122.481533
522.443580	41783.729683
522.806413	41821.762668
523.169189	41962.836838
523.531908	42198.069679
523.894569	42048.188613
524.257174	42251.364757
524.619722	42593.318826
524.982213	42725.243301
525.344647	42762.406688
525.707025	42886.681212
526.069345	43342.910676
526.431608	43253.427675
526.793815	43646.136080
527.155964	43193.402656
527.518057	43475.069566
527.880093	43306.516066
528.242072	43948.118840
528.603995	43686.815671
528.965860	43596.793266
529.327669	43819.997915
529.689421	43888.426537
530.051117	43831.511910
530.412755	44112.531031
530.774337	44179.023850
531.135862	44131.586593
531.497331	44276.648315
531.858743	44287.693483
532.220098	44685.097723
532.581396	44405.238068
532.942638	44194.774936
533.303824	44424.492755
533.664953	44485.100027
534.026025	44154.614583
534.387040	44737.601341
534.747999	44808.139686
535.108902	45118.294156
535.469748	44460.252179
535.830537	44717.371190
536.191270	44967.359489
536.551947	44701.889807
536.912567	44979.148227
537.273131	45128.943593
537.633638	44768.284323
537.994089	44950.151510
538.354483	44712.267022
538.714821	45362.641403
539.075103	45624.141177
539.435328	45500.953021
539.795497	45258.191216
540.155609	45386.352470
540.515665	45963.884699
540.875665	45269.929543
541.235609	45544.185956
541.595496	45671.936356
541.955328	46230.226501
542.315102	45682.711823
542.674821	45554.414457
543.034483	45461.349716
543.394090	45475.603578
543.753640	45454.947451
544.113134	46514.507248
544.472571	45625.426671
544.831953	46759.333405
545.191278	46016.161464
545.550548	45703.294854
545.909761	46344.990888
546.268918	46488.860378
546.628019	46910.537774
546.987064	46343.294540
547.346053	45630.167876
547.704986	46523.041922
548.063863	46188.339553
548.422684	46392.183650
548.781449	45982.231978
549.140158	46520.503701
549.498811	46290.606921
549.857408	45668.989802
550.215949	46511.490118
550.574434	46346.299068
550.932864	46290.450645
551.291237	46998.967174
551.649555	46767.636186
552.007817	46930.788089
552.366022	46601.247862
552.724173	46647.129924
553.082267	47086.118642
553.440305	47411.545287
553.798288	46669.545414
554.156215	47063.531752
554.514086	47263.456352
554.871902	46902.751712
555.229661	47066.735405
555.587365	46730.878613
555.945014	46871.781383
556.302606	46887.444248
556.660143	46992.068355
557.017625	47196.540076
557.375050	46911.815706
557.732421	47305.149215
558.089735	47357.325157
558.446994	47240.524143
558.804197	47716.585506
559.161345	47568.289884
559.518437	46919.558919
559.875474	47179.206068
560.232455	47408.767611
560.589381	47460.252916
560.946251	47275.787014
561.303065	47932.049463
561.659825	47616.448026
562.016528	47412.029238
562.373177	46989.804877
562.729770	47625.940519
563.086307	47152.072058
563.442789	47691.588945
563.799216	47549.274651
564.155587	47433.232331
564.511904	47412.185514
564.868164	47460.666290
565.224370	47772.804454
565.580520	47494.747011
565.936615	47696.657825
566.292654	47363.908904
566.648638	47700.791571
567.004567	47657.856064
567.360441	47761.136703
567.716260	47469.291704
568.072023	47832.529524
568.427732	47758.762320
568.783385	47305.706262
569.138982	47707.095534
569.494525	47850.072740
569.850013	47441.053681
570.205445	47569.746777
570.560823	47345.528857
570.916145	47217.680154
571.271412	47453.349055
571.626625	47107.788042
571.981782	47180.184052
572.336884	46778.164636
572.691931	47107.414996
573.046923	46771.653985
573.401860	46611.746065
573.756743	46622.990358
574.111570	46764.997142
574.466342	46673.474994
574.821059	46823.487129
575.175722	46328.965060
575.530330	46440.137626
575.884882	46062.855152
576.239380	45962.679863
576.593823	46058.744091
576.948211	45989.559295
577.302544	45539.716973
577.656823	45545.572273
578.011047	45810.212686
578.365216	45630.210726
578.719330	45359.420106
579.073389	45320.071379
579.427394	45395.968471
579.781344	45305.212578
580.135239	45072.701960
580.489080	45140.356765
580.842866	44628.125123
581.196597	45122.939579
581.550273	45129.659437
581.903895	45053.177571
582.257463	45491.392472
582.610975	44920.834680
582.964434	45254.375063
583.317837	44773.015446
583.671186	44728.733951
584.024481	44989.636348
584.377721	44546.397937
584.730906	44755.789824
585.084037	44868.880548
585.437113	44588.383187
585.790135	44709.748966
586.143103	44274.175629
586.496016	44434.501966
586.848874	44537.555753
587.201679	44566.113890
587.554428	44068.894803
587.907124	44338.646946
588.259765	44115.439777
588.612352	44271.135813
588.964884	43717.690218
589.317362	44042.937902
589.669786	44051.454932
590.022155	43896.648659
590.374470	44344.066186
590.726731	43911.595680
591.078937	43258.123510
591.431090	43592.452833
591.783188	43130.204231
592.135232	42921.813013
592.487222	43190.604816
592.839157	43326.700846
593.191038	42985.139988
593.542866	42792.096563
593.894639	42191.478370
594.246358	42493.992972
594.598022	42464.671100
594.949633	42061.961046
595.301190	42018.473532
595.652692	41958.214100
596.004141	42448.894809
596.355535	41354.974507
596.706876	41382.158929
597.058162	41088.715884
597.409395	41583.936153
597.760573	41809.578199
598.111698	41404.866807
598.462768	41325.657677
598.813785	41350.001409
599.164748	40942.928236
599.515657	41226.170506
599.866511	40736.561041
600.217312	41429.359252
600.568060	40372.577131
600.918753	41199.752339
601.269392	41107.721034
601.619978	40832.524446
601.970510	41040.948431
602.320988	41176.459688
602.671412	41433.984511
603.021783	41304.560448
603.372100	40880.609492
603.722363	40999.230362
604.072572	41004.067349
604.422728	41004.692452
604.772830	40791.096243
605.122878	40957.466923
605.472872	40812.793370
605.822813	41068.994890
606.172701	40821.610348
606.522534	41151.085040
606.872314	41349.214989
607.222041	41184.422190
607.571714	41519.626153
607.921333	41002.844870
608.270899	41229.686710
608.620411	41616.312963
608.969870	41346.835564
609.319276	41365.245858
609.668627	41399.530745
610.017926	41788.218830
610.367171	41922.558018
610.716362	41969.047539
611.065500	41866.727240
611.414585	42090.867022
611.763616	42268.194650
612.112594	42155.323215
612.461518	42291.575521
612.810389	42676.074407
613.159207	42457.487456
613.507971	42451.783390
613.856682	42927.988427
614.205340	42778.883699
614.553945	43462.774191
614.902496	42791.542036
615.250994	43213.574833
615.599439	43273.993062
615.947830	43396.994695
616.296169	43384.666554
616.644454	43443.718630
616.992686	43601.093371
617.340864	44044.987131
617.688990	43586.169035
618.037063	44267.851502
618.385082	44070.268518
618.733048	44413.001444
619.080961	44287.917815
619.428821	44308.984797
619.776628	44311.923789
620.124382	44134.162622
620.472083	44227.736520
620.819731	44329.610677
621.167326	43885.699273
621.514868	43869.817117
621.862357	43321.813448
622.209793	43412.781069
622.557176	42974.281342
622.904506	42733.742687
623.251783	42355.688916
623.599007	42062.223186
623.946179	41973.040133
624.293297	41709.473487
624.640363	41177.341889
624.987376	41008.722855
625.334336	40810.224902
625.681243	40425.723495
626.028097	40324.255150
626.374899	40138.581892
626.721647	40115.967276
627.068343	39903.119679
627.414987	39632.495417
627.761577	39359.887461
628.108115	39697.317093
628.454600	38946.757341
628.801032	39177.120428
629.147412	39062.724044
629.493739	38975.534768
629.840014	38556.067918
630.186236	38969.092173
630.532405	38423.261241
630.878521	38649.198194
631.224585	38424.327445
631.570597	38108.957901
631.916556	38282.910477
632.262462	38142.325299
632.608316	38079.288190
632.954117	37940.180071
633.299866	37882.720999
633.645562	37798.022053
633.991206	37273.147197
634.336797	36864.770885
634.682336	36751.511282
635.027823	36521.586775
635.373257	36401.574546
635.718639	36075.487510
636.063968	35941.435667
636.409245	35309.648020
636.754470	35263.881905
637.099642	35052.138320
637.444762	34477.456864
637.789829	34623.332733
638.134845	34249.851288
638.479808	34159.498688
638.824719	34106.221254
639.169577	33591.837039
639.514383	33686.772048
639.859137	33313.023422
640.203839	33492.889271
640.548489	33173.527134
640.893086	33179.286652
641.237632	32926.992025
641.582125	33027.857952
641.926566	32810.390137
642.270955	32851.412526
642.615292	32788.879533
642.959576	32671.355114
643.303809	32680.807277
643.647990	32771.805145
643.992118	32717.574933
644.336195	32571.010947
644.680219	32662.933866
645.024192	32856.700697
645.368112	33393.283633
645.711981	33415.638629
646.055797	34157.429294
646.399562	33966.215808
646.743274	34840.213254
647.086935	35230.539714
647.430544	35196.663160
647.774101	35235.175055
648.117606	35510.275861
648.461059	35639.263865
648.804460	35218.693002
649.147810	34717.297320
649.491108	34355.871795
649.834354	34195.056467
650.177548	33372.924933
650.520690	32878.551578
650.863781	32872.837430
651.206820	32705.650083
651.549807	32292.172124
651.892742	31720.134753
652.235626	31623.392491
652.578458	31496.302482
652.921238	30807.222121
653.263967	31123.448661
653.606644	30831.253302
653.949269	30749.349675
654.291843	30351.602637
654.634365	30715.200899
654.976836	30261.323133
655.319255	30328.839306
655.661622	30212.892768
656.003938	30067.132846
656.346203	29892.487112
656.688416	30127.598965
657.030577	29897.389634
657.372687	29718.736183
657.714746	29888.842358
658.056753	30078.114999
658.398708	29464.319230
658.740612	29532.105106
659.082465	29742.159904
659.424266	29638.080242
659.766016	29642.299688
660.107715	29503.304994
660.449362	29603.989439
660.790958	29592.498129
661.132503	29513.097435
661.473996	29578.753423
661.815438	29674.374029
662.156829	29783.605750
662.498168	29591.883108
662.839456	29566.122812
663.180693	29698.765652
663.521879	29786.212027
663.863013	29749.139382
664.204097	29722.781709
664.545129	30141.515071
664.886110	30069.355994
665.227040	30178.290288
665.567918	30175.545380
665.908746	30255.493038
666.249522	30345.941421
666.590248	30353.485508
666.930922	30453.834716
667.271545	30459.352259
667.612118	30517.950631
667.952639	30320.995271
668.293109	30356.295951
668.633528	30210.846059
668.973896	30178.403714
669.314213	30149.883386
669.654480	29968.399327
669.994695	29950.777974
670.334859	29876.027744
670.674973	29716.253414
671.015035	29897.765200
671.355047	29825.147379
671.695008	29768.603277
672.034918	29670.837659
672.374777	29776.596026
672.714585	29636.928338
673.054342	29791.280907
673.394049	29626.994744
673.733705	29858.066113
674.073310	29579.935573
674.412864	29624.564908
674.752368	29314.677620
675.091820	29547.173114
675.431223	29146.822320
675.770574	28938.592419
676.109875	28782.546022
676.449125	28576.453571
676.788324	28470.014649
677.127473	27989.854827
677.466571	27897.475683
677.805619	27612.471530
678.144616	27560.212408
678.483562	27496.343510
678.822458	27182.733329
679.161303	27127.530174
679.500098	27047.660653
679.838842	26993.155697
680.177535	27083.140293
680.516179	27321.778434
680.854771	27455.636192
681.193314	28242.744310
681.531805	29274.776887
681.870247	30042.968075
682.208638	30760.271335
682.546978	31004.240496
682.885268	31153.073001
683.223508	30693.957477
683.561697	30420.066547
683.899836	30259.639388
684.237925	29844.001294
684.575963	29703.038030
684.913951	29332.346864
685.251889	29512.610964
685.589776	29549.373578
685.927614	29566.324458
686.265401	29740.307280
686.603137	29864.657422
686.940824	30378.618180
687.278460	30708.239065
687.616046	30897.395761
687.953582	31553.403631
688.291068	31458.907202
688.628504	31787.653447
688.965889	31765.313574
689.303224	31487.435092
689.640510	31194.660000
689.977745	30537.817818
690.314930	29800.455807
690.652065	29341.730972
690.989150	28670.554269
691.326185	27836.918822
691.663170	27194.683384
692.000105	26462.271786
692.336990	25847.813105
692.673825	25432.464878
693.010610	24948.398162
693.347345	24454.281906
693.684030	23823.462161
694.020665	23637.390652
694.357251	22964.142035
694.693786	22967.360812
695.030272	22736.241552
695.366707	22263.645982
695.703093	21986.251450
696.039429	22049.129762
696.375716	21816.021767
696.711952	21828.791010
697.048139	21697.819312
697.384276	21533.918798
697.720363	21651.274339
698.056400	21532.706401
698.392388	21388.617621
698.728326	21386.210470
699.064214	21215.418698
699.400053	21225.127960
699.735842	20829.929225
700.071581	20633.813217
700.407270	20371.705985
700.742910	20218.701924
701.078501	19964.100970
701.414042	19760.345093
701.749533	19455.330080
702.084974	19146.451022
702.420366	19378.228152
702.755709	18964.893866
703.091002	18663.279111
703.426246	18732.582373
703.761440	18657.905241
704.096584	18423.622657
704.431679	18359.385754
704.766725	18304.530438
705.101721	18248.893744
705.436668	18367.459162
705.771565	18112.059185
706.106413	18416.459177
706.441212	18495.486826
706.775961	18596.831662
707.110661	18687.491773
707.445311	19063.075378
707.779913	18940.144321
708.114465	19236.349918
708.448967	19550.320542
708.783421	20171.627630
709.117825	20551.544107
709.452180	20790.036054
709.786485	21240.561453
710.120742	22006.176611
710.454949	22128.374180
710.789107	22632.920583
711.123216	23354.796170
711.457275	23564.354415
711.791286	24108.768783
712.125247	24249.759774
712.459159	23971.929183
712.793023	24721.649583
713.126837	23684.525440
713.460602	23911.324431
713.794318	23561.634712
714.127985	23290.045070
714.461602	22382.662583
714.795171	22359.926979
715.128691	21385.920603
715.462162	20855.266064
715.795584	20436.734349
716.128957	20165.800056
716.462281	19796.880856
716.795556	19512.164048
717.128782	19039.104692
717.461960	18444.001521
717.795088	18403.082476
718.128167	18073.169203
718.461198	17616.352445
718.794180	17489.927868
719.127113	17160.722878
719.459997	16972.982747
719.792833	16610.997654
720.125619	16638.643341
720.458357	16318.885473
720.791046	16177.607137
721.123686	16039.857608
721.456278	15818.888712
721.788821	15809.645756
722.121315	15545.988369
722.453761	15661.070349
722.786158	15541.511824
723.118506	15622.997035
723.450805	15507.587379
723.783056	15684.350398
724.115259	15582.445993
724.447412	15580.595890
724.779518	15798.411545
725.111574	15848.442476
725.443582	16120.117818
725.775542	16075.788432
726.107453	16592.478975
726.439315	16519.127666
726.771129	16941.309177
727.102895	17364.415740
727.434612	17641.999315
727.766281	17791.736708
728.097901	18117.753168
728.429473	18201.335499
728.760996	18198.494808
729.092471	18319.464857
729.423897	18214.795379
729.755276	18083.148167
730.086606	18203.203246
730.417887	18786.232853
730.749120	19337.815742
731.080305	19561.378313
731.411442	19952.836512
731.742530	20057.518592
732.073570	20224.438757
732.404562	20539.284021
732.735506	20368.703977
733.066401	20150.724485
733.397249	19661.137706
733.728048	19016.137195
734.058798	18169.407351
734.389501	17409.665137
734.720156	16896.510963
735.050762	16320.095350
735.381320	15943.185921
735.711831	15684.501632
736.042293	15315.385827
736.372707	15364.171593
736.703073	15143.348890
737.033391	15355.031982
737.363661	15355.946951
737.693883	15495.818806
738.024056	15692.950606
738.354182	15917.506284
738.684260	16292.686597
739.014290	16567.437043
739.344272	16798.523536
739.674207	17138.778735
740.004093	17317.659038
740.333931	17349.299840
740.663722	17431.591636
740.993464	17458.166078
741.323159	17299.649516
741.652806	17002.332344
741.982405	16830.202146
742.311956	16464.569778
742.641460	16345.853126
742.970915	16012.393402
743.300323	15666.865156
743.629683	15449.994717
743.958996	15133.921933
744.288260	14827.805427
744.617477	14524.121278
744.946647	14491.525177
745.275768	14173.859388
745.604842	13978.474348
745.933869	13798.084219
746.262847	13774.587401
746.591778	13689.792673
746.920662	13581.861569
747.249498	13597.385802
747.578286	13756.643414
747.907027	13929.018108
748.235720	14203.980283
748.564365	14267.796249
748.892963	14192.799003
749.221514	14294.390856
749.550017	14165.120548
749.878473	14135.899500
750.206881	13914.030757
750.535242	13841.846476
750.863555	13758.014608
751.191821	13654.560048
751.520039	13674.144931
751.848210	13606.931227
752.176334	13652.904029
752.504411	13573.974684
752.832440	13395.810224
753.160421	13506.264426
753.488356	13401.042942
753.816243	13316.485148
754.144082	13140.027119
754.471875	13088.393101
754.799620	13066.000296
755.127318	13043.483982
755.454969	13025.653421
755.782572	12996.684430
756.110129	13010.363601
756.437638	12908.023137
756.765100	12920.731886
757.092515	12949.247173
757.419882	12984.832678
757.747203	13007.175072
758.074477	13095.082712
758.401703	13077.728540
758.728882	13279.737657
759.056014	13322.166528
759.383099	13494.752951
759.710138	13621.543011
760.037129	13737.005599
760.364073	13802.485146
760.690970	13829.856091
761.017820	13842.990817
761.344623	14070.639243
761.671379	14454.402121
761.998088	15150.996321
762.324751	16937.334227
762.651366	20375.302848
762.977935	24854.804100
763.304456	27825.843407
763.630931	28840.400825
763.957359	27614.248536
764.283740	25319.318701
764.610074	23042.063150
764.936362	20407.173022
765.262602	18526.457154
765.588796	16594.422340
765.914943	15318.758359
766.241044	14225.687491
766.567097	13441.944344
766.893104	12721.502965
767.219064	12262.079930
767.544978	11791.475616
767.870845	11413.351269
768.196665	11185.070178
768.522438	10960.073400
768.848165	10756.226783
769.173846	10547.694413
769.499479	10422.900649
769.825066	10256.696327
770.150607	10024.914156
770.476101	9941.412483
770.801548	9825.105502
771.126949	9670.780660
771.452303	9553.977125
771.777611	9350.808543
772.102872	9337.900668
772.428087	9201.857570
772.753256	9051.704282
773.078378	8957.343965
773.403453	8777.924258
773.728482	8667.727156
774.053465	8592.548428
774.378401	8493.237697
774.703291	8370.654480
775.028135	8249.699555
775.352932	8211.966519
775.677683	8107.864171
776.002388	7999.146647
776.327046	8012.084769
776.651658	7911.312103
776.976224	7811.850138
777.300743	7811.310734
777.625216	7722.898978
777.949643	7686.668206
778.274024	7703.157820
778.598359	7609.911597
778.922647	7634.767006
779.246889	7582.190292
779.571086	7595.572035
779.895236	7600.928261
780.219339	7613.261444
780.543397	7621.057588
780.867409	7693.125924
781.191374	7710.835497
781.515294	7668.459558
781.839167	7763.318950
782.162995	7738.781133
782.486776	7679.850045
782.810511	7630.058568
783.134201	7543.156638
783.457844	7533.041563
783.781441	7486.403328
784.104993	7418.488903
784.428498	7394.021663
784.751958	7379.392235
785.075372	7351.862493
785.398739	7297.407950
785.722061	7341.896132
786.045337	7350.423244
786.368568	7504.095257
786.691752	7529.600975
787.014891	7876.341619
787.337983	8240.227227
787.661030	8835.723608
787.984031	9466.107293
788.306987	9873.702226
788.629897	10073.657072
788.952760	10014.514255
789.275579	9793.563003
789.598351	9390.633658
789.921078	9029.555973
790.243759	8613.020554
790.566395	8329.856422
790.888984	8070.506701
791.211529	7861.835699
791.534027	7638.573077
791.856480	7445.101154
792.178888	7376.455762
792.501249	7275.095803
792.823566	7121.970755
793.145836	7116.755681
793.468062	7091.260045
793.790241	7050.640948
794.112375	7118.018490
794.434464	7273.616224
794.756507	7316.957544
795.078505	7478.392934
795.400457	7795.781460
795.722364	8150.051067
796.044226	8438.321888
796.366042	8713.014361
796.687812	8659.489910
797.009538	8730.323163
797.331218	8626.130075
797.652852	8533.566928
797.974442	8382.798620
798.295986	8293.628170
798.617484	8097.978468
798.938938	7949.098072
799.260346	7851.181220
799.581709	7649.371229
799.903026	7572.259219
800.224299	7471.610062
800.545526	7296.268649
800.866708	7202.107457
801.187845	7132.968032
801.508936	7029.256374
801.829983	6989.985785
802.150984	6842.259813
802.471940	6792.453213
802.792851	6778.615246
803.113717	6750.546101
803.434538	6716.500668
803.755314	6663.573594
804.076045	6667.488050
804.396731	6611.856397
804.717372	6644.281098
805.037967	6651.593292
805.358518	6690.536206
805.679024	6774.955368
805.999485	6789.360465
806.319901	6836.142373
806.640272	6857.542071
806.960598	6941.510050
807.280879	6939.402848
807.601115	7017.573500
807.921306	6962.846733
808.241453	6970.320244
808.561554	6993.086095
808.881611	6952.411545
809.201623	6964.802701
809.521590	6904.182826
809.841513	6884.219857
810.161390	6922.406597
810.481223	6793.733666
810.801011	6776.860924
811.120755	6749.192551
811.440453	6665.418657
811.760107	6633.069572
812.079716	6609.229956
812.399281	6539.876282
812.718801	6529.970414
813.038276	6483.183466
813.357707	6424.106184
813.677093	6467.818029
813.996434	6368.910590
814.315731	6413.918012
814.634983	6405.032978
814.954191	6417.119144
815.273354	6525.062851
815.592473	6587.500062
815.911547	6719.187603
816.230577	6792.584283
816.549562	6942.719927
816.868502	7042.335647
817.187399	7139.483723
817.506250	7292.565921
817.825058	7323.518606
818.143821	7589.154646
818.462539	7866.002212
818.781213	8231.601813
819.099843	8786.111092
819.418429	9791.586871
819.736970	10767.937383
820.055466	11950.153495
820.373919	13481.194768
820.692327	15827.544373
821.010691	19957.771801
821.329011	28956.816190
821.647286	42032.840821
821.965517	55540.352932
822.283704	60924.781629
822.601847	62890.337596
822.919945	60151.362764
823.237999	55905.531596
823.556010	49670.080513
823.873976	42913.895881
824.191897	36365.374021
824.509775	31528.308767
824.827609	26999.197520
825.145398	24415.906123
825.463144	23054.507238
825.780845	23370.441391
826.098502	25166.599465
826.416116	28993.788013
826.733685	32717.103585
827.051210	33922.269550
827.368692	32137.101191
827.686129	28140.388722
828.003522	23970.053874
828.320872	20236.139275
828.638177	17365.169392
828.955439	15219.601383
829.272656	13404.128128
829.589830	11925.096440
829.906960	10649.697119
830.224046	9705.773829
830.541088	8961.555849
830.858086	8505.497784
831.175041	8124.822613
831.491952	8015.948813
831.808819	8063.191986
832.125642	8467.240467
832.442421	9357.329275
832.759157	11153.399129
833.075849	14107.139717
833.392497	17352.614399
833.709101	19565.343180
834.025662	19398.417973
834.342179	17676.758071
834.658653	15455.822291
834.975083	13517.612063
835.291469	11895.396482
835.607811	10569.262989
835.924110	9662.190534
836.240366	8783.900546
836.556578	7984.222311
836.872746	7334.064700
837.188871	6840.147569
837.504952	6425.573159
837.820990	6111.375684
838.136984	5893.960801
838.452935	5800.575947
838.768842	5830.371687
839.084706	6257.380102
839.400526	7468.938250
839.716303	9064.342455
840.032037	10166.663840
840.347727	10088.972098
840.663373	9105.505997
840.978977	8049.943834
841.294537	7241.710761
841.610054	6641.551314
841.925527	6207.215581
842.240957	5850.848853
842.556344	5520.081106
842.871687	5236.188527
843.186987	4954.173778
843.502244	4727.218511
843.817458	4566.020055
844.132629	4430.337399
844.447756	4340.599820
844.762840	4259.091924
845.077881	4186.222045
845.392879	4124.672077
845.707833	4074.734407
846.022745	4033.404507
846.337613	4004.170856
846.652438	3957.799802
846.967221	3942.620888
847.281960	3912.469747
847.596656	3893.391500
847.911309	3873.662945
848.225919	3846.165971
848.540485	3833.454702
848.855009	3820.811488
849.169490	3798.522026
849.483928	3787.907877
849.798323	3779.030405
850.112675	3760.171448
850.426984	3768.191924
850.741251	3754.663988
851.055474	3749.595107
851.369654	3752.793719
851.683792	3751.256168
851.997887	3754.290942
852.311938	3759.657250
852.625947	3761.207405
852.939914	3750.986466
853.253837	3763.576748
853.567718	3760.806633
853.881555	3746.940940
854.195350	3768.012963
854.509103	3760.678084
854.822812	3759.188423
855.136479	3749.375817
855.450103	3760.622631
855.763685	3747.412288
856.077224	3752.745828
856.390720	3767.244187
856.704173	3788.003658
857.017584	3801.642500
857.330953	3813.859737
857.644278	3833.976461
857.957561	3837.981658
858.270802	3839.047862
858.584000	3842.574149
858.897155	3834.334383
859.210268	3814.920899
859.523339	3792.268475
859.836367	3791.761839
860.149352	3783.448976
860.462295	3776.139303
860.775195	3766.167901
861.088054	3762.313938
861.400869	3763.964916
861.713642	3757.824791
862.026373	3774.130403
862.339062	3782.307155
862.651708	3801.256852
862.964312	3834.475535
863.276873	3851.318030
863.589392	3904.066143
863.901869	3952.236889
864.214303	3996.631810
864.526696	4031.715721
864.839045	4078.114501
865.151353	4102.927060
865.463619	4110.186321
865.775842	4116.654122
866.088023	4140.521465
866.400162	4124.979587
866.712258	4132.818582
867.024313	4134.527533
867.336325	4131.066781
867.648296	4135.969303
867.960224	4134.404024
868.272110	4149.066220
868.583954	4154.046880
868.895755	4166.397707
869.207515	4160.713806
869.519233	4205.801886
869.830909	4214.482753
870.142542	4244.885952
870.454134	4255.515225
870.765684	4282.939102
871.077191	4321.072910
871.388657	4343.853884
871.700081	4385.057755
872.011463	4429.452677
872.322803	4462.716730
872.634101	4493.765197
872.945357	4533.053429
873.256571	4591.697172
873.567744	4623.663129
873.878874	4639.303308
874.189963	4672.521992
874.501010	4685.510525
874.812015	4686.672511
875.122979	4726.205239
875.433900	4726.681628
875.744780	4737.789811
876.055618	4762.163789
876.366415	4763.827370
876.677169	4784.526348
876.987882	4830.257175
877.298554	4880.792222
877.609183	4962.388338
877.919771	5070.473197
878.230317	5216.961566
878.540822	5427.618782
878.851285	5758.076499
879.161707	6211.354368
879.472087	6973.700338
879.782425	8205.521403
880.092722	10401.047247
880.402977	13733.804466
880.713191	17535.504940
881.023363	21289.372425
881.333494	23537.936248
881.643583	24772.061121
881.953631	24746.807461
882.263637	23876.381673
882.573602	22364.680787
882.883526	20785.065477
883.193408	19095.928578
883.503248	17379.907206
883.813048	15819.425594
884.122806	14382.341347
884.432522	12912.759301
884.742197	11635.915690
885.051831	10543.366582
885.361424	9535.949959
885.670975	8722.390907
885.980485	8027.624125
886.289954	7456.572300
886.599382	6982.350958
886.908768	6606.507733
887.218113	6245.931642
887.527417	5954.043793
887.836680	5691.379513
888.145901	5468.341223
888.455082	5310.059075
888.764221	5154.272297
889.073319	5022.292369
889.382376	4950.561791
889.691392	4893.291763
890.000366	4868.249831
890.309300	4854.333726
890.618193	4856.554354
890.927044	4842.262683
891.235855	4862.092062
891.544625	4895.391403
891.853353	4955.580260
892.162041	5073.666768
892.470687	5263.866982
892.779293	5508.383108
893.087858	5889.002826
893.396381	6463.530527
893.704864	7271.330061
894.013306	8435.193852
894.321707	9634.847315
894.630068	10469.647269
894.938387	10673.592189
895.246665	10427.659498
895.554903	9823.078959
895.863100	9110.345504
896.171256	8547.369608
896.479371	8029.358282
896.787446	7531.826645
897.095480	7094.136024
897.403473	6777.163393
897.711425	6453.055010
898.019336	6187.678589
898.327207	5917.790335
898.635038	5687.175191
898.942827	5440.143529
899.250576	5240.886882
899.558284	5044.193662
899.865952	4923.130352
900.173579	4769.586888
900.481165	4666.359181
900.788711	4569.846291
901.096216	4498.198892
901.403681	4434.035086
901.711105	4412.063217
902.018489	4394.464548
902.325832	4469.779387
902.633135	4591.412347
902.940397	4936.383546
903.247619	5733.069856
903.554800	7188.375354
903.861941	9114.320454
904.169041	10655.212142
904.476101	11292.829883
904.783121	10923.179716
905.090100	10167.546042
905.397039	9325.179317
905.703938	8561.706649
906.010796	7864.212603
906.317614	7309.110988
906.624391	6772.328927
906.931129	6345.186920
907.237826	5947.225633
907.544483	5572.284774
907.851099	5197.835428
908.157675	4841.173794
908.464211	4513.828989
908.770707	4279.957259
909.077163	4075.513265
909.383578	3931.464815
909.689954	3817.817042
909.996289	3748.670056
910.302584	3685.388451
910.608839	3653.949295
910.915054	3623.430150
911.221229	3607.774847
911.527363	3618.668780
911.833458	3634.283754
912.139513	3660.908608
912.445527	3689.418854
912.751502	3771.660238
913.057436	3875.956670
913.363331	4010.883152
913.669186	4215.206159
913.975000	4473.764419
914.280775	4892.956526
914.586510	5474.214167
914.892205	6275.992042
915.197859	7324.231929
915.503475	8563.554232
915.809050	9639.039035
916.114585	10301.305498
916.420081	10564.516743
916.725536	10524.583243
917.030952	10079.461961
917.336328	9662.379577
917.641665	9239.701512
917.946961	8753.343592
918.252218	8328.422214
918.557435	7810.597411
918.862612	7379.140177
919.167750	7005.542786
919.472848	6572.711837
919.777906	6196.261153
920.082925	5837.283108
920.387904	5464.278053
920.692843	5201.465059
920.997743	4955.340805
921.302603	4717.300041
921.607423	4553.079413
921.912204	4387.999269
922.216946	4271.299078
922.521647	4144.874501
922.826310	4044.870612
923.130932	3949.257567
923.435516	3849.863657
923.740059	3780.943523
924.044564	3702.246070
924.349028	3645.684324
924.653454	3579.569591
924.957840	3510.253726
925.262186	3463.386118
925.566493	3402.940163
925.870761	3343.570494
926.174989	3308.504228
926.479178	3274.095833
926.783328	3229.637897
927.087438	3205.009340
927.391509	3167.664472
927.695541	3138.771099
927.999533	3111.551388
928.303486	3092.221084
928.607400	3074.645101
928.911275	3063.922567
929.215110	3047.102757
929.518906	3038.159750
929.822663	3040.866850
930.126381	3037.716129
930.430060	3044.809032
930.733699	3046.707027
931.037299	3057.134653
931.340861	3053.578119
931.644383	3061.512895
931.947866	3060.454253
932.251309	3055.662636
932.554714	3055.813871
932.858080	3051.533931
933.161407	3039.193187
933.464694	3033.965510
933.767943	3022.877492
934.071153	3022.537214
934.374323	3011.822242
934.677455	3006.211438
934.980548	2995.355313
935.283602	2989.472286
935.586617	2990.246103
935.889593	2998.584172
936.192530	3003.975686
936.495428	3018.529497
936.798287	3037.517003
937.101108	3074.816500
937.403890	3127.231897
937.706632	3189.154911
938.009336	3272.286058
938.312002	3348.914117
938.614628	3411.779826
938.917216	3463.310501
939.219765	3493.164214
939.522275	3527.020603
939.824747	3532.391953
940.127179	3526.922301
940.429573	3522.786034
940.731929	3516.850075
941.034246	3504.436234
941.336524	3490.111795
941.638763	3475.704178
941.940964	3461.435192
942.243126	3416.218562
942.545250	3393.611508
942.847335	3355.346630
943.149381	3318.831032
943.451389	3286.333233
943.753359	3251.980291
944.055290	3224.236300
944.357182	3202.130841
944.659036	3186.001669
944.960851	3178.238292
945.262628	3164.017197
945.564367	3166.318484
945.866067	3159.575941
946.167729	3156.619304
946.469352	3156.556289
946.770937	3151.439518
947.072484	3135.592651
947.373992	3140.754793
947.675462	3130.962351
947.976893	3111.432921
948.278286	3105.002930
948.579641	3098.731734
948.880958	3089.874427
949.182236	3094.015735
949.483476	3087.991556
949.784678	3088.359560
950.085841	3091.278388
950.386967	3099.510593
950.688054	3120.108747
950.989103	3136.505100
951.290114	3160.939573
951.591087	3188.713810
951.892021	3219.782441
952.192917	3242.276069
952.493776	3268.593413
952.794596	3278.148920
953.095378	3283.744601
953.396122	3279.930968
953.696828	3272.913682
953.997496	3261.770211
954.298126	3234.868094
954.598718	3212.926472
954.899272	3187.183820
955.199788	3159.565858
955.500266	3127.020169
955.800706	3094.166969
956.101108	3052.799261
956.401472	3022.481762
956.701798	2987.412975
957.002087	2948.661625
957.302337	2918.999476
957.602550	2888.815568
957.902724	2860.443954
958.202861	2836.758092
958.502960	2814.534166
958.803022	2792.746299
959.103045	2774.416663
959.403031	2756.714652
959.702979	2742.675038
960.002889	2733.071640
960.302762	2718.989177
960.602596	2706.025850
960.902393	2696.049406
961.202153	2689.377439
961.501875	2681.140194
961.801559	2676.472085
962.101205	2668.565035
962.400814	2667.055210
962.700385	2658.674292
962.999918	2648.365132
963.299414	2643.881026
963.598873	2644.697692
963.898293	2634.721249
964.197677	2639.918679
964.497022	2633.309726
964.796331	2632.717390
965.095601	2628.124899
965.394835	2625.876545
965.694030	2627.698922
965.993189	2622.511574
966.292309	2622.330093
966.591393	2624.578447
966.890439	2623.010649
967.189447	2618.849176
967.488419	2620.537963
967.787353	2625.977368
968.086249	2624.734723
968.385108	2627.693881
968.683930	2627.734210
968.982714	2633.080353
969.281462	2636.772999
969.580172	2643.767600
969.878844	2649.751449
970.177480	2657.477017
970.476078	2663.733089
970.774639	2673.762465
971.073162	2680.714216
971.371649	2685.878878
971.670098	2690.496575
971.968510	2698.209541
972.266885	2698.214582
972.565223	2703.517876
972.863524	2708.579194
973.161788	2708.576673
973.460014	2712.443238
973.758204	2716.811398
974.056356	2717.134032
974.354471	2722.331462
974.652550	2720.869527
974.950591	2716.503888
975.248595	2715.631768
975.546563	2715.541027
975.844493	2712.866695
976.142386	2705.781354
976.440243	2697.702905
976.738062	2695.323480
977.035845	2690.209229
977.333590	2681.964422
977.631299	2676.663649
977.928971	2672.492094
978.226606	2665.099242
978.524204	2661.141936
978.821765	2659.193530
979.119290	2659.758140
979.416777	2659.218736
979.714228	2661.489776
980.011642	2666.692247
980.309020	2672.774399
980.606360	2690.204188
980.903664	2714.366439
981.200931	2745.906418
981.498162	2794.528347
981.795356	2872.903165
982.092513	2963.729634
982.389633	3069.823237
982.686717	3163.994512
982.983764	3241.484608
983.280775	3291.691980
983.577749	3297.675830
983.874686	3282.779220
984.171587	3247.660022
984.468451	3208.399516
984.765279	3166.336128
985.062070	3119.954992
985.358824	3070.193762
985.655543	3016.245854
985.952224	2965.975468
986.248869	2897.456105
986.545478	2838.898062
986.842050	2781.804474
987.138586	2738.385016
987.435086	2700.026877
987.731549	2669.129645
988.027975	2642.192239
988.324366	2627.381329
988.620719	2611.055552
988.917037	2599.695312
989.213318	2590.865731
989.509563	2584.874320
989.805772	2579.026581
990.101944	2576.720253
990.398080	2573.798905
990.694180	2571.374110
990.990244	2572.730180
991.286271	2571.953842
991.582262	2575.003741
991.878217	2575.936354
992.174136	2580.788465
992.470019	2581.456417
992.765865	2586.951275
993.061676	2589.933118
993.357450	2598.303954
993.653188	2606.813421
993.948890	2622.924949
994.244556	2643.565953
994.540186	2665.416835
994.835780	2697.287009
995.131337	2735.914851
995.426859	2777.837086
995.722345	2827.258038
996.017795	2873.399719
996.313208	2913.968405
996.608586	2944.532920
996.903928	2955.482307
997.199234	2954.685804
997.494504	2954.385856
997.789738	2937.752568
998.084936	2909.940523
998.380099	2881.705020
998.675225	2852.680577
998.970316	2822.370639
999.265371	2784.395627
999.560390	2749.294073
999.855373	2716.501367
1000.150320	2686.829136
1000.445232	2662.855929
1000.740108	2641.552012
1001.034948	2621.541152
1001.329752	2607.148658
1001.624521	2596.022832
1001.919254	2584.460945
1002.213951	2577.269739
1002.508613	2568.283882
1002.803239	2560.523026
1003.097829	2556.059084
1003.392384	2550.977601
1003.686903	2547.204298
1003.981386	2540.088709
1004.275834	2536.411187
1004.570246	2536.930426
1004.864623	2536.227185
1005.158964	2532.466484
1005.453270	2528.920033
1005.747540	2529.610671
1006.041775	2528.216792
1006.335974	2523.904085
1006.630138	2522.628673
1006.924266	2524.778725
1007.218359	2522.595905
1007.512416	2521.751512
1007.806438	2516.778414
1008.100425	2520.105575
1008.394376	2515.593742
1008.688292	2521.307890
1008.982172	2517.751356
1009.276017	2520.161028
1009.569827	2517.776562
1009.863602	2518.752025
1010.157341	2517.199350
1010.451045	2516.201202
1010.744714	2511.792712
1011.038347	2513.226921
1011.331945	2511.729698
1011.625508	2511.333968
1011.919036	2510.217352
1012.212528	2513.274812
1012.505986	2511.220542
1012.799408	2509.430932
1013.092795	2509.219203
1013.386147	2508.952022
1013.679464	2506.106291
1013.972745	2507.353977
1014.265992	2506.542351
1014.559204	2509.133504
1014.852380	2504.518328
1015.145521	2506.680983
1015.438628	2506.209635
1015.731699	2507.167454
1016.024736	2508.929337
1016.317737	2510.547548
1016.610703	2512.276663
1016.903635	2513.219359
1017.196531	2513.476458
1017.489393	2512.783299
1017.782219	2514.144411
1018.075011	2516.664988
1018.367768	2517.174144
1018.660490	2519.682118
1018.953177	2519.682118
1019.245829	2519.682118
