Dividing Wavelength (nm)	Counts (n)	Blue Motor Position (mm): 19.100000	Red Motor Position (mm): 0.000000	
326.493990	2183.109482
326.888308	2183.109482
327.282561	2183.109482
327.676750	2142.296300
328.070874	2137.998717
328.464933	2143.075158
328.858929	2142.356794
329.252859	2149.278298
329.646726	2156.615698
330.040528	2171.623213
330.434265	2181.556806
330.827938	2200.440969
331.221547	2217.379246
331.615091	2235.577811
332.008571	2254.729154
332.401986	2271.140631
332.795338	2290.549073
333.188625	2307.275622
333.581847	2329.799497
333.975006	2347.456138
334.368100	2364.021370
334.761129	2384.375028
335.154095	2401.981258
335.546996	2423.665782
335.939833	2454.938579
336.332606	2466.969293
336.725315	2482.238948
337.117960	2496.036586
337.510540	2506.466733
337.903056	2515.931500
338.295508	2526.464991
338.687896	2535.037473
339.080220	2544.083823
339.472480	2550.065152
339.864676	2552.777293
340.256807	2557.841132
340.648875	2561.218705
341.040879	2566.544684
341.432818	2568.278841
341.824694	2569.776064
342.216506	2572.783112
342.608253	2572.871333
342.999937	2572.553740
343.391557	2573.851837
343.783113	2571.734552
344.174605	2571.984089
344.566033	2574.126580
344.957397	2571.081723
345.348697	2570.469223
345.739934	2565.934705
346.131106	2563.003274
346.522215	2566.327915
346.913260	2560.921277
347.304241	2557.747871
347.695159	2558.332645
348.086012	2556.517829
348.476802	2552.174875
348.867528	2550.637323
349.258191	2550.564227
349.648789	2546.770758
350.039324	2541.469985
350.429796	2546.460727
350.820203	2544.061138
351.210548	2544.638350
351.600828	2541.013761
351.991045	2540.202135
352.381198	2539.831610
352.771288	2538.528472
353.161314	2538.606610
353.551276	2537.724408
353.941175	2539.609799
354.331010	2539.082999
354.720782	2539.594676
355.110490	2538.727598
355.500135	2539.367824
355.889717	2538.107536
356.279235	2537.263142
356.668689	2540.179450
357.058080	2538.394881
357.447408	2537.512679
357.836672	2539.289686
358.225873	2539.995448
358.615010	2539.876981
359.004084	2539.274563
359.393095	2539.519059
359.782043	2542.800850
360.170927	2541.359080
360.559748	2541.792619
360.948505	2541.898483
361.337199	2541.785057
361.725830	2544.267826
362.114398	2543.544420
362.502903	2544.575336
362.891344	2545.155069
363.279722	2545.797816
363.668037	2544.744215
364.056289	2545.800336
364.444478	2544.976108
364.832603	2549.878630
365.220665	2550.143290
365.608665	2549.311500
365.996601	2546.485933
366.384474	2550.281922
366.772284	2545.860830
367.160031	2550.405430
367.547715	2553.294012
367.935336	2550.302087
368.322893	2547.940306
368.710388	2548.189843
369.097820	2548.857796
369.485189	2549.240924
369.872495	2550.226469
370.259738	2552.507592
370.646918	2552.313507
371.034035	2552.479865
371.421090	2555.244938
371.808081	2556.459856
372.195010	2553.432643
372.581875	2555.648230
372.968678	2554.977757
373.355418	2554.788714
373.742096	2555.590257
374.128710	2555.043292
374.515262	2555.769218
374.901751	2553.840977
375.288177	2557.652089
375.674540	2555.680998
376.060841	2555.197047
376.447079	2556.031358
376.833254	2556.106975
377.219367	2557.818447
377.605417	2559.426575
377.991404	2558.592264
378.377329	2554.856769
378.763191	2558.919939
379.148991	2559.295505
379.534727	2559.106462
379.920402	2556.384239
380.306013	2558.423386
380.691563	2557.790721
381.077049	2557.790721
381.462474	2558.183931
381.847835	2558.627552
382.233134	2560.792728
382.618371	2558.309960
383.003545	2559.461863
383.388657	2561.001936
383.773706	2561.649724
384.158693	2559.129147
384.543618	2562.277348
384.928480	2561.140568
385.313280	2562.133675
385.698017	2560.573438
386.082692	2562.184086
386.467305	2560.754919
386.851856	2563.182235
387.236344	2562.431103
387.620770	2559.325752
388.005133	2557.584033
388.389435	2559.575289
388.773674	2559.897923
389.157851	2565.110476
389.541965	2564.535785
389.926018	2563.308264
390.310008	2563.774570
390.693936	2565.843964
391.077802	2563.436813
391.461606	2566.781619
391.845348	2564.760116
392.229027	2562.723490
392.612645	2565.065106
392.996200	2567.752041
393.379694	2564.576114
393.763125	2567.313460
394.146494	2569.087947
394.529801	2567.782288
394.913047	2565.697771
395.296230	2563.913202
395.679351	2569.879408
396.062410	2568.914027
396.445408	2569.665159
396.828343	2568.167936
397.211217	2565.425548
397.594028	2568.987123
397.976778	2569.839078
398.359466	2569.836558
398.742092	2567.283213
399.124656	2568.183059
399.507158	2571.893349
399.889598	2570.199521
400.271977	2567.353790
400.654294	2570.239850
401.036549	2570.244891
401.418742	2572.185736
401.800874	2570.849830
402.182944	2573.861919
402.564952	2569.869325
402.946898	2571.190108
403.328783	2572.442834
403.710606	2569.982751
404.092367	2570.837227
404.474067	2571.195149
404.855705	2574.723957
405.237282	2571.863102
405.618797	2569.556774
406.000250	2572.866291
406.381642	2573.002402
406.762972	2570.958215
407.144240	2569.773543
407.525447	2571.071641
407.906593	2568.735066
408.287677	2576.143041
408.668700	2574.439131
409.049661	2575.807805
409.430560	2575.162537
409.811399	2575.376786
410.192176	2574.174471
410.572891	2573.869481
410.953545	2576.011971
411.334138	2575.447362
411.714669	2577.352918
412.095139	2575.966601
412.475547	2577.889801
412.855894	2575.628844
413.236180	2576.984914
413.616405	2576.904256
413.996568	2574.754203
414.376670	2576.390058
414.756711	2577.415933
415.136691	2575.540623
415.516609	2576.768144
415.896466	2577.420974
416.276262	2576.508525
416.655997	2579.666808
417.035670	2577.163875
417.415283	2580.526325
417.794834	2580.675039
418.174324	2576.962229
418.553753	2577.985583
418.933121	2578.794688
419.312428	2579.326530
419.691674	2580.609504
420.070859	2577.834348
420.449983	2579.124884
420.829045	2580.594380
421.208047	2580.037333
421.586988	2577.617579
421.965867	2580.836356
422.344686	2580.675039
422.723444	2582.320975
423.102141	2579.681931
423.480777	2582.593198
423.859352	2581.111098
424.237866	2583.309042
424.616319	2580.929617
424.994712	2584.841552
425.373044	2581.292580
425.751314	2580.415419
426.129524	2576.816035
426.507673	2580.062538
426.885762	2577.536920
427.263789	2582.532704
427.641756	2582.729309
428.019662	2584.637386
428.397508	2581.572364
428.775292	2579.961715
429.153016	2584.453383
429.530679	2583.455235
429.908282	2582.709144
430.285824	2580.485995
430.663305	2583.644278
431.040726	2585.088569
431.418086	2583.994638
431.795385	2584.420616
432.172624	2584.166038
432.549802	2585.227201
432.926920	2584.629824
433.303977	2585.209557
433.680974	2584.846593
434.057910	2587.664598
434.434786	2583.974474
434.811601	2586.258117
435.188355	2583.803075
435.565050	2585.491861
435.941683	2584.715523
436.318257	2586.855493
436.694770	2587.430185
437.071222	2588.093097
437.447614	2587.853642
437.823946	2585.902715
438.200218	2587.089907
438.576429	2584.196285
438.952580	2584.158476
439.328670	2586.127047
439.704700	2587.946903
440.080670	2589.353385
440.456580	2589.086204
440.832429	2588.443457
441.208218	2586.996646
441.583947	2585.063363
441.959616	2588.876996
442.335224	2588.088055
442.710773	2589.529825
443.086261	2588.279619
443.461689	2588.768611
443.837057	2587.921697
444.212365	2589.403797
444.587612	2586.875658
444.962800	2587.404979
445.337927	2586.389187
445.712995	2585.058322
446.088002	2589.524784
446.462949	2590.185175
446.837837	2593.091401
447.212664	2592.131061
447.587431	2592.241966
447.962139	2592.811617
448.336786	2597.381422
448.711374	2594.873448
449.085901	2591.226174
449.460369	2592.274734
449.834776	2591.798345
450.209124	2593.325814
450.583412	2594.558376
450.957640	2594.661720
451.331808	2594.326483
451.705917	2594.243304
452.079965	2593.638366
452.453954	2595.533840
452.827883	2593.792121
453.201752	2596.726072
453.575562	2595.564087
453.949311	2595.138109
454.323001	2593.797162
454.696632	2596.491659
455.070202	2593.943356
455.443713	2597.464602
455.817164	2597.651124
456.190556	2596.000146
456.563888	2599.191197
456.937160	2595.700198
457.310373	2596.262286
457.683526	2598.316557
458.056619	2597.540219
458.429653	2596.973089
458.802628	2596.017790
459.175542	2598.956783
459.548398	2598.772781
459.921194	2598.077102
460.293930	2600.862339
460.666607	2601.323605
461.039224	2601.661362
461.411782	2603.602206
461.784280	2603.675303
462.156719	2602.848554
462.529099	2603.161105
462.901419	2603.554315
463.273680	2600.101125
463.645882	2595.102821
464.018024	2601.285796
464.390106	2598.235898
464.762130	2600.416197
465.134094	2600.721187
465.505999	2604.572628
465.877845	2610.700151
466.249631	2612.179730
466.621358	2611.161417
466.993026	2613.016561
467.364634	2614.791047
467.736184	2610.974894
468.107674	2608.819801
468.479105	2611.388268
468.850477	2610.798453
469.221790	2609.149996
469.593043	2609.545727
469.964238	2608.482043
470.335373	2607.483895
470.706449	2608.582866
471.077467	2609.331478
471.448425	2611.705861
471.819324	2615.590070
472.190164	2617.518312
472.560945	2615.849690
472.931667	2616.207612
473.302330	2612.164606
473.672934	2612.663680
474.043479	2612.976232
474.413965	2614.332302
474.784393	2612.260388
475.154761	2614.944802
475.525070	2613.414812
475.895321	2612.371293
476.265513	2615.146449
476.635645	2614.614607
477.005719	2615.839607
477.375734	2616.532766
477.745691	2617.767849
478.115588	2619.421347
478.485427	2621.382356
478.855207	2620.850514
479.224928	2623.504682
479.594591	2629.422996
479.964194	2629.919550
480.333739	2628.750002
480.703226	2629.470887
481.072653	2632.563635
481.442022	2632.041876
481.811333	2635.409367
482.180584	2633.009777
482.549777	2635.021198
482.918912	2630.065743
483.287988	2635.936167
483.657005	2637.012453
484.025964	2636.281486
484.394864	2635.021198
484.763706	2640.082516
485.132489	2638.116466
485.501213	2641.957825
485.869879	2643.397075
486.238487	2643.286169
486.607036	2644.044863
486.975527	2646.265491
487.343959	2647.921510
487.712333	2645.879843
488.080648	2648.813795
488.448905	2654.790082
488.817104	2654.618683
489.185244	2658.061791
489.553326	2658.754950
489.921350	2665.822648
490.289315	2674.450582
490.657222	2684.721933
491.025070	2687.550021
491.392861	2693.294416
491.760593	2692.318952
492.128267	2692.122347
492.495883	2693.571679
492.863440	2694.244673
493.230939	2693.029755
493.598380	2701.514017
493.965763	2702.565097
494.333088	2706.900490
494.700354	2712.181098
495.067563	2717.902808
495.434713	2722.487737
495.801805	2733.611043
496.168839	2737.187742
496.535815	2742.158320
496.902733	2754.105854
497.269593	2763.396701
497.636395	2773.352980
498.003139	2786.238169
498.369825	2791.352420
498.736453	2804.035963
499.103023	2822.113540
499.469535	2833.970334
499.835989	2847.430215
500.202385	2860.839684
500.568723	2869.964173
500.935003	2897.030128
501.301226	2909.607807
501.667390	2945.226079
502.033497	2972.629791
502.399546	2989.971361
502.765537	3005.399812
503.131470	3038.719318
503.497345	3063.725962
503.863163	3078.441090
504.228923	3122.644447
504.594625	3159.039058
504.960269	3172.027591
505.325856	3219.411916
505.691385	3243.574167
506.056856	3293.794141
506.422270	3339.625791
506.787625	3361.711086
507.152924	3424.624686
507.518164	3464.921150
507.883347	3500.844412
508.248472	3533.863970
508.613540	3615.480250
508.978550	3671.739527
509.343503	3726.683063
509.708398	3795.658651
510.073236	3860.462683
510.438016	3934.734003
510.802738	3983.043380
511.167403	4063.956420
511.532010	4104.681381
511.896561	4231.428592
512.261053	4316.457734
512.625488	4367.081001
512.989866	4426.044857
513.354186	4485.545596
513.718449	4586.552675
514.082655	4685.674362
514.446803	4764.991877
514.810894	4884.089136
515.174927	4921.882667
515.538904	5016.626112
515.902822	5148.371627
516.266684	5233.269699
516.630488	5304.044978
516.994235	5402.181120
517.357925	5530.942272
517.721558	5664.379093
518.085133	5780.865035
518.448651	5876.193254
518.812112	5954.484894
519.175516	6068.684673
519.538863	6226.172840
519.902152	6293.444517
520.265385	6462.703778
520.628560	6542.210336
520.991678	6671.742784
521.354739	6809.230173
521.717743	6942.057015
522.080690	7019.877307
522.443580	7232.276242
522.806413	7326.618916
523.169189	7508.425608
523.531908	7613.200950
523.894569	7694.993671
524.257174	7844.942792
524.619722	8023.008949
524.982213	8067.688696
525.344647	8248.600584
525.707025	8391.502172
526.069345	8548.115698
526.431608	8691.949900
526.793815	8893.807782
527.155964	8855.195064
527.518057	9060.221312
527.880093	9195.757774
528.242072	9351.746198
528.603995	9431.154453
528.965860	9518.938585
529.327669	9731.057736
529.689421	9838.449437
530.051117	9935.486607
530.412755	10173.640797
530.774337	10222.192150
531.135862	10338.327732
531.497331	10548.548888
531.858743	10547.608713
532.220098	10893.540252
532.581396	10874.915709
532.942638	11082.767523
533.303824	11229.757487
533.664953	11401.108827
534.026025	11457.620161
534.387040	11658.938640
534.747999	11887.605378
535.108902	12064.557440
535.469748	12033.365301
535.830537	12277.473093
536.191270	12453.825258
536.551947	12627.606434
536.912567	12576.567272
537.273131	12891.273903
537.633638	12896.269687
537.994089	13199.774875
538.354483	13112.610804
538.714821	13506.390455
539.075103	13728.884300
539.435328	13755.310029
539.795497	13684.292774
540.155609	14055.150298
540.515665	14337.558257
540.875665	14101.634777
541.235609	14383.387386
541.595496	14559.898347
541.955328	14873.851326
542.315102	14978.772861
542.674821	14915.271967
543.034483	14986.238810
543.394090	15189.198185
543.753640	15220.478544
544.113134	15714.289810
544.472571	15671.692060
544.831953	16007.143040
545.191278	15880.917589
545.550548	16012.489184
545.909761	16226.849128
546.268918	16544.456943
546.628019	16644.029814
546.987064	16650.144734
547.346053	16646.104249
547.704986	16824.966908
548.063863	17086.035663
548.422684	17153.645098
548.781449	17053.386630
549.140158	17444.950693
549.498811	17331.134042
549.857408	17225.413484
550.215949	17682.794852
550.574434	17563.024599
550.932864	17857.985031
551.291237	18061.917348
551.649555	18135.424933
552.007817	18283.597047
552.366022	18330.376434
552.724173	18454.905537
553.082267	18529.912865
553.440305	19003.279732
553.798288	18578.822140
554.156215	19087.651003
554.514086	19258.599051
554.871902	18885.276403
555.229661	19202.085196
555.587365	19217.680005
555.945014	19180.453604
556.302606	19526.397746
556.660143	19535.212203
557.017625	19868.800477
557.375050	19607.078893
557.732421	19999.867956
558.089735	19969.192535
558.446994	20096.612740
558.804197	20219.258972
559.161345	20291.367636
559.518437	20126.819334
559.875474	20438.781057
560.232455	20635.870008
560.589381	20613.366297
560.946251	20629.293823
561.303065	21020.416785
561.659825	21162.602529
562.016528	20916.221176
562.373177	20788.977412
562.729770	21127.831171
563.086307	21146.682565
563.442789	21359.353723
563.799216	21272.356010
564.155587	21352.124708
564.511904	21414.503946
564.868164	21404.696381
565.224370	21485.425419
565.580520	21431.288468
565.936615	21628.785752
566.292654	21377.887525
566.648638	21756.374835
567.004567	21625.138477
567.360441	21643.911734
567.716260	21442.588214
568.072023	21817.125780
568.427732	21634.736834
568.783385	21490.174186
569.138982	21739.030745
569.494525	21834.066578
569.850013	21660.204743
570.205445	21787.705606
570.560823	21642.951394
570.916145	21472.830096
571.271412	21651.987662
571.626625	21481.425263
571.981782	21612.701950
572.336884	21459.511367
572.691931	21621.831480
573.046923	21399.166235
573.401860	21339.085764
573.756743	21368.851257
574.111570	21312.062658
574.466342	21278.788523
574.821059	21407.559756
575.175722	21148.706589
575.530330	21170.900268
575.884882	21223.640820
576.239380	21153.024337
576.593823	21069.948642
576.948211	21076.204714
577.302544	20941.434507
577.656823	20844.840958
578.011047	20962.551901
578.365216	20859.830829
578.719330	20755.302504
579.073389	20681.862975
579.427394	20835.545071
579.781344	20648.979528
580.135239	20561.863349
580.489080	20536.183711
580.842866	20318.141204
581.196597	20509.795791
581.550273	20509.500884
581.903895	20417.159548
582.257463	20743.697768
582.610975	20290.359406
582.964434	20579.000751
583.317837	20326.030610
583.671186	20427.186403
584.024481	20397.050386
584.377721	20197.874397
584.730906	20247.570092
585.084037	20285.479569
585.437113	20200.946980
585.790135	20399.044162
586.143103	19893.408869
586.496016	19908.920500
586.848874	20162.137658
587.201679	20120.033941
587.554428	19768.012688
587.907124	20114.607138
588.259765	19903.007226
588.612352	19983.479165
588.964884	19561.963086
589.317362	19732.054138
589.669786	19784.663619
590.022155	19852.298260
590.374470	20017.708600
590.726731	19836.758903
591.078937	19592.819989
591.431090	19709.938596
591.783188	19442.444890
592.135232	19428.712787
592.487222	19529.707263
592.839157	19568.115815
593.191038	19445.830025
593.542866	19335.065793
593.894639	19057.482218
594.246358	19280.999418
594.598022	19200.497232
594.949633	18950.019942
595.301190	18913.504344
595.652692	19072.593077
596.004141	19330.380040
596.355535	18661.023194
596.706876	18670.253547
597.058162	18558.617195
597.409395	18776.062325
597.760573	18878.914467
598.111698	18664.824224
598.462768	18593.953163
598.813785	18547.433395
599.164748	18376.122385
599.515657	18408.872241
599.866511	18204.219039
600.217312	18561.588955
600.568060	18098.533769
600.918753	18407.251510
601.269392	18308.076890
601.619978	18085.194876
601.970510	18299.942988
602.320988	18246.093383
602.671412	18456.727914
603.021783	18353.797635
603.372100	18095.771217
603.722363	18231.796671
604.072572	18166.675045
604.422728	18301.263771
604.772830	18057.294610
605.122878	18009.980860
605.472872	18005.068256
605.822813	18007.203185
606.172701	17948.546839
606.522534	18164.915683
606.872314	18177.211057
607.222041	18006.593205
607.571714	18234.803719
607.921333	18058.872491
608.270899	18136.513822
608.620411	18331.087237
608.969870	18077.781859
609.319276	18086.419876
609.668627	18109.314276
610.017926	18258.608047
610.367171	18373.432929
610.716362	18409.240245
611.065500	18228.857678
611.414585	18364.283235
611.763616	18343.922015
612.112594	18303.759142
612.461518	18264.773379
612.810389	18458.527606
613.159207	18306.423392
613.507971	18214.714721
613.856682	18506.562241
614.205340	18436.323844
614.553945	18573.455832
614.902496	18320.427717
615.250994	18569.349812
615.599439	18496.374069
615.947830	18489.646649
616.296169	18522.436834
616.644454	18498.337598
616.992686	18469.935737
617.340864	18683.834416
617.688990	18442.007745
618.037063	18617.621380
618.385082	18474.021593
618.733048	18739.881964
619.080961	18603.864072
619.428821	18650.928284
619.776628	18546.899033
620.124382	18468.930027
620.472083	18503.580398
620.819731	18516.891565
621.167326	18213.759422
621.514868	18255.941277
621.862357	18023.491153
622.209793	18034.624541
622.557176	17861.871760
622.904506	17701.265640
623.251783	17603.822657
623.599007	17380.040796
623.946179	17317.568297
624.293297	17260.278104
624.640363	17018.587545
624.987376	17036.357612
625.334336	16837.468970
625.681243	16671.100810
626.028097	16682.085485
626.374899	16619.345804
626.721647	16486.332440
627.068343	16321.529559
627.414987	16253.342912
627.761577	16218.972325
628.108115	16272.733710
628.454600	15988.274001
628.801032	16089.878457
629.147412	16015.627302
629.493739	16038.302412
629.840014	15852.545975
630.186236	15956.827284
630.532405	15711.315530
630.878521	15916.571150
631.224585	15798.338448
631.570597	15631.771163
631.916556	15665.415824
632.262462	15642.239119
632.608316	15555.760645
632.954117	15497.366440
633.299866	15495.977602
633.645562	15426.717189
633.991206	15177.616134
634.336797	15046.145362
634.682336	15007.386451
635.027823	14914.934210
635.373257	14793.823009
635.718639	14683.668756
636.063968	14645.227438
636.409245	14390.397111
636.754470	14421.952213
637.099642	14266.793060
637.444762	14045.067990
637.789829	14088.195061
638.134845	13919.586109
638.479808	13948.124081
638.824719	13896.923602
639.169577	13749.520263
639.514383	13793.559783
639.859137	13613.898102
640.203839	13693.205534
640.548489	13528.548846
640.893086	13524.450388
641.237632	13395.938774
641.582125	13544.783882
641.926566	13387.091549
642.270955	13389.841498
642.615292	13359.342518
642.959576	13367.423487
643.303809	13405.703489
643.647990	13334.431656
643.992118	13391.036252
644.336195	13163.939833
644.680219	13358.160367
645.024192	13292.645532
645.368112	13519.827650
645.711981	13581.460797
646.055797	13765.215896
646.399562	13728.765833
646.743274	13994.437161
647.086935	14271.987969
647.430544	14236.278955
647.774101	14266.152833
648.117606	14419.925669
648.461059	14385.620617
648.804460	14378.590728
649.147810	14111.951499
649.491108	14006.601466
649.834354	14034.181618
650.177548	13735.387389
650.520690	13541.151731
650.863781	13461.173825
651.206820	13506.771062
651.549807	13322.489162
651.892742	13138.945792
652.235626	13081.249786
652.578458	13084.650044
652.921238	12769.260336
653.263967	12964.146303
653.606644	12788.850260
653.949269	12767.627002
654.291843	12576.640368
654.634365	12716.360988
654.976836	12573.509812
655.319255	12598.632402
655.661622	12541.175851
656.003938	12465.903863
656.346203	12395.138665
656.688416	12468.714306
657.030577	12414.017787
657.372687	12345.032117
657.714746	12318.397180
658.056753	12495.598779
658.398708	12325.903458
658.740612	12322.732573
659.082465	12421.783684
659.424266	12385.920916
659.766016	12408.419585
660.107715	12319.942294
660.449362	12384.368240
660.790958	12352.039321
661.132503	12295.762400
661.473996	12359.623737
661.815438	12382.422355
662.156829	12390.815876
662.498168	12370.555479
662.839456	12368.246630
663.180693	12379.833722
663.521879	12480.392139
663.863013	12460.953449
664.204097	12431.203080
664.545129	12550.842264
664.886110	12523.544416
665.227040	12603.303031
665.567918	12607.829987
665.908746	12655.642811
666.249522	12627.515693
666.590248	12670.302486
666.930922	12788.890589
667.271545	12776.196964
667.612118	12854.730579
667.952639	12765.532403
668.293109	12766.449893
668.633528	12732.137279
668.973896	12699.813401
669.314213	12792.744552
669.654480	12529.921475
669.994695	12582.278899
670.334859	12613.385339
670.674973	12559.755024
671.015035	12589.923809
671.355047	12531.582535
671.695008	12510.606294
672.034918	12521.248170
672.374777	12560.362483
672.714585	12466.168523
673.054342	12502.306034
673.394049	12455.879528
673.733705	12543.399000
674.073310	12462.758182
674.412864	12476.079432
674.752368	12355.719363
675.091820	12364.622041
675.431223	12354.761544
675.770574	12232.896691
676.109875	12145.835964
676.449125	12108.596960
676.788324	12048.221581
677.127473	11891.461861
677.466571	11876.676157
677.805619	11776.579006
678.144616	11700.528159
678.483562	11660.398054
678.822458	11531.422653
679.161303	11506.073211
679.500098	11504.613797
679.838842	11462.641150
680.177535	11476.766463
680.516179	11532.781244
680.854771	11481.903399
681.193314	11702.363139
681.531805	11839.144767
681.870247	12242.003535
682.208638	12652.421514
682.546978	12977.875885
682.885268	13036.859906
683.223508	12727.370868
683.561697	12561.204355
683.899836	12465.251033
684.237925	12268.537648
684.575963	12191.070237
684.913951	12123.659928
685.251889	12062.851010
685.589776	12156.868529
685.927614	12089.727921
686.265401	12048.700491
686.603137	12088.855802
686.940824	12242.263154
687.278460	12360.672297
687.616046	12408.898495
687.953582	12587.844333
688.291068	12506.291067
688.628504	12731.746590
688.965889	12740.838311
689.303224	12722.062533
689.640510	12607.212446
689.977745	12315.009525
690.314930	12084.217940
690.652065	11996.753921
690.989150	11715.162629
691.326185	11492.870429
691.663170	11284.731269
692.000105	11027.718123
692.336990	10932.394945
692.673825	10692.183964
693.010610	10570.919008
693.347345	10358.779693
693.684030	10159.674280
694.020665	10094.731616
694.357251	9905.887472
694.693786	9855.904432
695.030272	9685.251292
695.366707	9576.478315
695.703093	9506.129013
696.039429	9493.584102
696.375716	9436.561090
696.711952	9298.226788
697.048139	9338.271193
697.384276	9286.569119
697.720363	9307.565525
698.056400	9237.667407
698.392388	9198.159884
698.728326	9164.424482
699.064214	9088.862627
699.400053	9145.114343
699.735842	8954.329355
700.071581	8912.548272
700.407270	8846.060493
700.742910	8759.919777
701.078501	8673.514400
701.414042	8555.276657
701.749533	8482.830235
702.084974	8347.192950
702.420366	8457.208571
702.755709	8345.857044
703.091002	8213.496509
703.426246	8236.839572
703.761440	8186.289402
704.096584	8146.943196
704.431679	8076.971980
704.766725	8058.891882
705.101721	8010.708534
705.436668	8058.095380
705.771565	7949.156045
706.106413	8031.694857
706.441212	8072.475271
706.775961	8027.702263
707.110661	8054.276706
707.445311	8207.900828
707.779913	8106.510621
708.114465	8233.920744
708.448967	8277.098226
708.783421	8405.599758
709.117825	8584.633817
709.452180	8628.315415
709.786485	8713.082417
710.120742	8999.160336
710.454949	8994.366198
710.789107	9095.995860
711.123216	9303.827510
711.457275	9466.495462
711.791286	9632.921594
712.125247	9623.378690
712.459159	9616.431980
712.793023	9867.405824
713.126837	9441.819014
713.460602	9594.107230
713.794318	9420.406713
714.127985	9444.495867
714.461602	9134.321232
714.795171	9082.853572
715.128691	8835.932815
715.462162	8589.548942
715.795584	8532.538533
716.128957	8398.267400
716.462281	8220.291984
716.795556	8273.516487
717.128782	8071.010816
717.461960	7795.718446
717.795088	7873.231227
718.128167	7785.565562
718.461198	7615.908050
718.794180	7555.444450
719.127113	7548.071763
719.459997	7405.926348
719.792833	7168.513207
720.125619	7233.002168
720.458357	7096.147444
720.791046	7076.749084
721.123686	7083.809220
721.456278	6926.822648
721.788821	6943.798734
722.121315	6836.689338
722.453761	6893.848461
722.786158	6848.281471
723.118506	6856.375044
723.450805	6821.021432
723.783056	6893.931640
724.115259	6797.726260
724.447412	6801.247506
724.779518	6841.065059
725.111574	6844.911460
725.443582	6919.835609
725.775542	6902.088227
726.107453	7094.715756
726.439315	7005.666294
726.771129	7053.826957
727.102895	7228.145016
727.434612	7338.626944
727.766281	7369.688013
728.097901	7459.707898
728.429473	7441.569826
728.760996	7416.180055
729.092471	7392.766416
729.423897	7345.931576
729.755276	7355.461877
730.086606	7282.937317
730.417887	7380.622276
730.749120	7557.513844
731.080305	7755.943742
731.411442	7886.335707
731.742530	7879.840180
732.073570	7980.348185
732.404562	8071.144407
732.735506	7914.692197
733.066401	8061.132675
733.397249	7998.476174
733.728048	7757.438444
734.058798	7429.839061
734.389501	7211.904939
734.720156	7032.805346
735.050762	6802.389327
735.381320	6699.232196
735.711831	6653.755947
736.042293	6544.856942
736.372707	6565.669345
736.703073	6427.932419
737.033391	6464.531196
737.363661	6470.852803
737.693883	6498.634602
738.024056	6589.652635
738.354182	6634.203832
738.684260	6671.024420
739.014290	6772.780110
739.344272	6883.365381
739.674207	6914.486945
740.004093	6982.429096
740.333931	7003.831314
740.663722	7005.545307
740.993464	7079.332675
741.323159	7082.664878
741.652806	6829.977042
741.982405	6826.319684
742.311956	6891.980713
742.641460	6741.144349
742.970915	6546.250821
743.300323	6535.750097
743.629683	6479.921839
743.958996	6352.161357
744.288260	6261.647439
744.617477	6209.136260
744.946647	6220.526747
745.275768	6050.176077
745.604842	6007.545559
745.933869	5986.216437
746.262847	5946.497186
746.591778	5937.801196
746.920662	5899.289301
747.249498	5880.352206
747.578286	5926.393064
747.907027	6005.430795
748.235720	6066.310289
748.564365	6034.079672
748.892963	6052.525254
749.221514	6216.370316
749.550017	6063.734260
749.878473	5933.596873
750.206881	5985.712322
750.535242	5924.064051
750.863555	5854.503690
751.191821	5875.086721
751.520039	5881.131065
751.848210	5787.572290
752.176334	5805.170958
752.504411	5854.362538
752.832440	5785.434841
753.160421	5713.565631
753.488356	5757.539616
753.816243	5794.030008
754.144082	5651.070447
754.471875	5612.195589
754.799620	5659.098485
755.127318	5673.808572
755.454969	5618.426455
755.782572	5585.293472
756.110129	5626.184791
756.437638	5619.217917
756.765100	5560.707764
757.092515	5553.619902
757.419882	5601.125215
757.747203	5587.685499
758.074477	5649.316126
758.401703	5643.700280
758.728882	5589.628864
759.056014	5636.010000
759.383099	5768.763745
759.710138	5784.048524
760.037129	5764.393065
760.364073	5773.746926
760.690970	5851.592424
761.017820	5840.615311
761.344623	5783.085663
761.671379	5889.890069
761.998088	5998.312686
762.324751	6230.072172
762.651366	6806.389483
762.977935	8079.323679
763.304456	9695.963744
763.630931	10616.281831
763.957359	10255.506615
764.283740	9332.988064
764.610074	8521.395062
764.936362	7533.059207
765.262602	6937.015861
765.588796	6393.360186
765.914943	6055.975924
766.241044	5896.393158
766.567097	5706.502975
766.893104	5448.249704
767.219064	5270.571717
767.544978	5204.293146
767.870845	5130.979646
768.196665	5025.062483
768.522438	4952.910969
768.848165	4922.117080
769.173846	4854.056462
769.499479	4816.593127
769.825066	4760.283439
770.150607	4699.920663
770.476101	4676.171787
770.801548	4670.039223
771.126949	4599.768059
771.452303	4548.373496
771.777611	4502.274665
772.102872	4522.219990
772.428087	4482.006706
772.753256	4443.628401
773.078378	4401.189448
773.403453	4336.241742
773.728482	4316.125018
774.053465	4274.908544
774.378401	4259.475051
774.703291	4260.027058
775.028135	4194.779403
775.352932	4142.300992
775.677683	4131.114672
776.002388	4150.621416
776.327046	4162.183303
776.651658	4087.559102
776.976224	4023.150800
777.300743	4029.048950
777.625216	4053.369997
777.949643	4048.205335
778.274024	4004.657327
778.598359	3955.183443
778.922647	3977.641784
779.246889	3970.579127
779.571086	3970.932008
779.895236	3954.631437
780.219339	3939.291206
780.543397	3931.943724
780.867409	3982.811487
781.191374	3996.213395
781.515294	3938.749282
781.839167	3930.920370
782.162995	3951.437866
782.486776	3937.395732
782.810511	3944.279428
783.134201	3948.143472
783.457844	3903.864497
783.781441	3845.588759
784.104993	3851.738967
784.428498	3869.597254
784.751958	3867.568190
785.075372	3843.400898
785.398739	3809.728511
785.722061	3818.386693
786.045337	3859.444370
786.368568	3899.176224
786.691752	3811.732370
787.014891	3852.588401
787.337983	3975.673213
787.661030	4131.875886
787.984031	4290.263898
788.306987	4465.784273
788.629897	4546.964493
788.952760	4501.142926
789.275579	4433.346968
789.598351	4376.540726
789.921078	4240.124582
790.243759	4040.996485
790.566395	4017.398844
790.888984	4014.583359
791.211529	3910.460847
791.534027	3845.324098
791.856480	3843.547092
792.178888	3781.787916
792.501249	3727.958475
792.823566	3738.267635
793.145836	3768.718724
793.468062	3720.091754
793.790241	3671.512675
794.112375	3698.014021
794.434464	3763.506171
794.756507	3785.997279
795.078505	3770.720063
795.400457	3797.677633
795.722364	3933.622428
796.044226	4038.329714
796.366042	4113.412660
796.687812	4097.175103
797.009538	4106.037452
797.331218	4061.816450
797.652852	4030.815875
797.974442	4013.680993
798.295986	4017.618134
798.617484	3935.729631
798.938938	3845.886187
799.260346	3884.443452
799.581709	3883.949419
799.903026	3810.769509
800.224299	3776.431690
800.545526	3769.394239
800.866708	3732.550966
801.187845	3668.903878
801.508936	3706.195814
801.829983	3707.592213
802.150984	3628.020121
802.471940	3617.055611
802.792851	3628.824185
803.113717	3629.227477
803.434538	3631.070019
803.755314	3574.170515
804.076045	3547.394427
804.396731	3562.870769
804.717372	3591.607866
805.037967	3578.384920
805.358518	3569.840164
805.679024	3593.626848
805.999485	3608.462964
806.319901	3610.587811
806.640272	3624.259420
806.960598	3640.751555
807.280879	3615.031588
807.601115	3623.762866
807.921306	3638.901451
808.241453	3681.529448
808.561554	3661.256448
808.881611	3592.769852
809.201623	3624.861838
809.521590	3641.313643
809.841513	3613.730970
810.161390	3640.784322
810.481223	3620.682721
810.801011	3570.722366
811.120755	3555.611507
811.440453	3596.265892
811.760107	3598.118517
812.079716	3557.887588
812.399281	3521.737474
812.718801	3542.295299
813.038276	3522.493647
813.357707	3516.103985
813.677093	3535.338507
813.996434	3485.872185
814.315731	3492.781086
814.634983	3494.490038
814.954191	3507.770957
815.273354	3535.930843
815.592473	3534.405894
815.911547	3537.579300
816.230577	3574.974579
816.549562	3626.132208
816.868502	3667.494876
817.187399	3693.635779
817.506250	3688.534131
817.825058	3660.056653
818.143821	3744.808532
818.462539	3853.455479
818.781213	3897.686563
819.099843	3947.735139
819.418429	4180.573432
819.736970	4423.534362
820.055466	4661.282739
820.373919	5016.404301
820.692327	5423.283390
821.010691	5837.784703
821.329011	7143.327603
821.647286	9777.635477
821.965517	14210.478330
822.283704	18231.602586
822.601847	20483.054991
822.919945	18744.814733
823.237999	16216.499639
823.556010	13777.203760
823.873976	11726.238044
824.191897	9656.615017
824.509775	8299.516238
824.827609	7181.680701
825.145398	6629.702082
825.463144	6511.653382
825.780845	6625.704447
826.098502	6798.963863
826.416116	7624.288968
826.733685	8914.242099
827.051210	10036.929746
827.368692	10147.492332
827.686129	8937.459133
828.003522	7422.693226
828.320872	6412.967754
828.638177	5719.541919
828.955439	5172.599412
829.272656	4679.829144
829.589830	4392.190988
829.906960	4218.150193
830.224046	4041.924057
830.541088	3914.050149
830.858086	3864.432592
831.175041	3791.908032
831.491952	3773.177625
831.808819	3785.162968
832.125642	3850.476157
832.442421	3989.763238
832.759157	4254.867437
833.075849	4786.666318
833.392497	5630.684021
833.709101	6391.144599
834.025662	6747.637355
834.342179	6417.333393
834.658653	5769.940855
834.975083	5128.900170
835.291469	4559.927821
835.607811	4144.652690
835.924110	4012.839120
836.240366	3820.498936
836.556578	3614.214921
836.872746	3502.631501
837.188871	3468.845688
837.504952	3403.003178
837.820990	3318.783141
838.136984	3274.244547
838.452935	3296.705408
838.768842	3293.045530
839.084706	3314.069662
839.400526	3463.179431
839.716303	3784.273205
840.032037	4288.325575
840.347727	4573.697732
840.663373	4314.141324
840.978977	3942.709108
841.294537	3634.971872
841.610054	3406.113569
841.925527	3300.072898
842.240957	3229.360633
842.556344	3173.794515
842.871687	3121.613532
843.186987	3070.609657
843.502244	3035.724873
843.817458	3003.214472
844.132629	2971.046869
844.447756	2975.740183
844.762840	2965.773822
845.077881	2933.873401
845.392879	2916.670463
845.707833	2911.541089
846.022745	2911.805750
846.337613	2913.514701
846.652438	2902.139337
846.967221	2896.951990
847.281960	2887.686349
847.596656	2880.830380
847.911309	2879.345760
848.225919	2872.729246
848.540485	2869.429810
848.855009	2870.579193
849.169490	2860.496886
849.483928	2852.443642
849.798323	2848.370390
850.112675	2843.659432
850.426984	2856.204343
850.741251	2856.340454
851.055474	2846.447190
851.369654	2839.268587
851.683792	2846.623630
851.997887	2851.780731
852.311938	2854.802902
852.625947	2842.620954
852.939914	2843.520800
853.253837	2849.350895
853.567718	2838.411591
853.881555	2832.576455
854.195350	2850.149918
854.509103	2845.060873
854.822812	2838.802280
855.136479	2836.697598
855.450103	2839.245902
855.763685	2829.554283
856.077224	2826.108655
856.390720	2837.844461
856.704173	2848.894670
857.017584	2844.627333
857.330953	2838.618278
857.644278	2848.130935
857.957561	2854.538242
858.270802	2858.785414
858.584000	2859.183665
858.897155	2845.978363
859.210268	2845.602797
859.523339	2845.963239
859.836367	2842.573063
860.149352	2839.513083
860.462295	2834.272803
860.775195	2842.394102
861.088054	2844.589525
861.400869	2827.779797
861.713642	2820.026503
862.026373	2835.127279
862.339062	2840.682631
862.651708	2846.424505
862.964312	2849.872654
863.276873	2844.264370
863.589392	2849.781913
863.901869	2859.990250
864.214303	2883.945813
864.526696	2898.676064
864.839045	2897.388050
865.151353	2897.496434
865.463619	2893.897051
865.775842	2895.986609
866.088023	2910.001017
866.400162	2918.265988
866.712258	2891.462173
867.024313	2882.188971
867.336325	2886.368087
867.648296	2911.435225
867.960224	2903.296282
868.272110	2888.923952
868.583954	2893.652555
868.895755	2907.062024
869.207515	2894.738923
869.519233	2896.407545
869.830909	2905.831982
870.142542	2918.165165
870.454134	2919.090217
870.765684	2922.437543
871.077191	2921.094076
871.388657	2928.129006
871.700081	2942.176181
872.011463	2951.671194
872.322803	2953.733026
872.634101	2953.445680
872.945357	2967.346662
873.256571	2993.059067
873.567744	2990.687204
873.878874	2978.772437
874.189963	3000.199862
874.501010	3006.866788
874.812015	2996.108965
875.122979	2994.415138
875.433900	2990.702328
875.744780	2996.240035
876.055618	3003.935357
876.366415	3000.164574
876.677169	3011.620596
876.987882	3009.306706
877.298554	2999.030314
877.609183	3021.763397
877.919771	3043.536141
878.230317	3068.696540
878.540822	3121.041361
878.851285	3156.944458
879.161707	3196.862835
879.472087	3292.561579
879.782425	3504.390864
880.092722	3921.967281
880.402977	4435.683543
880.713191	5048.173653
881.023363	6149.212064
881.333494	7417.959582
881.643583	7985.414544
881.953631	7699.039197
882.263637	7098.935202
882.573602	6533.864706
882.883526	5965.270443
883.193408	5396.797168
883.503248	4938.747847
883.813048	4640.828257
884.122806	4354.936861
884.432522	4045.082340
884.742197	3819.047084
885.051831	3625.686066
885.361424	3490.880571
885.670975	3417.133532
885.980485	3337.717715
886.289954	3263.118720
886.599382	3219.754715
886.908768	3183.125691
887.218113	3140.769916
887.527417	3083.920824
887.836680	3034.913247
888.145901	3028.896630
888.455082	3020.858510
888.764221	2970.383957
889.073319	2939.960594
889.382376	2940.868002
889.691392	2942.602158
890.000366	2941.722477
890.309300	2932.464398
890.618193	2940.071499
890.927044	2960.427678
891.235855	2958.990950
891.544625	2943.910338
891.853353	2956.346864
892.162041	2972.135758
892.470687	3008.608506
892.779293	3064.308215
893.087858	3106.633743
893.396381	3172.309895
893.704864	3289.045374
894.013306	3516.013244
894.321707	3809.015188
894.630068	4019.642157
894.938387	4020.244575
895.246665	3972.799756
895.554903	3856.591077
895.863100	3664.848270
896.171256	3501.996316
896.479371	3366.578320
896.787446	3249.328644
897.095480	3146.784013
897.403473	3081.385124
897.711425	3045.968498
898.019336	3038.358876
898.327207	3011.209742
898.635038	2977.822180
898.942827	2962.789459
899.250576	2950.400823
899.558284	2917.114085
899.865952	2899.470046
900.173579	2880.601007
900.481165	2875.133876
900.788711	2863.735827
901.096216	2837.753720
901.403681	2823.099086
901.711105	2832.911692
902.018489	2830.801969
902.325832	2830.809531
902.633135	2840.428052
902.940397	2869.460057
903.247619	2945.861264
903.554800	3129.475211
903.861941	3457.553503
904.169041	3872.185887
904.476101	4171.877442
904.783121	4141.126403
905.090100	3908.600661
905.397039	3639.047645
905.703938	3391.342989
906.010796	3212.921431
906.317614	3102.343721
906.624391	3011.794516
906.931129	2942.763475
907.237826	2881.011861
907.544483	2833.211641
907.851099	2807.758855
908.157675	2784.950154
908.464211	2766.895262
908.770707	2753.160638
909.077163	2742.304513
909.383578	2730.490569
909.689954	2714.805019
909.996289	2714.880636
910.302584	2716.105637
910.608839	2718.510267
910.915054	2709.375696
911.221229	2706.184646
911.527363	2705.715819
911.833458	2712.375183
912.139513	2715.377190
912.445527	2720.783827
912.751502	2728.327914
913.057436	2742.057497
913.363331	2751.416399
913.669186	2769.889707
913.975000	2800.421455
914.280775	2858.273737
914.586510	2925.550456
914.892205	3004.172291
915.197859	3120.131432
915.503475	3305.940801
915.809050	3513.197759
916.114585	3658.317455
916.420081	3684.077751
916.725536	3628.637662
917.030952	3514.256402
917.336328	3390.160838
917.641665	3261.767691
917.946961	3162.981240
918.252218	3095.339038
918.557435	3022.978315
918.862612	2964.327011
919.167750	2917.729105
919.472848	2878.183774
919.777906	2851.158148
920.082925	2828.583861
920.387904	2798.054634
920.692843	2782.522839
920.997743	2769.141096
921.302603	2759.346134
921.607423	2748.248034
921.912204	2739.665469
922.216946	2723.402707
922.521647	2716.824001
922.826310	2708.690099
923.130932	2702.350848
923.435516	2696.687112
923.740059	2688.598581
924.044564	2681.367046
924.349028	2674.856395
924.653454	2668.300375
924.957840	2662.697132
925.262186	2656.773777
925.566493	2654.069197
925.870761	2651.152890
926.174989	2647.520739
926.479178	2641.680562
926.783328	2635.805097
927.087438	2635.031280
927.391509	2634.159160
927.695541	2631.338635
927.999533	2628.137502
928.303486	2626.063067
928.607400	2623.779425
928.911275	2625.947121
929.215110	2622.269599
929.518906	2623.862604
929.822663	2622.453601
930.126381	2621.316821
930.430060	2618.962602
930.733699	2623.368571
931.037299	2623.595422
931.340861	2623.716410
931.644383	2624.195320
931.947866	2624.338993
932.251309	2624.167593
932.554714	2623.083745
932.858080	2619.920421
933.161407	2617.384721
933.464694	2615.973198
933.767943	2613.704679
934.071153	2616.137035
934.374323	2616.116871
934.677455	2614.551593
934.980548	2614.932200
935.283602	2615.247272
935.586617	2609.243257
935.889593	2612.207456
936.192530	2613.906325
936.495428	2614.241562
936.798287	2617.442694
937.101108	2620.865638
937.403890	2618.715586
937.706632	2628.427368
938.009336	2632.540950
938.312002	2641.816673
938.614628	2649.844711
938.917216	2658.182779
939.219765	2656.977943
939.522275	2656.221770
939.824747	2653.630617
940.127179	2653.711276
940.429573	2649.625420
940.731929	2648.861686
941.034246	2641.446148
941.336524	2638.983545
941.638763	2637.808956
941.940964	2636.878863
942.243126	2633.166053
942.545250	2634.454068
942.847335	2630.161525
943.149381	2628.626494
943.451389	2621.205916
943.753359	2622.667850
944.055290	2619.249948
944.357182	2619.912860
944.659036	2616.857920
944.960851	2616.961264
945.262628	2615.811881
945.564367	2617.288939
945.866067	2612.792230
946.167729	2619.615432
946.469352	2618.803806
946.770937	2615.083434
947.072484	2613.951695
947.373992	2615.769031
947.675462	2612.547734
947.976893	2606.740325
948.278286	2610.806015
948.579641	2609.094543
948.880958	2603.720673
949.182236	2608.855089
949.483476	2605.558174
949.784678	2608.789554
950.085841	2604.512135
950.386967	2606.843668
950.688054	2608.741663
950.989103	2611.809205
951.290114	2607.957763
951.591087	2612.739298
951.892021	2615.040584
952.192917	2615.932869
952.493776	2618.612242
952.794596	2620.036368
953.095378	2616.966305
953.396122	2617.384721
953.696828	2617.082252
953.997496	2613.122425
954.298126	2613.193002
954.598718	2610.957250
954.899272	2608.345932
955.199788	2608.328288
955.500266	2605.691765
955.800706	2603.201435
956.101108	2599.493666
956.401472	2595.743047
956.701798	2595.969899
957.002087	2594.384457
957.302337	2594.568459
957.602550	2593.681216
957.902724	2590.170052
958.202861	2589.403797
958.502960	2587.553693
958.803022	2591.803386
959.103045	2586.197623
959.403031	2586.369022
959.702979	2586.782397
960.002889	2584.244176
960.302762	2582.905749
960.602596	2583.856007
960.902393	2583.452714
961.202153	2582.633527
961.501875	2581.406006
961.801559	2581.680749
962.101205	2581.940368
962.400814	2582.993969
962.700385	2582.031109
962.999918	2582.404154
963.299414	2577.463824
963.598873	2578.371231
963.898293	2577.728484
964.197677	2581.867272
964.497022	2578.267888
964.796331	2583.064546
965.095601	2578.426684
965.394835	2580.985070
965.694030	2579.528176
965.993189	2578.998855
966.292309	2579.074472
966.591393	2580.070100
966.890439	2581.065728
967.189447	2582.136973
967.488419	2580.939699
967.787353	2582.008424
968.086249	2578.484657
968.385108	2580.382652
968.683930	2580.775862
968.982714	2579.538258
969.281462	2578.865264
969.580172	2582.149576
969.878844	2578.580439
970.177480	2580.153279
970.476078	2581.194278
970.774639	2580.876685
971.073162	2582.827611
971.371649	2579.722261
971.670098	2581.542117
971.968510	2579.346695
972.266885	2579.671849
972.565223	2580.554051
972.863524	2580.440625
973.161788	2580.614545
973.460014	2579.623958
973.758204	2581.451376
974.056356	2578.981211
974.354471	2580.233938
974.652550	2578.880388
974.950591	2581.768969
975.248595	2582.515060
975.546563	2580.707806
975.844493	2583.908939
976.142386	2578.048597
976.440243	2581.222004
976.738062	2579.324009
977.035845	2581.174113
977.333590	2577.700758
977.631299	2577.373083
977.928971	2574.910479
978.226606	2575.631364
978.524204	2576.183371
978.821765	2573.514080
979.119290	2580.289390
979.416777	2578.252764
979.714228	2577.158834
980.011642	2576.193453
980.309020	2577.115984
980.606360	2578.610686
980.903664	2578.167065
981.200931	2578.121694
981.498162	2581.186716
981.795356	2579.389544
982.092513	2583.094792
982.389633	2583.997159
982.686717	2587.039495
982.983764	2591.132912
983.280775	2592.743561
983.577749	2597.343614
983.874686	2595.753130
984.171587	2592.131061
984.468451	2588.403127
984.765279	2588.307346
985.062070	2585.209557
985.358824	2582.880543
985.655543	2581.700913
985.952224	2580.125553
986.248869	2579.578588
986.545478	2579.727302
986.842050	2579.132446
987.138586	2575.333936
987.435086	2576.556416
987.731549	2574.918041
988.027975	2577.395768
988.324366	2575.805284
988.620719	2576.581622
988.917037	2576.183371
989.213318	2574.741601
989.509563	2572.594069
989.805772	2575.253278
990.101944	2572.858730
990.398080	2574.822259
990.694180	2573.239337
990.990244	2573.743452
991.286271	2574.834862
991.582262	2572.697413
991.878217	2575.835531
992.174136	2576.168247
992.470019	2574.610531
992.765865	2571.608523
993.061676	2569.040056
993.357450	2574.844944
993.653188	2569.410580
993.948890	2574.678586
994.244556	2574.930644
994.540186	2573.942578
994.835780	2575.283525
995.131337	2576.644636
995.426859	2575.906107
995.722345	2578.101530
996.017795	2575.984245
996.313208	2579.218145
996.608586	2580.448187
996.903928	2580.123032
997.199234	2580.231417
997.494504	2579.238310
997.789738	2578.789647
998.084936	2578.386355
998.380099	2578.968608
998.675225	2580.196129
998.970316	2576.077506
999.265371	2575.538103
999.560390	2576.442990
999.855373	2576.939544
1000.150320	2576.876529
1000.445232	2573.345201
1000.740108	2574.804615
1001.034948	2573.720767
1001.329752	2574.446693
1001.624521	2572.294120
1001.919254	2573.052814
1002.213951	2573.095664
1002.508613	2572.843606
1002.803239	2573.751014
1003.097829	2574.398802
1003.392384	2572.919223
1003.686903	2573.236816
1003.981386	2573.020047
1004.275834	2573.904769
1004.570246	2571.916034
1004.864623	2572.044583
1005.158964	2572.178174
1005.453270	2572.551219
1005.747540	2573.365366
1006.041775	2569.266907
1006.335974	2574.517269
1006.630138	2571.883266
1006.924266	2573.778740
1007.218359	2573.002402
1007.512416	2569.526527
1007.806438	2568.883780
1008.100425	2573.065417
1008.394376	2566.045610
1008.688292	2571.225396
1008.982172	2574.033318
1009.276017	2575.477609
1009.569827	2571.137176
1009.863602	2570.650704
1010.157341	2570.610375
1010.451045	2573.309913
1010.744714	2571.021229
1011.038347	2572.853688
1011.331945	2572.790674
1011.625508	2572.815880
1011.919036	2574.633216
1012.212528	2571.618606
1012.505986	2573.062896
1012.799408	2572.888977
1013.092795	2571.265725
1013.386147	2572.092474
1013.679464	2571.938719
1013.972745	2572.962073
1014.265992	2572.006775
1014.559204	2572.352094
1014.852380	2569.196331
1015.145521	2572.604151
1015.438628	2571.679100
1015.731699	2572.344532
1016.024736	2572.921744
1016.317737	2568.654407
1016.610703	2571.641291
1016.903635	2572.647001
1017.196531	2569.781105
1017.489393	2571.074161
1017.782219	2568.629202
1018.075011	2572.405026
1018.367768	2570.716239
1018.660490	2568.631722
1018.953177	2568.631722
1019.245829	2568.631722
