Dividing Wavelength (nm)	Counts (n)	Blue Motor Position (mm): 4.900000	Red Motor Position (mm): 0.000000	
326.493990	2069.393654
326.888308	2069.393654
327.282561	2069.393654
327.676750	2089.558269
328.070874	2036.626154
328.464933	2021.502692
328.858929	2129.887500
329.252859	2127.366923
329.646726	2036.626154
330.040528	2087.037692
330.434265	2124.846346
330.827938	2177.778462
331.221547	2102.161154
331.615091	2157.613846
332.008571	2218.107692
332.401986	2190.381346
332.795338	2273.560385
333.188625	2235.751731
333.581847	2238.272308
333.975006	2197.943077
334.368100	2323.971923
334.761129	2265.998654
335.154095	2326.492500
335.546996	2384.465769
335.939833	2323.971923
336.332606	2356.739423
336.725315	2351.698269
337.117960	2361.780577
337.510540	2407.150962
337.903056	2386.986346
338.295508	2442.439038
338.687896	2434.877308
339.080220	2470.165385
339.472480	2447.480192
339.864676	2462.603654
340.256807	2389.506923
340.648875	2497.891731
341.040879	2470.165385
341.432818	2422.274423
341.824694	2439.918462
342.216506	2485.288846
342.608253	2482.768269
342.999937	2555.865000
343.391557	2450.000769
343.783113	2429.836154
344.174605	2548.303269
344.566033	2444.959615
344.957397	2518.056346
345.348697	2429.836154
345.739934	2581.070769
346.131106	2467.644808
346.522215	2492.850577
346.913260	2487.809423
347.304241	2374.383462
347.695159	2510.494615
348.086012	2543.262115
348.476802	2429.836154
348.867528	2427.315577
349.258191	2487.809423
349.648789	2545.782692
350.039324	2424.795000
350.429796	2480.247692
350.820203	2472.685962
351.210548	2507.974038
351.600828	2402.109808
351.991045	2422.274423
352.381198	2424.795000
352.771288	2434.877308
353.161314	2432.356731
353.551276	2510.494615
353.941175	2429.836154
354.331010	2412.192115
354.720782	2376.904038
355.110490	2444.959615
355.500135	2439.918462
355.889717	2444.959615
356.279235	2404.630385
356.668689	2371.862885
357.058080	2361.780577
357.447408	2460.083077
357.836672	2452.521346
358.225873	2432.356731
358.615010	2364.301154
359.004084	2470.165385
359.393095	2470.165385
359.782043	2525.618077
360.170927	2475.206538
360.559748	2386.986346
360.948505	2525.618077
361.337199	2439.918462
361.725830	2437.397885
362.114398	2472.685962
362.502903	2371.862885
362.891344	2397.068654
363.279722	2439.918462
363.668037	2442.439038
364.056289	2485.288846
364.444478	2414.712692
364.832603	2477.727115
365.220665	2394.548077
365.608665	2349.177692
365.996601	2462.603654
366.384474	2336.574808
366.772284	2386.986346
367.160031	2422.274423
367.547715	2434.877308
367.935336	2424.795000
368.322893	2457.562500
368.710388	2381.945192
369.097820	2419.753846
369.485189	2467.644808
369.872495	2432.356731
370.259738	2407.150962
370.646918	2450.000769
371.034035	2495.371154
371.421090	2487.809423
371.808081	2434.877308
372.195010	2407.150962
372.581875	2555.865000
372.968678	2492.850577
373.355418	2533.179808
373.742096	2417.233269
374.128710	2462.603654
374.515262	2422.274423
374.901751	2465.124231
375.288177	2510.494615
375.674540	2427.315577
376.060841	2455.041923
376.447079	2414.712692
376.833254	2523.097500
377.219367	2409.671538
377.605417	2472.685962
377.991404	2407.150962
378.377329	2457.562500
378.763191	2439.918462
379.148991	2389.506923
379.534727	2450.000769
379.920402	2507.974038
380.306013	2492.850577
380.691563	2475.206538
381.077049	2485.288846
381.462474	2510.494615
381.847835	2502.932885
382.233134	2394.548077
382.618371	2376.904038
383.003545	2417.233269
383.388657	2455.041923
383.773706	2465.124231
384.158693	2513.015192
384.543618	2528.138654
384.928480	2432.356731
385.313280	2472.685962
385.698017	2412.192115
386.082692	2490.330000
386.467305	2472.685962
386.851856	2500.412308
387.236344	2455.041923
387.620770	2470.165385
388.005133	2470.165385
388.389435	2581.070769
388.773674	2424.795000
389.157851	2452.521346
389.541965	2414.712692
389.926018	2515.535769
390.310008	2460.083077
390.693936	2538.220962
391.077802	2460.083077
391.461606	2482.768269
391.845348	2427.315577
392.229027	2404.630385
392.612645	2523.097500
392.996200	2475.206538
393.379694	2510.494615
393.763125	2417.233269
394.146494	2422.274423
394.529801	2424.795000
394.913047	2487.809423
395.296230	2394.548077
395.679351	2392.027500
396.062410	2535.700385
396.445408	2437.397885
396.828343	2392.027500
397.211217	2553.344423
397.594028	2535.700385
397.976778	2452.521346
398.359466	2376.904038
398.742092	2525.618077
399.124656	2455.041923
399.507158	2442.439038
399.889598	2485.288846
400.271977	2528.138654
400.654294	2422.274423
401.036549	2386.986346
401.418742	2535.700385
401.800874	2482.768269
402.182944	2452.521346
402.564952	2530.659231
402.946898	2452.521346
403.328783	2457.562500
403.710606	2490.330000
404.092367	2439.918462
404.474067	2535.700385
404.855705	2434.877308
405.237282	2407.150962
405.618797	2540.741538
406.000250	2455.041923
406.381642	2447.480192
406.762972	2513.015192
407.144240	2407.150962
407.525447	2389.506923
407.906593	2442.439038
408.287677	2427.315577
408.668700	2465.124231
409.049661	2447.480192
409.430560	2505.453462
409.811399	2434.877308
410.192176	2457.562500
410.572891	2492.850577
410.953545	2442.439038
411.334138	2427.315577
411.714669	2422.274423
412.095139	2518.056346
412.475547	2444.959615
412.855894	2394.548077
413.236180	2533.179808
413.616405	2470.165385
413.996568	2482.768269
414.376670	2386.986346
414.756711	2477.727115
415.136691	2434.877308
415.516609	2525.618077
415.896466	2480.247692
416.276262	2447.480192
416.655997	2457.562500
417.035670	2432.356731
417.415283	2513.015192
417.794834	2475.206538
418.174324	2558.385577
418.553753	2558.385577
418.933121	2480.247692
419.312428	2490.330000
419.691674	2497.891731
420.070859	2497.891731
420.449983	2482.768269
420.829045	2535.700385
421.208047	2601.235385
421.586988	2462.603654
421.965867	2452.521346
422.344686	2460.083077
422.723444	2432.356731
423.102141	2439.918462
423.480777	2510.494615
423.859352	2555.865000
424.237866	2450.000769
424.616319	2485.288846
424.994712	2424.795000
425.373044	2545.782692
425.751314	2543.262115
426.129524	2414.712692
426.507673	2543.262115
426.885762	2533.179808
427.263789	2452.521346
427.641756	2409.671538
428.019662	2497.891731
428.397508	2470.165385
428.775292	2525.618077
429.153016	2525.618077
429.530679	2409.671538
429.908282	2487.809423
430.285824	2460.083077
430.663305	2548.303269
431.040726	2467.644808
431.418086	2475.206538
431.795385	2497.891731
432.172624	2429.836154
432.549802	2518.056346
432.926920	2513.015192
433.303977	2548.303269
433.680974	2402.109808
434.057910	2500.412308
434.434786	2507.974038
434.811601	2450.000769
435.188355	2386.986346
435.565050	2450.000769
435.941683	2535.700385
436.318257	2482.768269
436.694770	2404.630385
437.071222	2553.344423
437.447614	2465.124231
437.823946	2518.056346
438.200218	2545.782692
438.576429	2452.521346
438.952580	2369.342308
439.328670	2538.220962
439.704700	2482.768269
440.080670	2477.727115
440.456580	2439.918462
440.832429	2565.947308
441.208218	2442.439038
441.583947	2540.741538
441.959616	2543.262115
442.335224	2475.206538
442.710773	2477.727115
443.086261	2505.453462
443.461689	2520.576923
443.837057	2480.247692
444.212365	2502.932885
444.587612	2472.685962
444.962800	2513.015192
445.337927	2490.330000
445.712995	2510.494615
446.088002	2465.124231
446.462949	2560.906154
446.837837	2460.083077
447.212664	2490.330000
447.587431	2505.453462
447.962139	2497.891731
448.336786	2480.247692
448.711374	2439.918462
449.085901	2510.494615
449.460369	2553.344423
449.834776	2497.891731
450.209124	2520.576923
450.583412	2500.412308
450.957640	2450.000769
451.331808	2520.576923
451.705917	2452.521346
452.079965	2480.247692
452.453954	2560.906154
452.827883	2525.618077
453.201752	2495.371154
453.575562	2586.111923
453.949311	2414.712692
454.323001	2439.918462
454.696632	2407.150962
455.070202	2477.727115
455.443713	2462.603654
455.817164	2543.262115
456.190556	2460.083077
456.563888	2538.220962
456.937160	2482.768269
457.310373	2601.235385
457.683526	2455.041923
458.056619	2429.836154
458.429653	2477.727115
458.802628	2586.111923
459.175542	2510.494615
459.548398	2518.056346
459.921194	2535.700385
460.293930	2397.068654
460.666607	2518.056346
461.039224	2500.412308
461.411782	2523.097500
461.784280	2432.356731
462.156719	2538.220962
462.529099	2523.097500
462.901419	2455.041923
463.273680	2515.535769
463.645882	2525.618077
464.018024	2513.015192
464.390106	2570.988462
464.762130	2553.344423
465.134094	2507.974038
465.505999	2558.385577
465.877845	2535.700385
466.249631	2535.700385
466.621358	2550.823846
466.993026	2437.397885
467.364634	2588.632500
467.736184	2538.220962
468.107674	2447.480192
468.479105	2480.247692
468.850477	2487.809423
469.221790	2442.439038
469.593043	2533.179808
469.964238	2502.932885
470.335373	2560.906154
470.706449	2538.220962
471.077467	2550.823846
471.448425	2485.288846
471.819324	2470.165385
472.190164	2480.247692
472.560945	2412.192115
472.931667	2460.083077
473.302330	2502.932885
473.672934	2480.247692
474.043479	2409.671538
474.413965	2586.111923
474.784393	2419.753846
475.154761	2414.712692
475.525070	2515.535769
475.895321	2480.247692
476.265513	2538.220962
476.635645	2510.494615
477.005719	2507.974038
477.375734	2492.850577
477.745691	2565.947308
478.115588	2513.015192
478.485427	2384.465769
478.855207	2492.850577
479.224928	2475.206538
479.594591	2513.015192
479.964194	2409.671538
480.333739	2538.220962
480.703226	2540.741538
481.072653	2457.562500
481.442022	2515.535769
481.811333	2495.371154
482.180584	2497.891731
482.549777	2490.330000
482.918912	2497.891731
483.287988	2553.344423
483.657005	2407.150962
484.025964	2518.056346
484.394864	2485.288846
484.763706	2533.179808
485.132489	2470.165385
485.501213	2492.850577
485.869879	2432.356731
486.238487	2563.426731
486.607036	2510.494615
486.975527	2550.823846
487.343959	2480.247692
487.712333	2550.823846
488.080648	2515.535769
488.448905	2465.124231
488.817104	2455.041923
489.185244	2460.083077
489.553326	2485.288846
489.921350	2442.439038
490.289315	2548.303269
490.657222	2513.015192
491.025070	2404.630385
491.392861	2533.179808
491.760593	2470.165385
492.128267	2477.727115
492.495883	2520.576923
492.863440	2523.097500
493.230939	2470.165385
493.598380	2510.494615
493.965763	2457.562500
494.333088	2555.865000
494.700354	2485.288846
495.067563	2545.782692
495.434713	2535.700385
495.801805	2477.727115
496.168839	2502.932885
496.535815	2492.850577
496.902733	2563.426731
497.269593	2341.615962
497.636395	2467.644808
498.003139	2601.235385
498.369825	2510.494615
498.736453	2570.988462
499.103023	2510.494615
499.469535	2472.685962
499.835989	2535.700385
500.202385	2485.288846
500.568723	2515.535769
500.935003	2495.371154
501.301226	2490.330000
501.667390	2437.397885
502.033497	2573.509038
502.399546	2402.109808
502.765537	2492.850577
503.131470	2434.877308
503.497345	2538.220962
503.863163	2455.041923
504.228923	2510.494615
504.594625	2439.918462
504.960269	2533.179808
505.325856	2507.974038
505.691385	2482.768269
506.056856	2465.124231
506.422270	2495.371154
506.787625	2460.083077
507.152924	2568.467885
507.518164	2505.453462
507.883347	2492.850577
508.248472	2452.521346
508.613540	2460.083077
508.978550	2497.891731
509.343503	2502.932885
509.708398	2535.700385
510.073236	2399.589231
510.438016	2465.124231
510.802738	2563.426731
511.167403	2439.918462
511.532010	2502.932885
511.896561	2470.165385
512.261053	2523.097500
512.625488	2510.494615
512.989866	2500.412308
513.354186	2470.165385
513.718449	2535.700385
514.082655	2530.659231
514.446803	2586.111923
514.810894	2485.288846
515.174927	2485.288846
515.538904	2507.974038
515.902822	2404.630385
516.266684	2553.344423
516.630488	2462.603654
516.994235	2513.015192
517.357925	2528.138654
517.721558	2462.603654
518.085133	2460.083077
518.448651	2439.918462
518.812112	2540.741538
519.175516	2487.809423
519.538863	2530.659231
519.902152	2434.877308
520.265385	2535.700385
520.628560	2444.959615
520.991678	2528.138654
521.354739	2505.453462
521.717743	2523.097500
522.080690	2477.727115
522.443580	2513.015192
522.806413	2518.056346
523.169189	2472.685962
523.531908	2525.618077
523.894569	2477.727115
524.257174	2560.906154
524.619722	2523.097500
524.982213	2490.330000
525.344647	2523.097500
525.707025	2457.562500
526.069345	2515.535769
526.431608	2520.576923
526.793815	2525.618077
527.155964	2500.412308
527.518057	2477.727115
527.880093	2502.932885
528.242072	2495.371154
528.603995	2502.932885
528.965860	2475.206538
529.327669	2477.727115
529.689421	2480.247692
530.051117	2538.220962
530.412755	2450.000769
530.774337	2492.850577
531.135862	2533.179808
531.497331	2520.576923
531.858743	2487.809423
532.220098	2434.877308
532.581396	2480.247692
532.942638	2490.330000
533.303824	2525.618077
533.664953	2452.521346
534.026025	2553.344423
534.387040	2455.041923
534.747999	2535.700385
535.108902	2462.603654
535.469748	2480.247692
535.830537	2429.836154
536.191270	2472.685962
536.551947	2502.932885
536.912567	2560.906154
537.273131	2565.947308
537.633638	2475.206538
537.994089	2485.288846
538.354483	2480.247692
538.714821	2495.371154
539.075103	2583.591346
539.435328	2497.891731
539.795497	2593.673654
540.155609	2510.494615
540.515665	2548.303269
540.875665	2470.165385
541.235609	2507.974038
541.595496	2495.371154
541.955328	2485.288846
542.315102	2487.809423
542.674821	2480.247692
543.034483	2477.727115
543.394090	2553.344423
543.753640	2573.509038
544.113134	2407.150962
544.472571	2525.618077
544.831953	2467.644808
545.191278	2439.918462
545.550548	2591.153077
545.909761	2432.356731
546.268918	2563.426731
546.628019	2467.644808
546.987064	2480.247692
547.346053	2530.659231
547.704986	2490.330000
548.063863	2545.782692
548.422684	2528.138654
548.781449	2475.206538
549.140158	2570.988462
549.498811	2565.947308
549.857408	2492.850577
550.215949	2477.727115
550.574434	2513.015192
550.932864	2505.453462
551.291237	2462.603654
551.649555	2505.453462
552.007817	2558.385577
552.366022	2510.494615
552.724173	2502.932885
553.082267	2550.823846
553.440305	2583.591346
553.798288	2513.015192
554.156215	2545.782692
554.514086	2429.836154
554.871902	2565.947308
555.229661	2465.124231
555.587365	2429.836154
555.945014	2513.015192
556.302606	2490.330000
556.660143	2523.097500
557.017625	2573.509038
557.375050	2495.371154
557.732421	2500.412308
558.089735	2560.906154
558.446994	2490.330000
558.804197	2470.165385
559.161345	2462.603654
559.518437	2500.412308
559.875474	2555.865000
560.232455	2444.959615
560.589381	2439.918462
560.946251	2530.659231
561.303065	2455.041923
561.659825	2427.315577
562.016528	2502.932885
562.373177	2455.041923
562.729770	2550.823846
563.086307	2447.480192
563.442789	2558.385577
563.799216	2530.659231
564.155587	2442.439038
564.511904	2545.782692
564.868164	2467.644808
565.224370	2472.685962
565.580520	2465.124231
565.936615	2414.712692
566.292654	2533.179808
566.648638	2386.986346
567.004567	2485.288846
567.360441	2518.056346
567.716260	2502.932885
568.072023	2500.412308
568.427732	2467.644808
568.783385	2502.932885
569.138982	2407.150962
569.494525	2510.494615
569.850013	2455.041923
570.205445	2518.056346
570.560823	2409.671538
570.916145	2472.685962
571.271412	2485.288846
571.626625	2507.974038
571.981782	2553.344423
572.336884	2485.288846
572.691931	2490.330000
573.046923	2548.303269
573.401860	2437.397885
573.756743	2485.288846
574.111570	2558.385577
574.466342	2555.865000
574.821059	2507.974038
575.175722	2442.439038
575.530330	2442.439038
575.884882	2593.673654
576.239380	2437.397885
576.593823	2497.891731
576.948211	2510.494615
577.302544	2480.247692
577.656823	2550.823846
578.011047	2518.056346
578.365216	2467.644808
578.719330	2419.753846
579.073389	2475.206538
579.427394	2490.330000
579.781344	2497.891731
580.135239	2417.233269
580.489080	2389.506923
580.842866	2513.015192
581.196597	2626.441154
581.550273	2543.262115
581.903895	2477.727115
582.257463	2505.453462
582.610975	2485.288846
582.964434	2482.768269
583.317837	2530.659231
583.671186	2492.850577
584.024481	2392.027500
584.377721	2462.603654
584.730906	2475.206538
585.084037	2450.000769
585.437113	2581.070769
585.790135	2500.412308
586.143103	2520.576923
586.496016	2467.644808
586.848874	2505.453462
587.201679	2510.494615
587.554428	2581.070769
587.907124	2495.371154
588.259765	2558.385577
588.612352	2492.850577
588.964884	2455.041923
589.317362	2485.288846
589.669786	2523.097500
590.022155	2457.562500
590.374470	2520.576923
590.726731	2482.768269
591.078937	2533.179808
591.431090	2490.330000
591.783188	2437.397885
592.135232	2465.124231
592.487222	2510.494615
592.839157	2475.206538
593.191038	2545.782692
593.542866	2502.932885
593.894639	2568.467885
594.246358	2450.000769
594.598022	2523.097500
594.949633	2497.891731
595.301190	2480.247692
595.652692	2538.220962
596.004141	2470.165385
596.355535	2444.959615
596.706876	2497.891731
597.058162	2495.371154
597.409395	2558.385577
597.760573	2434.877308
598.111698	2543.262115
598.462768	2507.974038
598.813785	2492.850577
599.164748	2417.233269
599.515657	2573.509038
599.866511	2439.918462
600.217312	2447.480192
600.568060	2515.535769
600.918753	2588.632500
601.269392	2505.453462
601.619978	2495.371154
601.970510	2513.015192
602.320988	2487.809423
602.671412	2548.303269
603.021783	2518.056346
603.372100	2543.262115
603.722363	2540.741538
604.072572	2523.097500
604.422728	2538.220962
604.772830	2402.109808
605.122878	2465.124231
605.472872	2465.124231
605.822813	2540.741538
606.172701	2497.891731
606.522534	2621.400000
606.872314	2553.344423
607.222041	2482.768269
607.571714	2515.535769
607.921333	2437.397885
608.270899	2480.247692
608.620411	2520.576923
608.969870	2475.206538
609.319276	2427.315577
609.668627	2513.015192
610.017926	2444.959615
610.367171	2525.618077
610.716362	2442.439038
611.065500	2502.932885
611.414585	2470.165385
611.763616	2543.262115
612.112594	2533.179808
612.461518	2555.865000
612.810389	2520.576923
613.159207	2505.453462
613.507971	2515.535769
613.856682	2465.124231
614.205340	2543.262115
614.553945	2465.124231
614.902496	2442.439038
615.250994	2482.768269
615.599439	2472.685962
615.947830	2545.782692
616.296169	2513.015192
616.644454	2404.630385
616.992686	2490.330000
617.340864	2565.947308
617.688990	2477.727115
618.037063	2505.453462
618.385082	2538.220962
618.733048	2429.836154
619.080961	2412.192115
619.428821	2487.809423
619.776628	2497.891731
620.124382	2502.932885
620.472083	2465.124231
620.819731	2480.247692
621.167326	2437.397885
621.514868	2523.097500
621.862357	2570.988462
622.209793	2487.809423
622.557176	2490.330000
622.904506	2538.220962
623.251783	2560.906154
623.599007	2470.165385
623.946179	2548.303269
624.293297	2550.823846
624.640363	2492.850577
624.987376	2470.165385
625.334336	2515.535769
625.681243	2502.932885
626.028097	2384.465769
626.374899	2500.412308
626.721647	2470.165385
627.068343	2507.974038
627.414987	2460.083077
627.761577	2528.138654
628.108115	2505.453462
628.454600	2510.494615
628.801032	2482.768269
629.147412	2540.741538
629.493739	2467.644808
629.840014	2457.562500
630.186236	2455.041923
630.532405	2530.659231
630.878521	2490.330000
631.224585	2497.891731
631.570597	2568.467885
631.916556	2538.220962
632.262462	2576.029615
632.608316	2550.823846
632.954117	2442.439038
633.299866	2437.397885
633.645562	2432.356731
633.991206	2492.850577
634.336797	2455.041923
634.682336	2596.194231
635.027823	2528.138654
635.373257	2429.836154
635.718639	2495.371154
636.063968	2487.809423
636.409245	2502.932885
636.754470	2513.015192
637.099642	2429.836154
637.444762	2482.768269
637.789829	2422.274423
638.134845	2510.494615
638.479808	2530.659231
638.824719	2525.618077
639.169577	2460.083077
639.514383	2581.070769
639.859137	2505.453462
640.203839	2500.412308
640.548489	2513.015192
640.893086	2515.535769
641.237632	2565.947308
641.582125	2447.480192
641.926566	2455.041923
642.270955	2530.659231
642.615292	2513.015192
642.959576	2603.755962
643.303809	2568.467885
643.647990	2447.480192
643.992118	2495.371154
644.336195	2550.823846
644.680219	2570.988462
645.024192	2467.644808
645.368112	2427.315577
645.711981	2558.385577
646.055797	2515.535769
646.399562	2540.741538
646.743274	2507.974038
647.086935	2538.220962
647.430544	2598.714808
647.774101	2497.891731
648.117606	2485.288846
648.461059	2457.562500
648.804460	2543.262115
649.147810	2502.932885
649.491108	2528.138654
649.834354	2513.015192
650.177548	2583.591346
650.520690	2450.000769
650.863781	2480.247692
651.206820	2533.179808
651.549807	2520.576923
651.892742	2450.000769
652.235626	2510.494615
652.578458	2495.371154
652.921238	2470.165385
653.263967	2490.330000
653.606644	2485.288846
653.949269	2480.247692
654.291843	2558.385577
654.634365	2465.124231
654.976836	2460.083077
655.319255	2447.480192
655.661622	2465.124231
656.003938	2467.644808
656.346203	2502.932885
656.688416	2520.576923
657.030577	2598.714808
657.372687	2467.644808
657.714746	2507.974038
658.056753	2450.000769
658.398708	2475.206538
658.740612	2538.220962
659.082465	2507.974038
659.424266	2538.220962
659.766016	2475.206538
660.107715	2492.850577
660.449362	2477.727115
660.790958	2507.974038
661.132503	2467.644808
661.473996	2548.303269
661.815438	2480.247692
662.156829	2487.809423
662.498168	2386.986346
662.839456	2548.303269
663.180693	2437.397885
663.521879	2480.247692
663.863013	2482.768269
664.204097	2502.932885
664.545129	2518.056346
664.886110	2482.768269
665.227040	2611.317692
665.567918	2490.330000
665.908746	2515.535769
666.249522	2487.809423
666.590248	2490.330000
666.930922	2475.206538
667.271545	2525.618077
667.612118	2502.932885
667.952639	2528.138654
668.293109	2475.206538
668.633528	2442.439038
668.973896	2487.809423
669.314213	2490.330000
669.654480	2447.480192
669.994695	2477.727115
670.334859	2550.823846
670.674973	2477.727115
671.015035	2450.000769
671.355047	2502.932885
671.695008	2543.262115
672.034918	2560.906154
672.374777	2427.315577
672.714585	2475.206538
673.054342	2530.659231
673.394049	2530.659231
673.733705	2480.247692
674.073310	2487.809423
674.412864	2457.562500
674.752368	2475.206538
675.091820	2576.029615
675.431223	2475.206538
675.770574	2437.397885
676.109875	2447.480192
676.449125	2558.385577
676.788324	2533.179808
677.127473	2492.850577
677.466571	2518.056346
677.805619	2507.974038
678.144616	2457.562500
678.483562	2450.000769
678.822458	2475.206538
679.161303	2492.850577
679.500098	2507.974038
679.838842	2442.439038
680.177535	2530.659231
680.516179	2427.315577
680.854771	2500.412308
681.193314	2502.932885
681.531805	2550.823846
681.870247	2560.906154
682.208638	2583.591346
682.546978	2465.124231
682.885268	2455.041923
683.223508	2455.041923
683.561697	2525.618077
683.899836	2525.618077
684.237925	2482.768269
684.575963	2573.509038
684.913951	2467.644808
685.251889	2492.850577
685.589776	2533.179808
685.927614	2450.000769
686.265401	2434.877308
686.603137	2583.591346
686.940824	2480.247692
687.278460	2520.576923
687.616046	2545.782692
687.953582	2417.233269
688.291068	2505.453462
688.628504	2586.111923
688.965889	2500.412308
689.303224	2467.644808
689.640510	2528.138654
689.977745	2482.768269
690.314930	2422.274423
690.652065	2560.906154
690.989150	2497.891731
691.326185	2497.891731
691.663170	2510.494615
692.000105	2429.836154
692.336990	2555.865000
692.673825	2467.644808
693.010610	2497.891731
693.347345	2510.494615
693.684030	2500.412308
694.020665	2447.480192
694.357251	2467.644808
694.693786	2462.603654
695.030272	2389.506923
695.366707	2510.494615
695.703093	2482.768269
696.039429	2518.056346
696.375716	2500.412308
696.711952	2455.041923
697.048139	2485.288846
697.384276	2525.618077
697.720363	2543.262115
698.056400	2460.083077
698.392388	2482.768269
698.728326	2472.685962
699.064214	2568.467885
699.400053	2450.000769
699.735842	2505.453462
700.071581	2530.659231
700.407270	2611.317692
700.742910	2513.015192
701.078501	2460.083077
701.414042	2467.644808
701.749533	2490.330000
702.084974	2555.865000
702.420366	2379.424615
702.755709	2450.000769
703.091002	2568.467885
703.426246	2369.342308
703.761440	2518.056346
704.096584	2510.494615
704.431679	2495.371154
704.766725	2462.603654
705.101721	2520.576923
705.436668	2502.932885
705.771565	2510.494615
706.106413	2507.974038
706.441212	2500.412308
706.775961	2444.959615
707.110661	2480.247692
707.445311	2510.494615
707.779913	2467.644808
708.114465	2530.659231
708.448967	2507.974038
708.783421	2460.083077
709.117825	2545.782692
709.452180	2472.685962
709.786485	2550.823846
710.120742	2507.974038
710.454949	2646.605769
710.789107	2518.056346
711.123216	2550.823846
711.457275	2490.330000
711.791286	2462.603654
712.125247	2472.685962
712.459159	2477.727115
712.793023	2460.083077
713.126837	2515.535769
713.460602	2581.070769
713.794318	2434.877308
714.127985	2523.097500
714.461602	2480.247692
714.795171	2538.220962
715.128691	2525.618077
715.462162	2467.644808
715.795584	2530.659231
716.128957	2470.165385
716.462281	2492.850577
716.795556	2492.850577
717.128782	2487.809423
717.461960	2545.782692
717.795088	2439.918462
718.128167	2510.494615
718.461198	2520.576923
718.794180	2422.274423
719.127113	2462.603654
719.459997	2414.712692
719.792833	2520.576923
720.125619	2555.865000
720.458357	2601.235385
720.791046	2550.823846
721.123686	2523.097500
721.456278	2460.083077
721.788821	2528.138654
722.121315	2545.782692
722.453761	2530.659231
722.786158	2500.412308
723.118506	2480.247692
723.450805	2502.932885
723.783056	2492.850577
724.115259	2485.288846
724.447412	2480.247692
724.779518	2439.918462
725.111574	2485.288846
725.443582	2510.494615
725.775542	2472.685962
726.107453	2545.782692
726.439315	2535.700385
726.771129	2472.685962
727.102895	2515.535769
727.434612	2480.247692
727.766281	2502.932885
728.097901	2447.480192
728.429473	2490.330000
728.760996	2477.727115
729.092471	2570.988462
729.423897	2439.918462
729.755276	2487.809423
730.086606	2439.918462
730.417887	2523.097500
730.749120	2596.194231
731.080305	2565.947308
731.411442	2482.768269
731.742530	2515.535769
732.073570	2495.371154
732.404562	2447.480192
732.735506	2518.056346
733.066401	2515.535769
733.397249	2477.727115
733.728048	2462.603654
734.058798	2467.644808
734.389501	2507.974038
734.720156	2513.015192
735.050762	2376.904038
735.381320	2505.453462
735.711831	2487.809423
736.042293	2543.262115
736.372707	2460.083077
736.703073	2598.714808
737.033391	2528.138654
737.363661	2477.727115
737.693883	2505.453462
738.024056	2525.618077
738.354182	2492.850577
738.684260	2497.891731
739.014290	2487.809423
739.344272	2568.467885
739.674207	2422.274423
740.004093	2525.618077
740.333931	2437.397885
740.663722	2507.974038
740.993464	2472.685962
741.323159	2576.029615
741.652806	2497.891731
741.982405	2477.727115
742.311956	2467.644808
742.641460	2525.618077
742.970915	2442.439038
743.300323	2563.426731
743.629683	2442.439038
743.958996	2538.220962
744.288260	2482.768269
744.617477	2560.906154
744.946647	2485.288846
745.275768	2455.041923
745.604842	2533.179808
745.933869	2455.041923
746.262847	2455.041923
746.591778	2412.192115
746.920662	2472.685962
747.249498	2535.700385
747.578286	2518.056346
747.907027	2432.356731
748.235720	2570.988462
748.564365	2505.453462
748.892963	2497.891731
749.221514	2452.521346
749.550017	2505.453462
749.878473	2505.453462
750.206881	2523.097500
750.535242	2502.932885
750.863555	2550.823846
751.191821	2553.344423
751.520039	2477.727115
751.848210	2495.371154
752.176334	2475.206538
752.504411	2450.000769
752.832440	2455.041923
753.160421	2588.632500
753.488356	2578.550192
753.816243	2518.056346
754.144082	2460.083077
754.471875	2497.891731
754.799620	2432.356731
755.127318	2477.727115
755.454969	2502.932885
755.782572	2505.453462
756.110129	2452.521346
756.437638	2495.371154
756.765100	2497.891731
757.092515	2495.371154
757.419882	2518.056346
757.747203	2490.330000
758.074477	2482.768269
758.401703	2518.056346
758.728882	2523.097500
759.056014	2432.356731
759.383099	2530.659231
759.710138	2450.000769
760.037129	2497.891731
760.364073	2495.371154
760.690970	2470.165385
761.017820	2465.124231
761.344623	2520.576923
761.671379	2447.480192
761.998088	2482.768269
762.324751	2450.000769
762.651366	2472.685962
762.977935	2439.918462
763.304456	2462.603654
763.630931	2500.412308
763.957359	2455.041923
764.283740	2560.906154
764.610074	2414.712692
764.936362	2490.330000
765.262602	2560.906154
765.588796	2447.480192
765.914943	2475.206538
766.241044	2477.727115
766.567097	2460.083077
766.893104	2404.630385
767.219064	2462.603654
767.544978	2462.603654
767.870845	2437.397885
768.196665	2475.206538
768.522438	2482.768269
768.848165	2500.412308
769.173846	2439.918462
769.499479	2518.056346
769.825066	2432.356731
770.150607	2485.288846
770.476101	2485.288846
770.801548	2515.535769
771.126949	2462.603654
771.452303	2465.124231
771.777611	2472.685962
772.102872	2523.097500
772.428087	2457.562500
772.753256	2565.947308
773.078378	2513.015192
773.403453	2540.741538
773.728482	2500.412308
774.053465	2528.138654
774.378401	2502.932885
774.703291	2475.206538
775.028135	2455.041923
775.352932	2480.247692
775.677683	2538.220962
776.002388	2470.165385
776.327046	2442.439038
776.651658	2452.521346
776.976224	2525.618077
777.300743	2442.439038
777.625216	2465.124231
777.949643	2520.576923
778.274024	2419.753846
778.598359	2447.480192
778.922647	2480.247692
779.246889	2467.644808
779.571086	2444.959615
779.895236	2439.918462
780.219339	2477.727115
780.543397	2460.083077
780.867409	2543.262115
781.191374	2502.932885
781.515294	2475.206538
781.839167	2533.179808
782.162995	2475.206538
782.486776	2465.124231
782.810511	2545.782692
783.134201	2543.262115
783.457844	2515.535769
783.781441	2492.850577
784.104993	2432.356731
784.428498	2497.891731
784.751958	2540.741538
785.075372	2502.932885
785.398739	2475.206538
785.722061	2545.782692
786.045337	2528.138654
786.368568	2530.659231
786.691752	2434.877308
787.014891	2548.303269
787.337983	2558.385577
787.661030	2452.521346
787.984031	2404.630385
788.306987	2442.439038
788.629897	2502.932885
788.952760	2447.480192
789.275579	2409.671538
789.598351	2528.138654
789.921078	2409.671538
790.243759	2510.494615
790.566395	2467.644808
790.888984	2500.412308
791.211529	2477.727115
791.534027	2475.206538
791.856480	2495.371154
792.178888	2518.056346
792.501249	2565.947308
792.823566	2543.262115
793.145836	2442.439038
793.468062	2472.685962
793.790241	2427.315577
794.112375	2528.138654
794.434464	2540.741538
794.756507	2439.918462
795.078505	2485.288846
795.400457	2533.179808
795.722364	2447.480192
796.044226	2515.535769
796.366042	2515.535769
796.687812	2442.439038
797.009538	2500.412308
797.331218	2477.727115
797.652852	2487.809423
797.974442	2538.220962
798.295986	2540.741538
798.617484	2505.453462
798.938938	2533.179808
799.260346	2447.480192
799.581709	2447.480192
799.903026	2409.671538
800.224299	2492.850577
800.545526	2460.083077
800.866708	2513.015192
801.187845	2543.262115
801.508936	2515.535769
801.829983	2490.330000
802.150984	2475.206538
802.471940	2515.535769
802.792851	2470.165385
803.113717	2518.056346
803.434538	2409.671538
803.755314	2533.179808
804.076045	2533.179808
804.396731	2414.712692
804.717372	2442.439038
805.037967	2500.412308
805.358518	2460.083077
805.679024	2576.029615
805.999485	2502.932885
806.319901	2500.412308
806.640272	2525.618077
806.960598	2424.795000
807.280879	2452.521346
807.601115	2460.083077
807.921306	2515.535769
808.241453	2598.714808
808.561554	2442.439038
808.881611	2515.535769
809.201623	2460.083077
809.521590	2608.797115
809.841513	2467.644808
810.161390	2414.712692
810.481223	2533.179808
810.801011	2495.371154
811.120755	2553.344423
811.440453	2553.344423
811.760107	2427.315577
812.079716	2485.288846
812.399281	2502.932885
812.718801	2480.247692
813.038276	2455.041923
813.357707	2528.138654
813.677093	2518.056346
813.996434	2520.576923
814.315731	2606.276538
814.634983	2523.097500
814.954191	2558.385577
815.273354	2482.768269
815.592473	2515.535769
815.911547	2457.562500
816.230577	2439.918462
816.549562	2462.603654
816.868502	2495.371154
817.187399	2523.097500
817.506250	2492.850577
817.825058	2555.865000
818.143821	2540.741538
818.462539	2457.562500
818.781213	2424.795000
819.099843	2480.247692
819.418429	2447.480192
819.736970	2490.330000
820.055466	2518.056346
820.373919	2442.439038
820.692327	2429.836154
821.010691	2472.685962
821.329011	2535.700385
821.647286	2462.603654
821.965517	2419.753846
822.283704	2480.247692
822.601847	2560.906154
822.919945	2477.727115
823.237999	2404.630385
823.556010	2490.330000
823.873976	2444.959615
824.191897	2535.700385
824.509775	2477.727115
824.827609	2568.467885
825.145398	2535.700385
825.463144	2472.685962
825.780845	2457.562500
826.098502	2518.056346
826.416116	2507.974038
826.733685	2523.097500
827.051210	2500.412308
827.368692	2502.932885
827.686129	2507.974038
828.003522	2523.097500
828.320872	2369.342308
828.638177	2485.288846
828.955439	2545.782692
829.272656	2452.521346
829.589830	2465.124231
829.906960	2550.823846
830.224046	2482.768269
830.541088	2507.974038
830.858086	2555.865000
831.175041	2457.562500
831.491952	2560.906154
831.808819	2465.124231
832.125642	2467.644808
832.442421	2462.603654
832.759157	2598.714808
833.075849	2606.276538
833.392497	2533.179808
833.709101	2553.344423
834.025662	2500.412308
834.342179	2502.932885
834.658653	2462.603654
834.975083	2515.535769
835.291469	2485.288846
835.607811	2525.618077
835.924110	2460.083077
836.240366	2505.453462
836.556578	2477.727115
836.872746	2573.509038
837.188871	2538.220962
837.504952	2565.947308
837.820990	2432.356731
838.136984	2523.097500
838.452935	2439.918462
838.768842	2487.809423
839.084706	2538.220962
839.400526	2525.618077
839.716303	2455.041923
840.032037	2475.206538
840.347727	2558.385577
840.663373	2482.768269
840.978977	2523.097500
841.294537	2507.974038
841.610054	2497.891731
841.925527	2482.768269
842.240957	2470.165385
842.556344	2550.823846
842.871687	2472.685962
843.186987	2507.974038
843.502244	2465.124231
843.817458	2495.371154
844.132629	2576.029615
844.447756	2535.700385
844.762840	2457.562500
845.077881	2533.179808
845.392879	2492.850577
845.707833	2422.274423
846.022745	2523.097500
846.337613	2442.439038
846.652438	2455.041923
846.967221	2465.124231
847.281960	2535.700385
847.596656	2419.753846
847.911309	2439.918462
848.225919	2477.727115
848.540485	2472.685962
848.855009	2507.974038
849.169490	2500.412308
849.483928	2530.659231
849.798323	2528.138654
850.112675	2439.918462
850.426984	2442.439038
850.741251	2439.918462
851.055474	2555.865000
851.369654	2447.480192
851.683792	2525.618077
851.997887	2530.659231
852.311938	2439.918462
852.625947	2482.768269
852.939914	2487.809423
853.253837	2487.809423
853.567718	2500.412308
853.881555	2510.494615
854.195350	2490.330000
854.509103	2492.850577
854.822812	2492.850577
855.136479	2444.959615
855.450103	2535.700385
855.763685	2500.412308
856.077224	2470.165385
856.390720	2515.535769
856.704173	2538.220962
857.017584	2538.220962
857.330953	2525.618077
857.644278	2460.083077
857.957561	2513.015192
858.270802	2502.932885
858.584000	2533.179808
858.897155	2533.179808
859.210268	2470.165385
859.523339	2581.070769
859.836367	2490.330000
860.149352	2510.494615
860.462295	2444.959615
860.775195	2520.576923
861.088054	2460.083077
861.400869	2555.865000
861.713642	2576.029615
862.026373	2462.603654
862.339062	2500.412308
862.651708	2495.371154
862.964312	2573.509038
863.276873	2538.220962
863.589392	2460.083077
863.901869	2450.000769
864.214303	2548.303269
864.526696	2530.659231
864.839045	2563.426731
865.151353	2601.235385
865.463619	2455.041923
865.775842	2497.891731
866.088023	2525.618077
866.400162	2495.371154
866.712258	2475.206538
867.024313	2538.220962
867.336325	2472.685962
867.648296	2497.891731
867.960224	2538.220962
868.272110	2518.056346
868.583954	2432.356731
868.895755	2495.371154
869.207515	2593.673654
869.519233	2437.397885
869.830909	2427.315577
870.142542	2570.988462
870.454134	2492.850577
870.765684	2525.618077
871.077191	2518.056346
871.388657	2457.562500
871.700081	2555.865000
872.011463	2480.247692
872.322803	2523.097500
872.634101	2492.850577
872.945357	2533.179808
873.256571	2568.467885
873.567744	2424.795000
873.878874	2535.700385
874.189963	2550.823846
874.501010	2465.124231
874.812015	2507.974038
875.122979	2462.603654
875.433900	2472.685962
875.744780	2565.947308
876.055618	2523.097500
876.366415	2442.439038
876.677169	2424.795000
876.987882	2475.206538
877.298554	2482.768269
877.609183	2475.206538
877.919771	2429.836154
878.230317	2482.768269
878.540822	2487.809423
878.851285	2439.918462
879.161707	2502.932885
879.472087	2450.000769
879.782425	2565.947308
880.092722	2492.850577
880.402977	2419.753846
880.713191	2510.494615
881.023363	2439.918462
881.333494	2447.480192
881.643583	2515.535769
881.953631	2495.371154
882.263637	2470.165385
882.573602	2505.453462
882.883526	2568.467885
883.193408	2497.891731
883.503248	2548.303269
883.813048	2450.000769
884.122806	2548.303269
884.432522	2558.385577
884.742197	2513.015192
885.051831	2538.220962
885.361424	2424.795000
885.670975	2497.891731
885.980485	2407.150962
886.289954	2470.165385
886.599382	2412.192115
886.908768	2507.974038
887.218113	2447.480192
887.527417	2482.768269
887.836680	2495.371154
888.145901	2540.741538
888.455082	2523.097500
888.764221	2452.521346
889.073319	2490.330000
889.382376	2487.809423
889.691392	2525.618077
890.000366	2470.165385
890.309300	2465.124231
890.618193	2490.330000
890.927044	2507.974038
891.235855	2437.397885
891.544625	2495.371154
891.853353	2477.727115
892.162041	2565.947308
892.470687	2533.179808
892.779293	2558.385577
893.087858	2523.097500
893.396381	2492.850577
893.704864	2457.562500
894.013306	2550.823846
894.321707	2487.809423
894.630068	2505.453462
894.938387	2369.342308
895.246665	2397.068654
895.554903	2470.165385
895.863100	2497.891731
896.171256	2472.685962
896.479371	2520.576923
896.787446	2528.138654
897.095480	2535.700385
897.403473	2462.603654
897.711425	2460.083077
898.019336	2485.288846
898.327207	2502.932885
898.635038	2548.303269
898.942827	2555.865000
899.250576	2550.823846
899.558284	2467.644808
899.865952	2530.659231
900.173579	2528.138654
900.481165	2497.891731
900.788711	2485.288846
901.096216	2472.685962
901.403681	2535.700385
901.711105	2457.562500
902.018489	2477.727115
902.325832	2482.768269
902.633135	2490.330000
902.940397	2523.097500
903.247619	2598.714808
903.554800	2457.562500
903.861941	2500.412308
904.169041	2465.124231
904.476101	2520.576923
904.783121	2507.974038
905.090100	2497.891731
905.397039	2540.741538
905.703938	2497.891731
906.010796	2515.535769
906.317614	2437.397885
906.624391	2482.768269
906.931129	2530.659231
907.237826	2477.727115
907.544483	2462.603654
907.851099	2432.356731
908.157675	2444.959615
908.464211	2525.618077
908.770707	2563.426731
909.077163	2510.494615
909.383578	2530.659231
909.689954	2482.768269
909.996289	2523.097500
910.302584	2510.494615
910.608839	2555.865000
910.915054	2485.288846
911.221229	2429.836154
911.527363	2480.247692
911.833458	2555.865000
912.139513	2518.056346
912.445527	2447.480192
912.751502	2555.865000
913.057436	2581.070769
913.363331	2492.850577
913.669186	2452.521346
913.975000	2477.727115
914.280775	2447.480192
914.586510	2465.124231
914.892205	2505.453462
915.197859	2409.671538
915.503475	2487.809423
915.809050	2472.685962
916.114585	2462.603654
916.420081	2497.891731
916.725536	2515.535769
917.030952	2538.220962
917.336328	2480.247692
917.641665	2490.330000
917.946961	2487.809423
918.252218	2432.356731
918.557435	2467.644808
918.862612	2399.589231
919.167750	2480.247692
919.472848	2477.727115
919.777906	2480.247692
920.082925	2482.768269
920.387904	2500.412308
920.692843	2429.836154
920.997743	2502.932885
921.302603	2450.000769
921.607423	2434.877308
921.912204	2419.753846
922.216946	2545.782692
922.521647	2490.330000
922.826310	2495.371154
923.130932	2417.233269
923.435516	2429.836154
923.740059	2472.685962
924.044564	2500.412308
924.349028	2422.274423
924.653454	2528.138654
924.957840	2455.041923
925.262186	2409.671538
925.566493	2439.918462
925.870761	2535.700385
926.174989	2507.974038
926.479178	2507.974038
926.783328	2475.206538
927.087438	2470.165385
927.391509	2548.303269
927.695541	2538.220962
927.999533	2467.644808
928.303486	2502.932885
928.607400	2525.618077
928.911275	2523.097500
929.215110	2452.521346
929.518906	2523.097500
929.822663	2465.124231
930.126381	2558.385577
930.430060	2520.576923
930.733699	2480.247692
931.037299	2495.371154
931.340861	2472.685962
931.644383	2523.097500
931.947866	2505.453462
932.251309	2530.659231
932.554714	2457.562500
932.858080	2389.506923
933.161407	2540.741538
933.464694	2568.467885
933.767943	2470.165385
934.071153	2507.974038
934.374323	2434.877308
934.677455	2470.165385
934.980548	2513.015192
935.283602	2545.782692
935.586617	2593.673654
935.889593	2417.233269
936.192530	2490.330000
936.495428	2460.083077
936.798287	2502.932885
937.101108	2525.618077
937.403890	2523.097500
937.706632	2515.535769
938.009336	2535.700385
938.312002	2434.877308
938.614628	2457.562500
938.917216	2525.618077
939.219765	2442.439038
939.522275	2452.521346
939.824747	2548.303269
940.127179	2578.550192
940.429573	2376.904038
940.731929	2490.330000
941.034246	2434.877308
941.336524	2487.809423
941.638763	2513.015192
941.940964	2487.809423
942.243126	2495.371154
942.545250	2553.344423
942.847335	2422.274423
943.149381	2515.535769
943.451389	2412.192115
943.753359	2432.356731
944.055290	2444.959615
944.357182	2550.823846
944.659036	2538.220962
944.960851	2550.823846
945.262628	2434.877308
945.564367	2487.809423
945.866067	2510.494615
946.167729	2472.685962
946.469352	2485.288846
946.770937	2472.685962
947.072484	2502.932885
947.373992	2470.165385
947.675462	2525.618077
947.976893	2558.385577
948.278286	2576.029615
948.579641	2515.535769
948.880958	2465.124231
949.182236	2558.385577
949.483476	2482.768269
949.784678	2437.397885
950.085841	2528.138654
950.386967	2427.315577
950.688054	2467.644808
950.989103	2586.111923
951.290114	2502.932885
951.591087	2462.603654
951.892021	2381.945192
952.192917	2487.809423
952.493776	2497.891731
952.794596	2439.918462
953.095378	2535.700385
953.396122	2485.288846
953.696828	2497.891731
953.997496	2472.685962
954.298126	2490.330000
954.598718	2452.521346
954.899272	2422.274423
955.199788	2548.303269
955.500266	2475.206538
955.800706	2404.630385
956.101108	2520.576923
956.401472	2475.206538
956.701798	2407.150962
957.002087	2442.439038
957.302337	2457.562500
957.602550	2515.535769
957.902724	2563.426731
958.202861	2563.426731
958.502960	2460.083077
958.803022	2553.344423
959.103045	2452.521346
959.403031	2485.288846
959.702979	2505.453462
960.002889	2485.288846
960.302762	2520.576923
960.602596	2500.412308
960.902393	2482.768269
961.202153	2482.768269
961.501875	2477.727115
961.801559	2520.576923
962.101205	2500.412308
962.400814	2470.165385
962.700385	2439.918462
962.999918	2528.138654
963.299414	2495.371154
963.598873	2495.371154
963.898293	2525.618077
964.197677	2505.453462
964.497022	2407.150962
964.796331	2523.097500
965.095601	2492.850577
965.394835	2507.974038
965.694030	2447.480192
965.993189	2442.439038
966.292309	2429.836154
966.591393	2460.083077
966.890439	2513.015192
967.189447	2482.768269
967.488419	2470.165385
967.787353	2475.206538
968.086249	2570.988462
968.385108	2444.959615
968.683930	2465.124231
968.982714	2480.247692
969.281462	2477.727115
969.580172	2460.083077
969.878844	2543.262115
970.177480	2472.685962
970.476078	2414.712692
970.774639	2497.891731
971.073162	2555.865000
971.371649	2439.918462
971.670098	2490.330000
971.968510	2467.644808
972.266885	2442.439038
972.565223	2518.056346
972.863524	2450.000769
973.161788	2510.494615
973.460014	2487.809423
973.758204	2545.782692
974.056356	2457.562500
974.354471	2530.659231
974.652550	2485.288846
974.950591	2472.685962
975.248595	2457.562500
975.546563	2518.056346
975.844493	2495.371154
976.142386	2502.932885
976.440243	2465.124231
976.738062	2482.768269
977.035845	2432.356731
977.333590	2472.685962
977.631299	2581.070769
977.928971	2402.109808
978.226606	2470.165385
978.524204	2515.535769
978.821765	2505.453462
979.119290	2510.494615
979.416777	2560.906154
979.714228	2485.288846
980.011642	2457.562500
980.309020	2392.027500
980.606360	2480.247692
980.903664	2500.412308
981.200931	2558.385577
981.498162	2553.344423
981.795356	2500.412308
982.092513	2424.795000
982.389633	2450.000769
982.686717	2462.603654
982.983764	2505.453462
983.280775	2500.412308
983.577749	2457.562500
983.874686	2540.741538
984.171587	2475.206538
984.468451	2477.727115
984.765279	2455.041923
985.062070	2472.685962
985.358824	2500.412308
985.655543	2457.562500
985.952224	2402.109808
986.248869	2427.315577
986.545478	2510.494615
986.842050	2565.947308
987.138586	2432.356731
987.435086	2460.083077
987.731549	2462.603654
988.027975	2596.194231
988.324366	2487.809423
988.620719	2525.618077
988.917037	2515.535769
989.213318	2596.194231
989.509563	2457.562500
989.805772	2487.809423
990.101944	2412.192115
990.398080	2492.850577
990.694180	2381.945192
990.990244	2477.727115
991.286271	2452.521346
991.582262	2450.000769
991.878217	2470.165385
992.174136	2475.206538
992.470019	2457.562500
992.765865	2510.494615
993.061676	2480.247692
993.357450	2419.753846
993.653188	2523.097500
993.948890	2528.138654
994.244556	2540.741538
994.540186	2490.330000
994.835780	2530.659231
995.131337	2510.494615
995.426859	2507.974038
995.722345	2545.782692
996.017795	2475.206538
996.313208	2485.288846
996.608586	2450.000769
996.903928	2533.179808
997.199234	2492.850577
997.494504	2523.097500
997.789738	2518.056346
998.084936	2485.288846
998.380099	2480.247692
998.675225	2500.412308
998.970316	2480.247692
999.265371	2528.138654
999.560390	2442.439038
999.855373	2500.412308
1000.150320	2495.371154
1000.445232	2460.083077
1000.740108	2447.480192
1001.034948	2444.959615
1001.329752	2450.000769
1001.624521	2497.891731
1001.919254	2530.659231
1002.213951	2442.439038
1002.508613	2502.932885
1002.803239	2465.124231
1003.097829	2472.685962
1003.392384	2500.412308
1003.686903	2460.083077
1003.981386	2515.535769
1004.275834	2502.932885
1004.570246	2530.659231
1004.864623	2515.535769
1005.158964	2470.165385
1005.453270	2533.179808
1005.747540	2540.741538
1006.041775	2515.535769
1006.335974	2417.233269
1006.630138	2555.865000
1006.924266	2525.618077
1007.218359	2560.906154
1007.512416	2437.397885
1007.806438	2548.303269
1008.100425	2487.809423
1008.394376	2563.426731
1008.688292	2424.795000
1008.982172	2553.344423
1009.276017	2523.097500
1009.569827	2507.974038
1009.863602	2485.288846
1010.157341	2452.521346
1010.451045	2611.317692
1010.744714	2424.795000
1011.038347	2528.138654
1011.331945	2477.727115
1011.625508	2465.124231
1011.919036	2495.371154
1012.212528	2462.603654
1012.505986	2492.850577
1012.799408	2472.685962
1013.092795	2462.603654
1013.386147	2467.644808
1013.679464	2530.659231
1013.972745	2515.535769
1014.265992	2495.371154
1014.559204	2470.165385
1014.852380	2482.768269
1015.145521	2444.959615
1015.438628	2462.603654
1015.731699	2467.644808
1016.024736	2444.959615
1016.317737	2439.918462
1016.610703	2447.480192
1016.903635	2429.836154
1017.196531	2497.891731
1017.489393	2402.109808
1017.782219	2500.412308
1018.075011	2538.220962
1018.367768	2505.453462
1018.660490	2462.603654
1018.953177	2462.603654
1019.245829	2462.603654
