Dividing Wavelength (nm)	Counts (n)	Blue Motor Position (mm): 6.500000	Red Motor Position (mm): 0.000000	
326.493990	2092.078846
326.888308	2092.078846
327.282561	2092.078846
327.676750	2117.284615
328.070874	2059.311346
328.464933	2094.599423
328.858929	2081.996538
329.252859	1988.735192
329.646726	2041.667308
330.040528	2097.120000
330.434265	2069.393654
330.827938	2139.969808
331.221547	2162.655000
331.615091	2155.093269
332.008571	2187.860769
332.401986	2268.519231
332.795338	2253.395769
333.188625	2225.669423
333.581847	2245.834038
333.975006	2288.683846
334.368100	2334.054231
334.761129	2316.410192
335.154095	2386.986346
335.546996	2306.327885
335.939833	2444.959615
336.332606	2381.945192
336.725315	2376.904038
337.117960	2366.821731
337.510540	2442.439038
337.903056	2386.986346
338.295508	2465.124231
338.687896	2392.027500
339.080220	2467.644808
339.472480	2450.000769
339.864676	2452.521346
340.256807	2442.439038
340.648875	2404.630385
341.040879	2513.015192
341.432818	2434.877308
341.824694	2530.659231
342.216506	2460.083077
342.608253	2492.850577
342.999937	2505.453462
343.391557	2538.220962
343.783113	2470.165385
344.174605	2465.124231
344.566033	2434.877308
344.957397	2472.685962
345.348697	2447.480192
345.739934	2414.712692
346.131106	2386.986346
346.522215	2417.233269
346.913260	2444.959615
347.304241	2467.644808
347.695159	2457.562500
348.086012	2452.521346
348.476802	2407.150962
348.867528	2482.768269
349.258191	2412.192115
349.648789	2457.562500
350.039324	2389.506923
350.429796	2472.685962
350.820203	2515.535769
351.210548	2349.177692
351.600828	2523.097500
351.991045	2389.506923
352.381198	2535.700385
352.771288	2366.821731
353.161314	2475.206538
353.551276	2485.288846
353.941175	2505.453462
354.331010	2487.809423
354.720782	2361.780577
355.110490	2437.397885
355.500135	2386.986346
355.889717	2477.727115
356.279235	2407.150962
356.668689	2349.177692
357.058080	2417.233269
357.447408	2462.603654
357.836672	2548.303269
358.225873	2407.150962
358.615010	2485.288846
359.004084	2457.562500
359.393095	2485.288846
359.782043	2497.891731
360.170927	2507.974038
360.559748	2472.685962
360.948505	2472.685962
361.337199	2432.356731
361.725830	2482.768269
362.114398	2427.315577
362.502903	2394.548077
362.891344	2414.712692
363.279722	2439.918462
363.668037	2414.712692
364.056289	2457.562500
364.444478	2492.850577
364.832603	2477.727115
365.220665	2379.424615
365.608665	2497.891731
365.996601	2462.603654
366.384474	2520.576923
366.772284	2487.809423
367.160031	2480.247692
367.547715	2417.233269
367.935336	2394.548077
368.322893	2455.041923
368.710388	2427.315577
369.097820	2389.506923
369.485189	2502.932885
369.872495	2422.274423
370.259738	2457.562500
370.646918	2462.603654
371.034035	2419.753846
371.421090	2450.000769
371.808081	2500.412308
372.195010	2366.821731
372.581875	2455.041923
372.968678	2384.465769
373.355418	2475.206538
373.742096	2460.083077
374.128710	2462.603654
374.515262	2432.356731
374.901751	2467.644808
375.288177	2467.644808
375.674540	2424.795000
376.060841	2450.000769
376.447079	2424.795000
376.833254	2371.862885
377.219367	2477.727115
377.605417	2452.521346
377.991404	2450.000769
378.377329	2472.685962
378.763191	2389.506923
379.148991	2477.727115
379.534727	2404.630385
379.920402	2480.247692
380.306013	2485.288846
380.691563	2389.506923
381.077049	2442.439038
381.462474	2462.603654
381.847835	2525.618077
382.233134	2482.768269
382.618371	2399.589231
383.003545	2591.153077
383.388657	2419.753846
383.773706	2422.274423
384.158693	2429.836154
384.543618	2490.330000
384.928480	2495.371154
385.313280	2460.083077
385.698017	2570.988462
386.082692	2409.671538
386.467305	2434.877308
386.851856	2452.521346
387.236344	2424.795000
387.620770	2460.083077
388.005133	2470.165385
388.389435	2366.821731
388.773674	2444.959615
389.157851	2422.274423
389.541965	2525.618077
389.926018	2409.671538
390.310008	2402.109808
390.693936	2618.879423
391.077802	2485.288846
391.461606	2513.015192
391.845348	2434.877308
392.229027	2424.795000
392.612645	2457.562500
392.996200	2407.150962
393.379694	2500.412308
393.763125	2437.397885
394.146494	2457.562500
394.529801	2402.109808
394.913047	2452.521346
395.296230	2525.618077
395.679351	2523.097500
396.062410	2513.015192
396.445408	2495.371154
396.828343	2515.535769
397.211217	2472.685962
397.594028	2434.877308
397.976778	2505.453462
398.359466	2442.439038
398.742092	2507.974038
399.124656	2434.877308
399.507158	2472.685962
399.889598	2487.809423
400.271977	2424.795000
400.654294	2457.562500
401.036549	2482.768269
401.418742	2475.206538
401.800874	2422.274423
402.182944	2397.068654
402.564952	2548.303269
402.946898	2475.206538
403.328783	2523.097500
403.710606	2465.124231
404.092367	2538.220962
404.474067	2457.562500
404.855705	2437.397885
405.237282	2530.659231
405.618797	2437.397885
406.000250	2518.056346
406.381642	2457.562500
406.762972	2427.315577
407.144240	2465.124231
407.525447	2457.562500
407.906593	2427.315577
408.287677	2518.056346
408.668700	2477.727115
409.049661	2412.192115
409.430560	2482.768269
409.811399	2437.397885
410.192176	2462.603654
410.572891	2472.685962
410.953545	2465.124231
411.334138	2490.330000
411.714669	2432.356731
412.095139	2515.535769
412.475547	2414.712692
412.855894	2442.439038
413.236180	2434.877308
413.616405	2470.165385
413.996568	2447.480192
414.376670	2588.632500
414.756711	2510.494615
415.136691	2558.385577
415.516609	2495.371154
415.896466	2397.068654
416.276262	2497.891731
416.655997	2465.124231
417.035670	2477.727115
417.415283	2513.015192
417.794834	2472.685962
418.174324	2518.056346
418.553753	2538.220962
418.933121	2437.397885
419.312428	2475.206538
419.691674	2485.288846
420.070859	2507.974038
420.449983	2528.138654
420.829045	2452.521346
421.208047	2528.138654
421.586988	2417.233269
421.965867	2462.603654
422.344686	2422.274423
422.723444	2485.288846
423.102141	2447.480192
423.480777	2548.303269
423.859352	2394.548077
424.237866	2540.741538
424.616319	2497.891731
424.994712	2407.150962
425.373044	2528.138654
425.751314	2472.685962
426.129524	2460.083077
426.507673	2487.809423
426.885762	2482.768269
427.263789	2482.768269
427.641756	2364.301154
428.019662	2525.618077
428.397508	2568.467885
428.775292	2515.535769
429.153016	2500.412308
429.530679	2548.303269
429.908282	2457.562500
430.285824	2477.727115
430.663305	2412.192115
431.040726	2455.041923
431.418086	2432.356731
431.795385	2422.274423
432.172624	2477.727115
432.549802	2470.165385
432.926920	2548.303269
433.303977	2414.712692
433.680974	2490.330000
434.057910	2502.932885
434.434786	2510.494615
434.811601	2518.056346
435.188355	2487.809423
435.565050	2424.795000
435.941683	2485.288846
436.318257	2429.836154
436.694770	2533.179808
437.071222	2407.150962
437.447614	2513.015192
437.823946	2507.974038
438.200218	2525.618077
438.576429	2409.671538
438.952580	2472.685962
439.328670	2394.548077
439.704700	2381.945192
440.080670	2477.727115
440.456580	2434.877308
440.832429	2545.782692
441.208218	2563.426731
441.583947	2404.630385
441.959616	2518.056346
442.335224	2523.097500
442.710773	2462.603654
443.086261	2560.906154
443.461689	2573.509038
443.837057	2502.932885
444.212365	2455.041923
444.587612	2500.412308
444.962800	2480.247692
445.337927	2475.206538
445.712995	2475.206538
446.088002	2492.850577
446.462949	2515.535769
446.837837	2545.782692
447.212664	2492.850577
447.587431	2487.809423
447.962139	2535.700385
448.336786	2452.521346
448.711374	2447.480192
449.085901	2510.494615
449.460369	2553.344423
449.834776	2518.056346
450.209124	2515.535769
450.583412	2407.150962
450.957640	2530.659231
451.331808	2490.330000
451.705917	2407.150962
452.079965	2467.644808
452.453954	2492.850577
452.827883	2495.371154
453.201752	2495.371154
453.575562	2487.809423
453.949311	2553.344423
454.323001	2485.288846
454.696632	2528.138654
455.070202	2467.644808
455.443713	2477.727115
455.817164	2424.795000
456.190556	2518.056346
456.563888	2447.480192
456.937160	2518.056346
457.310373	2432.356731
457.683526	2457.562500
458.056619	2588.632500
458.429653	2533.179808
458.802628	2452.521346
459.175542	2500.412308
459.548398	2553.344423
459.921194	2447.480192
460.293930	2480.247692
460.666607	2455.041923
461.039224	2485.288846
461.411782	2485.288846
461.784280	2513.015192
462.156719	2379.424615
462.529099	2487.809423
462.901419	2467.644808
463.273680	2482.768269
463.645882	2505.453462
464.018024	2505.453462
464.390106	2437.397885
464.762130	2528.138654
465.134094	2394.548077
465.505999	2442.439038
465.877845	2427.315577
466.249631	2507.974038
466.621358	2427.315577
466.993026	2513.015192
467.364634	2460.083077
467.736184	2507.974038
468.107674	2523.097500
468.479105	2558.385577
468.850477	2460.083077
469.221790	2444.959615
469.593043	2452.521346
469.964238	2560.906154
470.335373	2432.356731
470.706449	2475.206538
471.077467	2533.179808
471.448425	2434.877308
471.819324	2515.535769
472.190164	2535.700385
472.560945	2462.603654
472.931667	2515.535769
473.302330	2437.397885
473.672934	2482.768269
474.043479	2477.727115
474.413965	2495.371154
474.784393	2442.439038
475.154761	2462.603654
475.525070	2520.576923
475.895321	2568.467885
476.265513	2447.480192
476.635645	2550.823846
477.005719	2480.247692
477.375734	2520.576923
477.745691	2432.356731
478.115588	2467.644808
478.485427	2419.753846
478.855207	2460.083077
479.224928	2535.700385
479.594591	2490.330000
479.964194	2397.068654
480.333739	2429.836154
480.703226	2480.247692
481.072653	2548.303269
481.442022	2465.124231
481.811333	2507.974038
482.180584	2424.795000
482.549777	2495.371154
482.918912	2558.385577
483.287988	2502.932885
483.657005	2553.344423
484.025964	2462.603654
484.394864	2482.768269
484.763706	2528.138654
485.132489	2510.494615
485.501213	2490.330000
485.869879	2505.453462
486.238487	2480.247692
486.607036	2518.056346
486.975527	2555.865000
487.343959	2434.877308
487.712333	2477.727115
488.080648	2510.494615
488.448905	2533.179808
488.817104	2447.480192
489.185244	2568.467885
489.553326	2442.439038
489.921350	2581.070769
490.289315	2515.535769
490.657222	2588.632500
491.025070	2507.974038
491.392861	2530.659231
491.760593	2450.000769
492.128267	2513.015192
492.495883	2528.138654
492.863440	2482.768269
493.230939	2465.124231
493.598380	2475.206538
493.965763	2475.206538
494.333088	2417.233269
494.700354	2470.165385
495.067563	2487.809423
495.434713	2472.685962
495.801805	2437.397885
496.168839	2523.097500
496.535815	2439.918462
496.902733	2538.220962
497.269593	2500.412308
497.636395	2356.739423
498.003139	2500.412308
498.369825	2465.124231
498.736453	2583.591346
499.103023	2520.576923
499.469535	2492.850577
499.835989	2470.165385
500.202385	2553.344423
500.568723	2419.753846
500.935003	2525.618077
501.301226	2450.000769
501.667390	2444.959615
502.033497	2520.576923
502.399546	2465.124231
502.765537	2523.097500
503.131470	2606.276538
503.497345	2513.015192
503.863163	2540.741538
504.228923	2543.262115
504.594625	2475.206538
504.960269	2548.303269
505.325856	2535.700385
505.691385	2510.494615
506.056856	2510.494615
506.422270	2513.015192
506.787625	2472.685962
507.152924	2487.809423
507.518164	2530.659231
507.883347	2424.795000
508.248472	2525.618077
508.613540	2465.124231
508.978550	2502.932885
509.343503	2475.206538
509.708398	2462.603654
510.073236	2442.439038
510.438016	2492.850577
510.802738	2530.659231
511.167403	2523.097500
511.532010	2510.494615
511.896561	2404.630385
512.261053	2450.000769
512.625488	2500.412308
512.989866	2500.412308
513.354186	2500.412308
513.718449	2492.850577
514.082655	2500.412308
514.446803	2520.576923
514.810894	2505.453462
515.174927	2540.741538
515.538904	2465.124231
515.902822	2540.741538
516.266684	2545.782692
516.630488	2502.932885
516.994235	2560.906154
517.357925	2467.644808
517.721558	2520.576923
518.085133	2548.303269
518.448651	2470.165385
518.812112	2495.371154
519.175516	2467.644808
519.538863	2475.206538
519.902152	2523.097500
520.265385	2424.795000
520.628560	2548.303269
520.991678	2593.673654
521.354739	2397.068654
521.717743	2525.618077
522.080690	2487.809423
522.443580	2487.809423
522.806413	2490.330000
523.169189	2558.385577
523.531908	2442.439038
523.894569	2472.685962
524.257174	2553.344423
524.619722	2480.247692
524.982213	2578.550192
525.344647	2465.124231
525.707025	2444.959615
526.069345	2470.165385
526.431608	2500.412308
526.793815	2513.015192
527.155964	2497.891731
527.518057	2472.685962
527.880093	2581.070769
528.242072	2495.371154
528.603995	2475.206538
528.965860	2558.385577
529.327669	2495.371154
529.689421	2495.371154
530.051117	2492.850577
530.412755	2427.315577
530.774337	2472.685962
531.135862	2507.974038
531.497331	2482.768269
531.858743	2444.959615
532.220098	2502.932885
532.581396	2515.535769
532.942638	2432.356731
533.303824	2550.823846
533.664953	2533.179808
534.026025	2490.330000
534.387040	2482.768269
534.747999	2450.000769
535.108902	2540.741538
535.469748	2495.371154
535.830537	2505.453462
536.191270	2444.959615
536.551947	2520.576923
536.912567	2490.330000
537.273131	2477.727115
537.633638	2568.467885
537.994089	2543.262115
538.354483	2475.206538
538.714821	2500.412308
539.075103	2422.274423
539.435328	2502.932885
539.795497	2409.671538
540.155609	2523.097500
540.515665	2460.083077
540.875665	2540.741538
541.235609	2485.288846
541.595496	2439.918462
541.955328	2475.206538
542.315102	2515.535769
542.674821	2505.453462
543.034483	2507.974038
543.394090	2450.000769
543.753640	2462.603654
544.113134	2513.015192
544.472571	2452.521346
544.831953	2422.274423
545.191278	2515.535769
545.550548	2570.988462
545.909761	2475.206538
546.268918	2475.206538
546.628019	2480.247692
546.987064	2417.233269
547.346053	2490.330000
547.704986	2598.714808
548.063863	2518.056346
548.422684	2475.206538
548.781449	2447.480192
549.140158	2550.823846
549.498811	2447.480192
549.857408	2573.509038
550.215949	2497.891731
550.574434	2462.603654
550.932864	2444.959615
551.291237	2573.509038
551.649555	2490.330000
552.007817	2492.850577
552.366022	2515.535769
552.724173	2518.056346
553.082267	2460.083077
553.440305	2545.782692
553.798288	2540.741538
554.156215	2497.891731
554.514086	2497.891731
554.871902	2455.041923
555.229661	2482.768269
555.587365	2470.165385
555.945014	2538.220962
556.302606	2553.344423
556.660143	2548.303269
557.017625	2530.659231
557.375050	2495.371154
557.732421	2432.356731
558.089735	2470.165385
558.446994	2502.932885
558.804197	2540.741538
559.161345	2533.179808
559.518437	2404.630385
559.875474	2510.494615
560.232455	2510.494615
560.589381	2450.000769
560.946251	2545.782692
561.303065	2457.562500
561.659825	2530.659231
562.016528	2560.906154
562.373177	2535.700385
562.729770	2533.179808
563.086307	2472.685962
563.442789	2530.659231
563.799216	2455.041923
564.155587	2518.056346
564.511904	2480.247692
564.868164	2490.330000
565.224370	2520.576923
565.580520	2553.344423
565.936615	2568.467885
566.292654	2490.330000
566.648638	2545.782692
567.004567	2485.288846
567.360441	2490.330000
567.716260	2528.138654
568.072023	2495.371154
568.427732	2523.097500
568.783385	2523.097500
569.138982	2480.247692
569.494525	2467.644808
569.850013	2492.850577
570.205445	2535.700385
570.560823	2455.041923
570.916145	2465.124231
571.271412	2543.262115
571.626625	2510.494615
571.981782	2513.015192
572.336884	2548.303269
572.691931	2523.097500
573.046923	2470.165385
573.401860	2424.795000
573.756743	2581.070769
574.111570	2457.562500
574.466342	2409.671538
574.821059	2434.877308
575.175722	2548.303269
575.530330	2515.535769
575.884882	2558.385577
576.239380	2495.371154
576.593823	2563.426731
576.948211	2432.356731
577.302544	2573.509038
577.656823	2487.809423
578.011047	2533.179808
578.365216	2444.959615
578.719330	2540.741538
579.073389	2520.576923
579.427394	2593.673654
579.781344	2500.412308
580.135239	2492.850577
580.489080	2535.700385
580.842866	2555.865000
581.196597	2596.194231
581.550273	2485.288846
581.903895	2470.165385
582.257463	2462.603654
582.610975	2533.179808
582.964434	2507.974038
583.317837	2533.179808
583.671186	2576.029615
584.024481	2515.535769
584.377721	2490.330000
584.730906	2523.097500
585.084037	2510.494615
585.437113	2533.179808
585.790135	2507.974038
586.143103	2470.165385
586.496016	2460.083077
586.848874	2515.535769
587.201679	2510.494615
587.554428	2528.138654
587.907124	2495.371154
588.259765	2450.000769
588.612352	2543.262115
588.964884	2510.494615
589.317362	2528.138654
589.669786	2492.850577
590.022155	2500.412308
590.374470	2429.836154
590.726731	2419.753846
591.078937	2507.974038
591.431090	2480.247692
591.783188	2565.947308
592.135232	2555.865000
592.487222	2480.247692
592.839157	2472.685962
593.191038	2525.618077
593.542866	2462.603654
593.894639	2528.138654
594.246358	2465.124231
594.598022	2555.865000
594.949633	2558.385577
595.301190	2510.494615
595.652692	2568.467885
596.004141	2457.562500
596.355535	2482.768269
596.706876	2482.768269
597.058162	2570.988462
597.409395	2447.480192
597.760573	2417.233269
598.111698	2500.412308
598.462768	2455.041923
598.813785	2510.494615
599.164748	2467.644808
599.515657	2523.097500
599.866511	2505.453462
600.217312	2538.220962
600.568060	2490.330000
600.918753	2528.138654
601.269392	2465.124231
601.619978	2502.932885
601.970510	2477.727115
602.320988	2450.000769
602.671412	2507.974038
603.021783	2563.426731
603.372100	2545.782692
603.722363	2497.891731
604.072572	2586.111923
604.422728	2472.685962
604.772830	2520.576923
605.122878	2452.521346
605.472872	2533.179808
605.822813	2507.974038
606.172701	2495.371154
606.522534	2470.165385
606.872314	2530.659231
607.222041	2560.906154
607.571714	2482.768269
607.921333	2417.233269
608.270899	2434.877308
608.620411	2505.453462
608.969870	2465.124231
609.319276	2455.041923
609.668627	2497.891731
610.017926	2432.356731
610.367171	2492.850577
610.716362	2482.768269
611.065500	2502.932885
611.414585	2487.809423
611.763616	2510.494615
612.112594	2450.000769
612.461518	2470.165385
612.810389	2460.083077
613.159207	2447.480192
613.507971	2560.906154
613.856682	2520.576923
614.205340	2394.548077
614.553945	2419.753846
614.902496	2412.192115
615.250994	2465.124231
615.599439	2480.247692
615.947830	2533.179808
616.296169	2500.412308
616.644454	2505.453462
616.992686	2548.303269
617.340864	2525.618077
617.688990	2560.906154
618.037063	2439.918462
618.385082	2573.509038
618.733048	2528.138654
619.080961	2492.850577
619.428821	2455.041923
619.776628	2535.700385
620.124382	2470.165385
620.472083	2507.974038
620.819731	2530.659231
621.167326	2487.809423
621.514868	2437.397885
621.862357	2475.206538
622.209793	2497.891731
622.557176	2525.618077
622.904506	2507.974038
623.251783	2538.220962
623.599007	2487.809423
623.946179	2502.932885
624.293297	2492.850577
624.640363	2472.685962
624.987376	2502.932885
625.334336	2492.850577
625.681243	2520.576923
626.028097	2460.083077
626.374899	2510.494615
626.721647	2455.041923
627.068343	2530.659231
627.414987	2555.865000
627.761577	2404.630385
628.108115	2424.795000
628.454600	2543.262115
628.801032	2439.918462
629.147412	2568.467885
629.493739	2502.932885
629.840014	2487.809423
630.186236	2475.206538
630.532405	2515.535769
630.878521	2447.480192
631.224585	2485.288846
631.570597	2492.850577
631.916556	2472.685962
632.262462	2452.521346
632.608316	2457.562500
632.954117	2548.303269
633.299866	2465.124231
633.645562	2505.453462
633.991206	2525.618077
634.336797	2543.262115
634.682336	2497.891731
635.027823	2523.097500
635.373257	2497.891731
635.718639	2482.768269
636.063968	2419.753846
636.409245	2502.932885
636.754470	2525.618077
637.099642	2477.727115
637.444762	2550.823846
637.789829	2505.453462
638.134845	2570.988462
638.479808	2487.809423
638.824719	2528.138654
639.169577	2470.165385
639.514383	2502.932885
639.859137	2460.083077
640.203839	2523.097500
640.548489	2452.521346
640.893086	2470.165385
641.237632	2455.041923
641.582125	2515.535769
641.926566	2480.247692
642.270955	2495.371154
642.615292	2419.753846
642.959576	2422.274423
643.303809	2502.932885
643.647990	2495.371154
643.992118	2513.015192
644.336195	2520.576923
644.680219	2490.330000
645.024192	2545.782692
645.368112	2528.138654
645.711981	2490.330000
646.055797	2470.165385
646.399562	2404.630385
646.743274	2507.974038
647.086935	2573.509038
647.430544	2540.741538
647.774101	2586.111923
648.117606	2457.562500
648.461059	2497.891731
648.804460	2530.659231
649.147810	2601.235385
649.491108	2528.138654
649.834354	2487.809423
650.177548	2593.673654
650.520690	2505.453462
650.863781	2510.494615
651.206820	2553.344423
651.549807	2497.891731
651.892742	2505.453462
652.235626	2492.850577
652.578458	2470.165385
652.921238	2480.247692
653.263967	2487.809423
653.606644	2492.850577
653.949269	2475.206538
654.291843	2409.671538
654.634365	2465.124231
654.976836	2452.521346
655.319255	2485.288846
655.661622	2533.179808
656.003938	2510.494615
656.346203	2482.768269
656.688416	2510.494615
657.030577	2558.385577
657.372687	2470.165385
657.714746	2485.288846
658.056753	2515.535769
658.398708	2530.659231
658.740612	2568.467885
659.082465	2424.795000
659.424266	2482.768269
659.766016	2548.303269
660.107715	2530.659231
660.449362	2513.015192
660.790958	2553.344423
661.132503	2485.288846
661.473996	2502.932885
661.815438	2530.659231
662.156829	2450.000769
662.498168	2570.988462
662.839456	2533.179808
663.180693	2530.659231
663.521879	2606.276538
663.863013	2530.659231
664.204097	2485.288846
664.545129	2570.988462
664.886110	2525.618077
665.227040	2523.097500
665.567918	2555.865000
665.908746	2447.480192
666.249522	2555.865000
666.590248	2518.056346
666.930922	2535.700385
667.271545	2417.233269
667.612118	2482.768269
667.952639	2528.138654
668.293109	2523.097500
668.633528	2482.768269
668.973896	2528.138654
669.314213	2525.618077
669.654480	2533.179808
669.994695	2444.959615
670.334859	2455.041923
670.674973	2427.315577
671.015035	2492.850577
671.355047	2515.535769
671.695008	2553.344423
672.034918	2472.685962
672.374777	2472.685962
672.714585	2470.165385
673.054342	2563.426731
673.394049	2535.700385
673.733705	2480.247692
674.073310	2465.124231
674.412864	2455.041923
674.752368	2565.947308
675.091820	2502.932885
675.431223	2414.712692
675.770574	2563.426731
676.109875	2437.397885
676.449125	2578.550192
676.788324	2540.741538
677.127473	2538.220962
677.466571	2535.700385
677.805619	2467.644808
678.144616	2462.603654
678.483562	2490.330000
678.822458	2497.891731
679.161303	2502.932885
679.500098	2437.397885
679.838842	2510.494615
680.177535	2475.206538
680.516179	2538.220962
680.854771	2540.741538
681.193314	2467.644808
681.531805	2540.741538
681.870247	2477.727115
682.208638	2533.179808
682.546978	2490.330000
682.885268	2467.644808
683.223508	2470.165385
683.561697	2502.932885
683.899836	2606.276538
684.237925	2414.712692
684.575963	2467.644808
684.913951	2576.029615
685.251889	2490.330000
685.589776	2513.015192
685.927614	2432.356731
686.265401	2386.986346
686.603137	2497.891731
686.940824	2419.753846
687.278460	2540.741538
687.616046	2550.823846
687.953582	2487.809423
688.291068	2487.809423
688.628504	2535.700385
688.965889	2429.836154
689.303224	2450.000769
689.640510	2553.344423
689.977745	2437.397885
690.314930	2427.315577
690.652065	2495.371154
690.989150	2475.206538
691.326185	2515.535769
691.663170	2553.344423
692.000105	2462.603654
692.336990	2507.974038
692.673825	2432.356731
693.010610	2533.179808
693.347345	2530.659231
693.684030	2419.753846
694.020665	2432.356731
694.357251	2485.288846
694.693786	2460.083077
695.030272	2500.412308
695.366707	2480.247692
695.703093	2500.412308
696.039429	2482.768269
696.375716	2510.494615
696.711952	2530.659231
697.048139	2450.000769
697.384276	2500.412308
697.720363	2510.494615
698.056400	2520.576923
698.392388	2485.288846
698.728326	2475.206538
699.064214	2560.906154
699.400053	2409.671538
699.735842	2394.548077
700.071581	2507.974038
700.407270	2447.480192
700.742910	2480.247692
701.078501	2525.618077
701.414042	2467.644808
701.749533	2482.768269
702.084974	2487.809423
702.420366	2515.535769
702.755709	2472.685962
703.091002	2548.303269
703.426246	2465.124231
703.761440	2467.644808
704.096584	2457.562500
704.431679	2545.782692
704.766725	2507.974038
705.101721	2487.809423
705.436668	2558.385577
705.771565	2402.109808
706.106413	2462.603654
706.441212	2507.974038
706.775961	2351.698269
707.110661	2518.056346
707.445311	2490.330000
707.779913	2429.836154
708.114465	2502.932885
708.448967	2485.288846
708.783421	2618.879423
709.117825	2495.371154
709.452180	2515.535769
709.786485	2525.618077
710.120742	2518.056346
710.454949	2477.727115
710.789107	2518.056346
711.123216	2392.027500
711.457275	2507.974038
711.791286	2487.809423
712.125247	2467.644808
712.459159	2538.220962
712.793023	2576.029615
713.126837	2442.439038
713.460602	2513.015192
713.794318	2528.138654
714.127985	2487.809423
714.461602	2513.015192
714.795171	2540.741538
715.128691	2576.029615
715.462162	2482.768269
715.795584	2563.426731
716.128957	2450.000769
716.462281	2429.836154
716.795556	2497.891731
717.128782	2485.288846
717.461960	2424.795000
717.795088	2555.865000
718.128167	2455.041923
718.461198	2482.768269
718.794180	2467.644808
719.127113	2528.138654
719.459997	2502.932885
719.792833	2518.056346
720.125619	2485.288846
720.458357	2482.768269
720.791046	2492.850577
721.123686	2525.618077
721.456278	2502.932885
721.788821	2467.644808
722.121315	2490.330000
722.453761	2465.124231
722.786158	2487.809423
723.118506	2455.041923
723.450805	2523.097500
723.783056	2444.959615
724.115259	2583.591346
724.447412	2523.097500
724.779518	2533.179808
725.111574	2495.371154
725.443582	2558.385577
725.775542	2480.247692
726.107453	2555.865000
726.439315	2495.371154
726.771129	2518.056346
727.102895	2507.974038
727.434612	2485.288846
727.766281	2427.315577
728.097901	2442.439038
728.429473	2477.727115
728.760996	2437.397885
729.092471	2553.344423
729.423897	2533.179808
729.755276	2480.247692
730.086606	2518.056346
730.417887	2432.356731
730.749120	2470.165385
731.080305	2565.947308
731.411442	2550.823846
731.742530	2477.727115
732.073570	2500.412308
732.404562	2389.506923
732.735506	2513.015192
733.066401	2455.041923
733.397249	2447.480192
733.728048	2545.782692
734.058798	2520.576923
734.389501	2495.371154
734.720156	2528.138654
735.050762	2538.220962
735.381320	2432.356731
735.711831	2596.194231
736.042293	2487.809423
736.372707	2487.809423
736.703073	2573.509038
737.033391	2480.247692
737.363661	2492.850577
737.693883	2477.727115
738.024056	2578.550192
738.354182	2455.041923
738.684260	2485.288846
739.014290	2550.823846
739.344272	2502.932885
739.674207	2558.385577
740.004093	2452.521346
740.333931	2432.356731
740.663722	2460.083077
740.993464	2450.000769
741.323159	2482.768269
741.652806	2525.618077
741.982405	2475.206538
742.311956	2581.070769
742.641460	2570.988462
742.970915	2555.865000
743.300323	2548.303269
743.629683	2462.603654
743.958996	2500.412308
744.288260	2429.836154
744.617477	2442.439038
744.946647	2402.109808
745.275768	2550.823846
745.604842	2460.083077
745.933869	2565.947308
746.262847	2540.741538
746.591778	2470.165385
746.920662	2434.877308
747.249498	2465.124231
747.578286	2437.397885
747.907027	2480.247692
748.235720	2525.618077
748.564365	2507.974038
748.892963	2452.521346
749.221514	2492.850577
749.550017	2485.288846
749.878473	2442.439038
750.206881	2417.233269
750.535242	2540.741538
750.863555	2475.206538
751.191821	2553.344423
751.520039	2500.412308
751.848210	2548.303269
752.176334	2565.947308
752.504411	2538.220962
752.832440	2576.029615
753.160421	2540.741538
753.488356	2487.809423
753.816243	2497.891731
754.144082	2467.644808
754.471875	2523.097500
754.799620	2429.836154
755.127318	2523.097500
755.454969	2417.233269
755.782572	2477.727115
756.110129	2424.795000
756.437638	2399.589231
756.765100	2495.371154
757.092515	2518.056346
757.419882	2492.850577
757.747203	2412.192115
758.074477	2490.330000
758.401703	2462.603654
758.728882	2548.303269
759.056014	2424.795000
759.383099	2500.412308
759.710138	2450.000769
760.037129	2515.535769
760.364073	2472.685962
760.690970	2487.809423
761.017820	2515.535769
761.344623	2419.753846
761.671379	2412.192115
761.998088	2530.659231
762.324751	2462.603654
762.651366	2573.509038
762.977935	2480.247692
763.304456	2480.247692
763.630931	2560.906154
763.957359	2505.453462
764.283740	2485.288846
764.610074	2455.041923
764.936362	2500.412308
765.262602	2480.247692
765.588796	2528.138654
765.914943	2492.850577
766.241044	2442.439038
766.567097	2455.041923
766.893104	2450.000769
767.219064	2507.974038
767.544978	2475.206538
767.870845	2510.494615
768.196665	2518.056346
768.522438	2576.029615
768.848165	2432.356731
769.173846	2472.685962
769.499479	2444.959615
769.825066	2457.562500
770.150607	2558.385577
770.476101	2535.700385
770.801548	2444.959615
771.126949	2523.097500
771.452303	2422.274423
771.777611	2513.015192
772.102872	2553.344423
772.428087	2432.356731
772.753256	2606.276538
773.078378	2414.712692
773.403453	2424.795000
773.728482	2455.041923
774.053465	2424.795000
774.378401	2462.603654
774.703291	2457.562500
775.028135	2477.727115
775.352932	2447.480192
775.677683	2528.138654
776.002388	2455.041923
776.327046	2442.439038
776.651658	2548.303269
776.976224	2492.850577
777.300743	2502.932885
777.625216	2386.986346
777.949643	2535.700385
778.274024	2402.109808
778.598359	2510.494615
778.922647	2530.659231
779.246889	2487.809423
779.571086	2528.138654
779.895236	2419.753846
780.219339	2520.576923
780.543397	2419.753846
780.867409	2518.056346
781.191374	2407.150962
781.515294	2510.494615
781.839167	2444.959615
782.162995	2545.782692
782.486776	2432.356731
782.810511	2397.068654
783.134201	2545.782692
783.457844	2543.262115
783.781441	2477.727115
784.104993	2530.659231
784.428498	2457.562500
784.751958	2507.974038
785.075372	2409.671538
785.398739	2568.467885
785.722061	2500.412308
786.045337	2432.356731
786.368568	2452.521346
786.691752	2520.576923
787.014891	2487.809423
787.337983	2520.576923
787.661030	2601.235385
787.984031	2510.494615
788.306987	2560.906154
788.629897	2538.220962
788.952760	2636.523462
789.275579	2515.535769
789.598351	2525.618077
789.921078	2495.371154
790.243759	2477.727115
790.566395	2477.727115
790.888984	2568.467885
791.211529	2502.932885
791.534027	2533.179808
791.856480	2588.632500
792.178888	2578.550192
792.501249	2457.562500
792.823566	2500.412308
793.145836	2455.041923
793.468062	2533.179808
793.790241	2457.562500
794.112375	2422.274423
794.434464	2495.371154
794.756507	2548.303269
795.078505	2550.823846
795.400457	2538.220962
795.722364	2470.165385
796.044226	2513.015192
796.366042	2553.344423
796.687812	2485.288846
797.009538	2477.727115
797.331218	2444.959615
797.652852	2515.535769
797.974442	2475.206538
798.295986	2543.262115
798.617484	2442.439038
798.938938	2538.220962
799.260346	2502.932885
799.581709	2513.015192
799.903026	2480.247692
800.224299	2455.041923
800.545526	2442.439038
800.866708	2530.659231
801.187845	2450.000769
801.508936	2581.070769
801.829983	2558.385577
802.150984	2525.618077
802.471940	2475.206538
802.792851	2570.988462
803.113717	2465.124231
803.434538	2462.603654
803.755314	2502.932885
804.076045	2482.768269
804.396731	2439.918462
804.717372	2477.727115
805.037967	2545.782692
805.358518	2550.823846
805.679024	2490.330000
805.999485	2565.947308
806.319901	2538.220962
806.640272	2528.138654
806.960598	2470.165385
807.280879	2510.494615
807.601115	2507.974038
807.921306	2518.056346
808.241453	2442.439038
808.561554	2626.441154
808.881611	2500.412308
809.201623	2502.932885
809.521590	2513.015192
809.841513	2470.165385
810.161390	2548.303269
810.481223	2490.330000
810.801011	2525.618077
811.120755	2450.000769
811.440453	2505.453462
811.760107	2482.768269
812.079716	2500.412308
812.399281	2497.891731
812.718801	2540.741538
813.038276	2417.233269
813.357707	2419.753846
813.677093	2560.906154
813.996434	2452.521346
814.315731	2480.247692
814.634983	2437.397885
814.954191	2540.741538
815.273354	2505.453462
815.592473	2434.877308
815.911547	2490.330000
816.230577	2578.550192
816.549562	2429.836154
816.868502	2497.891731
817.187399	2492.850577
817.506250	2424.795000
817.825058	2502.932885
818.143821	2409.671538
818.462539	2502.932885
818.781213	2480.247692
819.099843	2507.974038
819.418429	2495.371154
819.736970	2495.371154
820.055466	2470.165385
820.373919	2500.412308
820.692327	2437.397885
821.010691	2442.439038
821.329011	2467.644808
821.647286	2520.576923
821.965517	2505.453462
822.283704	2573.509038
822.601847	2475.206538
822.919945	2487.809423
823.237999	2505.453462
823.556010	2543.262115
823.873976	2520.576923
824.191897	2482.768269
824.509775	2533.179808
824.827609	2482.768269
825.145398	2495.371154
825.463144	2510.494615
825.780845	2495.371154
826.098502	2480.247692
826.416116	2510.494615
826.733685	2482.768269
827.051210	2510.494615
827.368692	2442.439038
827.686129	2535.700385
828.003522	2475.206538
828.320872	2419.753846
828.638177	2530.659231
828.955439	2500.412308
829.272656	2502.932885
829.589830	2502.932885
829.906960	2505.453462
830.224046	2470.165385
830.541088	2510.494615
830.858086	2480.247692
831.175041	2581.070769
831.491952	2447.480192
831.808819	2475.206538
832.125642	2450.000769
832.442421	2525.618077
832.759157	2450.000769
833.075849	2482.768269
833.392497	2457.562500
833.709101	2460.083077
834.025662	2487.809423
834.342179	2414.712692
834.658653	2520.576923
834.975083	2462.603654
835.291469	2465.124231
835.607811	2543.262115
835.924110	2482.768269
836.240366	2535.700385
836.556578	2626.441154
836.872746	2442.439038
837.188871	2555.865000
837.504952	2434.877308
837.820990	2533.179808
838.136984	2497.891731
838.452935	2500.412308
838.768842	2462.603654
839.084706	2427.315577
839.400526	2455.041923
839.716303	2452.521346
840.032037	2535.700385
840.347727	2495.371154
840.663373	2386.986346
840.978977	2482.768269
841.294537	2444.959615
841.610054	2497.891731
841.925527	2533.179808
842.240957	2548.303269
842.556344	2465.124231
842.871687	2457.562500
843.186987	2417.233269
843.502244	2560.906154
843.817458	2507.974038
844.132629	2487.809423
844.447756	2507.974038
844.762840	2497.891731
845.077881	2576.029615
845.392879	2583.591346
845.707833	2487.809423
846.022745	2528.138654
846.337613	2482.768269
846.652438	2437.397885
846.967221	2475.206538
847.281960	2528.138654
847.596656	2462.603654
847.911309	2530.659231
848.225919	2487.809423
848.540485	2528.138654
848.855009	2467.644808
849.169490	2555.865000
849.483928	2525.618077
849.798323	2502.932885
850.112675	2477.727115
850.426984	2472.685962
850.741251	2457.562500
851.055474	2477.727115
851.369654	2510.494615
851.683792	2487.809423
851.997887	2505.453462
852.311938	2472.685962
852.625947	2518.056346
852.939914	2485.288846
853.253837	2528.138654
853.567718	2397.068654
853.881555	2434.877308
854.195350	2432.356731
854.509103	2513.015192
854.822812	2442.439038
855.136479	2447.480192
855.450103	2553.344423
855.763685	2450.000769
856.077224	2535.700385
856.390720	2555.865000
856.704173	2533.179808
857.017584	2495.371154
857.330953	2540.741538
857.644278	2523.097500
857.957561	2528.138654
858.270802	2555.865000
858.584000	2548.303269
858.897155	2505.453462
859.210268	2465.124231
859.523339	2457.562500
859.836367	2518.056346
860.149352	2462.603654
860.462295	2588.632500
860.775195	2447.480192
861.088054	2472.685962
861.400869	2452.521346
861.713642	2520.576923
862.026373	2482.768269
862.339062	2518.056346
862.651708	2475.206538
862.964312	2455.041923
863.276873	2470.165385
863.589392	2455.041923
863.901869	2497.891731
864.214303	2472.685962
864.526696	2528.138654
864.839045	2495.371154
865.151353	2553.344423
865.463619	2523.097500
865.775842	2505.453462
866.088023	2518.056346
866.400162	2437.397885
866.712258	2505.453462
867.024313	2460.083077
867.336325	2487.809423
867.648296	2558.385577
867.960224	2528.138654
868.272110	2513.015192
868.583954	2601.235385
868.895755	2568.467885
869.207515	2492.850577
869.519233	2472.685962
869.830909	2520.576923
870.142542	2439.918462
870.454134	2548.303269
870.765684	2475.206538
871.077191	2434.877308
871.388657	2455.041923
871.700081	2505.453462
872.011463	2558.385577
872.322803	2442.439038
872.634101	2507.974038
872.945357	2462.603654
873.256571	2472.685962
873.567744	2568.467885
873.878874	2470.165385
874.189963	2477.727115
874.501010	2515.535769
874.812015	2480.247692
875.122979	2492.850577
875.433900	2460.083077
875.744780	2538.220962
876.055618	2507.974038
876.366415	2465.124231
876.677169	2439.918462
876.987882	2535.700385
877.298554	2442.439038
877.609183	2533.179808
877.919771	2533.179808
878.230317	2465.124231
878.540822	2457.562500
878.851285	2475.206538
879.161707	2379.424615
879.472087	2505.453462
879.782425	2452.521346
880.092722	2548.303269
880.402977	2467.644808
880.713191	2525.618077
881.023363	2432.356731
881.333494	2394.548077
881.643583	2487.809423
881.953631	2432.356731
882.263637	2513.015192
882.573602	2460.083077
882.883526	2402.109808
883.193408	2452.521346
883.503248	2540.741538
883.813048	2545.782692
884.122806	2460.083077
884.432522	2525.618077
884.742197	2439.918462
885.051831	2500.412308
885.361424	2482.768269
885.670975	2550.823846
885.980485	2452.521346
886.289954	2515.535769
886.599382	2490.330000
886.908768	2540.741538
887.218113	2444.959615
887.527417	2530.659231
887.836680	2462.603654
888.145901	2414.712692
888.455082	2545.782692
888.764221	2477.727115
889.073319	2520.576923
889.382376	2490.330000
889.691392	2538.220962
890.000366	2427.315577
890.309300	2457.562500
890.618193	2560.906154
890.927044	2434.877308
891.235855	2563.426731
891.544625	2432.356731
891.853353	2487.809423
892.162041	2470.165385
892.470687	2467.644808
892.779293	2465.124231
893.087858	2439.918462
893.396381	2376.904038
893.704864	2485.288846
894.013306	2507.974038
894.321707	2437.397885
894.630068	2515.535769
894.938387	2487.809423
895.246665	2442.439038
895.554903	2492.850577
895.863100	2452.521346
896.171256	2492.850577
896.479371	2518.056346
896.787446	2379.424615
897.095480	2560.906154
897.403473	2480.247692
897.711425	2576.029615
898.019336	2513.015192
898.327207	2465.124231
898.635038	2414.712692
898.942827	2545.782692
899.250576	2452.521346
899.558284	2465.124231
899.865952	2437.397885
900.173579	2528.138654
900.481165	2487.809423
900.788711	2409.671538
901.096216	2538.220962
901.403681	2467.644808
901.711105	2518.056346
902.018489	2381.945192
902.325832	2520.576923
902.633135	2492.850577
902.940397	2548.303269
903.247619	2502.932885
903.554800	2495.371154
903.861941	2444.959615
904.169041	2540.741538
904.476101	2583.591346
904.783121	2515.535769
905.090100	2563.426731
905.397039	2507.974038
905.703938	2601.235385
906.010796	2500.412308
906.317614	2487.809423
906.624391	2515.535769
906.931129	2563.426731
907.237826	2434.877308
907.544483	2550.823846
907.851099	2457.562500
908.157675	2447.480192
908.464211	2429.836154
908.770707	2472.685962
909.077163	2480.247692
909.383578	2513.015192
909.689954	2472.685962
909.996289	2444.959615
910.302584	2500.412308
910.608839	2495.371154
910.915054	2505.453462
911.221229	2460.083077
911.527363	2518.056346
911.833458	2525.618077
912.139513	2533.179808
912.445527	2482.768269
912.751502	2465.124231
913.057436	2477.727115
913.363331	2513.015192
913.669186	2495.371154
913.975000	2545.782692
914.280775	2513.015192
914.586510	2412.192115
914.892205	2414.712692
915.197859	2397.068654
915.503475	2513.015192
915.809050	2409.671538
916.114585	2495.371154
916.420081	2477.727115
916.725536	2502.932885
917.030952	2555.865000
917.336328	2530.659231
917.641665	2437.397885
917.946961	2467.644808
918.252218	2444.959615
918.557435	2528.138654
918.862612	2434.877308
919.167750	2573.509038
919.472848	2457.562500
919.777906	2482.768269
920.082925	2548.303269
920.387904	2528.138654
920.692843	2414.712692
920.997743	2437.397885
921.302603	2570.988462
921.607423	2467.644808
921.912204	2543.262115
922.216946	2397.068654
922.521647	2422.274423
922.826310	2535.700385
923.130932	2462.603654
923.435516	2475.206538
923.740059	2457.562500
924.044564	2510.494615
924.349028	2543.262115
924.653454	2465.124231
924.957840	2533.179808
925.262186	2548.303269
925.566493	2535.700385
925.870761	2550.823846
926.174989	2447.480192
926.479178	2480.247692
926.783328	2442.439038
927.087438	2487.809423
927.391509	2419.753846
927.695541	2518.056346
927.999533	2429.836154
928.303486	2495.371154
928.607400	2462.603654
928.911275	2520.576923
929.215110	2432.356731
929.518906	2490.330000
929.822663	2422.274423
930.126381	2419.753846
930.430060	2404.630385
930.733699	2535.700385
931.037299	2540.741538
931.340861	2434.877308
931.644383	2535.700385
931.947866	2492.850577
932.251309	2518.056346
932.554714	2434.877308
932.858080	2497.891731
933.161407	2513.015192
933.464694	2515.535769
933.767943	2437.397885
934.071153	2487.809423
934.374323	2472.685962
934.677455	2470.165385
934.980548	2452.521346
935.283602	2452.521346
935.586617	2598.714808
935.889593	2470.165385
936.192530	2515.535769
936.495428	2565.947308
936.798287	2555.865000
937.101108	2492.850577
937.403890	2490.330000
937.706632	2407.150962
938.009336	2457.562500
938.312002	2528.138654
938.614628	2515.535769
938.917216	2555.865000
939.219765	2437.397885
939.522275	2502.932885
939.824747	2563.426731
940.127179	2447.480192
940.429573	2477.727115
940.731929	2492.850577
941.034246	2399.589231
941.336524	2581.070769
941.638763	2472.685962
941.940964	2497.891731
942.243126	2450.000769
942.545250	2525.618077
942.847335	2570.988462
943.149381	2475.206538
943.451389	2533.179808
943.753359	2500.412308
944.055290	2482.768269
944.357182	2495.371154
944.659036	2502.932885
944.960851	2480.247692
945.262628	2444.959615
945.564367	2475.206538
945.866067	2386.986346
946.167729	2510.494615
946.469352	2500.412308
946.770937	2477.727115
947.072484	2482.768269
947.373992	2558.385577
947.675462	2429.836154
947.976893	2530.659231
948.278286	2548.303269
948.579641	2490.330000
948.880958	2417.233269
949.182236	2480.247692
949.483476	2520.576923
949.784678	2502.932885
950.085841	2550.823846
950.386967	2558.385577
950.688054	2570.988462
950.989103	2520.576923
951.290114	2465.124231
951.591087	2525.618077
951.892021	2477.727115
952.192917	2490.330000
952.493776	2429.836154
952.794596	2502.932885
953.095378	2533.179808
953.396122	2528.138654
953.696828	2475.206538
953.997496	2500.412308
954.298126	2520.576923
954.598718	2495.371154
954.899272	2457.562500
955.199788	2427.315577
955.500266	2500.412308
955.800706	2570.988462
956.101108	2477.727115
956.401472	2563.426731
956.701798	2407.150962
957.002087	2429.836154
957.302337	2545.782692
957.602550	2558.385577
957.902724	2475.206538
958.202861	2583.591346
958.502960	2490.330000
958.803022	2452.521346
959.103045	2472.685962
959.403031	2492.850577
959.702979	2525.618077
960.002889	2510.494615
960.302762	2480.247692
960.602596	2495.371154
960.902393	2520.576923
961.202153	2477.727115
961.501875	2450.000769
961.801559	2470.165385
962.101205	2502.932885
962.400814	2490.330000
962.700385	2548.303269
962.999918	2515.535769
963.299414	2530.659231
963.598873	2450.000769
963.898293	2520.576923
964.197677	2487.809423
964.497022	2492.850577
964.796331	2490.330000
965.095601	2470.165385
965.394835	2419.753846
965.694030	2548.303269
965.993189	2424.795000
966.292309	2581.070769
966.591393	2505.453462
966.890439	2475.206538
967.189447	2487.809423
967.488419	2518.056346
967.787353	2510.494615
968.086249	2533.179808
968.385108	2507.974038
968.683930	2492.850577
968.982714	2558.385577
969.281462	2439.918462
969.580172	2560.906154
969.878844	2457.562500
970.177480	2460.083077
970.476078	2492.850577
970.774639	2581.070769
971.073162	2535.700385
971.371649	2437.397885
971.670098	2510.494615
971.968510	2465.124231
972.266885	2520.576923
972.565223	2492.850577
972.863524	2487.809423
973.161788	2434.877308
973.460014	2528.138654
973.758204	2460.083077
974.056356	2505.453462
974.354471	2462.603654
974.652550	2432.356731
974.950591	2376.904038
975.248595	2525.618077
975.546563	2472.685962
975.844493	2480.247692
976.142386	2465.124231
976.440243	2437.397885
976.738062	2467.644808
977.035845	2505.453462
977.333590	2490.330000
977.631299	2422.274423
977.928971	2462.603654
978.226606	2467.644808
978.524204	2497.891731
978.821765	2470.165385
979.119290	2505.453462
979.416777	2475.206538
979.714228	2523.097500
980.011642	2482.768269
980.309020	2439.918462
980.606360	2507.974038
980.903664	2492.850577
981.200931	2495.371154
981.498162	2505.453462
981.795356	2530.659231
982.092513	2477.727115
982.389633	2439.918462
982.686717	2558.385577
982.983764	2492.850577
983.280775	2530.659231
983.577749	2457.562500
983.874686	2520.576923
984.171587	2472.685962
984.468451	2460.083077
984.765279	2530.659231
985.062070	2543.262115
985.358824	2485.288846
985.655543	2455.041923
985.952224	2525.618077
986.248869	2475.206538
986.545478	2419.753846
986.842050	2513.015192
987.138586	2502.932885
987.435086	2407.150962
987.731549	2452.521346
988.027975	2495.371154
988.324366	2505.453462
988.620719	2465.124231
988.917037	2492.850577
989.213318	2490.330000
989.509563	2412.192115
989.805772	2477.727115
990.101944	2548.303269
990.398080	2515.535769
990.694180	2485.288846
990.990244	2510.494615
991.286271	2528.138654
991.582262	2487.809423
991.878217	2492.850577
992.174136	2533.179808
992.470019	2500.412308
992.765865	2518.056346
993.061676	2462.603654
993.357450	2460.083077
993.653188	2520.576923
993.948890	2470.165385
994.244556	2407.150962
994.540186	2500.412308
994.835780	2394.548077
995.131337	2450.000769
995.426859	2510.494615
995.722345	2432.356731
996.017795	2550.823846
996.313208	2472.685962
996.608586	2460.083077
996.903928	2500.412308
997.199234	2475.206538
997.494504	2540.741538
997.789738	2505.453462
998.084936	2505.453462
998.380099	2535.700385
998.675225	2422.274423
998.970316	2470.165385
999.265371	2513.015192
999.560390	2518.056346
999.855373	2538.220962
1000.150320	2520.576923
1000.445232	2495.371154
1000.740108	2550.823846
1001.034948	2548.303269
1001.329752	2432.356731
1001.624521	2510.494615
1001.919254	2447.480192
1002.213951	2510.494615
1002.508613	2548.303269
1002.803239	2394.548077
1003.097829	2455.041923
1003.392384	2467.644808
1003.686903	2490.330000
1003.981386	2447.480192
1004.275834	2543.262115
1004.570246	2467.644808
1004.864623	2553.344423
1005.158964	2550.823846
1005.453270	2543.262115
1005.747540	2419.753846
1006.041775	2502.932885
1006.335974	2500.412308
1006.630138	2505.453462
1006.924266	2485.288846
1007.218359	2550.823846
1007.512416	2490.330000
1007.806438	2550.823846
1008.100425	2467.644808
1008.394376	2417.233269
1008.688292	2555.865000
1008.982172	2631.482308
1009.276017	2535.700385
1009.569827	2442.439038
1009.863602	2477.727115
1010.157341	2523.097500
1010.451045	2475.206538
1010.744714	2513.015192
1011.038347	2439.918462
1011.331945	2492.850577
1011.625508	2535.700385
1011.919036	2523.097500
1012.212528	2565.947308
1012.505986	2525.618077
1012.799408	2465.124231
1013.092795	2523.097500
1013.386147	2540.741538
1013.679464	2497.891731
1013.972745	2462.603654
1014.265992	2523.097500
1014.559204	2510.494615
1014.852380	2500.412308
1015.145521	2452.521346
1015.438628	2470.165385
1015.731699	2586.111923
1016.024736	2490.330000
1016.317737	2439.918462
1016.610703	2500.412308
1016.903635	2480.247692
1017.196531	2492.850577
1017.489393	2515.535769
1017.782219	2540.741538
1018.075011	2550.823846
1018.367768	2515.535769
1018.660490	2490.330000
1018.953177	2490.330000
1019.245829	2490.330000
