Dividing Wavelength (nm)	Counts (n)	Blue Motor Position (mm): 23.400000	Red Motor Position (mm): 0.000000	
326.493990	2132.821452
326.888308	2132.821452
327.282561	2132.821452
327.676750	2099.232243
328.070874	2099.577563
328.464933	2102.919848
328.858929	2109.939654
329.252859	2119.167486
329.646726	2130.747017
330.040528	2143.188584
330.434265	2160.986378
330.827938	2176.434994
331.221547	2192.561645
331.615091	2213.913452
332.008571	2233.127810
332.401986	2252.352250
332.795338	2272.123656
333.188625	2292.376491
333.581847	2312.057156
333.975006	2331.100115
334.368100	2346.652074
334.761129	2362.309898
335.154095	2379.107023
335.546996	2403.869170
335.939833	2427.877666
336.332606	2441.057762
336.725315	2450.976233
337.117960	2462.031483
337.510540	2469.464664
337.903056	2483.040492
338.295508	2485.046871
338.687896	2498.257214
339.080220	2504.765344
339.472480	2511.170130
339.864676	2512.979904
340.256807	2521.670853
340.648875	2522.810154
341.040879	2524.879548
341.432818	2527.765608
341.824694	2529.383819
342.216506	2528.897347
342.608253	2528.274765
342.999937	2529.265352
343.391557	2529.774508
343.783113	2530.502955
344.174605	2526.464991
344.566033	2525.902902
344.957397	2523.077335
345.348697	2521.829650
345.739934	2520.566841
346.131106	2519.094824
346.522215	2517.579957
346.913260	2517.776562
347.304241	2513.360511
347.695159	2511.485202
348.086012	2509.713237
348.476802	2508.420181
348.867528	2510.592918
349.258191	2503.411794
349.648789	2502.960611
350.039324	2499.520023
350.429796	2504.818276
350.820203	2500.664365
351.210548	2498.637822
351.600828	2500.268635
351.991045	2495.935763
352.381198	2497.140599
352.771288	2494.148674
353.161314	2499.378871
353.551276	2496.021463
353.941175	2495.267810
354.331010	2496.573469
354.720782	2494.892244
355.110490	2496.465084
355.500135	2495.953407
355.889717	2497.213696
356.279235	2497.024652
356.668689	2494.410814
357.058080	2495.930722
357.447408	2495.416524
357.836672	2493.929384
358.225873	2493.828561
358.615010	2494.309991
359.004084	2495.860146
359.393095	2496.704539
359.782043	2500.094715
360.170927	2498.922647
360.559748	2502.625374
360.948505	2501.445744
361.337199	2500.916423
361.725830	2501.188645
362.114398	2504.959428
362.502903	2501.919613
362.891344	2501.236536
363.279722	2500.195538
363.668037	2503.978924
364.056289	2504.485560
364.444478	2502.743841
364.832603	2501.566732
365.220665	2505.670231
365.608665	2503.852895
365.996601	2507.590911
366.384474	2506.146620
366.772284	2507.399347
367.160031	2506.761641
367.547715	2509.516632
367.935336	2508.173164
368.322893	2508.813391
368.710388	2509.599811
369.097820	2509.120901
369.485189	2509.188957
369.872495	2509.872033
370.259738	2508.145438
370.646918	2510.222393
371.034035	2508.155520
371.421090	2510.618124
371.808081	2509.451097
372.195010	2511.333967
372.581875	2511.409585
372.968678	2514.293125
373.355418	2513.365553
373.742096	2512.198525
374.128710	2512.974863
374.515262	2514.431757
374.901751	2513.128618
375.288177	2511.666684
375.674540	2512.992507
376.060841	2513.451252
376.447079	2513.219359
376.833254	2514.562827
377.219367	2509.912362
377.605417	2511.931344
377.991404	2510.522342
378.377329	2510.156858
378.763191	2513.204236
379.148991	2515.429905
379.534727	2516.228928
379.920402	2516.682632
380.306013	2517.774042
380.691563	2516.763290
381.077049	2516.856552
381.462474	2516.027282
381.847835	2516.816222
382.233134	2518.033661
382.618371	2518.371418
383.003545	2520.256810
383.388657	2516.677591
383.773706	2516.486027
384.158693	2520.186234
384.543618	2521.081038
384.928480	2518.888137
385.313280	2519.283867
385.698017	2518.252951
386.082692	2518.321007
386.467305	2519.717406
386.851856	2520.130781
387.236344	2518.840246
387.620770	2522.671523
388.005133	2518.951151
388.389435	2519.845956
388.773674	2522.658920
389.157851	2519.200688
389.541965	2521.149094
389.926018	2521.617921
390.310008	2519.697242
390.693936	2522.666481
391.077802	2523.762932
391.461606	2522.797551
391.845348	2521.600277
392.229027	2524.458612
392.612645	2523.132788
392.996200	2523.422654
393.379694	2524.430885
393.763125	2523.294105
394.146494	2522.366533
394.529801	2524.758560
394.913047	2526.157480
395.296230	2526.654034
395.679351	2525.981040
396.062410	2524.282171
396.445408	2525.970958
396.828343	2524.919877
397.211217	2520.216481
397.594028	2524.365350
397.976778	2522.757222
398.359466	2525.892820
398.742092	2522.827798
399.124656	2527.715197
399.507158	2527.959693
399.889598	2529.041020
400.271977	2526.366688
400.654294	2525.613036
401.036549	2527.359796
401.418742	2525.812161
401.800874	2528.373067
402.182944	2528.920033
402.564952	2528.988088
402.946898	2527.085053
403.328783	2525.638242
403.710606	2529.693850
404.092367	2529.678726
404.474067	2530.593696
404.855705	2530.611340
405.237282	2532.184180
405.618797	2529.119158
406.000250	2529.537574
406.381642	2527.997502
406.762972	2530.150074
407.144240	2530.422297
407.525447	2532.436237
407.906593	2528.708304
408.287677	2531.826258
408.668700	2528.801566
409.049661	2531.730476
409.430560	2531.982534
409.811399	2530.770136
410.192176	2532.395908
410.572891	2532.320291
410.953545	2534.031763
411.334138	2531.039838
411.714669	2530.417255
412.095139	2531.289375
412.475547	2533.232740
412.855894	2533.396577
413.236180	2531.929602
413.616405	2533.225178
413.996568	2532.290044
414.376670	2532.952956
414.756711	2531.317101
415.136691	2531.554036
415.516609	2533.227699
415.896466	2535.213913
416.276262	2535.896990
416.655997	2531.856505
417.035670	2529.928263
417.415283	2533.106711
417.794834	2530.029087
418.174324	2536.645601
418.553753	2535.660055
418.933121	2534.959335
419.312428	2537.313554
419.691674	2535.720549
420.070859	2536.075951
420.449983	2534.188038
420.829045	2534.505631
421.208047	2535.851619
421.586988	2533.381454
421.965867	2534.593851
422.344686	2535.592000
422.723444	2536.401105
423.102141	2539.766075
423.480777	2537.147196
423.859352	2534.024201
424.237866	2539.203987
424.616319	2538.223482
424.994712	2537.268183
425.373044	2538.132741
425.751314	2538.868750
426.129524	2538.077289
426.507673	2541.464944
426.885762	2538.566281
427.263789	2538.372196
427.641756	2538.581404
428.019662	2539.990407
428.397508	2540.582742
428.775292	2541.749769
429.153016	2540.454193
429.530679	2541.233051
429.908282	2539.541744
430.285824	2539.337577
430.663305	2540.905376
431.040726	2538.523431
431.418086	2537.681558
431.795385	2542.024512
432.172624	2538.737680
432.549802	2543.123484
432.926920	2540.582742
433.303977	2541.091899
433.680974	2539.730787
434.057910	2541.059131
434.434786	2539.534182
434.811601	2539.017464
435.188355	2542.566436
435.565050	2546.047353
435.941683	2545.470141
436.318257	2540.098791
436.694770	2537.547968
437.071222	2536.746424
437.447614	2539.254398
437.823946	2540.217258
438.200218	2541.285983
438.576429	2545.402085
438.952580	2544.209852
439.328670	2542.500901
439.704700	2543.965356
440.080670	2542.793288
440.456580	2540.844882
440.832429	2541.913607
441.208218	2544.209852
441.583947	2544.698844
441.959616	2546.427960
442.335224	2546.662374
442.710773	2545.994421
443.086261	2542.226158
443.461689	2544.683721
443.837057	2545.666746
444.212365	2545.903680
444.587612	2546.097764
444.962800	2544.759338
445.337927	2547.685728
445.712995	2547.176571
446.088002	2548.583053
446.462949	2547.816798
446.837837	2544.439225
447.212664	2546.891746
447.587431	2548.560368
447.962139	2545.817980
448.336786	2546.700182
448.711374	2549.873589
449.085901	2547.365615
449.460369	2550.017262
449.834776	2549.107333
450.209124	2546.576674
450.583412	2549.999617
450.957640	2550.667570
451.331808	2549.233362
451.705917	2548.194884
452.079965	2551.156562
452.453954	2552.026161
452.827883	2552.056408
453.201752	2553.409958
453.575562	2553.568754
453.949311	2553.813250
454.323001	2554.929866
454.696632	2549.442570
455.070202	2555.088662
455.443713	2553.679660
455.817164	2549.571119
456.190556	2552.409289
456.563888	2555.154197
456.937160	2553.402396
457.310373	2557.200906
457.683526	2556.172510
458.056619	2557.029507
458.429653	2560.641493
458.802628	2560.318859
459.175542	2558.004970
459.548398	2561.354817
459.921194	2567.686506
460.293930	2568.356979
460.666607	2572.077351
461.039224	2577.612538
461.411782	2580.264185
461.784280	2582.719227
462.156719	2584.702921
462.529099	2586.245514
462.901419	2586.290884
463.273680	2590.613673
463.645882	2592.206678
464.018024	2595.243973
464.390106	2598.324118
464.762130	2612.378855
465.134094	2623.688684
465.505999	2652.123312
465.877845	2678.375121
466.249631	2693.914477
466.621358	2692.921370
466.993026	2692.311391
467.364634	2694.630321
467.736184	2695.814992
468.107674	2702.383616
468.479105	2713.504401
468.850477	2716.007334
469.221790	2723.498489
469.593043	2723.115361
469.964238	2732.416290
470.335373	2742.309554
470.706449	2756.359250
471.077467	2772.264091
471.448425	2842.583146
471.819324	2902.966086
472.190164	2918.303797
472.560945	2879.464227
472.931667	2867.708256
473.302330	2875.360728
473.672934	2875.625388
474.043479	2919.364960
474.413965	2930.248811
474.784393	2944.961418
475.154761	2976.753455
475.525070	3001.785305
475.895321	3015.809795
476.265513	3051.223900
476.635645	3087.908377
477.005719	3122.619242
477.375734	3159.984274
477.745691	3211.333467
478.115588	3254.725199
478.485427	3316.925476
478.855207	3415.913573
479.224928	3564.799010
479.594591	3677.798994
479.964194	3699.299515
480.333739	3721.185685
480.703226	3767.914660
481.072653	3831.075277
481.442022	3933.660237
481.811333	4017.419008
482.180584	4041.170405
482.549777	4055.467117
482.918912	4079.578956
483.287988	4148.446158
483.657005	4204.677709
484.025964	4208.390519
484.394864	4291.108292
484.763706	4349.159699
485.132489	4354.415102
485.501213	4413.729318
485.869879	4486.216069
486.238487	4530.961351
486.607036	4605.320890
486.975527	4633.016990
487.343959	4736.675716
487.712333	4828.530580
488.080648	4865.527608
488.448905	4957.823573
488.817104	5012.298282
489.185244	5155.588038
489.553326	5287.293224
489.921350	5538.819074
490.289315	5965.298169
490.657222	6150.356406
491.025070	6225.988838
491.392861	6269.763697
491.760593	6234.704992
492.128267	6192.744948
492.495883	6155.720194
492.863440	6117.004133
493.230939	6074.129119
493.598380	6131.263036
493.965763	6166.019271
494.333088	6184.018711
494.700354	6245.830819
495.067563	6334.222411
495.434713	6348.083063
495.801805	6485.053734
496.168839	6531.119797
496.535815	6589.284631
496.902733	6646.516850
497.269593	6706.073042
497.636395	6819.572100
498.003139	6908.591315
498.369825	6909.728095
498.736453	7078.992397
499.103023	7101.821263
499.469535	7208.875206
499.835989	7273.850638
500.202385	7333.011099
500.568723	7322.969120
500.935003	7512.191350
501.301226	7496.793146
501.667390	7704.080351
502.033497	7850.664502
502.399546	7836.062800
502.765537	7857.185234
503.131470	7970.759910
503.497345	8162.313674
503.863163	7974.233265
504.228923	8251.698373
504.594625	8362.475208
504.960269	8260.263293
505.325856	8469.415725
505.691385	8402.451558
506.056856	8568.802073
506.422270	8653.551431
506.787625	8629.903378
507.152924	8791.895816
507.518164	8833.492897
507.883347	8841.525976
508.248472	8831.514244
508.613540	9064.904544
508.978550	9044.757572
509.343503	9076.295031
509.708398	9230.569462
510.073236	9375.608499
510.438016	9433.233929
510.802738	9444.384961
511.167403	9543.146206
511.532010	9507.633798
511.896561	9740.278007
512.261053	9855.450728
512.625488	9806.065064
512.989866	9834.958438
513.354186	9870.599395
513.718449	9832.846194
514.082655	10038.328666
514.446803	9989.063990
514.810894	10146.416046
515.174927	10072.071629
515.538904	10124.807140
515.902822	10303.831116
516.266684	10233.648172
516.630488	10223.235669
516.994235	10304.604933
517.357925	10394.352595
517.721558	10509.553042
518.085133	10552.848992
518.448651	10595.855076
518.812112	10519.436225
519.175516	10567.226363
519.538863	10701.036230
519.902152	10652.096709
520.265385	10828.267392
520.628560	10766.160376
520.991678	10781.472881
521.354739	10858.206804
521.717743	10825.935858
522.080690	10823.715230
522.443580	10977.387243
522.806413	10960.970725
523.169189	11006.116779
523.531908	11077.491955
523.894569	10917.581514
524.257174	10952.544437
524.619722	11076.423231
524.982213	11040.230267
525.344647	11108.270720
525.707025	11075.354506
526.069345	11178.670434
526.431608	11119.482246
526.793815	11226.445449
527.155964	11036.048630
527.518057	11096.570202
527.880093	11069.539535
528.242072	11140.203909
528.603995	11060.964532
528.965860	10992.220838
529.327669	11048.223016
529.689421	11009.645586
530.051117	10987.177164
530.412755	11097.916190
530.774337	10989.370066
531.135862	10987.005764
531.497331	11014.308654
531.858743	10872.553928
532.220098	11045.717563
532.581396	10917.344580
532.942638	10908.630946
533.303824	10876.828827
533.664953	10897.109388
534.026025	10808.183435
534.387040	10915.862481
534.747999	10925.049984
535.108902	10985.931999
535.469748	10747.452654
535.830537	10844.787253
536.191270	10826.714716
536.551947	10860.525735
536.912567	10858.305107
537.273131	10785.523448
537.633638	10773.843095
537.994089	10759.266598
538.354483	10704.398680
538.714821	10859.794768
539.075103	10870.935718
539.435328	10829.270581
539.795497	10662.017699
540.155609	10820.461165
540.515665	10904.592981
540.875665	10654.052676
541.235609	10711.998219
541.595496	10713.203055
541.955328	10872.354803
542.315102	10752.004816
542.674821	10708.587879
543.034483	10705.684174
543.394090	10716.580628
543.753640	10649.571091
544.113134	10869.395645
544.472571	10718.798736
544.831953	10861.002124
545.191278	10672.273927
545.550548	10706.014370
545.909761	10842.901861
546.268918	10821.580301
546.628019	10890.540765
546.987064	10764.232135
547.346053	10683.074599
547.704986	10778.523806
548.063863	10773.467529
548.422684	10764.151476
548.781449	10678.842550
549.140158	10779.925247
549.498811	10654.592080
549.857408	10522.591987
550.215949	10745.582386
550.574434	10591.764179
550.932864	10699.344923
551.291237	10752.463561
551.649555	10708.499658
552.007817	10714.972500
552.366022	10677.733497
552.724173	10674.492035
553.082267	10664.049284
553.440305	10796.931579
553.798288	10607.548032
554.156215	10750.076575
554.514086	10728.699562
554.871902	10577.991747
555.229661	10615.394588
555.587365	10589.072203
555.945014	10488.423046
556.302606	10616.498601
556.660143	10508.726293
557.017625	10659.434108
557.375050	10557.668335
557.732421	10694.117247
558.089735	10607.593403
558.446994	10607.817734
558.804197	10645.873404
559.161345	10649.261060
559.518437	10496.526701
559.875474	10587.194373
560.232455	10617.199321
560.589381	10570.356920
560.946251	10558.759745
561.303065	10670.736375
561.659825	10605.244225
562.016528	10531.126660
562.373177	10417.705740
562.729770	10530.315035
563.086307	10443.105594
563.442789	10541.997909
563.799216	10414.547457
564.155587	10470.814296
564.511904	10420.649774
564.868164	10415.633826
565.224370	10428.045147
565.580520	10351.154947
565.936615	10354.764414
566.292654	10225.950330
566.648638	10349.322488
567.004567	10319.078086
567.360441	10292.949785
567.716260	10207.333349
568.072023	10302.041506
568.427732	10251.698023
568.783385	10165.075877
569.138982	10232.997863
569.494525	10247.765923
569.850013	10131.466504
570.205445	10209.672444
570.560823	10109.834913
570.916145	10027.386842
571.271412	10096.158263
571.626625	10038.532833
571.981782	10015.157003
572.336884	9993.686728
572.691931	10001.061936
573.046923	9950.063103
573.401860	9902.204909
573.756743	9840.707874
574.111570	9878.156085
574.466342	9857.862920
574.821059	9891.691583
575.175722	9789.530080
575.530330	9796.232294
575.884882	9782.432135
576.239380	9709.942863
576.593823	9689.740439
576.948211	9704.332059
577.302544	9588.572043
577.656823	9598.482952
578.011047	9606.377399
578.365216	9580.284387
578.719330	9500.835802
579.073389	9510.668573
579.427394	9463.344741
579.781344	9435.028580
580.135239	9388.468483
580.489080	9395.042147
580.842866	9297.624370
581.196597	9304.906317
581.550273	9343.435855
581.903895	9308.041914
582.257463	9374.353252
582.610975	9257.476621
582.964434	9284.230024
583.317837	9207.362510
583.671186	9186.295528
584.024481	9186.724026
584.377721	9102.052806
584.730906	9079.291997
585.084037	9109.687634
585.437113	9051.364004
585.790135	9068.859329
586.143103	8964.825037
586.496016	8938.636243
586.848874	8997.816868
587.201679	8987.434612
587.554428	8869.128813
587.907124	8915.691431
588.259765	8888.144046
588.612352	8894.448009
588.964884	8767.242053
589.317362	8784.276112
589.669786	8783.139332
590.022155	8835.942898
590.374470	8839.025563
590.726731	8789.934807
591.078937	8639.703381
591.431090	8750.737315
591.783188	8621.910629
592.135232	8616.108261
592.487222	8617.933158
592.839157	8669.652876
593.191038	8603.606199
593.542866	8546.810039
593.894639	8447.829504
594.246358	8498.430086
594.598022	8519.134105
594.949633	8416.105523
595.301190	8391.610557
595.652692	8419.629290
596.004141	8527.802369
596.355535	8306.074779
596.706876	8282.371273
597.058162	8219.152683
597.409395	8297.073798
597.760573	8357.098817
598.111698	8269.072709
598.462768	8261.871421
598.813785	8218.509936
599.164748	8191.393570
599.515657	8181.129781
599.866511	8091.916481
600.217312	8220.816264
600.568060	8072.951660
600.918753	8177.492588
601.269392	8150.232549
601.619978	8062.481184
601.970510	8124.124413
602.320988	8120.925801
602.671412	8178.178185
603.021783	8112.373483
603.372100	8083.664112
603.722363	8090.532684
604.072572	8066.660300
604.422728	8073.647339
604.772830	8007.126794
605.122878	8014.287753
605.472872	8010.103595
605.822813	8032.224178
606.172701	7980.655695
606.522534	8055.962972
606.872314	8054.775780
607.222041	8020.241356
607.571714	8079.119512
607.921333	8035.974797
608.270899	8041.063842
608.620411	8133.979869
608.969870	8036.932616
609.319276	8036.980507
609.668627	8053.583547
610.017926	8082.766787
610.367171	8130.970300
610.716362	8110.152855
611.065500	8100.057944
611.414585	8127.096173
611.763616	8116.227445
612.112594	8095.523427
612.461518	8107.516332
612.810389	8170.500508
613.159207	8113.364070
613.507971	8061.150319
613.856682	8182.440481
614.205340	8128.361503
614.553945	8206.481743
614.902496	8106.787885
615.250994	8167.795929
615.599439	8146.648288
615.947830	8163.838623
616.296169	8131.398798
616.644454	8148.505953
616.992686	8145.783730
617.340864	8198.640228
617.688990	8104.204293
618.037063	8193.258797
618.385082	8141.793657
618.733048	8230.782625
619.080961	8168.521855
619.428821	8184.222528
619.776628	8189.901388
620.124382	8146.181982
620.472083	8123.693394
620.819731	8153.118609
621.167326	8043.859161
621.514868	8053.215543
621.862357	7942.524407
622.209793	7961.186759
622.557176	7897.234681
622.904506	7868.734518
623.251783	7800.908313
623.599007	7752.341837
623.946179	7760.377437
624.293297	7714.026547
624.640363	7635.989486
624.987376	7616.011393
625.334336	7563.439720
625.681243	7514.916094
626.028097	7497.125862
626.374899	7483.880230
626.721647	7471.927655
627.068343	7399.695482
627.414987	7376.405351
627.761577	7329.860378
628.108115	7370.242540
628.454600	7260.841940
628.801032	7318.094324
629.147412	7275.249558
629.493739	7264.196828
629.840014	7205.817746
630.186236	7259.435458
630.532405	7137.374000
630.878521	7190.711928
631.224585	7149.601319
631.570597	7072.927889
631.916556	7106.869978
632.262462	7100.024091
632.608316	7065.703916
632.954117	7040.982097
633.299866	7035.625872
633.645562	7020.825044
633.991206	6942.414937
634.336797	6881.364043
634.682336	6843.930955
635.027823	6812.421223
635.373257	6801.602907
635.718639	6732.569346
636.063968	6742.800368
636.409245	6640.812785
636.754470	6637.699872
637.099642	6599.608914
637.444762	6537.751435
637.789829	6555.370268
638.134845	6498.538820
638.479808	6477.033258
638.824719	6484.247149
639.169577	6413.602940
639.514383	6436.245282
639.859137	6359.332398
640.203839	6367.622575
640.548489	6354.923909
640.893086	6334.978584
641.237632	6303.274767
641.582125	6323.802346
641.926566	6298.284025
642.270955	6305.797865
642.615292	6304.227545
642.959576	6318.199103
643.303809	6308.709131
643.647990	6314.178783
643.992118	6303.294932
644.336195	6254.857005
644.680219	6277.675788
645.024192	6268.352174
645.368112	6361.061514
645.711981	6386.627725
646.055797	6460.624302
646.399562	6419.695174
646.743274	6542.875768
647.086935	6597.897442
647.430544	6591.596000
647.774101	6610.495285
648.117606	6616.219516
648.461059	6610.974195
648.804460	6566.977525
649.147810	6479.402600
649.491108	6450.302540
649.834354	6426.732625
650.177548	6345.446540
650.520690	6261.649960
650.863781	6240.446867
651.206820	6255.068733
651.549807	6178.566703
651.892742	6119.484380
652.235626	6126.378158
652.578458	6111.201764
652.921238	6016.932187
653.263967	6061.511111
653.606644	5997.034753
653.949269	6001.826370
654.291843	5943.664057
654.634365	5990.763558
654.976836	5948.932063
655.319255	5947.364264
655.661622	5927.643271
656.003938	5919.257311
656.346203	5884.274224
656.688416	5915.068112
657.030577	5866.673035
657.372687	5835.528787
657.714746	5821.189225
658.056753	5867.502305
658.398708	5805.982584
658.740612	5797.473117
659.082465	5848.529923
659.424266	5842.737637
659.766016	5836.894940
660.107715	5807.535260
660.449362	5826.731973
660.790958	5823.866078
661.132503	5806.895033
661.473996	5844.312998
661.815438	5831.037119
662.156829	5829.645760
662.498168	5826.447148
662.839456	5797.518487
663.180693	5832.720864
663.521879	5831.836142
663.863013	5823.193083
664.204097	5842.876269
664.545129	5880.954624
664.886110	5876.858687
665.227040	5913.880921
665.567918	5878.391198
665.908746	5907.224077
666.249522	5908.093676
666.590248	5889.194390
666.930922	5922.040028
667.271545	5939.220280
667.612118	5940.999808
667.952639	5906.488068
668.293109	5929.579074
668.633528	5889.635491
668.973896	5894.084309
669.314213	5886.411673
669.654480	5867.661102
669.994695	5855.088464
670.334859	5854.019739
670.674973	5843.650086
671.015035	5847.693091
671.355047	5845.227967
671.695008	5827.621737
672.034918	5799.698786
672.374777	5819.399615
672.714585	5797.820956
673.054342	5800.807840
673.394049	5796.089320
673.733705	5830.190205
674.073310	5819.709646
674.412864	5774.918994
674.752368	5771.901864
675.091820	5766.472541
675.431223	5705.467018
675.770574	5705.943407
676.109875	5660.736860
676.449125	5666.481254
676.788324	5632.536645
677.127473	5578.364406
677.466571	5568.077931
677.805619	5559.679369
678.144616	5540.898550
678.483562	5521.807701
678.822458	5494.046067
679.161303	5490.938195
679.500098	5476.822964
679.838842	5461.593639
680.177535	5465.571109
680.516179	5479.341021
680.854771	5492.357280
681.193314	5567.440225
681.531805	5683.061609
681.870247	5833.787068
682.208638	5932.689466
682.546978	5942.000477
682.885268	5921.944246
683.223508	5832.161296
683.561697	5777.124499
683.899836	5752.579121
684.237925	5707.601946
684.575963	5670.395710
684.913951	5628.317199
685.251889	5693.360687
685.589776	5662.092930
685.927614	5631.903980
686.265401	5698.704310
686.603137	5686.908010
686.940824	5761.804432
687.278460	5787.821828
687.616046	5796.147293
687.953582	5862.703127
688.291068	5847.317525
688.628504	5908.537298
688.965889	5869.715372
689.303224	5810.839736
689.640510	5768.962871
689.977745	5692.894380
690.314930	5596.142035
690.652065	5535.985946
690.989150	5447.425476
691.326185	5370.706676
691.663170	5319.483512
692.000105	5241.043158
692.336990	5164.286549
692.673825	5140.434330
693.010610	5073.644083
693.347345	5003.342672
693.684030	4988.272142
694.020665	4953.016833
694.357251	4861.073748
694.693786	4870.697311
695.030272	4837.155994
695.366707	4800.978153
695.703093	4766.521867
696.039429	4791.508346
696.375716	4776.604175
696.711952	4748.736676
697.048139	4734.439964
697.384276	4715.175194
697.720363	4729.187082
698.056400	4735.836363
698.392388	4682.571532
698.728326	4664.504037
699.064214	4645.065347
699.400053	4637.279285
699.735842	4604.957927
700.071581	4581.186366
700.407270	4555.819280
700.742910	4540.143812
701.078501	4483.582066
701.414042	4481.225327
701.749533	4451.537972
702.084974	4384.967015
702.420366	4440.001291
702.755709	4386.020616
703.091002	4331.561031
703.426246	4380.157754
703.761440	4330.663705
704.096584	4294.201040
704.431679	4320.538548
704.766725	4307.068585
705.101721	4292.436636
705.436668	4322.305472
705.771565	4270.046351
706.106413	4297.533242
706.441212	4329.736133
706.775961	4337.935570
707.110661	4315.086540
707.445311	4345.396477
707.779913	4367.328017
708.114465	4381.972569
708.448967	4403.253800
708.783421	4463.825784
709.117825	4501.213502
709.452180	4511.172301
709.786485	4556.938416
710.120742	4640.913957
710.454949	4625.525835
710.789107	4689.573695
711.123216	4765.382566
711.457275	4754.029888
711.791286	4828.686856
712.125247	4844.294268
712.459159	4743.826592
712.793023	4820.142100
713.126837	4785.874857
713.460602	4771.810037
713.794318	4696.515363
714.127985	4705.055078
714.461602	4618.765648
714.795171	4589.458900
715.128691	4522.598076
715.462162	4467.762925
715.795584	4422.523611
716.128957	4404.067947
716.462281	4348.496787
716.795556	4322.549968
717.128782	4285.386582
717.461960	4215.100295
717.795088	4229.578488
718.128167	4187.981408
718.461198	4127.527891
718.794180	4124.616624
719.127113	4104.812451
719.459997	4083.422836
719.792833	4042.193759
720.125619	4033.175135
720.458357	3997.108199
720.791046	3997.025020
721.123686	3973.132472
721.456278	3932.538580
721.788821	3951.170685
722.121315	3925.811161
722.453761	3898.891399
722.786158	3909.601330
723.118506	3935.167542
723.450805	3883.747773
723.783056	3907.007657
724.115259	3922.932662
724.447412	3927.474741
724.779518	3922.504164
725.111574	3920.764966
725.443582	3956.705872
725.775542	3941.726083
726.107453	3991.469669
726.439315	3989.649812
726.771129	4004.914426
727.102895	4042.939850
727.434612	4087.803598
727.766281	4102.803552
728.097901	4100.040999
728.429473	4104.620888
728.760996	4112.888380
729.092471	4107.648100
729.423897	4092.207046
729.755276	4100.653499
730.086606	4095.524125
730.417887	4134.189775
730.749120	4198.832491
731.080305	4264.808592
731.411442	4287.037560
731.742530	4255.716871
732.073570	4259.578395
732.404562	4319.658867
732.735506	4310.501611
733.066401	4271.384777
733.397249	4207.364644
733.728048	4132.949652
734.058798	4046.587124
734.389501	3976.295796
734.720156	3915.411260
735.050762	3871.550701
735.381320	3867.064074
735.711831	3814.167247
736.042293	3784.784882
736.372707	3806.050989
736.703073	3782.995272
737.033391	3768.580093
737.363661	3787.323103
737.693883	3811.127431
738.024056	3824.489009
738.354182	3817.103719
738.684260	3883.165520
739.014290	3902.649579
739.344272	3898.210843
739.674207	3939.243315
740.004093	3942.416721
740.333931	3937.897327
740.663722	3944.760858
740.993464	3934.577727
741.323159	3911.292637
741.652806	3883.581415
741.982405	3857.644678
742.311956	3825.840039
742.641460	3815.493070
742.970915	3792.260913
743.300323	3749.935385
743.629683	3716.772155
743.958996	3708.255125
744.288260	3683.669418
744.617477	3650.843945
744.946647	3636.237201
745.275768	3610.739045
745.604842	3607.089250
745.933869	3560.123340
746.262847	3556.329872
746.591778	3589.407403
746.920662	3561.509657
747.249498	3533.362375
747.578286	3575.456009
747.907027	3594.345213
748.235720	3590.224070
748.564365	3614.277935
748.892963	3615.959160
749.221514	3600.689505
749.550017	3578.624375
749.878473	3577.326277
750.206881	3546.078685
750.535242	3540.840927
750.863555	3541.576935
751.191821	3537.034855
751.520039	3519.274870
751.848210	3497.350892
752.176334	3533.329607
752.504411	3535.462015
752.832440	3496.541787
753.160421	3480.914210
753.488356	3489.441322
753.816243	3503.317098
754.144082	3457.591312
754.471875	3443.304682
754.799620	3462.781180
755.127318	3452.361115
755.454969	3456.429326
755.782572	3460.595840
756.110129	3439.420473
756.437638	3426.184923
756.765100	3436.249587
757.092515	3452.114098
757.419882	3459.905202
757.747203	3428.982764
758.074477	3431.248763
758.401703	3449.147379
758.728882	3469.180925
759.056014	3477.408088
759.383099	3479.303562
759.710138	3475.295844
760.037129	3493.950634
760.364073	3521.369470
760.690970	3506.666945
761.017820	3486.240189
761.344623	3503.785925
761.671379	3550.938358
761.998088	3600.997015
762.324751	3724.255748
762.651366	3972.129282
762.977935	4440.543215
763.304456	4875.022621
763.630931	4964.515705
763.957359	4607.269296
764.283740	4269.761526
764.610074	4083.879060
764.936362	3890.427302
765.262602	3732.490472
765.588796	3618.630972
765.914943	3531.171993
766.241044	3446.407512
766.567097	3414.096237
766.893104	3370.414638
767.219064	3340.129907
767.544978	3316.391113
767.870845	3259.065632
768.196665	3241.988724
768.522438	3250.283942
768.848165	3244.889908
769.173846	3208.689382
769.499479	3191.912422
769.825066	3174.371727
770.150607	3159.515447
770.476101	3177.416584
770.801548	3168.208917
771.126949	3122.374746
771.452303	3108.088116
771.777611	3115.677573
772.102872	3120.020527
772.428087	3094.562700
772.753256	3085.856627
773.078378	3078.519228
773.403453	3044.309958
773.728482	3030.701363
774.053465	3055.186247
774.378401	3043.924310
774.703291	3012.167561
775.028135	3011.429032
775.352932	3004.593227
775.677683	2995.380519
776.002388	2991.309787
776.327046	2994.432782
776.651658	2983.964826
776.976224	2968.198617
777.300743	2969.685758
777.625216	2963.979171
777.949643	2955.857873
778.274024	2958.065898
778.598359	2946.088116
778.922647	2953.231431
779.246889	2952.412244
779.571086	2937.843309
779.895236	2933.974224
780.219339	2941.283897
780.543397	2956.094807
780.867409	2958.033130
781.191374	2947.050977
781.515294	2947.383693
781.839167	2946.541820
782.162995	2938.901952
782.486776	2948.943930
782.810511	2947.769341
783.134201	2929.268307
783.457844	2940.633588
783.781441	2931.514141
784.104993	2910.870616
784.428498	2910.011099
784.751958	2924.234714
785.075372	2917.547624
785.398739	2903.140006
785.722061	2918.263468
786.045337	2932.862649
786.368568	2915.432860
786.691752	2905.930285
787.014891	2954.988273
787.337983	2984.390803
787.661030	3011.683610
787.984031	3078.741039
788.306987	3122.616721
788.629897	3112.887294
788.952760	3099.828185
789.275579	3083.086513
789.598351	3025.163656
789.921078	2981.855103
790.243759	2974.033753
790.566395	2959.220322
790.888984	2932.582865
791.211529	2915.342119
791.534027	2907.301479
791.856480	2896.127761
792.178888	2881.500853
792.501249	2871.632795
792.823566	2871.655480
793.145836	2869.762527
793.468062	2864.794469
793.790241	2863.690457
794.112375	2868.471991
794.434464	2881.347098
794.756507	2883.676111
795.078505	2889.854045
795.400457	2902.925757
795.722364	2943.184412
796.044226	2966.456898
796.366042	2967.069399
796.687812	2956.109930
797.009538	2974.981490
797.331218	2964.377423
797.652852	2948.999383
797.974442	2932.272834
798.295986	2928.343255
798.617484	2923.113058
798.938938	2911.848599
799.260346	2891.565517
799.581709	2884.671739
799.903026	2880.724516
800.224299	2875.890049
800.545526	2864.728934
800.866708	2849.451718
801.187845	2840.317147
801.508936	2843.349401
801.829983	2848.299814
802.150984	2838.711539
802.471940	2823.870382
802.792851	2823.552790
803.113717	2824.208140
803.434538	2827.986485
803.755314	2820.409630
804.076045	2816.164979
804.396731	2814.501398
804.717372	2816.192705
805.037967	2809.974442
805.358518	2818.151193
805.679024	2827.028665
805.999485	2824.485403
806.319901	2827.373984
806.640272	2820.447439
806.960598	2823.837615
807.280879	2834.572752
807.601115	2842.046263
807.921306	2830.459171
808.241453	2827.691577
808.561554	2831.006136
808.881611	2834.618122
809.201623	2827.424396
809.521590	2825.405414
809.841513	2822.451298
810.161390	2827.623522
810.481223	2821.032213
810.801011	2809.608958
811.120755	2806.402784
811.440453	2811.471665
811.760107	2810.919658
812.079716	2808.411684
812.399281	2798.193265
812.718801	2791.612039
813.038276	2790.271092
813.357707	2794.787966
813.677093	2801.608647
813.996434	2796.305353
814.315731	2793.746968
814.634983	2784.166255
814.954191	2787.322017
815.273354	2800.713842
815.592473	2812.374031
815.911547	2810.513845
816.230577	2817.102633
816.549562	2828.364571
816.868502	2827.046309
817.187399	2834.209789
817.506250	2853.164528
817.825058	2842.653722
818.143821	2856.476566
818.462539	2873.742517
818.781213	2899.570869
819.099843	2934.392639
819.418429	2990.175527
819.736970	3052.489230
820.055466	3122.972122
820.373919	3227.354254
820.692327	3366.603526
821.010691	3531.267775
821.329011	3969.437306
821.647286	4860.993090
821.965517	6221.892900
822.283704	6944.910308
822.601847	6920.795949
822.919945	6292.199352
823.237999	5798.420853
823.556010	5220.376948
823.873976	4673.626004
824.191897	4274.986682
824.509775	3987.797188
824.827609	3720.956312
825.145398	3599.736727
825.463144	3590.778597
825.780845	3679.313861
826.098502	3787.464255
826.416116	4065.113365
826.733685	4373.357237
827.051210	4436.744706
827.368692	4322.161799
827.686129	4058.668250
828.003522	3741.158736
828.320872	3484.309427
828.638177	3290.845066
828.955439	3156.740292
829.272656	3078.005030
829.589830	3010.070441
829.906960	2961.952628
830.224046	2920.335382
830.541088	2883.779455
830.858086	2870.075078
831.175041	2852.514219
831.491952	2853.865248
831.808819	2867.894779
832.125642	2889.551576
832.442421	2932.411466
832.759157	3016.986904
833.075849	3189.275898
833.392497	3468.472642
833.709101	3667.124351
834.025662	3613.020167
834.342179	3460.283288
834.658653	3282.597738
834.975083	3138.035090
835.291469	3042.333826
835.607811	2962.071095
835.924110	2902.950963
836.240366	2850.341481
836.556578	2810.662559
836.872746	2788.446194
837.188871	2763.830240
837.504952	2749.722571
837.820990	2741.840727
838.136984	2727.352451
838.452935	2722.631410
838.768842	2721.267778
839.084706	2738.495922
839.400526	2817.148004
839.716303	2946.574588
840.032037	3023.147194
840.347727	3009.432735
840.663373	2953.032306
840.978977	2876.749566
841.294537	2804.507311
841.610054	2758.915115
841.925527	2735.594737
842.240957	2716.418188
842.556344	2693.942204
842.871687	2678.964936
843.186987	2669.013698
843.502244	2665.290806
843.817458	2660.554642
844.132629	2649.191881
844.447756	2640.740387
844.762840	2634.038173
845.077881	2637.728297
845.392879	2634.915333
845.707833	2632.520785
846.022745	2625.193468
846.337613	2626.189096
846.652438	2625.122892
846.967221	2624.911164
847.281960	2622.065432
847.596656	2623.890330
847.911309	2622.299846
848.225919	2622.042747
848.540485	2614.168465
848.855009	2614.556634
849.169490	2613.409771
849.483928	2615.973198
849.798323	2616.341202
850.112675	2611.632764
850.426984	2612.514966
850.741251	2609.195367
851.055474	2613.757611
851.369654	2620.517798
851.683792	2615.461521
851.997887	2613.298866
852.311938	2611.158896
852.625947	2613.127467
852.939914	2614.970008
853.253837	2615.975718
853.567718	2614.163424
853.881555	2611.186622
854.195350	2616.827673
854.509103	2617.984618
854.822812	2610.596807
855.136479	2611.567229
855.450103	2612.711571
855.763685	2618.345061
856.077224	2611.980604
856.390720	2610.289297
856.704173	2612.789709
857.017584	2617.243569
857.330953	2617.089813
857.644278	2621.795731
857.957561	2619.330606
858.270802	2612.862806
858.584000	2617.629217
858.897155	2619.559979
859.210268	2621.836060
859.523339	2617.730040
859.836367	2609.167640
860.149352	2610.967332
860.462295	2615.665687
860.775195	2612.373814
861.088054	2608.781992
861.400869	2607.617485
861.713642	2606.100098
862.026373	2607.761158
862.339062	2611.957919
862.651708	2615.078393
862.964312	2617.190637
863.276873	2614.612086
863.589392	2617.462859
863.901869	2623.340844
864.214303	2626.420989
864.526696	2631.489869
864.839045	2629.496093
865.151353	2634.680920
865.463619	2632.674541
865.775842	2633.965076
866.088023	2633.332411
866.400162	2632.818213
866.712258	2633.289561
867.024313	2630.998357
867.336325	2628.510548
867.648296	2629.339817
867.960224	2636.490694
868.272110	2634.237298
868.583954	2628.157667
868.895755	2630.809314
869.207515	2631.346197
869.519233	2638.766775
869.830909	2636.152937
870.142542	2631.419293
870.454134	2635.106897
870.765684	2637.864408
871.077191	2640.266518
871.388657	2646.401602
871.700081	2641.368010
872.011463	2643.069400
872.322803	2641.685603
872.634101	2647.243475
872.945357	2653.736481
873.256571	2658.535660
873.567744	2658.356699
873.878874	2655.044661
874.189963	2655.873931
874.501010	2659.064981
874.812015	2664.161587
875.122979	2667.607216
875.433900	2658.308808
875.744780	2655.750422
876.055618	2659.054899
876.366415	2666.767864
876.677169	2664.547236
876.987882	2660.390804
877.298554	2656.098262
877.609183	2667.902124
877.919771	2676.958557
878.230317	2683.877540
878.540822	2694.153932
878.851285	2705.743545
879.161707	2729.530229
879.472087	2765.912237
879.782425	2814.743373
880.092722	2924.950558
880.402977	3109.068620
880.713191	3363.863659
881.023363	3651.343019
881.333494	3835.629959
881.643583	4006.666227
881.953631	4007.588758
882.263637	3828.610153
882.573602	3608.551184
882.883526	3481.811536
883.193408	3371.226264
883.503248	3273.498456
883.813048	3164.115500
884.122806	3049.583005
884.432522	2966.968576
884.742197	2903.671848
885.051831	2867.960314
885.361424	2834.285406
885.670975	2797.341310
885.980485	2768.420211
886.289954	2750.919845
886.599382	2737.386868
886.908768	2727.264231
887.218113	2708.652291
887.527417	2696.188038
887.836680	2688.500278
888.145901	2682.513908
888.455082	2672.567712
888.764221	2662.588747
889.073319	2657.819816
889.382376	2653.804537
889.691392	2656.456184
890.000366	2655.463077
890.309300	2654.134732
890.618193	2656.166317
890.927044	2657.940804
891.235855	2661.202430
891.544625	2657.093890
891.853353	2657.459373
892.162041	2668.121414
892.470687	2688.913653
892.779293	2695.235260
893.087858	2706.398895
893.396381	2727.914540
893.704864	2767.704367
894.013306	2838.721622
894.321707	2927.491300
894.630068	2974.061479
894.938387	2997.863287
895.246665	2988.761484
895.554903	2944.391768
895.863100	2905.053124
896.171256	2848.085565
896.479371	2786.485186
896.787446	2750.012437
897.095480	2731.823954
897.403473	2726.485372
897.711425	2709.763865
898.019336	2693.251566
898.327207	2681.974505
898.635038	2680.752025
898.942827	2677.102229
899.250576	2666.830878
899.558284	2655.904177
899.865952	2652.503919
900.173579	2650.227838
900.481165	2647.918990
900.788711	2639.117135
901.096216	2634.065899
901.403681	2630.910137
901.711105	2629.881741
902.018489	2628.629015
902.325832	2631.283182
902.633135	2632.916516
902.940397	2648.039977
903.247619	2682.834021
903.554800	2751.870103
903.861941	2875.330481
904.169041	2998.206085
904.476101	3056.224725
904.783121	3048.796585
905.090100	2996.136692
905.397039	2919.780855
905.703938	2852.564630
906.010796	2790.228242
906.317614	2739.095819
906.624391	2704.621888
906.931129	2679.693382
907.237826	2656.430978
907.544483	2640.972280
907.851099	2627.348562
908.157675	2615.975718
908.464211	2612.824997
908.770707	2601.026177
909.077163	2597.515013
909.383578	2593.325814
909.689954	2592.546956
909.996289	2588.899681
910.302584	2588.443457
910.608839	2586.016141
910.915054	2585.766604
911.221229	2589.398755
911.527363	2591.667275
911.833458	2589.673498
912.139513	2591.843715
912.445527	2591.062336
912.751502	2595.455702
913.057436	2604.169336
913.363331	2609.134873
913.669186	2620.232973
913.975000	2633.226547
914.280775	2647.331695
914.586510	2664.358192
914.892205	2699.769778
915.197859	2763.946187
915.503475	2847.906604
915.809050	2911.644433
916.114585	2925.482400
916.420081	2936.446910
916.725536	2947.850000
917.030952	2923.135743
917.336328	2879.277704
917.641665	2827.298367
917.946961	2780.617282
918.252218	2748.069073
918.557435	2721.502192
918.862612	2701.549305
919.167750	2684.600946
919.472848	2667.909685
919.777906	2653.658343
920.082925	2644.014616
920.387904	2629.410393
920.692843	2629.344858
920.997743	2624.989302
921.302603	2616.560492
921.607423	2609.487753
921.912204	2605.648915
922.216946	2604.038266
922.521647	2602.364603
922.826310	2598.853439
923.130932	2591.992429
923.435516	2585.506985
923.740059	2585.877509
924.044564	2581.607652
924.349028	2580.962384
924.653454	2574.935685
924.957840	2572.639439
925.262186	2569.297154
925.566493	2570.779254
925.870761	2566.683316
926.174989	2567.187432
926.479178	2567.479818
926.783328	2563.356155
927.087438	2564.651731
927.391509	2563.789694
927.695541	2560.028993
927.999533	2558.930022
928.303486	2559.459343
928.607400	2557.067315
928.911275	2558.556976
929.215110	2554.392983
929.518906	2558.940104
929.822663	2557.858776
930.126381	2558.148643
930.430060	2557.110165
930.733699	2555.683518
931.037299	2558.509085
931.340861	2559.910526
931.644383	2557.155535
931.947866	2559.640824
932.251309	2559.204764
932.554714	2555.701162
932.858080	2559.083777
933.161407	2556.487582
933.464694	2556.646379
933.767943	2556.480021
934.071153	2558.093190
934.374323	2553.646892
934.677455	2555.229815
934.980548	2553.783003
935.283602	2556.351471
935.586617	2555.123950
935.889593	2556.535473
936.192530	2553.604042
936.495428	2554.405586
936.798287	2555.663354
937.101108	2559.620660
937.403890	2560.535629
937.706632	2561.468243
938.009336	2566.756413
938.312002	2569.939902
938.614628	2573.108267
938.917216	2577.451221
939.219765	2576.163206
939.522275	2578.870306
939.824747	2577.481468
940.127179	2572.795715
940.429573	2567.184911
940.731929	2571.096846
941.034246	2565.508727
941.336524	2565.770867
941.638763	2567.308419
941.940964	2567.381516
942.243126	2564.611402
942.545250	2562.967986
942.847335	2562.327759
943.149381	2561.458160
943.451389	2563.104097
943.753359	2561.417831
944.055290	2560.281051
944.357182	2557.163097
944.659036	2557.208468
944.960851	2560.475135
945.262628	2557.145453
945.564367	2558.962789
945.866067	2555.922973
946.167729	2559.161915
946.469352	2559.625701
946.770937	2558.834240
947.072484	2558.320042
947.373992	2557.843653
947.675462	2556.492624
947.976893	2557.158056
948.278286	2556.411965
948.579641	2554.445915
948.880958	2552.462221
949.182236	2555.980947
949.483476	2554.355174
949.784678	2552.368960
950.085841	2553.162942
950.386967	2556.144784
950.688054	2555.444064
950.989103	2556.638817
951.290114	2555.381049
951.591087	2557.576472
951.892021	2558.090669
952.192917	2558.496482
952.493776	2560.311298
952.794596	2559.282902
953.095378	2561.564024
953.396122	2565.768347
953.696828	2561.838767
953.997496	2557.793241
954.298126	2558.176369
954.598718	2557.289126
954.899272	2555.461708
955.199788	2554.473642
955.500266	2555.146636
955.800706	2549.435008
956.101108	2547.295038
956.401472	2546.274205
956.701798	2544.925696
957.002087	2546.508618
957.302337	2547.597508
957.602550	2547.206818
957.902724	2546.042312
958.202861	2544.189688
958.502960	2545.722198
958.803022	2545.112219
959.103045	2545.150028
959.403031	2543.708257
959.702979	2544.318237
960.002889	2544.741694
960.302762	2542.067362
960.602596	2542.163144
960.902393	2541.880839
961.202153	2543.935109
961.501875	2541.222969
961.801559	2542.205994
962.101205	2545.777651
962.400814	2540.733977
962.700385	2540.948226
962.999918	2541.356559
963.299414	2539.544264
963.598873	2543.065510
963.898293	2538.379758
964.197677	2539.685417
964.497022	2537.951260
964.796331	2541.457382
965.095601	2540.965870
965.394835	2540.769265
965.694030	2539.997968
965.993189	2541.258257
966.292309	2537.401774
966.591393	2540.862526
966.890439	2537.694161
967.189447	2539.236754
967.488419	2538.626774
967.787353	2540.023174
968.086249	2540.436549
968.385108	2540.517207
968.683930	2539.372865
968.982714	2536.804397
969.281462	2541.192722
969.580172	2540.817156
969.878844	2540.590304
970.177480	2538.125180
970.476078	2538.707433
970.774639	2543.231868
971.073162	2540.799512
971.371649	2537.779861
971.670098	2538.185673
971.968510	2541.497712
972.266885	2537.109387
972.565223	2541.719522
972.863524	2539.985365
973.161788	2540.451672
973.460014	2542.213555
973.758204	2542.304296
974.056356	2542.740356
974.354471	2543.549461
974.652550	2541.094419
974.950591	2544.623227
975.248595	2541.669111
975.546563	2541.989224
975.844493	2540.373534
976.142386	2539.811446
976.440243	2540.484440
976.738062	2541.127187
977.035845	2539.851775
977.333590	2539.778678
977.631299	2537.558050
977.928971	2539.934954
978.226606	2537.747093
978.524204	2539.801363
978.821765	2539.970242
979.119290	2540.222300
979.416777	2538.261291
979.714228	2539.813966
980.011642	2542.344625
980.309020	2539.571991
980.606360	2540.232382
980.903664	2538.251208
981.200931	2538.034439
981.498162	2540.058462
981.795356	2539.849254
982.092513	2548.431819
982.389633	2547.138763
982.686717	2550.871737
982.983764	2554.556821
983.280775	2553.276367
983.577749	2554.519012
983.874686	2553.959444
984.171587	2549.457693
984.468451	2547.756304
984.765279	2545.878474
985.062070	2544.683721
985.358824	2541.608617
985.655543	2540.176929
985.952224	2541.414533
986.248869	2537.207690
986.545478	2536.401105
986.842050	2537.449665
987.138586	2535.327339
987.435086	2533.840199
987.731549	2533.194931
988.027975	2536.403626
988.324366	2538.856147
988.620719	2539.428318
988.917037	2536.514531
989.213318	2538.364634
989.509563	2537.651311
989.805772	2540.260108
990.101944	2536.101156
990.398080	2535.218954
990.694180	2536.398584
990.990244	2537.285828
991.286271	2537.525282
991.582262	2536.023018
991.878217	2534.417411
992.174136	2536.985879
992.470019	2538.732639
992.765865	2537.822710
993.061676	2536.073430
993.357450	2538.420087
993.653188	2535.871784
993.948890	2535.392874
994.244556	2537.242978
994.540186	2537.437062
994.835780	2535.045035
995.131337	2537.653832
995.426859	2539.617361
995.722345	2537.709284
996.017795	2540.794471
996.313208	2542.279090
996.608586	2540.081147
996.903928	2539.579553
997.199234	2542.899152
997.494504	2541.659028
997.789738	2540.330684
998.084936	2538.127700
998.380099	2536.622916
998.675225	2537.429500
998.970316	2537.850437
999.265371	2539.211548
999.560390	2536.300282
999.855373	2539.723225
1000.150320	2538.281455
1000.445232	2536.144006
1000.740108	2536.580066
1001.034948	2538.157947
1001.329752	2535.292051
1001.624521	2536.020498
1001.919254	2533.212575
1002.213951	2534.513193
1002.508613	2531.309540
1002.803239	2534.929088
1003.097829	2527.793335
1003.392384	2535.740714
1003.686903	2534.077133
1003.981386	2534.142668
1004.275834	2531.672503
1004.570246	2540.058462
1004.864623	2535.120652
1005.158964	2535.859181
1005.453270	2536.547298
1005.747540	2534.326670
1006.041775	2535.024870
1006.335974	2534.130065
1006.630138	2533.484797
1006.924266	2533.351207
1007.218359	2534.679551
1007.512416	2534.331711
1007.806438	2535.655014
1008.100425	2535.856660
1008.394376	2535.423121
1008.688292	2534.261135
1008.982172	2532.537061
1009.276017	2535.798687
1009.569827	2535.690302
1009.863602	2537.883204
1010.157341	2533.860363
1010.451045	2534.009077
1010.744714	2533.366330
1011.038347	2532.547143
1011.331945	2535.221475
1011.625508	2534.800539
1011.919036	2532.758871
1012.212528	2535.733152
1012.505986	2534.649304
1012.799408	2532.900024
1013.092795	2534.596372
1013.386147	2536.023018
1013.679464	2533.240302
1013.972745	2536.038142
1014.265992	2533.825075
1014.559204	2533.288193
1014.852380	2536.998482
1015.145521	2535.097967
1015.438628	2536.741383
1015.731699	2536.595189
1016.024736	2531.599406
1016.317737	2535.702905
1016.610703	2535.218954
1016.903635	2532.219468
1017.196531	2530.114786
1017.489393	2530.707122
1017.782219	2532.592513
1018.075011	2533.671320
1018.367768	2534.026722
1018.660490	2535.758358
1018.953177	2535.758358
1019.245829	2535.758358
