Dividing Wavelength (nm)	Counts (n)	Blue Motor Position (mm): 42.700000	Red Motor Position (mm): 0.000000	
326.493990	2131.926647
326.888308	2131.926647
327.282561	2131.926647
327.676750	2097.361975
328.070874	2094.806110
328.464933	2099.131420
328.858929	2104.588469
329.252859	2111.265478
329.646726	2127.009001
330.040528	2138.976700
330.434265	2156.865235
330.827938	2171.771927
331.221547	2191.790349
331.615091	2210.603935
332.008571	2231.229816
332.401986	2249.476272
332.795338	2268.783891
333.188625	2288.575461
333.581847	2306.027936
333.975006	2327.094918
334.368100	2344.010510
334.761129	2361.876359
335.154095	2378.106354
335.546996	2399.629560
335.939833	2423.285174
336.332606	2441.307299
336.725315	2451.389607
337.117960	2461.620629
337.510540	2470.636733
337.903056	2481.815491
338.295508	2486.902015
338.687896	2498.085815
339.080220	2506.998575
339.472480	2512.155676
339.864676	2516.924607
340.256807	2518.620955
340.648875	2525.550021
341.040879	2528.330218
341.432818	2524.771163
341.824694	2528.998171
342.216506	2530.079498
342.608253	2531.027235
342.999937	2528.362985
343.391557	2529.492204
343.783113	2529.015815
344.174605	2527.221164
344.566033	2526.684281
344.957397	2520.955010
345.348697	2523.715041
345.739934	2522.772346
346.131106	2518.615914
346.522215	2515.286232
346.913260	2513.368073
347.304241	2513.428567
347.695159	2510.723988
348.086012	2511.848165
348.476802	2509.123422
348.867528	2506.353308
349.258191	2506.920437
349.648789	2506.358349
350.039324	2503.169819
350.429796	2502.237205
350.820203	2501.249139
351.210548	2500.422390
351.600828	2498.098418
351.991045	2500.087153
352.381198	2498.547081
352.771288	2497.470794
353.161314	2495.603047
353.551276	2498.269817
353.941175	2497.012049
354.331010	2498.748727
354.720782	2492.558190
355.110490	2496.969200
355.500135	2493.579024
355.889717	2497.276710
356.279235	2497.332163
356.668689	2498.579848
357.058080	2497.921978
357.447408	2497.861484
357.836672	2494.239415
358.225873	2497.042296
358.615010	2494.536843
359.004084	2500.467760
359.393095	2499.910713
359.782043	2501.113028
360.170927	2500.245950
360.559748	2503.646208
360.948505	2503.169819
361.337199	2507.311127
361.725830	2505.269459
362.114398	2502.690909
362.502903	2504.420025
362.891344	2505.781137
363.279722	2506.441528
363.668037	2507.936230
364.056289	2507.936230
364.444478	2507.651405
364.832603	2508.054697
365.220665	2509.617455
365.608665	2507.071672
365.996601	2509.597290
366.384474	2509.027640
366.772284	2513.415964
367.160031	2511.434791
367.547715	2511.258350
367.935336	2512.001920
368.322893	2513.446211
368.710388	2513.766324
369.097820	2513.584843
369.485189	2509.849348
369.872495	2515.160203
370.259738	2513.937723
370.646918	2515.278670
371.034035	2513.864627
371.421090	2516.687673
371.808081	2512.556447
372.195010	2516.596932
372.581875	2515.513084
372.968678	2518.247910
373.355418	2514.227590
373.742096	2520.287057
374.128710	2518.409227
374.515262	2518.691532
374.901751	2519.145235
375.288177	2519.697242
375.674540	2520.282016
376.060841	2521.295287
376.447079	2520.695390
376.833254	2522.311080
377.219367	2518.220184
377.605417	2522.694208
377.991404	2517.922756
378.377329	2521.779238
378.763191	2519.427540
379.148991	2528.804086
379.534727	2527.372398
379.920402	2529.487162
380.306013	2532.136289
380.691563	2537.757175
381.077049	2540.590304
381.462474	2546.574153
381.847835	2551.756460
382.233134	2562.756257
382.618371	2568.780436
383.003545	2582.757035
383.388657	2591.629466
383.773706	2602.840992
384.158693	2617.858589
384.543618	2633.466002
384.928480	2648.778507
385.313280	2668.849861
385.698017	2681.661953
386.082692	2707.747404
386.467305	2723.314487
386.851856	2748.502612
387.236344	2771.454985
387.620770	2797.177473
388.005133	2826.703511
388.389435	2856.219467
388.773674	2881.367263
389.157851	2916.912438
389.541965	2945.185750
389.926018	2957.529015
390.310008	3011.403826
390.693936	3042.326264
391.077802	3086.779158
391.461606	3109.209772
391.845348	3166.971313
392.229027	3197.480376
392.612645	3232.730645
392.996200	3300.766057
393.379694	3354.663553
393.763125	3423.679470
394.146494	3434.328908
394.529801	3505.021008
394.913047	3568.889907
395.296230	3572.917788
395.679351	3637.280720
396.062410	3685.537165
396.445408	3702.644321
396.828343	3756.075511
397.211217	3802.272644
397.594028	3761.479628
397.976778	3842.120445
398.359466	3887.894122
398.742092	3935.800207
399.124656	3885.562588
399.507158	3977.646825
399.889598	4021.028474
400.271977	4092.310390
400.654294	4084.249585
401.036549	4107.887555
401.418742	4091.529011
401.800874	4201.781566
402.182944	4234.861618
402.564952	4307.028256
402.946898	4305.704953
403.328783	4314.713495
403.710606	4240.187597
404.092367	4434.808903
404.474067	4407.178338
404.855705	4421.159979
405.237282	4357.659084
405.618797	4469.343327
406.000250	4507.356148
406.381642	4591.994600
406.762972	4558.385228
407.144240	4575.878031
407.525447	4572.077001
407.906593	4634.776352
408.287677	4677.598434
408.668700	4611.274493
409.049661	4661.597811
409.430560	4703.940983
409.811399	4630.738388
410.192176	4794.331392
410.572891	4737.265531
410.953545	4841.645142
411.334138	4719.205597
411.714669	4786.449548
412.095139	4682.803425
412.475547	4825.311803
412.855894	4807.430830
413.236180	4812.003157
413.616405	4768.603863
413.996568	4858.313717
414.376670	4799.281805
414.756711	4753.422429
415.136691	4788.476092
415.516609	4863.102813
415.896466	4902.426333
416.276262	4936.164256
416.655997	4911.762550
417.035670	5096.921611
417.415283	5189.875446
417.794834	5133.459894
418.174324	5085.919292
418.553753	4995.848997
418.933121	5178.532850
419.312428	5242.653807
419.691674	5184.108366
420.070859	5310.590916
420.449983	5222.882401
420.829045	5341.964537
421.208047	5246.106997
421.586988	5319.904448
421.965867	5330.390048
422.344686	5466.342406
422.723444	5314.754909
423.102141	5134.332013
423.480777	5437.486841
423.859352	5199.652764
424.237866	5460.217404
424.616319	5452.433862
424.994712	5562.446963
425.373044	5442.704435
425.751314	5584.459161
426.129524	5387.649994
426.507673	5581.240384
426.885762	5663.144011
427.263789	5591.642805
427.641756	5475.837419
428.019662	5595.043063
428.397508	5604.079332
428.775292	5554.212238
429.153016	5654.921889
429.530679	5575.392646
429.908282	5662.244165
430.285824	5534.148445
430.663305	5808.011649
431.040726	5542.907450
431.418086	5544.913829
431.795385	5645.295805
432.172624	5660.441952
432.549802	5656.809801
432.926920	5668.187685
433.303977	5678.010373
433.680974	5713.996650
434.057910	5730.609772
434.434786	5734.882150
434.811601	5707.039858
435.188355	5940.392349
435.565050	5812.972144
435.941683	5794.854237
436.318257	6010.527402
436.694770	5992.313713
437.071222	6028.811667
437.447614	5962.339012
437.823946	5877.196444
438.200218	6023.190780
438.576429	5892.970214
438.952580	5990.146017
439.328670	6037.747112
439.704700	5944.677329
440.080670	5929.286687
440.456580	6201.803902
440.832429	6085.375933
441.208218	5930.211738
441.583947	6086.149750
441.959616	6091.921872
442.335224	6015.828175
442.710773	6153.723897
443.086261	6179.779101
443.461689	5969.689014
443.837057	6122.796418
444.212365	6280.564369
444.587612	6172.865158
444.962800	6324.261091
445.337927	6303.143697
445.712995	5913.248256
446.088002	6495.418346
446.462949	6324.208158
446.837837	6258.847078
447.212664	6429.399395
447.587431	6572.522794
447.962139	7111.606142
448.336786	8041.192391
448.711374	7779.228831
449.085901	6849.940011
449.460369	6768.381703
449.834776	6706.201591
450.209124	7103.759586
450.583412	7248.954899
450.957640	7392.103504
451.331808	7153.730024
451.705917	6711.588064
452.079965	6640.313710
452.453954	6849.816503
452.827883	6724.957204
453.201752	6821.008829
453.575562	6618.213292
453.949311	6820.587893
454.323001	6708.197888
454.696632	6782.219671
455.070202	6927.379696
455.443713	7076.741522
455.817164	7181.524426
456.190556	7263.165912
456.563888	7339.743560
456.937160	7375.278653
457.310373	7034.904987
457.683526	7062.601086
458.056619	6949.691843
458.429653	6934.613751
458.802628	6869.030860
459.175542	6984.284240
459.548398	7340.164496
459.921194	7501.902355
460.293930	7500.120308
460.666607	8033.514714
461.039224	8337.866815
461.411782	8462.584962
461.784280	8481.940472
462.156719	8373.689255
462.529099	8253.477900
462.901419	7841.159406
463.273680	7735.020433
463.645882	7745.092658
464.018024	7610.876978
464.390106	7781.141949
464.762130	8166.240733
465.134094	8636.905541
465.505999	9659.407817
465.877845	10881.471729
466.249631	11520.440500
466.621358	11147.334621
466.993026	10514.843733
467.364634	10259.332851
467.736184	9896.137881
468.107674	9561.163290
468.479105	9596.945400
468.850477	9357.571251
469.221790	9132.004822
469.593043	8800.743041
469.964238	8665.098194
470.335373	8681.391203
470.706449	8737.559739
471.077467	8718.967964
471.448425	10025.932469
471.819324	11096.673546
472.190164	11127.800150
472.560945	9879.219768
472.931667	9090.188451
473.302330	8954.462945
473.672934	8598.481866
474.043479	8950.508160
474.413965	8896.754337
474.784393	8785.717882
475.154761	8929.804141
475.525070	9022.573975
475.895321	8848.402109
476.265513	9033.672075
476.635645	9200.619967
477.005719	9204.617602
477.375734	9312.326895
477.745691	9546.843893
478.115588	9676.938429
478.485427	9922.750132
478.855207	10464.046547
479.224928	11282.137596
479.594591	11908.324521
479.964194	11709.314890
480.333739	11653.960501
480.703226	11571.923283
481.072653	11661.958291
481.442022	11905.965261
481.811333	12089.803539
482.180584	11891.476985
482.549777	11597.176944
482.918912	11431.403641
483.287988	11454.156888
483.657005	11460.551592
484.025964	11146.528037
484.394864	11278.089549
484.763706	11237.001625
485.132489	10997.632517
485.501213	10965.764863
485.869879	11040.275637
486.238487	10880.292099
486.607036	10986.635240
486.975527	10770.460480
487.343959	10961.656322
487.712333	11013.928047
488.080648	10944.801224
488.448905	10989.642288
488.817104	10923.842627
489.185244	11188.654439
489.553326	11347.841474
489.921350	11878.987526
490.289315	12947.548304
490.657222	13288.791569
491.025070	13202.398795
491.392861	13071.122108
491.760593	12689.637832
492.128267	12338.571878
492.495883	12012.016014
492.863440	11674.606546
493.230939	11338.532984
493.598380	11268.743250
493.965763	11132.143104
494.333088	11039.953003
494.700354	10962.609100
495.067563	11018.770075
495.434713	10847.055772
495.801805	10982.027625
496.168839	10905.127344
496.535815	10844.421769
496.902733	10840.542601
497.269593	10770.513413
497.636395	10870.335820
498.003139	10864.823319
498.369825	10729.274253
498.736453	10885.615558
499.103023	10810.121758
499.469535	10843.521923
499.835989	10832.640593
500.202385	10795.883019
500.568723	10639.456015
500.935003	10861.735612
501.301226	10675.964052
501.667390	10933.204050
502.033497	11025.462207
502.399546	10885.234951
502.765537	10790.393203
503.131470	10863.124450
503.497345	11038.722962
503.863163	10649.760134
504.228923	10963.733278
504.594625	11022.223265
504.960269	10775.617581
505.325856	10994.998514
505.691385	10787.113932
506.056856	10942.643611
506.422270	10971.418517
506.787625	10851.219765
507.152924	10969.142436
507.518164	10959.665067
507.883347	10879.901410
508.248472	10791.025867
508.613540	11030.589060
508.978550	10911.746379
509.343503	10888.060517
509.708398	11010.706749
510.073236	11120.351845
510.438016	11125.602207
510.802738	11078.187635
511.167403	11129.730912
511.532010	11023.440704
511.896561	11252.591393
512.261053	11329.466469
512.625488	11197.476458
512.989866	11181.596823
513.354186	11169.145173
513.718449	11069.199257
514.082655	11256.253791
514.446803	11155.279480
514.810894	11276.100814
515.174927	11144.798921
515.538904	11166.924545
515.902822	11324.969759
516.266684	11201.219515
516.630488	11151.027267
516.994235	11205.748992
517.357925	11269.819536
517.721558	11351.362720
518.085133	11376.475228
518.448651	11379.540250
518.812112	11261.161355
519.175516	11274.401945
519.538863	11393.342929
519.902152	11311.739251
520.265385	11476.418624
520.628560	11386.746579
520.991678	11358.611900
521.354739	11429.195615
521.717743	11357.034018
522.080690	11345.351144
522.443580	11473.083901
522.806413	11429.533372
523.169189	11457.040428
523.531908	11521.022753
523.894569	11336.849238
524.257174	11345.948521
524.619722	11465.527211
524.982213	11416.713718
525.344647	11464.526542
525.707025	11409.421689
526.069345	11502.201605
526.431608	11428.235275
526.793815	11531.089937
527.155964	11320.011785
527.518057	11377.370033
527.880093	11324.271560
528.242072	11392.390151
528.603995	11295.015223
528.965860	11220.801877
529.327669	11269.663261
529.689421	11211.168232
530.051117	11193.698113
530.412755	11292.371138
530.774337	11183.847699
531.135862	11156.015488
531.497331	11182.935250
531.858743	11042.569362
532.220098	11204.080370
532.581396	11071.762684
532.942638	11061.206508
533.303824	11019.947184
533.664953	11034.942096
534.026025	10948.992944
534.387040	11054.867257
534.747999	11051.797194
535.108902	11106.788621
535.469748	10867.018741
535.830537	10968.688732
536.191270	10952.015116
536.551947	10968.166973
536.912567	10969.107148
537.273131	10896.842207
537.633638	10877.748837
537.994089	10864.470438
538.354483	10812.768364
538.714821	10963.640016
539.075103	10961.081631
539.435328	10928.694738
539.795497	10759.309448
540.155609	10920.356669
540.515665	11010.570638
540.875665	10741.035265
541.235609	10804.765532
541.595496	10800.682198
541.955328	10964.189502
542.315102	10844.998981
542.674821	10798.804368
543.034483	10789.881526
543.394090	10796.210694
543.753640	10728.765097
544.113134	10943.931625
544.472571	10797.760849
544.831953	10941.758888
545.191278	10752.244271
545.550548	10780.759558
545.909761	10913.475494
546.268918	10882.487522
546.628019	10973.296347
546.987064	10836.441622
547.346053	10757.933213
547.704986	10863.452125
548.063863	10845.792963
548.422684	10841.437406
548.781449	10758.664180
549.140158	10857.831238
549.498811	10737.506458
549.857408	10586.269322
550.215949	10819.057203
550.574434	10673.330049
550.932864	10766.951837
551.291237	10830.545993
551.649555	10780.681420
552.007817	10793.969901
552.366022	10751.316699
552.724173	10750.149672
553.082267	10740.931922
553.440305	10861.203770
553.798288	10672.140336
554.156215	10817.287758
554.514086	10796.245982
554.871902	10646.533795
555.229661	10687.425115
555.587365	10652.868005
555.945014	10555.435104
556.302606	10682.404126
556.660143	10571.221477
557.017625	10731.109233
557.375050	10627.153079
557.732421	10757.875240
558.089735	10668.026755
558.446994	10672.936839
558.804197	10708.804648
559.161345	10713.172808
559.518437	10557.869982
559.875474	10647.312654
560.232455	10678.235091
560.589381	10625.539910
560.946251	10620.667635
561.303065	10730.000180
561.659825	10664.356795
562.016528	10597.990004
562.373177	10471.981323
562.729770	10588.442059
563.086307	10505.857877
563.442789	10602.622825
563.799216	10479.505245
564.155587	10529.972236
564.511904	10487.530762
564.868164	10473.642383
565.224370	10495.883954
565.580520	10417.428477
565.936615	10415.938816
566.292654	10294.832656
566.648638	10420.896790
567.004567	10375.513803
567.360441	10358.595691
567.716260	10271.421538
568.072023	10368.148677
568.427732	10320.560185
568.783385	10225.821781
569.138982	10293.025403
569.494525	10309.512496
569.850013	10190.876502
570.205445	10262.375187
570.560823	10165.229632
570.916145	10081.969935
571.271412	10153.932406
571.626625	10092.841183
571.981782	10069.167925
572.336884	10044.693123
572.691931	10051.864164
573.046923	9995.499023
573.401860	9951.837590
573.756743	9888.336695
574.111570	9930.135422
574.466342	9922.538403
574.821059	9954.847158
575.175722	9837.985651
575.530330	9852.355460
575.884882	9837.453809
576.239380	9764.372202
576.593823	9745.319161
576.948211	9761.261810
577.302544	9638.129106
577.656823	9652.418257
578.011047	9653.451693
578.365216	9631.875555
578.719330	9554.037619
579.073389	9566.322911
579.427394	9514.867854
579.781344	9491.668464
580.135239	9442.093757
580.489080	9452.065159
580.842866	9351.695786
581.196597	9361.016879
581.550273	9398.160101
581.903895	9364.361685
582.257463	9432.427344
582.610975	9317.229417
582.964434	9341.744548
583.317837	9256.491075
583.671186	9236.729752
584.024481	9232.729596
584.377721	9157.177824
584.730906	9132.045151
585.084037	9153.603646
585.437113	9101.609185
585.790135	9117.440928
586.143103	9018.041977
586.496016	8993.637752
586.848874	9045.697748
587.201679	9031.602681
587.554428	8925.917412
587.907124	8964.683885
588.259765	8936.715563
588.612352	8938.001057
588.964884	8813.681162
589.317362	8835.705963
589.669786	8830.657248
590.022155	8879.677428
590.374470	8894.420282
590.726731	8833.485335
591.078937	8682.308693
591.431090	8801.660531
591.783188	8669.252105
592.135232	8666.471908
592.487222	8661.670209
592.839157	8713.362201
593.191038	8649.213518
593.542866	8595.676464
593.894639	8491.788366
594.246358	8543.898773
594.598022	8559.967451
594.949633	8458.602450
595.301190	8434.447761
595.652692	8462.481618
596.004141	8572.146879
596.355535	8351.447684
596.706876	8329.710228
597.058162	8265.496011
597.409395	8340.894028
597.760573	8404.790653
598.111698	8309.868247
598.462768	8297.628325
598.813785	8263.522399
599.164748	8230.578459
599.515657	8224.740802
599.866511	8137.024726
600.217312	8256.459742
600.568060	8115.607383
600.918753	8223.248621
601.269392	8190.750823
601.619978	8103.432997
601.970510	8168.136207
602.320988	8166.555805
602.671412	8220.992705
603.021783	8156.221439
603.372100	8131.154302
603.722363	8132.165053
604.072572	8103.133048
604.422728	8117.626366
604.772830	8047.796302
605.122878	8057.218219
605.472872	8046.702372
605.822813	8073.564160
606.172701	8025.131275
606.522534	8096.975279
606.872314	8096.660207
607.222041	8070.395795
607.571714	8119.927652
607.921333	8079.653874
608.270899	8084.707631
608.620411	8172.774068
608.969870	8084.253927
609.319276	8075.792350
609.668627	8086.925739
610.017926	8127.486863
610.367171	8170.339191
610.716362	8147.253227
611.065500	8141.566805
611.414585	8169.605703
611.763616	8157.580030
612.112594	8140.583780
612.461518	8155.059453
612.810389	8213.047846
613.159207	8149.458732
613.507971	8101.792101
613.856682	8219.359371
614.205340	8175.730705
614.553945	8252.063856
614.902496	8149.993094
615.250994	8205.718008
615.599439	8189.548507
615.947830	8204.160292
616.296169	8173.988986
616.644454	8188.202519
616.992686	8185.908794
617.340864	8247.002538
617.688990	8148.102661
618.037063	8236.025425
618.385082	8185.326541
618.733048	8268.999613
619.080961	8211.422074
619.428821	8226.641318
619.776628	8231.281700
620.124382	8184.961058
620.472083	8167.808532
620.819731	8197.518572
621.167326	8088.246521
621.514868	8096.929908
621.862357	7979.221487
622.209793	8000.926175
622.557176	7933.016791
622.904506	7902.963952
623.251783	7837.063469
623.599007	7794.460678
623.946179	7798.831358
624.293297	7760.397601
624.640363	7670.385279
624.987376	7649.449367
625.334336	7606.019826
625.681243	7551.857669
626.028097	7537.132459
626.374899	7515.679829
626.721647	7509.895105
627.068343	7440.458252
627.414987	7415.577637
627.761577	7364.208279
628.108115	7403.279742
628.454600	7302.335677
628.801032	7350.234201
629.147412	7309.834394
629.493739	7293.405273
629.840014	7231.119297
630.186236	7295.038607
630.532405	7174.721388
630.878521	7224.280972
631.224585	7182.857811
631.570597	7100.281190
631.916556	7135.934751
632.262462	7130.331508
632.608316	7094.705674
632.954117	7075.952582
633.299866	7060.766106
633.645562	7053.058182
633.991206	6973.072714
634.336797	6914.098776
634.682336	6876.365739
635.027823	6840.442477
635.373257	6836.538103
635.718639	6761.608913
636.063968	6775.469566
636.409245	6668.534090
636.754470	6668.334964
637.099642	6632.063862
637.444762	6569.301497
637.789829	6583.852787
638.134845	6524.266349
638.479808	6511.277816
638.824719	6512.802765
639.169577	6438.750736
639.514383	6456.714887
639.859137	6384.311315
640.203839	6396.896556
640.548489	6384.195369
640.893086	6362.316761
641.237632	6328.485577
641.582125	6345.174317
641.926566	6318.592313
642.270955	6337.789027
642.615292	6330.834755
642.959576	6345.857394
643.303809	6335.797771
643.647990	6340.186096
643.992118	6332.946999
644.336195	6277.464059
644.680219	6308.010931
645.024192	6296.756555
645.368112	6387.971193
645.711981	6408.493730
646.055797	6489.205124
646.399562	6443.754081
646.743274	6571.670839
647.086935	6623.014991
647.430544	6621.704291
647.774101	6638.304811
648.117606	6644.812940
648.461059	6643.565255
648.804460	6600.798626
649.147810	6512.563310
649.491108	6484.196737
649.834354	6453.143230
650.177548	6372.000817
650.520690	6284.037724
650.863781	6262.917810
651.206820	6286.026459
651.549807	6205.983018
651.892742	6144.180993
652.235626	6151.722559
652.578458	6143.170242
652.921238	6045.699532
653.263967	6086.495069
653.606644	6024.589700
653.949269	6029.383838
654.291843	5968.842100
654.634365	6019.351941
654.976836	5971.733202
655.319255	5974.236135
655.661622	5951.626560
656.003938	5949.042969
656.346203	5906.467904
656.688416	5941.519047
657.030577	5889.844699
657.372687	5860.986614
657.714746	5847.698132
658.056753	5893.602879
658.398708	5827.586449
658.740612	5821.098484
659.082465	5869.453232
659.424266	5861.402509
659.766016	5863.232448
660.107715	5837.409137
660.449362	5851.854564
660.790958	5843.413152
661.132503	5831.750442
661.473996	5868.404672
661.815438	5857.031829
662.156829	5852.456982
662.498168	5843.508933
662.839456	5819.790305
663.180693	5857.087281
663.521879	5855.688361
663.863013	5845.575807
664.204097	5866.168920
664.545129	5906.709879
664.886110	5904.607718
665.227040	5933.579229
665.567918	5904.736268
665.908746	5931.565288
666.249522	5932.301297
666.590248	5919.325367
666.930922	5948.254028
667.271545	5962.107119
667.612118	5964.665504
667.952639	5937.077790
668.293109	5959.382375
668.633528	5916.083905
668.973896	5919.267393
669.314213	5906.747688
669.654480	5889.864864
669.994695	5884.571652
670.334859	5874.610332
670.674973	5866.836873
671.015035	5867.923242
671.355047	5868.608838
671.695008	5856.290779
672.034918	5830.497715
672.374777	5844.597823
672.714585	5826.701727
673.054342	5828.766079
673.394049	5822.953629
673.733705	5855.075861
674.073310	5841.517678
674.412864	5801.443025
674.752368	5791.607734
675.091820	5795.859947
675.431223	5731.045832
675.770574	5737.546400
676.109875	5685.700653
676.449125	5688.085119
676.788324	5657.651673
677.127473	5600.656388
677.466571	5591.534420
677.805619	5585.074182
678.144616	5566.426953
678.483562	5545.755702
678.822458	5515.932236
679.161303	5508.428478
679.500098	5504.985370
679.838842	5481.312112
680.177535	5493.620089
680.516179	5503.082335
680.854771	5515.796125
681.193314	5598.168579
681.531805	5703.921904
681.870247	5853.732393
682.208638	5959.536130
682.546978	5967.899405
682.885268	5944.405107
683.223508	5858.430749
683.561697	5808.019210
683.899836	5776.784221
684.237925	5732.127160
684.575963	5695.919072
684.913951	5653.979193
685.251889	5719.819183
685.589776	5686.754255
685.927614	5658.407847
686.265401	5727.907714
686.603137	5712.055806
686.940824	5785.830572
687.278460	5810.113810
687.616046	5824.188711
687.953582	5888.533999
688.291068	5869.402820
688.628504	5933.604435
688.965889	5896.466255
689.303224	5841.656309
689.640510	5790.639833
689.977745	5715.808945
690.314930	5622.043483
690.652065	5560.155758
690.989150	5468.583198
691.326185	5396.008227
691.663170	5344.835474
692.000105	5266.826139
692.336990	5186.160116
692.673825	5163.792516
693.010610	5091.686372
693.347345	5025.543913
693.684030	5009.220657
694.020665	4969.876972
694.357251	4879.925143
694.693786	4890.443511
695.030272	4855.949416
695.366707	4820.845341
695.703093	4786.424342
696.039429	4809.550636
696.375716	4789.063386
696.711952	4766.521867
697.048139	4753.200618
697.384276	4735.183534
697.720363	4746.604268
698.056400	4753.150206
698.392388	4705.889389
698.728326	4683.937685
699.064214	4661.885157
699.400053	4657.285104
699.735842	4622.183550
700.071581	4597.013069
700.407270	4572.134975
700.742910	4553.013878
701.078501	4500.066639
701.414042	4497.041947
701.749533	4469.824757
702.084974	4402.916043
702.420366	4458.162048
702.755709	4403.168101
703.091002	4345.721632
703.426246	4394.283067
703.761440	4352.030636
704.096584	4312.258453
704.431679	4334.888192
704.766725	4322.769258
705.101721	4309.465653
705.436668	4333.733768
705.771565	4281.875418
706.106413	4310.035304
706.441212	4343.901775
706.775961	4350.311603
707.110661	4328.163293
707.445311	4358.382490
707.779913	4385.335019
708.114465	4400.433275
708.448967	4418.122683
708.783421	4480.592662
709.117825	4521.965412
709.452180	4525.910114
709.786485	4573.962393
710.120742	4656.874250
710.454949	4641.811283
710.789107	4710.744020
711.123216	4785.123725
711.457275	4775.217857
711.791286	4846.746789
712.125247	4862.376887
712.459159	4766.340385
712.793023	4838.106252
713.126837	4801.915808
713.460602	4795.503460
713.794318	4714.577818
714.127985	4726.467379
714.461602	4633.692504
714.795171	4610.344400
715.128691	4542.843350
715.462162	4488.668590
715.795584	4438.935087
716.128957	4419.216614
716.462281	4368.648800
716.795556	4344.332794
717.128782	4305.425169
717.461960	4232.635948
717.795088	4245.231271
718.128167	4201.090928
718.461198	4140.110611
718.794180	4137.393429
719.127113	4119.593114
719.459997	4097.689301
719.792833	4054.751273
720.125619	4048.777506
720.458357	4012.145961
720.791046	4015.475643
721.123686	3988.666787
721.456278	3948.269501
721.788821	3964.423878
722.121315	3937.904889
722.453761	3909.858429
722.786158	3924.008948
723.118506	3948.549285
723.450805	3897.162283
723.783056	3923.877878
724.115259	3937.781380
724.447412	3942.441927
724.779518	3932.596554
725.111574	3939.492852
725.443582	3967.965289
725.775542	3952.299903
726.107453	4002.300588
726.439315	4005.022811
726.771129	4021.595604
727.102895	4057.017272
727.434612	4104.787246
727.766281	4117.075058
728.097901	4116.974235
728.429473	4121.667549
728.760996	4130.792038
729.092471	4119.983804
729.423897	4108.946197
729.755276	4112.434676
730.086606	4115.426601
730.417887	4149.834996
730.749120	4214.684399
731.080305	4278.235705
731.411442	4310.201662
731.742530	4275.866363
732.073570	4275.828554
732.404562	4337.461701
732.735506	4327.291173
733.066401	4288.416316
733.397249	4226.276533
733.728048	4148.340294
734.058798	4062.489444
734.389501	3992.009072
734.720156	3926.403496
735.050762	3885.257598
735.381320	3878.373903
735.711831	3830.422448
736.042293	3799.235349
736.372707	3820.539265
736.703073	3792.301242
737.033391	3783.706075
737.363661	3801.045123
737.693883	3824.975481
738.024056	3835.677850
738.354182	3828.756346
738.684260	3893.199936
739.014290	3915.930499
739.344272	3908.933377
739.674207	3952.110860
740.004093	3957.401551
740.333931	3951.246302
740.663722	3955.306952
740.993464	3948.831590
741.323159	3925.790996
741.652806	3898.309146
741.982405	3873.451216
742.311956	3841.954087
742.641460	3827.070080
742.970915	3803.583344
743.300323	3766.513220
743.629683	3728.530646
743.958996	3719.282649
744.288260	3696.862117
744.617477	3663.124195
744.946647	3649.036691
745.275768	3623.251189
745.604842	3619.094758
745.933869	3571.685226
746.262847	3562.222981
746.591778	3604.528344
746.920662	3574.364600
747.249498	3539.779764
747.578286	3585.820622
747.907027	3606.920371
748.235720	3605.327367
748.564365	3625.539873
748.892963	3626.482569
749.221514	3610.030763
749.550017	3586.037391
749.878473	3588.169799
750.206881	3559.828433
750.535242	3553.489182
750.863555	3552.632185
751.191821	3548.626989
751.520039	3532.863301
751.848210	3508.580062
752.176334	3541.801266
752.504411	3549.809139
752.832440	3507.513858
753.160421	3490.731857
753.488356	3498.616222
753.816243	3513.152389
754.144082	3469.092704
754.471875	3455.695838
754.799620	3476.566215
755.127318	3468.187817
755.454969	3466.420893
755.782572	3475.250474
756.110129	3445.595886
756.437638	3435.697581
756.765100	3451.163841
757.092515	3461.024338
757.419882	3472.233343
757.747203	3440.176646
758.074477	3441.089095
758.401703	3458.337403
758.728882	3480.722646
759.056014	3485.607524
759.383099	3488.780931
759.710138	3487.548369
760.037129	3503.362468
760.364073	3535.499824
760.690970	3518.528780
761.017820	3495.846108
761.344623	3515.481402
761.671379	3559.442784
761.998088	3612.261474
762.324751	3740.286617
762.651366	3985.130418
762.977935	4461.905105
763.304456	4904.425151
763.630931	4998.815716
763.957359	4638.577382
764.283740	4297.863438
764.610074	4105.795476
764.936362	3905.293664
765.262602	3746.976228
765.588796	3634.296357
765.914943	3547.061710
766.241044	3459.597691
766.567097	3425.121240
766.893104	3382.750342
767.219064	3353.047863
767.544978	3325.223215
767.870845	3265.712394
768.196665	3248.751432
768.522438	3256.434150
768.848165	3254.916763
769.173846	3215.923438
769.499479	3200.119420
769.825066	3181.041174
770.150607	3165.121210
770.476101	3179.985052
770.801548	3175.921882
771.126949	3128.933287
771.452303	3113.512397
771.777611	3122.359622
772.102872	3126.082514
772.428087	3099.704677
772.753256	3092.974737
773.078378	3083.071390
773.403453	3049.537634
773.728482	3038.431972
774.053465	3060.948286
774.378401	3044.761141
774.703291	3017.163344
775.028135	3014.894825
775.352932	3012.714526
775.677683	2997.840602
776.002388	2997.517968
776.327046	2998.962258
776.651658	2988.627893
776.976224	2973.849751
777.300743	2975.815801
777.625216	2965.272227
777.949643	2961.786269
778.274024	2963.177628
778.598359	2952.583643
778.922647	2956.495578
779.246889	2956.130095
779.571086	2942.627364
779.895236	2936.774585
780.219339	2947.234979
780.543397	2959.507668
780.867409	2960.586475
781.191374	2958.811989
781.515294	2952.293777
781.839167	2952.220680
782.162995	2945.261367
782.486776	2952.276133
782.810511	2950.148766
783.134201	2933.830551
783.457844	2940.978907
783.781441	2936.560336
784.104993	2913.529824
784.428498	2916.239444
784.751958	2929.399377
785.075372	2922.876123
785.398739	2905.650501
785.722061	2920.844538
786.045337	2932.512289
786.368568	2920.501740
786.691752	2911.009247
787.014891	2960.069757
787.337983	2989.527739
787.661030	3014.869619
787.984031	3084.382090
788.306987	3129.500417
788.629897	3124.391207
788.952760	3107.808332
789.275579	3090.681012
789.598351	3030.204809
789.921078	2986.152687
790.243759	2977.580204
790.566395	2962.686115
790.888984	2933.263421
791.211529	2921.716658
791.534027	2910.255595
791.856480	2901.579769
792.178888	2885.470762
792.501249	2878.516490
792.823566	2874.465923
793.145836	2871.690768
793.468062	2867.751106
793.790241	2865.835468
794.112375	2873.107332
794.434464	2884.318858
794.756507	2887.399003
795.078505	2894.975858
795.400457	2909.612848
795.722364	2945.518466
796.044226	2969.955459
796.366042	2976.072899
796.687812	2961.221660
797.009538	2981.290494
797.331218	2969.353041
797.652852	2954.557255
797.974442	2939.438834
798.295986	2933.293668
798.617484	2929.779984
798.938938	2915.737850
799.260346	2897.720766
799.581709	2892.341855
799.903026	2884.525546
800.224299	2880.961450
800.545526	2868.953421
800.866708	2853.892974
801.187845	2844.415605
801.508936	2845.698579
801.829983	2853.340968
802.150984	2840.216324
802.471940	2826.683346
802.792851	2827.341217
803.113717	2830.358347
803.434538	2832.969665
803.755314	2822.400886
804.076045	2822.988181
804.396731	2819.169507
804.717372	2818.186482
805.037967	2811.839669
805.358518	2820.081955
805.679024	2832.594099
805.999485	2826.935404
806.319901	2832.571414
806.640272	2820.850731
806.960598	2830.272648
807.280879	2836.095181
807.601115	2844.201356
807.921306	2834.562670
808.241453	2829.778615
808.561554	2834.146775
808.881611	2836.639625
809.201623	2829.050168
809.521590	2831.616115
809.841513	2824.666885
810.161390	2829.980261
810.481223	2824.745023
810.801011	2816.094403
811.120755	2811.280101
811.440453	2814.125832
811.760107	2812.454690
812.079716	2812.159782
812.399281	2801.626291
812.718801	2796.040693
813.038276	2791.319652
813.357707	2796.315436
813.677093	2801.780046
813.996434	2797.558080
814.315731	2793.676392
814.634983	2789.053653
814.954191	2792.431227
815.273354	2803.723411
815.592473	2813.309165
815.911547	2814.879485
816.230577	2821.984991
816.549562	2832.463029
816.868502	2828.591423
817.187399	2839.553412
817.506250	2857.310877
817.825058	2848.572036
818.143821	2865.661548
818.462539	2878.697972
818.781213	2905.549678
819.099843	2942.518979
819.418429	3000.008298
819.736970	3063.035324
820.055466	3134.856643
820.373919	3239.967221
820.692327	3381.270763
821.010691	3551.969274
821.329011	3996.321779
821.647286	4907.288526
821.965517	6290.402181
822.283704	7042.350771
822.601847	7032.926334
822.919945	6394.910341
823.237999	5880.321959
823.556010	5292.639368
823.873976	4737.928442
824.191897	4321.660205
824.509775	4023.173485
824.827609	3752.032505
825.145398	3626.162455
825.463144	3613.662914
825.780845	3706.641956
826.098502	3814.923420
826.416116	4100.061164
826.733685	4417.250564
827.051210	4484.386130
827.368692	4363.426164
827.686129	4097.492696
828.003522	3769.172428
828.320872	3512.484436
828.638177	3315.405568
828.955439	3174.583456
829.272656	3089.569437
829.589830	3022.932945
829.906960	2971.765233
830.224046	2926.840991
830.541088	2894.665827
830.858086	2875.091026
831.175041	2860.030579
831.491952	2862.798173
831.808819	2874.564226
832.125642	2896.495765
832.442421	2942.297169
832.759157	3023.976464
833.075849	3202.660162
833.392497	3485.098368
833.709101	3690.918597
834.025662	3644.696257
834.342179	3483.775065
834.658653	3300.753454
834.975083	3155.278357
835.291469	3056.159190
835.607811	2968.158288
835.924110	2910.500091
836.240366	2860.519571
836.556578	2816.598518
836.872746	2794.233439
837.188871	2769.297372
837.504952	2751.996132
837.820990	2747.050760
838.136984	2730.888820
838.452935	2723.380022
838.768842	2723.511092
839.084706	2740.444327
839.400526	2819.981132
839.716303	2954.607666
840.032037	3034.845192
840.347727	3022.282636
840.663373	2956.790486
840.978977	2885.584188
841.294537	2807.985707
841.610054	2765.037597
841.925527	2738.493401
842.240957	2719.672253
842.556344	2697.097966
842.871687	2678.390244
843.186987	2669.873215
843.502244	2665.431958
843.817458	2661.419200
844.132629	2648.791109
844.447756	2639.205355
844.762840	2633.798718
845.077881	2637.209058
845.392879	2634.055817
845.707833	2627.880403
846.022745	2623.948303
846.337613	2626.383181
846.652438	2622.962758
846.967221	2623.534929
847.281960	2622.377984
847.596656	2622.907305
847.911309	2620.056532
848.225919	2617.223404
848.540485	2614.450769
848.855009	2615.698455
849.169490	2614.027312
849.483928	2615.214504
849.798323	2613.780296
850.112675	2610.715274
850.426984	2613.336674
850.741251	2610.029677
851.055474	2612.462034
851.369654	2615.338012
851.683792	2616.011007
851.997887	2613.624020
852.311938	2611.849534
852.625947	2611.206787
852.939914	2613.734926
853.253837	2618.274485
853.567718	2611.884822
853.881555	2610.813577
854.195350	2615.716099
854.509103	2612.361211
854.822812	2610.092692
855.136479	2609.535644
855.450103	2611.743670
855.763685	2614.319699
856.077224	2610.319544
856.390720	2608.542537
856.704173	2611.284925
857.017584	2619.343209
857.330953	2617.732561
857.644278	2620.537963
857.957561	2619.028137
858.270802	2618.284567
858.584000	2615.726181
858.897155	2619.789351
859.210268	2620.578292
859.523339	2614.231479
859.836367	2610.521190
860.149352	2612.963629
860.462295	2609.878443
860.775195	2607.453648
861.088054	2606.727722
861.400869	2606.929368
861.713642	2601.618512
862.026373	2605.767382
862.339062	2610.574122
862.651708	2614.470934
862.964312	2614.949844
863.276873	2615.285080
863.589392	2617.921604
863.901869	2620.507716
864.214303	2626.577265
864.526696	2628.555918
864.839045	2631.414252
865.151353	2633.229067
865.463619	2633.586989
865.775842	2631.855353
866.088023	2632.485497
866.400162	2631.515075
866.712258	2635.447175
867.024313	2631.121865
867.336325	2626.917543
867.648296	2632.200672
867.960224	2635.837865
868.272110	2632.435086
868.583954	2628.253449
868.895755	2630.320322
869.207515	2635.943729
869.519233	2640.352218
869.830909	2635.416928
870.142542	2632.538429
870.454134	2632.856022
870.765684	2641.526807
871.077191	2641.761220
871.388657	2645.383289
871.700081	2644.359935
872.011463	2642.136786
872.322803	2643.601242
872.634101	2646.613331
872.945357	2655.843684
873.256571	2662.006494
873.567744	2657.885351
873.878874	2658.021462
874.189963	2655.074908
874.501010	2661.436844
874.812015	2666.364572
875.122979	2668.204593
875.433900	2661.058757
875.744780	2656.045330
876.055618	2663.130672
876.366415	2667.350117
876.677169	2670.354645
876.987882	2663.274344
877.298554	2663.029848
877.609183	2671.060407
877.919771	2676.255316
878.230317	2687.187058
878.540822	2697.203830
878.851285	2711.210676
879.161707	2733.815210
879.472087	2776.677621
879.782425	2823.106648
880.092722	2939.743824
880.402977	3132.325983
880.713191	3394.783576
881.023363	3695.165769
881.333494	3887.306827
881.643583	4062.912901
881.953631	4059.084145
882.263637	3882.232906
882.573602	3659.544976
882.883526	3526.541694
883.193408	3410.259918
883.503248	3304.902324
883.813048	3189.585929
884.122806	3072.840368
884.432522	2986.974395
884.742197	2920.758839
885.051831	2881.669732
885.361424	2843.699761
885.670975	2806.213741
885.980485	2778.777261
886.289954	2756.311359
886.599382	2744.613362
886.908768	2732.968296
887.218113	2712.322251
887.527417	2697.924715
887.836680	2689.989939
888.145901	2685.107582
888.455082	2680.033660
888.764221	2667.937412
889.073319	2658.172697
889.382376	2657.827378
889.691392	2660.786535
890.000366	2660.574807
890.309300	2656.257058
890.618193	2658.467604
890.927044	2662.732420
891.235855	2663.113027
891.544625	2662.104797
891.853353	2662.813079
892.162041	2668.670900
892.470687	2689.001873
892.779293	2701.899665
893.087858	2711.934082
893.396381	2736.557598
893.704864	2777.302724
894.013306	2849.043384
894.321707	2943.174329
894.630068	2995.441013
894.938387	3016.094620
895.246665	3012.245699
895.554903	2967.165181
895.863100	2917.567788
896.171256	2860.975795
896.479371	2798.684778
896.787446	2757.170876
897.095480	2740.106570
897.403473	2730.742627
897.711425	2716.778631
898.019336	2697.591999
898.327207	2684.618590
898.635038	2684.091789
898.942827	2680.898218
899.250576	2669.510252
899.558284	2657.819816
899.865952	2654.706903
900.173579	2652.748415
900.481165	2651.508291
900.788711	2640.667290
901.096216	2633.811321
901.403681	2633.576907
901.711105	2633.808800
902.018489	2627.900568
902.325832	2635.313585
902.633135	2635.437093
902.940397	2650.870585
903.247619	2688.124712
903.554800	2761.234046
903.861941	2892.747668
904.169041	3020.051926
904.476101	3086.161617
904.783121	3079.184660
905.090100	3023.520239
905.397039	2943.388578
905.703938	2868.948380
906.010796	2803.874646
906.317614	2749.815832
906.624391	2713.242261
906.931129	2684.802592
907.237826	2661.240239
907.544483	2643.545789
907.851099	2631.026083
908.157675	2618.965123
908.464211	2610.831221
908.770707	2600.905189
909.077163	2596.635332
909.383578	2591.198447
909.689954	2594.225660
909.996289	2589.696183
910.302584	2587.760380
910.608839	2587.818354
910.915054	2589.285329
911.221229	2589.378591
911.527363	2592.438571
911.833458	2591.470670
912.139513	2590.948910
912.445527	2593.078798
912.751502	2599.014756
913.057436	2602.387288
913.363331	2609.845675
913.669186	2622.982922
913.975000	2635.991620
914.280775	2652.632469
914.586510	2673.538134
914.892205	2712.322251
915.197859	2778.182405
915.503475	2865.664068
915.809050	2934.241405
916.114585	2949.521142
916.420081	2963.870787
916.725536	2970.840182
917.030952	2946.882098
917.336328	2896.611712
917.641665	2849.928107
917.946961	2794.649334
918.252218	2761.390322
918.557435	2736.396281
918.862612	2709.985676
919.167750	2693.307018
919.472848	2676.537620
919.777906	2659.213695
920.082925	2645.743732
920.387904	2634.620426
920.692843	2631.936012
920.997743	2625.899230
921.302603	2618.695421
921.607423	2611.254678
921.912204	2606.326950
922.216946	2603.375354
922.521647	2600.925354
922.826310	2597.459560
923.130932	2590.215422
923.435516	2584.705441
923.740059	2583.533373
924.044564	2583.515729
924.349028	2582.068918
924.653454	2569.702967
924.957840	2570.789336
925.262186	2569.924778
925.566493	2571.434604
925.870761	2562.552091
926.174989	2567.323543
926.479178	2561.478325
926.783328	2562.085784
927.087438	2559.978582
927.391509	2561.909343
927.695541	2560.384394
927.999533	2559.081256
928.303486	2555.575134
928.607400	2555.978426
928.911275	2554.670247
929.215110	2554.524053
929.518906	2557.115206
929.822663	2555.983467
930.126381	2553.553631
930.430060	2555.943138
930.733699	2553.924156
931.037299	2554.846687
931.340861	2557.349620
931.644383	2558.841801
931.947866	2557.483210
932.251309	2555.600339
932.554714	2556.611091
932.858080	2557.815927
933.161407	2553.944320
933.464694	2556.114537
933.767943	2553.420040
934.071153	2552.621017
934.374323	2553.735113
934.677455	2554.665205
934.980548	2552.096737
935.283602	2553.268806
935.586617	2553.006666
935.889593	2552.258054
936.192530	2551.017931
936.495428	2551.396017
936.798287	2553.286450
937.101108	2556.346430
937.403890	2557.042109
937.706632	2560.737275
938.009336	2564.248439
938.312002	2570.053327
938.614628	2570.428893
938.917216	2575.051632
939.219765	2576.591704
939.522275	2576.362332
939.824747	2576.914338
940.127179	2570.043245
940.429573	2568.946794
940.731929	2567.532751
941.034246	2563.497307
941.336524	2569.314798
941.638763	2566.789180
941.940964	2565.682647
942.243126	2567.066444
942.545250	2563.583007
942.847335	2560.364230
943.149381	2559.678633
943.451389	2560.316339
943.753359	2559.207285
944.055290	2557.331976
944.357182	2557.573951
944.659036	2555.902809
944.960851	2558.199054
945.262628	2555.524722
945.564367	2557.820968
945.866067	2558.294836
946.167729	2556.328786
946.469352	2556.008673
946.770937	2556.883313
947.072484	2558.284754
947.373992	2553.414999
947.675462	2556.069167
947.976893	2556.096893
948.278286	2556.311142
948.579641	2554.057746
948.880958	2552.910884
949.182236	2551.610266
949.483476	2550.692776
949.784678	2553.972047
950.085841	2550.501212
950.386967	2552.893240
950.688054	2555.030689
950.989103	2554.498847
951.290114	2554.087993
951.591087	2559.232491
951.892021	2560.218036
952.192917	2559.532439
952.493776	2562.373130
952.794596	2560.777604
953.095378	2561.942111
953.396122	2561.758109
953.696828	2559.171997
953.997496	2558.201575
954.298126	2553.961964
954.598718	2555.829712
954.899272	2554.249310
955.199788	2551.479196
955.500266	2551.317879
955.800706	2547.962991
956.101108	2544.691283
956.401472	2547.085831
956.701798	2543.846889
957.002087	2544.167002
957.302337	2542.168185
957.602550	2543.922507
957.902724	2541.412012
958.202861	2540.643236
958.502960	2541.530479
958.803022	2541.417053
959.103045	2539.637526
959.403031	2536.915303
959.702979	2539.748431
960.002889	2540.040818
960.302762	2537.810108
960.602596	2538.775488
960.902393	2538.904038
961.202153	2540.297917
961.501875	2540.434028
961.801559	2536.701054
962.101205	2538.629295
962.400814	2535.725590
962.700385	2537.971424
962.999918	2538.586445
963.299414	2535.783564
963.598873	2538.321785
963.898293	2537.351363
964.197677	2539.082999
964.497022	2535.632329
964.796331	2537.789943
965.095601	2536.716177
965.394835	2538.326826
965.694030	2533.595703
965.993189	2538.546116
966.292309	2538.357073
966.591393	2539.259439
966.890439	2537.547967
967.189447	2535.498738
967.488419	2535.138296
967.787353	2535.420601
968.086249	2536.965714
968.385108	2536.794315
968.683930	2539.541744
968.982714	2536.194418
969.281462	2537.192566
969.580172	2537.472350
969.878844	2539.196425
970.177480	2537.704243
970.476078	2537.737011
970.774639	2540.199614
971.073162	2536.685930
971.371649	2535.221475
971.670098	2533.706608
971.968510	2534.326670
972.266885	2532.640404
972.565223	2538.311702
972.863524	2536.048224
973.161788	2541.228010
973.460014	2535.705426
973.758204	2536.547298
974.056356	2539.226672
974.354471	2538.906558
974.652550	2541.099460
974.950591	2537.694161
975.248595	2537.457227
975.546563	2535.382792
975.844493	2536.779192
976.142386	2536.731301
976.440243	2534.598893
976.738062	2536.141486
977.035845	2536.474202
977.333590	2535.937319
977.631299	2539.188863
977.928971	2535.715508
978.226606	2535.226516
978.524204	2537.721887
978.821765	2536.340611
979.119290	2534.034283
979.416777	2535.738193
979.714228	2534.563604
980.011642	2534.732483
980.309020	2537.530323
980.606360	2534.626619
980.903664	2536.259953
981.200931	2537.056455
981.498162	2535.922195
981.795356	2538.480581
982.092513	2545.278577
982.389633	2548.154555
982.686717	2550.828887
982.983764	2551.708569
983.280775	2551.733774
983.577749	2553.339382
983.874686	2549.077086
984.171587	2547.146324
984.468451	2544.983669
984.765279	2544.310675
985.062070	2541.543082
985.358824	2541.336395
985.655543	2539.372865
985.952224	2538.924203
986.248869	2535.894469
986.545478	2533.656197
986.842050	2537.179963
987.138586	2530.535722
987.435086	2531.284334
987.731549	2530.240815
988.027975	2533.310878
988.324366	2535.531506
988.620719	2535.110570
988.917037	2533.242822
989.213318	2532.663089
989.509563	2532.526978
989.805772	2535.433203
990.101944	2531.193593
990.398080	2533.295754
990.694180	2533.734335
990.990244	2534.392205
991.286271	2531.271731
991.582262	2532.370702
991.878217	2533.646114
992.174136	2533.676361
992.470019	2534.200641
992.765865	2534.901362
993.061676	2531.647297
993.357450	2533.724252
993.653188	2534.692154
993.948890	2533.036135
994.244556	2534.513193
994.540186	2534.392205
994.835780	2533.918337
995.131337	2536.305323
995.426859	2535.299613
995.722345	2536.264994
996.017795	2535.707946
996.313208	2536.544778
996.608586	2535.828934
996.903928	2540.169368
997.199234	2536.496887
997.494504	2535.092926
997.789738	2534.528316
998.084936	2535.294572
998.380099	2534.127545
998.675225	2535.776002
998.970316	2532.791639
999.265371	2534.646783
999.560390	2535.153419
999.855373	2532.960517
1000.150320	2534.155271
1000.445232	2530.041689
1000.740108	2533.681403
1001.034948	2532.537061
1001.329752	2530.639066
1001.624521	2531.140661
1001.919254	2526.646472
1002.213951	2529.310722
1002.508613	2528.554549
1002.803239	2528.607481
1003.097829	2526.724610
1003.392384	2531.233922
1003.686903	2532.199303
1003.981386	2531.430527
1004.275834	2530.835671
1004.570246	2535.491177
1004.864623	2529.703932
1005.158964	2529.008253
1005.453270	2531.579241
1005.747540	2531.758202
1006.041775	2532.562266
1006.335974	2529.855167
1006.630138	2530.505476
1006.924266	2533.890610
1007.218359	2530.422297
1007.512416	2531.853984
1007.806438	2528.877183
1008.100425	2534.767771
1008.394376	2528.988088
1008.688292	2532.017822
1008.982172	2531.828778
1009.276017	2530.870959
1009.569827	2533.673841
1009.863602	2530.787780
1010.157341	2532.174098
1010.451045	2529.028417
1010.744714	2529.242667
1011.038347	2533.099149
1011.331945	2529.048582
1011.625508	2530.117307
1011.919036	2532.726104
1012.212528	2531.891793
1012.505986	2530.936494
1012.799408	2530.603778
1013.092795	2532.224509
1013.386147	2530.969262
1013.679464	2527.884076
1013.972745	2528.947759
1014.265992	2530.278624
1014.559204	2533.386495
1014.852380	2532.214427
1015.145521	2531.833820
1015.438628	2529.923222
1015.731699	2530.329035
1016.024736	2529.633356
1016.317737	2529.179652
1016.610703	2530.873480
1016.903635	2529.073788
1017.196531	2524.113292
1017.489393	2529.401463
1017.782219	2525.416431
1018.075011	2530.661751
1018.367768	2529.318284
1018.660490	2528.733510
1018.953177	2528.733510
1019.245829	2528.733510
