Dividing Wavelength (nm)	Counts (n)	Blue Motor Position (mm): 9.500000	Red Motor Position (mm): 0.000000	
326.493990	2079.475962
326.888308	2079.475962
327.282561	2079.475962
327.676750	2054.270192
328.070874	2024.023269
328.464933	2112.243462
328.858929	2064.352500
329.252859	2011.420385
329.646726	2069.393654
330.040528	2089.558269
330.434265	2215.587115
330.827938	2119.805192
331.221547	2109.722885
331.615091	2142.490385
332.008571	2213.066538
332.401986	2205.504808
332.795338	2278.601538
333.188625	2278.601538
333.581847	2265.998654
333.975006	2230.710577
334.368100	2265.998654
334.761129	2283.642692
335.154095	2394.548077
335.546996	2356.739423
335.939833	2278.601538
336.332606	2442.439038
336.725315	2386.986346
337.117960	2361.780577
337.510540	2346.657115
337.903056	2444.959615
338.295508	2399.589231
338.687896	2432.356731
339.080220	2434.877308
339.472480	2437.397885
339.864676	2447.480192
340.256807	2455.041923
340.648875	2510.494615
341.040879	2422.274423
341.432818	2442.439038
341.824694	2432.356731
342.216506	2447.480192
342.608253	2495.371154
342.999937	2490.330000
343.391557	2555.865000
343.783113	2490.330000
344.174605	2467.644808
344.566033	2361.780577
344.957397	2450.000769
345.348697	2376.904038
345.739934	2495.371154
346.131106	2462.603654
346.522215	2384.465769
346.913260	2455.041923
347.304241	2472.685962
347.695159	2487.809423
348.086012	2429.836154
348.476802	2472.685962
348.867528	2407.150962
349.258191	2389.506923
349.648789	2502.932885
350.039324	2520.576923
350.429796	2455.041923
350.820203	2533.179808
351.210548	2510.494615
351.600828	2394.548077
351.991045	2414.712692
352.381198	2452.521346
352.771288	2379.424615
353.161314	2480.247692
353.551276	2417.233269
353.941175	2467.644808
354.331010	2460.083077
354.720782	2434.877308
355.110490	2455.041923
355.500135	2487.809423
355.889717	2467.644808
356.279235	2485.288846
356.668689	2432.356731
357.058080	2397.068654
357.447408	2548.303269
357.836672	2437.397885
358.225873	2467.644808
358.615010	2409.671538
359.004084	2402.109808
359.393095	2386.986346
359.782043	2477.727115
360.170927	2467.644808
360.559748	2389.506923
360.948505	2465.124231
361.337199	2432.356731
361.725830	2351.698269
362.114398	2462.603654
362.502903	2450.000769
362.891344	2457.562500
363.279722	2444.959615
363.668037	2444.959615
364.056289	2520.576923
364.444478	2485.288846
364.832603	2477.727115
365.220665	2402.109808
365.608665	2376.904038
365.996601	2525.618077
366.384474	2482.768269
366.772284	2417.233269
367.160031	2470.165385
367.547715	2442.439038
367.935336	2437.397885
368.322893	2510.494615
368.710388	2452.521346
369.097820	2510.494615
369.485189	2475.206538
369.872495	2432.356731
370.259738	2475.206538
370.646918	2450.000769
371.034035	2404.630385
371.421090	2452.521346
371.808081	2379.424615
372.195010	2492.850577
372.581875	2510.494615
372.968678	2447.480192
373.355418	2535.700385
373.742096	2384.465769
374.128710	2404.630385
374.515262	2414.712692
374.901751	2467.644808
375.288177	2487.809423
375.674540	2462.603654
376.060841	2437.397885
376.447079	2477.727115
376.833254	2477.727115
377.219367	2497.891731
377.605417	2429.836154
377.991404	2513.015192
378.377329	2507.974038
378.763191	2462.603654
379.148991	2462.603654
379.534727	2450.000769
379.920402	2480.247692
380.306013	2497.891731
380.691563	2450.000769
381.077049	2495.371154
381.462474	2500.412308
381.847835	2450.000769
382.233134	2502.932885
382.618371	2404.630385
383.003545	2518.056346
383.388657	2414.712692
383.773706	2485.288846
384.158693	2439.918462
384.543618	2477.727115
384.928480	2477.727115
385.313280	2523.097500
385.698017	2457.562500
386.082692	2439.918462
386.467305	2492.850577
386.851856	2487.809423
387.236344	2475.206538
387.620770	2487.809423
388.005133	2429.836154
388.389435	2444.959615
388.773674	2422.274423
389.157851	2457.562500
389.541965	2452.521346
389.926018	2419.753846
390.310008	2487.809423
390.693936	2480.247692
391.077802	2402.109808
391.461606	2470.165385
391.845348	2429.836154
392.229027	2447.480192
392.612645	2439.918462
392.996200	2414.712692
393.379694	2475.206538
393.763125	2475.206538
394.146494	2467.644808
394.529801	2460.083077
394.913047	2447.480192
395.296230	2417.233269
395.679351	2462.603654
396.062410	2462.603654
396.445408	2480.247692
396.828343	2477.727115
397.211217	2502.932885
397.594028	2480.247692
397.976778	2419.753846
398.359466	2455.041923
398.742092	2507.974038
399.124656	2434.877308
399.507158	2475.206538
399.889598	2500.412308
400.271977	2477.727115
400.654294	2513.015192
401.036549	2427.315577
401.418742	2351.698269
401.800874	2384.465769
402.182944	2442.439038
402.564952	2525.618077
402.946898	2422.274423
403.328783	2495.371154
403.710606	2467.644808
404.092367	2465.124231
404.474067	2402.109808
404.855705	2510.494615
405.237282	2442.439038
405.618797	2407.150962
406.000250	2518.056346
406.381642	2460.083077
406.762972	2460.083077
407.144240	2510.494615
407.525447	2513.015192
407.906593	2507.974038
408.287677	2480.247692
408.668700	2465.124231
409.049661	2409.671538
409.430560	2419.753846
409.811399	2513.015192
410.192176	2429.836154
410.572891	2482.768269
410.953545	2450.000769
411.334138	2500.412308
411.714669	2349.177692
412.095139	2465.124231
412.475547	2460.083077
412.855894	2500.412308
413.236180	2490.330000
413.616405	2500.412308
413.996568	2381.945192
414.376670	2500.412308
414.756711	2465.124231
415.136691	2470.165385
415.516609	2450.000769
415.896466	2525.618077
416.276262	2480.247692
416.655997	2457.562500
417.035670	2429.836154
417.415283	2389.506923
417.794834	2427.315577
418.174324	2520.576923
418.553753	2477.727115
418.933121	2525.618077
419.312428	2455.041923
419.691674	2467.644808
420.070859	2414.712692
420.449983	2371.862885
420.829045	2548.303269
421.208047	2487.809423
421.586988	2452.521346
421.965867	2518.056346
422.344686	2495.371154
422.723444	2477.727115
423.102141	2452.521346
423.480777	2465.124231
423.859352	2477.727115
424.237866	2578.550192
424.616319	2467.644808
424.994712	2419.753846
425.373044	2492.850577
425.751314	2477.727115
426.129524	2487.809423
426.507673	2518.056346
426.885762	2470.165385
427.263789	2444.959615
427.641756	2472.685962
428.019662	2437.397885
428.397508	2507.974038
428.775292	2520.576923
429.153016	2578.550192
429.530679	2404.630385
429.908282	2497.891731
430.285824	2417.233269
430.663305	2495.371154
431.040726	2432.356731
431.418086	2442.439038
431.795385	2457.562500
432.172624	2447.480192
432.549802	2583.591346
432.926920	2485.288846
433.303977	2419.753846
433.680974	2553.344423
434.057910	2538.220962
434.434786	2560.906154
434.811601	2492.850577
435.188355	2510.494615
435.565050	2434.877308
435.941683	2492.850577
436.318257	2450.000769
436.694770	2424.795000
437.071222	2495.371154
437.447614	2507.974038
437.823946	2515.535769
438.200218	2500.412308
438.576429	2477.727115
438.952580	2477.727115
439.328670	2442.439038
439.704700	2452.521346
440.080670	2394.548077
440.456580	2523.097500
440.832429	2427.315577
441.208218	2545.782692
441.583947	2480.247692
441.959616	2447.480192
442.335224	2475.206538
442.710773	2467.644808
443.086261	2447.480192
443.461689	2520.576923
443.837057	2432.356731
444.212365	2467.644808
444.587612	2487.809423
444.962800	2487.809423
445.337927	2439.918462
445.712995	2480.247692
446.088002	2437.397885
446.462949	2513.015192
446.837837	2558.385577
447.212664	2485.288846
447.587431	2525.618077
447.962139	2502.932885
448.336786	2485.288846
448.711374	2457.562500
449.085901	2492.850577
449.460369	2427.315577
449.834776	2525.618077
450.209124	2528.138654
450.583412	2467.644808
450.957640	2470.165385
451.331808	2518.056346
451.705917	2472.685962
452.079965	2472.685962
452.453954	2518.056346
452.827883	2450.000769
453.201752	2513.015192
453.575562	2439.918462
453.949311	2480.247692
454.323001	2518.056346
454.696632	2515.535769
455.070202	2540.741538
455.443713	2525.618077
455.817164	2460.083077
456.190556	2482.768269
456.563888	2548.303269
456.937160	2565.947308
457.310373	2437.397885
457.683526	2485.288846
458.056619	2475.206538
458.429653	2432.356731
458.802628	2487.809423
459.175542	2553.344423
459.548398	2407.150962
459.921194	2462.603654
460.293930	2475.206538
460.666607	2538.220962
461.039224	2455.041923
461.411782	2497.891731
461.784280	2480.247692
462.156719	2397.068654
462.529099	2432.356731
462.901419	2543.262115
463.273680	2437.397885
463.645882	2465.124231
464.018024	2462.603654
464.390106	2515.535769
464.762130	2485.288846
465.134094	2442.439038
465.505999	2432.356731
465.877845	2485.288846
466.249631	2618.879423
466.621358	2452.521346
466.993026	2424.795000
467.364634	2500.412308
467.736184	2392.027500
468.107674	2502.932885
468.479105	2460.083077
468.850477	2507.974038
469.221790	2490.330000
469.593043	2485.288846
469.964238	2490.330000
470.335373	2465.124231
470.706449	2533.179808
471.077467	2444.959615
471.448425	2487.809423
471.819324	2399.589231
472.190164	2427.315577
472.560945	2535.700385
472.931667	2467.644808
473.302330	2528.138654
473.672934	2550.823846
474.043479	2487.809423
474.413965	2492.850577
474.784393	2467.644808
475.154761	2507.974038
475.525070	2500.412308
475.895321	2447.480192
476.265513	2550.823846
476.635645	2437.397885
477.005719	2442.439038
477.375734	2505.453462
477.745691	2533.179808
478.115588	2500.412308
478.485427	2432.356731
478.855207	2470.165385
479.224928	2513.015192
479.594591	2424.795000
479.964194	2555.865000
480.333739	2485.288846
480.703226	2495.371154
481.072653	2450.000769
481.442022	2437.397885
481.811333	2513.015192
482.180584	2477.727115
482.549777	2482.768269
482.918912	2409.671538
483.287988	2528.138654
483.657005	2465.124231
484.025964	2487.809423
484.394864	2480.247692
484.763706	2480.247692
485.132489	2432.356731
485.501213	2543.262115
485.869879	2502.932885
486.238487	2535.700385
486.607036	2470.165385
486.975527	2465.124231
487.343959	2444.959615
487.712333	2480.247692
488.080648	2513.015192
488.448905	2450.000769
488.817104	2528.138654
489.185244	2462.603654
489.553326	2394.548077
489.921350	2470.165385
490.289315	2470.165385
490.657222	2502.932885
491.025070	2444.959615
491.392861	2417.233269
491.760593	2510.494615
492.128267	2460.083077
492.495883	2540.741538
492.863440	2482.768269
493.230939	2543.262115
493.598380	2485.288846
493.965763	2485.288846
494.333088	2570.988462
494.700354	2455.041923
495.067563	2520.576923
495.434713	2507.974038
495.801805	2457.562500
496.168839	2490.330000
496.535815	2543.262115
496.902733	2500.412308
497.269593	2487.809423
497.636395	2482.768269
498.003139	2540.741538
498.369825	2515.535769
498.736453	2540.741538
499.103023	2492.850577
499.469535	2480.247692
499.835989	2545.782692
500.202385	2502.932885
500.568723	2470.165385
500.935003	2545.782692
501.301226	2475.206538
501.667390	2502.932885
502.033497	2450.000769
502.399546	2545.782692
502.765537	2487.809423
503.131470	2472.685962
503.497345	2450.000769
503.863163	2495.371154
504.228923	2518.056346
504.594625	2462.603654
504.960269	2530.659231
505.325856	2570.988462
505.691385	2507.974038
506.056856	2538.220962
506.422270	2535.700385
506.787625	2455.041923
507.152924	2535.700385
507.518164	2563.426731
507.883347	2452.521346
508.248472	2538.220962
508.613540	2538.220962
508.978550	2487.809423
509.343503	2429.836154
509.708398	2525.618077
510.073236	2513.015192
510.438016	2457.562500
510.802738	2462.603654
511.167403	2475.206538
511.532010	2644.085192
511.896561	2475.206538
512.261053	2432.356731
512.625488	2485.288846
512.989866	2533.179808
513.354186	2389.506923
513.718449	2462.603654
514.082655	2540.741538
514.446803	2533.179808
514.810894	2475.206538
515.174927	2505.453462
515.538904	2480.247692
515.902822	2480.247692
516.266684	2505.453462
516.630488	2482.768269
516.994235	2482.768269
517.357925	2450.000769
517.721558	2424.795000
518.085133	2543.262115
518.448651	2550.823846
518.812112	2530.659231
519.175516	2490.330000
519.538863	2482.768269
519.902152	2480.247692
520.265385	2550.823846
520.628560	2510.494615
520.991678	2500.412308
521.354739	2535.700385
521.717743	2490.330000
522.080690	2576.029615
522.443580	2505.453462
522.806413	2480.247692
523.169189	2472.685962
523.531908	2495.371154
523.894569	2452.521346
524.257174	2477.727115
524.619722	2525.618077
524.982213	2515.535769
525.344647	2553.344423
525.707025	2439.918462
526.069345	2467.644808
526.431608	2497.891731
526.793815	2472.685962
527.155964	2455.041923
527.518057	2535.700385
527.880093	2477.727115
528.242072	2487.809423
528.603995	2404.630385
528.965860	2447.480192
529.327669	2533.179808
529.689421	2447.480192
530.051117	2381.945192
530.412755	2437.397885
530.774337	2427.315577
531.135862	2510.494615
531.497331	2477.727115
531.858743	2505.453462
532.220098	2482.768269
532.581396	2518.056346
532.942638	2510.494615
533.303824	2392.027500
533.664953	2502.932885
534.026025	2434.877308
534.387040	2513.015192
534.747999	2545.782692
535.108902	2455.041923
535.469748	2465.124231
535.830537	2502.932885
536.191270	2535.700385
536.551947	2497.891731
536.912567	2467.644808
537.273131	2523.097500
537.633638	2475.206538
537.994089	2462.603654
538.354483	2492.850577
538.714821	2548.303269
539.075103	2475.206538
539.435328	2568.467885
539.795497	2495.371154
540.155609	2495.371154
540.515665	2427.315577
540.875665	2513.015192
541.235609	2437.397885
541.595496	2432.356731
541.955328	2462.603654
542.315102	2518.056346
542.674821	2460.083077
543.034483	2407.150962
543.394090	2490.330000
543.753640	2520.576923
544.113134	2487.809423
544.472571	2505.453462
544.831953	2432.356731
545.191278	2500.412308
545.550548	2455.041923
545.909761	2583.591346
546.268918	2518.056346
546.628019	2475.206538
546.987064	2500.412308
547.346053	2623.920577
547.704986	2434.877308
548.063863	2437.397885
548.422684	2538.220962
548.781449	2540.741538
549.140158	2586.111923
549.498811	2543.262115
549.857408	2437.397885
550.215949	2437.397885
550.574434	2565.947308
550.932864	2462.603654
551.291237	2591.153077
551.649555	2538.220962
552.007817	2417.233269
552.366022	2482.768269
552.724173	2525.618077
553.082267	2429.836154
553.440305	2447.480192
553.798288	2477.727115
554.156215	2480.247692
554.514086	2497.891731
554.871902	2414.712692
555.229661	2513.015192
555.587365	2477.727115
555.945014	2520.576923
556.302606	2492.850577
556.660143	2553.344423
557.017625	2465.124231
557.375050	2462.603654
557.732421	2510.494615
558.089735	2434.877308
558.446994	2520.576923
558.804197	2492.850577
559.161345	2560.906154
559.518437	2535.700385
559.875474	2553.344423
560.232455	2535.700385
560.589381	2555.865000
560.946251	2419.753846
561.303065	2492.850577
561.659825	2455.041923
562.016528	2538.220962
562.373177	2497.891731
562.729770	2495.371154
563.086307	2455.041923
563.442789	2487.809423
563.799216	2593.673654
564.155587	2538.220962
564.511904	2462.603654
564.868164	2502.932885
565.224370	2538.220962
565.580520	2455.041923
565.936615	2467.644808
566.292654	2586.111923
566.648638	2525.618077
567.004567	2462.603654
567.360441	2492.850577
567.716260	2447.480192
568.072023	2452.521346
568.427732	2507.974038
568.783385	2465.124231
569.138982	2510.494615
569.494525	2487.809423
569.850013	2419.753846
570.205445	2523.097500
570.560823	2487.809423
570.916145	2525.618077
571.271412	2548.303269
571.626625	2450.000769
571.981782	2434.877308
572.336884	2381.945192
572.691931	2507.974038
573.046923	2487.809423
573.401860	2560.906154
573.756743	2462.603654
574.111570	2515.535769
574.466342	2467.644808
574.821059	2502.932885
575.175722	2570.988462
575.530330	2525.618077
575.884882	2538.220962
576.239380	2563.426731
576.593823	2455.041923
576.948211	2505.453462
577.302544	2507.974038
577.656823	2442.439038
578.011047	2394.548077
578.365216	2507.974038
578.719330	2472.685962
579.073389	2634.002885
579.427394	2460.083077
579.781344	2407.150962
580.135239	2492.850577
580.489080	2490.330000
580.842866	2434.877308
581.196597	2465.124231
581.550273	2603.755962
581.903895	2525.618077
582.257463	2510.494615
582.610975	2507.974038
582.964434	2452.521346
583.317837	2525.618077
583.671186	2432.356731
584.024481	2545.782692
584.377721	2507.974038
584.730906	2455.041923
585.084037	2482.768269
585.437113	2480.247692
585.790135	2497.891731
586.143103	2457.562500
586.496016	2518.056346
586.848874	2520.576923
587.201679	2480.247692
587.554428	2442.439038
587.907124	2528.138654
588.259765	2507.974038
588.612352	2515.535769
588.964884	2500.412308
589.317362	2515.535769
589.669786	2538.220962
590.022155	2482.768269
590.374470	2462.603654
590.726731	2520.576923
591.078937	2482.768269
591.431090	2533.179808
591.783188	2530.659231
592.135232	2505.453462
592.487222	2550.823846
592.839157	2460.083077
593.191038	2490.330000
593.542866	2485.288846
593.894639	2543.262115
594.246358	2500.412308
594.598022	2550.823846
594.949633	2560.906154
595.301190	2462.603654
595.652692	2450.000769
596.004141	2490.330000
596.355535	2429.836154
596.706876	2439.918462
597.058162	2475.206538
597.409395	2465.124231
597.760573	2545.782692
598.111698	2520.576923
598.462768	2419.753846
598.813785	2437.397885
599.164748	2467.644808
599.515657	2467.644808
599.866511	2419.753846
600.217312	2495.371154
600.568060	2447.480192
600.918753	2523.097500
601.269392	2513.015192
601.619978	2394.548077
601.970510	2497.891731
602.320988	2482.768269
602.671412	2555.865000
603.021783	2364.301154
603.372100	2477.727115
603.722363	2518.056346
604.072572	2404.630385
604.422728	2386.986346
604.772830	2472.685962
605.122878	2543.262115
605.472872	2523.097500
605.822813	2492.850577
606.172701	2523.097500
606.522534	2424.795000
606.872314	2490.330000
607.222041	2530.659231
607.571714	2500.412308
607.921333	2444.959615
608.270899	2477.727115
608.620411	2505.453462
608.969870	2409.671538
609.319276	2555.865000
609.668627	2523.097500
610.017926	2578.550192
610.367171	2518.056346
610.716362	2475.206538
611.065500	2502.932885
611.414585	2515.535769
611.763616	2457.562500
612.112594	2578.550192
612.461518	2583.591346
612.810389	2460.083077
613.159207	2553.344423
613.507971	2497.891731
613.856682	2417.233269
614.205340	2570.988462
614.553945	2545.782692
614.902496	2475.206538
615.250994	2543.262115
615.599439	2543.262115
615.947830	2560.906154
616.296169	2432.356731
616.644454	2442.439038
616.992686	2515.535769
617.340864	2570.988462
617.688990	2460.083077
618.037063	2596.194231
618.385082	2439.918462
618.733048	2563.426731
619.080961	2596.194231
619.428821	2424.795000
619.776628	2543.262115
620.124382	2470.165385
620.472083	2490.330000
620.819731	2523.097500
621.167326	2543.262115
621.514868	2550.823846
621.862357	2455.041923
622.209793	2495.371154
622.557176	2465.124231
622.904506	2485.288846
623.251783	2540.741538
623.599007	2492.850577
623.946179	2437.397885
624.293297	2457.562500
624.640363	2553.344423
624.987376	2495.371154
625.334336	2455.041923
625.681243	2548.303269
626.028097	2558.385577
626.374899	2576.029615
626.721647	2497.891731
627.068343	2523.097500
627.414987	2538.220962
627.761577	2543.262115
628.108115	2422.274423
628.454600	2477.727115
628.801032	2475.206538
629.147412	2427.315577
629.493739	2510.494615
629.840014	2560.906154
630.186236	2442.439038
630.532405	2528.138654
630.878521	2502.932885
631.224585	2540.741538
631.570597	2525.618077
631.916556	2490.330000
632.262462	2528.138654
632.608316	2495.371154
632.954117	2495.371154
633.299866	2442.439038
633.645562	2495.371154
633.991206	2497.891731
634.336797	2518.056346
634.682336	2502.932885
635.027823	2525.618077
635.373257	2482.768269
635.718639	2447.480192
636.063968	2427.315577
636.409245	2560.906154
636.754470	2513.015192
637.099642	2530.659231
637.444762	2492.850577
637.789829	2573.509038
638.134845	2560.906154
638.479808	2505.453462
638.824719	2404.630385
639.169577	2515.535769
639.514383	2434.877308
639.859137	2530.659231
640.203839	2457.562500
640.548489	2513.015192
640.893086	2573.509038
641.237632	2518.056346
641.582125	2505.453462
641.926566	2482.768269
642.270955	2490.330000
642.615292	2495.371154
642.959576	2553.344423
643.303809	2502.932885
643.647990	2414.712692
643.992118	2485.288846
644.336195	2482.768269
644.680219	2480.247692
645.024192	2444.959615
645.368112	2467.644808
645.711981	2507.974038
646.055797	2500.412308
646.399562	2470.165385
646.743274	2462.603654
647.086935	2427.315577
647.430544	2472.685962
647.774101	2485.288846
648.117606	2490.330000
648.461059	2384.465769
648.804460	2558.385577
649.147810	2409.671538
649.491108	2497.891731
649.834354	2490.330000
650.177548	2528.138654
650.520690	2427.315577
650.863781	2424.795000
651.206820	2548.303269
651.549807	2480.247692
651.892742	2427.315577
652.235626	2492.850577
652.578458	2548.303269
652.921238	2472.685962
653.263967	2490.330000
653.606644	2462.603654
653.949269	2540.741538
654.291843	2422.274423
654.634365	2500.412308
654.976836	2444.959615
655.319255	2540.741538
655.661622	2480.247692
656.003938	2480.247692
656.346203	2444.959615
656.688416	2528.138654
657.030577	2444.959615
657.372687	2530.659231
657.714746	2520.576923
658.056753	2437.397885
658.398708	2492.850577
658.740612	2528.138654
659.082465	2520.576923
659.424266	2525.618077
659.766016	2502.932885
660.107715	2470.165385
660.449362	2492.850577
660.790958	2455.041923
661.132503	2482.768269
661.473996	2485.288846
661.815438	2535.700385
662.156829	2485.288846
662.498168	2533.179808
662.839456	2475.206538
663.180693	2548.303269
663.521879	2482.768269
663.863013	2533.179808
664.204097	2470.165385
664.545129	2553.344423
664.886110	2452.521346
665.227040	2540.741538
665.567918	2515.535769
665.908746	2505.453462
666.249522	2460.083077
666.590248	2419.753846
666.930922	2591.153077
667.271545	2492.850577
667.612118	2407.150962
667.952639	2530.659231
668.293109	2591.153077
668.633528	2555.865000
668.973896	2530.659231
669.314213	2427.315577
669.654480	2510.494615
669.994695	2409.671538
670.334859	2507.974038
670.674973	2465.124231
671.015035	2497.891731
671.355047	2460.083077
671.695008	2530.659231
672.034918	2397.068654
672.374777	2487.809423
672.714585	2467.644808
673.054342	2540.741538
673.394049	2450.000769
673.733705	2518.056346
674.073310	2442.439038
674.412864	2502.932885
674.752368	2505.453462
675.091820	2510.494615
675.431223	2467.644808
675.770574	2555.865000
676.109875	2485.288846
676.449125	2548.303269
676.788324	2520.576923
677.127473	2472.685962
677.466571	2497.891731
677.805619	2397.068654
678.144616	2553.344423
678.483562	2480.247692
678.822458	2500.412308
679.161303	2402.109808
679.500098	2518.056346
679.838842	2470.165385
680.177535	2530.659231
680.516179	2490.330000
680.854771	2510.494615
681.193314	2467.644808
681.531805	2465.124231
681.870247	2525.618077
682.208638	2515.535769
682.546978	2515.535769
682.885268	2533.179808
683.223508	2457.562500
683.561697	2533.179808
683.899836	2528.138654
684.237925	2523.097500
684.575963	2470.165385
684.913951	2518.056346
685.251889	2450.000769
685.589776	2497.891731
685.927614	2409.671538
686.265401	2490.330000
686.603137	2497.891731
686.940824	2560.906154
687.278460	2487.809423
687.616046	2434.877308
687.953582	2470.165385
688.291068	2487.809423
688.628504	2570.988462
688.965889	2502.932885
689.303224	2513.015192
689.640510	2475.206538
689.977745	2528.138654
690.314930	2460.083077
690.652065	2495.371154
690.989150	2560.906154
691.326185	2412.192115
691.663170	2543.262115
692.000105	2565.947308
692.336990	2518.056346
692.673825	2535.700385
693.010610	2460.083077
693.347345	2540.741538
693.684030	2477.727115
694.020665	2477.727115
694.357251	2497.891731
694.693786	2419.753846
695.030272	2455.041923
695.366707	2467.644808
695.703093	2437.397885
696.039429	2563.426731
696.375716	2495.371154
696.711952	2482.768269
697.048139	2553.344423
697.384276	2492.850577
697.720363	2565.947308
698.056400	2507.974038
698.392388	2570.988462
698.728326	2505.453462
699.064214	2540.741538
699.400053	2543.262115
699.735842	2513.015192
700.071581	2591.153077
700.407270	2452.521346
700.742910	2530.659231
701.078501	2495.371154
701.414042	2470.165385
701.749533	2500.412308
702.084974	2490.330000
702.420366	2495.371154
702.755709	2578.550192
703.091002	2540.741538
703.426246	2460.083077
703.761440	2505.453462
704.096584	2452.521346
704.431679	2487.809423
704.766725	2570.988462
705.101721	2460.083077
705.436668	2553.344423
705.771565	2414.712692
706.106413	2568.467885
706.441212	2429.836154
706.775961	2515.535769
707.110661	2520.576923
707.445311	2518.056346
707.779913	2417.233269
708.114465	2505.453462
708.448967	2462.603654
708.783421	2505.453462
709.117825	2548.303269
709.452180	2593.673654
709.786485	2482.768269
710.120742	2470.165385
710.454949	2417.233269
710.789107	2492.850577
711.123216	2475.206538
711.457275	2485.288846
711.791286	2500.412308
712.125247	2543.262115
712.459159	2535.700385
712.793023	2492.850577
713.126837	2442.439038
713.460602	2550.823846
713.794318	2444.959615
714.127985	2497.891731
714.461602	2500.412308
714.795171	2530.659231
715.128691	2495.371154
715.462162	2452.521346
715.795584	2402.109808
716.128957	2475.206538
716.462281	2465.124231
716.795556	2528.138654
717.128782	2540.741538
717.461960	2470.165385
717.795088	2583.591346
718.128167	2457.562500
718.461198	2502.932885
718.794180	2455.041923
719.127113	2495.371154
719.459997	2500.412308
719.792833	2497.891731
720.125619	2485.288846
720.458357	2487.809423
720.791046	2442.439038
721.123686	2500.412308
721.456278	2422.274423
721.788821	2477.727115
722.121315	2432.356731
722.453761	2455.041923
722.786158	2505.453462
723.118506	2434.877308
723.450805	2487.809423
723.783056	2490.330000
724.115259	2502.932885
724.447412	2472.685962
724.779518	2482.768269
725.111574	2523.097500
725.443582	2510.494615
725.775542	2374.383462
726.107453	2480.247692
726.439315	2394.548077
726.771129	2586.111923
727.102895	2525.618077
727.434612	2568.467885
727.766281	2450.000769
728.097901	2502.932885
728.429473	2422.274423
728.760996	2482.768269
729.092471	2553.344423
729.423897	2475.206538
729.755276	2409.671538
730.086606	2465.124231
730.417887	2570.988462
730.749120	2545.782692
731.080305	2543.262115
731.411442	2570.988462
731.742530	2442.439038
732.073570	2535.700385
732.404562	2578.550192
732.735506	2465.124231
733.066401	2470.165385
733.397249	2434.877308
733.728048	2502.932885
734.058798	2528.138654
734.389501	2523.097500
734.720156	2495.371154
735.050762	2523.097500
735.381320	2450.000769
735.711831	2502.932885
736.042293	2455.041923
736.372707	2507.974038
736.703073	2520.576923
737.033391	2475.206538
737.363661	2490.330000
737.693883	2482.768269
738.024056	2482.768269
738.354182	2560.906154
738.684260	2538.220962
739.014290	2480.247692
739.344272	2480.247692
739.674207	2500.412308
740.004093	2530.659231
740.333931	2533.179808
740.663722	2505.453462
740.993464	2520.576923
741.323159	2520.576923
741.652806	2560.906154
741.982405	2560.906154
742.311956	2533.179808
742.641460	2555.865000
742.970915	2570.988462
743.300323	2540.741538
743.629683	2490.330000
743.958996	2505.453462
744.288260	2608.797115
744.617477	2439.918462
744.946647	2495.371154
745.275768	2419.753846
745.604842	2447.480192
745.933869	2482.768269
746.262847	2495.371154
746.591778	2548.303269
746.920662	2490.330000
747.249498	2457.562500
747.578286	2505.453462
747.907027	2472.685962
748.235720	2467.644808
748.564365	2485.288846
748.892963	2533.179808
749.221514	2467.644808
749.550017	2475.206538
749.878473	2502.932885
750.206881	2507.974038
750.535242	2535.700385
750.863555	2513.015192
751.191821	2492.850577
751.520039	2419.753846
751.848210	2578.550192
752.176334	2507.974038
752.504411	2530.659231
752.832440	2429.836154
753.160421	2490.330000
753.488356	2543.262115
753.816243	2447.480192
754.144082	2535.700385
754.471875	2455.041923
754.799620	2424.795000
755.127318	2495.371154
755.454969	2417.233269
755.782572	2487.809423
756.110129	2457.562500
756.437638	2497.891731
756.765100	2427.315577
757.092515	2447.480192
757.419882	2457.562500
757.747203	2497.891731
758.074477	2598.714808
758.401703	2533.179808
758.728882	2432.356731
759.056014	2492.850577
759.383099	2583.591346
759.710138	2477.727115
760.037129	2570.988462
760.364073	2470.165385
760.690970	2545.782692
761.017820	2439.918462
761.344623	2523.097500
761.671379	2540.741538
761.998088	2404.630385
762.324751	2507.974038
762.651366	2555.865000
762.977935	2444.959615
763.304456	2596.194231
763.630931	2528.138654
763.957359	2538.220962
764.283740	2507.974038
764.610074	2457.562500
764.936362	2497.891731
765.262602	2427.315577
765.588796	2442.439038
765.914943	2452.521346
766.241044	2513.015192
766.567097	2497.891731
766.893104	2533.179808
767.219064	2505.453462
767.544978	2515.535769
767.870845	2495.371154
768.196665	2397.068654
768.522438	2565.947308
768.848165	2452.521346
769.173846	2573.509038
769.499479	2432.356731
769.825066	2482.768269
770.150607	2477.727115
770.476101	2475.206538
770.801548	2455.041923
771.126949	2485.288846
771.452303	2515.535769
771.777611	2518.056346
772.102872	2518.056346
772.428087	2588.632500
772.753256	2593.673654
773.078378	2462.603654
773.403453	2523.097500
773.728482	2583.591346
774.053465	2397.068654
774.378401	2409.671538
774.703291	2525.618077
775.028135	2460.083077
775.352932	2555.865000
775.677683	2507.974038
776.002388	2550.823846
776.327046	2462.603654
776.651658	2530.659231
776.976224	2528.138654
777.300743	2513.015192
777.625216	2419.753846
777.949643	2419.753846
778.274024	2465.124231
778.598359	2518.056346
778.922647	2444.959615
779.246889	2586.111923
779.571086	2505.453462
779.895236	2502.932885
780.219339	2452.521346
780.543397	2523.097500
780.867409	2467.644808
781.191374	2513.015192
781.515294	2535.700385
781.839167	2460.083077
782.162995	2550.823846
782.486776	2543.262115
782.810511	2465.124231
783.134201	2477.727115
783.457844	2480.247692
783.781441	2510.494615
784.104993	2621.400000
784.428498	2518.056346
784.751958	2507.974038
785.075372	2520.576923
785.398739	2470.165385
785.722061	2510.494615
786.045337	2462.603654
786.368568	2568.467885
786.691752	2465.124231
787.014891	2450.000769
787.337983	2520.576923
787.661030	2470.165385
787.984031	2533.179808
788.306987	2477.727115
788.629897	2429.836154
788.952760	2450.000769
789.275579	2475.206538
789.598351	2560.906154
789.921078	2492.850577
790.243759	2550.823846
790.566395	2525.618077
790.888984	2523.097500
791.211529	2520.576923
791.534027	2450.000769
791.856480	2480.247692
792.178888	2507.974038
792.501249	2520.576923
792.823566	2460.083077
793.145836	2505.453462
793.468062	2500.412308
793.790241	2472.685962
794.112375	2434.877308
794.434464	2480.247692
794.756507	2482.768269
795.078505	2434.877308
795.400457	2490.330000
795.722364	2568.467885
796.044226	2475.206538
796.366042	2576.029615
796.687812	2467.644808
797.009538	2475.206538
797.331218	2482.768269
797.652852	2492.850577
797.974442	2477.727115
798.295986	2528.138654
798.617484	2472.685962
798.938938	2515.535769
799.260346	2581.070769
799.581709	2538.220962
799.903026	2578.550192
800.224299	2596.194231
800.545526	2507.974038
800.866708	2525.618077
801.187845	2528.138654
801.508936	2558.385577
801.829983	2457.562500
802.150984	2477.727115
802.471940	2447.480192
802.792851	2502.932885
803.113717	2487.809423
803.434538	2462.603654
803.755314	2417.233269
804.076045	2507.974038
804.396731	2419.753846
804.717372	2513.015192
805.037967	2586.111923
805.358518	2502.932885
805.679024	2477.727115
805.999485	2505.453462
806.319901	2540.741538
806.640272	2482.768269
806.960598	2515.535769
807.280879	2462.603654
807.601115	2518.056346
807.921306	2495.371154
808.241453	2444.959615
808.561554	2518.056346
808.881611	2576.029615
809.201623	2437.397885
809.521590	2548.303269
809.841513	2492.850577
810.161390	2457.562500
810.481223	2513.015192
810.801011	2462.603654
811.120755	2538.220962
811.440453	2434.877308
811.760107	2422.274423
812.079716	2455.041923
812.399281	2485.288846
812.718801	2482.768269
813.038276	2497.891731
813.357707	2525.618077
813.677093	2492.850577
813.996434	2538.220962
814.315731	2424.795000
814.634983	2482.768269
814.954191	2568.467885
815.273354	2450.000769
815.592473	2407.150962
815.911547	2528.138654
816.230577	2475.206538
816.549562	2417.233269
816.868502	2460.083077
817.187399	2437.397885
817.506250	2543.262115
817.825058	2467.644808
818.143821	2497.891731
818.462539	2500.412308
818.781213	2487.809423
819.099843	2555.865000
819.418429	2467.644808
819.736970	2467.644808
820.055466	2545.782692
820.373919	2548.303269
820.692327	2507.974038
821.010691	2497.891731
821.329011	2518.056346
821.647286	2538.220962
821.965517	2558.385577
822.283704	2392.027500
822.601847	2533.179808
822.919945	2437.397885
823.237999	2472.685962
823.556010	2538.220962
823.873976	2470.165385
824.191897	2515.535769
824.509775	2513.015192
824.827609	2399.589231
825.145398	2487.809423
825.463144	2525.618077
825.780845	2427.315577
826.098502	2444.959615
826.416116	2429.836154
826.733685	2467.644808
827.051210	2467.644808
827.368692	2538.220962
827.686129	2427.315577
828.003522	2505.453462
828.320872	2447.480192
828.638177	2487.809423
828.955439	2558.385577
829.272656	2513.015192
829.589830	2402.109808
829.906960	2467.644808
830.224046	2457.562500
830.541088	2523.097500
830.858086	2460.083077
831.175041	2540.741538
831.491952	2392.027500
831.808819	2487.809423
832.125642	2455.041923
832.442421	2550.823846
832.759157	2379.424615
833.075849	2515.535769
833.392497	2482.768269
833.709101	2487.809423
834.025662	2424.795000
834.342179	2490.330000
834.658653	2437.397885
834.975083	2505.453462
835.291469	2538.220962
835.607811	2487.809423
835.924110	2495.371154
836.240366	2543.262115
836.556578	2442.439038
836.872746	2518.056346
837.188871	2502.932885
837.504952	2558.385577
837.820990	2540.741538
838.136984	2540.741538
838.452935	2467.644808
838.768842	2520.576923
839.084706	2502.932885
839.400526	2495.371154
839.716303	2480.247692
840.032037	2497.891731
840.347727	2455.041923
840.663373	2500.412308
840.978977	2447.480192
841.294537	2515.535769
841.610054	2558.385577
841.925527	2487.809423
842.240957	2520.576923
842.556344	2558.385577
842.871687	2528.138654
843.186987	2563.426731
843.502244	2492.850577
843.817458	2505.453462
844.132629	2538.220962
844.447756	2452.521346
844.762840	2510.494615
845.077881	2434.877308
845.392879	2518.056346
845.707833	2457.562500
846.022745	2455.041923
846.337613	2424.795000
846.652438	2548.303269
846.967221	2472.685962
847.281960	2447.480192
847.596656	2538.220962
847.911309	2457.562500
848.225919	2487.809423
848.540485	2540.741538
848.855009	2497.891731
849.169490	2442.439038
849.483928	2558.385577
849.798323	2417.233269
850.112675	2505.453462
850.426984	2513.015192
850.741251	2455.041923
851.055474	2472.685962
851.369654	2437.397885
851.683792	2553.344423
851.997887	2444.959615
852.311938	2502.932885
852.625947	2470.165385
852.939914	2518.056346
853.253837	2525.618077
853.567718	2457.562500
853.881555	2510.494615
854.195350	2495.371154
854.509103	2467.644808
854.822812	2452.521346
855.136479	2497.891731
855.450103	2460.083077
855.763685	2487.809423
856.077224	2553.344423
856.390720	2490.330000
856.704173	2497.891731
857.017584	2540.741538
857.330953	2573.509038
857.644278	2465.124231
857.957561	2470.165385
858.270802	2452.521346
858.584000	2429.836154
858.897155	2500.412308
859.210268	2513.015192
859.523339	2505.453462
859.836367	2444.959615
860.149352	2500.412308
860.462295	2460.083077
860.775195	2490.330000
861.088054	2507.974038
861.400869	2538.220962
861.713642	2465.124231
862.026373	2475.206538
862.339062	2520.576923
862.651708	2432.356731
862.964312	2573.509038
863.276873	2588.632500
863.589392	2467.644808
863.901869	2485.288846
864.214303	2384.465769
864.526696	2535.700385
864.839045	2507.974038
865.151353	2507.974038
865.463619	2472.685962
865.775842	2528.138654
866.088023	2507.974038
866.400162	2432.356731
866.712258	2452.521346
867.024313	2485.288846
867.336325	2573.509038
867.648296	2523.097500
867.960224	2510.494615
868.272110	2540.741538
868.583954	2412.192115
868.895755	2485.288846
869.207515	2500.412308
869.519233	2520.576923
869.830909	2570.988462
870.142542	2439.918462
870.454134	2563.426731
870.765684	2510.494615
871.077191	2535.700385
871.388657	2475.206538
871.700081	2455.041923
872.011463	2465.124231
872.322803	2460.083077
872.634101	2518.056346
872.945357	2497.891731
873.256571	2427.315577
873.567744	2593.673654
873.878874	2576.029615
874.189963	2487.809423
874.501010	2578.550192
874.812015	2462.603654
875.122979	2495.371154
875.433900	2497.891731
875.744780	2472.685962
876.055618	2457.562500
876.366415	2495.371154
876.677169	2432.356731
876.987882	2467.644808
877.298554	2485.288846
877.609183	2487.809423
877.919771	2533.179808
878.230317	2480.247692
878.540822	2502.932885
878.851285	2518.056346
879.161707	2412.192115
879.472087	2565.947308
879.782425	2485.288846
880.092722	2500.412308
880.402977	2513.015192
880.713191	2485.288846
881.023363	2518.056346
881.333494	2513.015192
881.643583	2530.659231
881.953631	2465.124231
882.263637	2528.138654
882.573602	2447.480192
882.883526	2465.124231
883.193408	2475.206538
883.503248	2528.138654
883.813048	2548.303269
884.122806	2437.397885
884.432522	2502.932885
884.742197	2523.097500
885.051831	2482.768269
885.361424	2573.509038
885.670975	2492.850577
885.980485	2455.041923
886.289954	2490.330000
886.599382	2505.453462
886.908768	2515.535769
887.218113	2480.247692
887.527417	2518.056346
887.836680	2500.412308
888.145901	2477.727115
888.455082	2442.439038
888.764221	2455.041923
889.073319	2482.768269
889.382376	2530.659231
889.691392	2477.727115
890.000366	2555.865000
890.309300	2608.797115
890.618193	2545.782692
890.927044	2475.206538
891.235855	2583.591346
891.544625	2492.850577
891.853353	2472.685962
892.162041	2447.480192
892.470687	2447.480192
892.779293	2450.000769
893.087858	2475.206538
893.396381	2470.165385
893.704864	2518.056346
894.013306	2528.138654
894.321707	2505.453462
894.630068	2452.521346
894.938387	2450.000769
895.246665	2513.015192
895.554903	2462.603654
895.863100	2523.097500
896.171256	2565.947308
896.479371	2485.288846
896.787446	2560.906154
897.095480	2510.494615
897.403473	2535.700385
897.711425	2457.562500
898.019336	2432.356731
898.327207	2540.741538
898.635038	2460.083077
898.942827	2492.850577
899.250576	2533.179808
899.558284	2354.218846
899.865952	2404.630385
900.173579	2500.412308
900.481165	2419.753846
900.788711	2485.288846
901.096216	2513.015192
901.403681	2543.262115
901.711105	2520.576923
902.018489	2439.918462
902.325832	2497.891731
902.633135	2495.371154
902.940397	2500.412308
903.247619	2429.836154
903.554800	2505.453462
903.861941	2432.356731
904.169041	2568.467885
904.476101	2560.906154
904.783121	2505.453462
905.090100	2482.768269
905.397039	2460.083077
905.703938	2528.138654
906.010796	2565.947308
906.317614	2412.192115
906.624391	2540.741538
906.931129	2545.782692
907.237826	2432.356731
907.544483	2507.974038
907.851099	2475.206538
908.157675	2455.041923
908.464211	2452.521346
908.770707	2545.782692
909.077163	2412.192115
909.383578	2573.509038
909.689954	2457.562500
909.996289	2530.659231
910.302584	2558.385577
910.608839	2475.206538
910.915054	2439.918462
911.221229	2452.521346
911.527363	2520.576923
911.833458	2472.685962
912.139513	2467.644808
912.445527	2485.288846
912.751502	2510.494615
913.057436	2475.206538
913.363331	2540.741538
913.669186	2467.644808
913.975000	2497.891731
914.280775	2490.330000
914.586510	2528.138654
914.892205	2439.918462
915.197859	2361.780577
915.503475	2548.303269
915.809050	2480.247692
916.114585	2507.974038
916.420081	2475.206538
916.725536	2525.618077
917.030952	2482.768269
917.336328	2545.782692
917.641665	2487.809423
917.946961	2482.768269
918.252218	2462.603654
918.557435	2444.959615
918.862612	2583.591346
919.167750	2502.932885
919.472848	2485.288846
919.777906	2475.206538
920.082925	2381.945192
920.387904	2480.247692
920.692843	2555.865000
920.997743	2467.644808
921.302603	2457.562500
921.607423	2611.317692
921.912204	2525.618077
922.216946	2437.397885
922.521647	2528.138654
922.826310	2502.932885
923.130932	2475.206538
923.435516	2543.262115
923.740059	2412.192115
924.044564	2518.056346
924.349028	2515.535769
924.653454	2427.315577
924.957840	2510.494615
925.262186	2545.782692
925.566493	2477.727115
925.870761	2427.315577
926.174989	2528.138654
926.479178	2439.918462
926.783328	2518.056346
927.087438	2422.274423
927.391509	2507.974038
927.695541	2482.768269
927.999533	2530.659231
928.303486	2422.274423
928.607400	2495.371154
928.911275	2528.138654
929.215110	2450.000769
929.518906	2470.165385
929.822663	2414.712692
930.126381	2452.521346
930.430060	2447.480192
930.733699	2465.124231
931.037299	2470.165385
931.340861	2452.521346
931.644383	2500.412308
931.947866	2397.068654
932.251309	2528.138654
932.554714	2480.247692
932.858080	2495.371154
933.161407	2450.000769
933.464694	2487.809423
933.767943	2502.932885
934.071153	2500.412308
934.374323	2513.015192
934.677455	2374.383462
934.980548	2412.192115
935.283602	2500.412308
935.586617	2530.659231
935.889593	2444.959615
936.192530	2442.439038
936.495428	2555.865000
936.798287	2495.371154
937.101108	2439.918462
937.403890	2457.562500
937.706632	2495.371154
938.009336	2442.439038
938.312002	2472.685962
938.614628	2490.330000
938.917216	2462.603654
939.219765	2457.562500
939.522275	2394.548077
939.824747	2510.494615
940.127179	2419.753846
940.429573	2530.659231
940.731929	2487.809423
941.034246	2472.685962
941.336524	2409.671538
941.638763	2485.288846
941.940964	2434.877308
942.243126	2523.097500
942.545250	2480.247692
942.847335	2485.288846
943.149381	2492.850577
943.451389	2457.562500
943.753359	2455.041923
944.055290	2465.124231
944.357182	2447.480192
944.659036	2374.383462
944.960851	2553.344423
945.262628	2462.603654
945.564367	2528.138654
945.866067	2442.439038
946.167729	2513.015192
946.469352	2515.535769
946.770937	2520.576923
947.072484	2533.179808
947.373992	2500.412308
947.675462	2485.288846
947.976893	2518.056346
948.278286	2495.371154
948.579641	2470.165385
948.880958	2485.288846
949.182236	2513.015192
949.483476	2447.480192
949.784678	2497.891731
950.085841	2480.247692
950.386967	2457.562500
950.688054	2450.000769
950.989103	2407.150962
951.290114	2518.056346
951.591087	2439.918462
951.892021	2492.850577
952.192917	2434.877308
952.493776	2548.303269
952.794596	2487.809423
953.095378	2515.535769
953.396122	2545.782692
953.696828	2497.891731
953.997496	2442.439038
954.298126	2462.603654
954.598718	2533.179808
954.899272	2452.521346
955.199788	2553.344423
955.500266	2525.618077
955.800706	2500.412308
956.101108	2510.494615
956.401472	2495.371154
956.701798	2495.371154
957.002087	2457.562500
957.302337	2439.918462
957.602550	2460.083077
957.902724	2417.233269
958.202861	2437.397885
958.502960	2381.945192
958.803022	2414.712692
959.103045	2480.247692
959.403031	2462.603654
959.702979	2477.727115
960.002889	2374.383462
960.302762	2548.303269
960.602596	2500.412308
960.902393	2581.070769
961.202153	2513.015192
961.501875	2457.562500
961.801559	2528.138654
962.101205	2429.836154
962.400814	2515.535769
962.700385	2465.124231
962.999918	2467.644808
963.299414	2492.850577
963.598873	2500.412308
963.898293	2482.768269
964.197677	2422.274423
964.497022	2548.303269
964.796331	2429.836154
965.095601	2444.959615
965.394835	2495.371154
965.694030	2480.247692
965.993189	2467.644808
966.292309	2495.371154
966.591393	2432.356731
966.890439	2533.179808
967.189447	2439.918462
967.488419	2513.015192
967.787353	2482.768269
968.086249	2520.576923
968.385108	2470.165385
968.683930	2414.712692
968.982714	2465.124231
969.281462	2475.206538
969.580172	2480.247692
969.878844	2510.494615
970.177480	2462.603654
970.476078	2482.768269
970.774639	2558.385577
971.073162	2500.412308
971.371649	2465.124231
971.670098	2450.000769
971.968510	2515.535769
972.266885	2447.480192
972.565223	2525.618077
972.863524	2487.809423
973.161788	2545.782692
973.460014	2472.685962
973.758204	2462.603654
974.056356	2487.809423
974.354471	2538.220962
974.652550	2477.727115
974.950591	2525.618077
975.248595	2540.741538
975.546563	2502.932885
975.844493	2523.097500
976.142386	2432.356731
976.440243	2412.192115
976.738062	2409.671538
977.035845	2485.288846
977.333590	2450.000769
977.631299	2495.371154
977.928971	2540.741538
978.226606	2500.412308
978.524204	2412.192115
978.821765	2475.206538
979.119290	2442.439038
979.416777	2555.865000
979.714228	2475.206538
980.011642	2591.153077
980.309020	2462.603654
980.606360	2505.453462
980.903664	2472.685962
981.200931	2563.426731
981.498162	2495.371154
981.795356	2450.000769
982.092513	2452.521346
982.389633	2470.165385
982.686717	2475.206538
982.983764	2497.891731
983.280775	2525.618077
983.577749	2460.083077
983.874686	2455.041923
984.171587	2553.344423
984.468451	2482.768269
984.765279	2518.056346
985.062070	2550.823846
985.358824	2523.097500
985.655543	2495.371154
985.952224	2510.494615
986.248869	2518.056346
986.545478	2485.288846
986.842050	2520.576923
987.138586	2427.315577
987.435086	2555.865000
987.731549	2467.644808
988.027975	2588.632500
988.324366	2384.465769
988.620719	2457.562500
988.917037	2523.097500
989.213318	2482.768269
989.509563	2502.932885
989.805772	2482.768269
990.101944	2573.509038
990.398080	2565.947308
990.694180	2530.659231
990.990244	2586.111923
991.286271	2434.877308
991.582262	2565.947308
991.878217	2477.727115
992.174136	2515.535769
992.470019	2548.303269
992.765865	2482.768269
993.061676	2528.138654
993.357450	2487.809423
993.653188	2447.480192
993.948890	2457.562500
994.244556	2460.083077
994.540186	2497.891731
994.835780	2487.809423
995.131337	2487.809423
995.426859	2432.356731
995.722345	2490.330000
996.017795	2533.179808
996.313208	2467.644808
996.608586	2447.480192
996.903928	2480.247692
997.199234	2596.194231
997.494504	2409.671538
997.789738	2487.809423
998.084936	2533.179808
998.380099	2505.453462
998.675225	2467.644808
998.970316	2465.124231
999.265371	2583.591346
999.560390	2505.453462
999.855373	2558.385577
1000.150320	2533.179808
1000.445232	2477.727115
1000.740108	2550.823846
1001.034948	2518.056346
1001.329752	2467.644808
1001.624521	2470.165385
1001.919254	2492.850577
1002.213951	2460.083077
1002.508613	2371.862885
1002.803239	2432.356731
1003.097829	2470.165385
1003.392384	2444.959615
1003.686903	2545.782692
1003.981386	2510.494615
1004.275834	2581.070769
1004.570246	2500.412308
1004.864623	2502.932885
1005.158964	2497.891731
1005.453270	2480.247692
1005.747540	2490.330000
1006.041775	2515.535769
1006.335974	2495.371154
1006.630138	2467.644808
1006.924266	2465.124231
1007.218359	2480.247692
1007.512416	2482.768269
1007.806438	2507.974038
1008.100425	2417.233269
1008.394376	2543.262115
1008.688292	2480.247692
1008.982172	2495.371154
1009.276017	2477.727115
1009.569827	2518.056346
1009.863602	2450.000769
1010.157341	2510.494615
1010.451045	2518.056346
1010.744714	2553.344423
1011.038347	2573.509038
1011.331945	2515.535769
1011.625508	2500.412308
1011.919036	2538.220962
1012.212528	2525.618077
1012.505986	2525.618077
1012.799408	2482.768269
1013.092795	2490.330000
1013.386147	2467.644808
1013.679464	2472.685962
1013.972745	2472.685962
1014.265992	2545.782692
1014.559204	2470.165385
1014.852380	2487.809423
1015.145521	2419.753846
1015.438628	2465.124231
1015.731699	2412.192115
1016.024736	2450.000769
1016.317737	2432.356731
1016.610703	2419.753846
1016.903635	2507.974038
1017.196531	2414.712692
1017.489393	2424.795000
1017.782219	2555.865000
1018.075011	2475.206538
1018.367768	2452.521346
1018.660490	2467.644808
1018.953177	2467.644808
1019.245829	2467.644808
