Dividing Wavelength (nm)	Counts (n)	Blue Motor Position (mm): 43.400000	Red Motor Position (mm): 0.000000	
326.493990	2259.298960
326.888308	2259.298960
327.282561	2259.298960
327.676750	2220.897971
328.070874	2217.376725
328.464933	2218.077445
328.858929	2222.344782
329.252859	2225.306460
329.646726	2235.275342
330.040528	2246.491909
330.434265	2257.438775
330.827938	2279.904677
331.221547	2297.049641
331.615091	2311.434573
332.008571	2332.357883
332.401986	2351.279853
332.795338	2371.086547
333.188625	2390.187479
333.581847	2408.433935
333.975006	2430.209199
334.368100	2449.252158
334.761129	2464.983078
335.154095	2483.494195
335.546996	2509.314985
335.939833	2550.478527
336.332606	2566.448902
336.725315	2576.924420
337.117960	2589.552511
337.510540	2599.072730
337.903056	2612.905656
338.295508	2624.119702
338.687896	2631.930970
339.080220	2636.256280
339.472480	2642.391365
339.864676	2648.793630
340.256807	2657.303098
340.648875	2660.473983
341.040879	2660.063129
341.432818	2663.145795
341.824694	2666.137720
342.216506	2666.021773
342.608253	2667.012360
342.999937	2667.413132
343.391557	2668.441527
343.783113	2666.256187
344.174605	2665.472287
344.566033	2664.453974
344.957397	2666.606547
345.348697	2664.504386
345.739934	2661.068840
346.131106	2659.614467
346.522215	2658.359219
346.913260	2655.992398
347.304241	2654.152377
347.695159	2652.866882
348.086012	2651.110040
348.476802	2649.524597
348.867528	2644.599390
349.258191	2641.645274
349.648789	2642.983700
350.039324	2637.965232
350.429796	2643.104688
350.820203	2641.186529
351.210548	2641.499080
351.600828	2637.662762
351.991045	2637.380458
352.381198	2637.158647
352.771288	2636.649490
353.161314	2635.046403
353.551276	2635.230406
353.941175	2634.335601
354.331010	2635.527834
354.720782	2634.179325
355.110490	2634.940539
355.500135	2635.726959
355.889717	2636.712505
356.279235	2633.339973
356.668689	2636.455406
357.058080	2636.946918
357.447408	2638.040849
357.836672	2635.719397
358.225873	2636.984727
358.615010	2637.415746
359.004084	2635.936167
359.393095	2638.890283
359.782043	2642.829945
360.170927	2643.513021
360.559748	2641.065541
360.948505	2639.371713
361.337199	2644.538896
361.725830	2645.290028
362.114398	2641.365490
362.502903	2643.833135
362.891344	2645.111067
363.279722	2644.874133
363.668037	2648.702889
364.056289	2645.811787
364.444478	2648.604587
364.832603	2647.828249
365.220665	2648.775986
365.608665	2648.967550
365.996601	2648.836480
366.384474	2652.231697
366.772284	2651.730102
367.160031	2651.646923
367.547715	2653.376039
367.935336	2650.502581
368.322893	2650.830256
368.710388	2648.612148
369.097820	2651.104999
369.485189	2649.822025
369.872495	2655.183292
370.259738	2655.432830
370.646918	2654.880823
371.034035	2655.079949
371.421090	2658.152532
371.808081	2656.945176
372.195010	2658.255876
372.581875	2658.623880
372.968678	2659.667399
373.355418	2659.725372
373.742096	2658.578510
374.128710	2659.551452
374.515262	2660.922646
374.901751	2662.034221
375.288177	2661.527585
375.674540	2661.651093
376.060841	2663.286947
376.447079	2664.519509
376.833254	2666.714932
377.219367	2666.210817
377.605417	2669.238029
377.991404	2668.675941
378.377329	2674.944616
378.763191	2674.117866
379.148991	2681.997190
379.534727	2689.311904
379.920402	2697.599561
380.306013	2707.374358
380.691563	2722.308777
381.077049	2735.433421
381.462474	2757.440578
381.847835	2783.047119
382.233134	2810.902014
382.618371	2837.347907
383.003545	2877.543548
383.388657	2908.324833
383.773706	2956.460290
384.158693	2995.204078
384.543618	3033.078267
384.928480	3083.847727
385.313280	3141.568939
385.698017	3180.317768
386.082692	3257.911208
386.467305	3290.981177
386.851856	3342.136286
387.236344	3422.605704
387.620770	3471.235195
388.005133	3540.281358
388.389435	3603.552880
388.773674	3644.754231
389.157851	3728.293712
389.541965	3817.519614
389.926018	3823.269050
390.310008	3930.338117
390.693936	4005.693284
391.077802	4064.515988
391.461606	4090.367025
391.845348	4178.604861
392.229027	4258.141666
392.612645	4281.502373
392.996200	4394.691400
393.379694	4476.491683
393.763125	4589.037963
394.146494	4635.106548
394.529801	4712.331984
394.913047	4806.026869
395.296230	4772.367085
395.679351	4891.950816
396.062410	4959.131753
396.445408	4946.589362
396.828343	5012.262993
397.211217	5076.520061
397.594028	4969.410665
397.976778	5091.217545
398.359466	5146.899610
398.742092	5168.826108
399.124656	5090.882308
399.507158	5214.466195
399.889598	5279.169404
400.271977	5404.721862
400.654294	5401.339247
401.036549	5444.143685
401.418742	5365.035378
401.800874	5570.835442
402.182944	5632.012365
402.564952	5738.126133
402.946898	5797.105112
403.328783	5639.264065
403.710606	5655.892311
404.092367	5979.874666
404.474067	6000.374518
404.855705	5902.666874
405.237282	5838.740002
405.618797	6087.843578
406.000250	6071.026289
406.381642	6275.596312
406.762972	6297.807636
407.144240	6353.005750
407.525447	6338.351116
407.906593	6358.800556
408.287677	6519.005905
408.668700	6426.490649
409.049661	6547.251490
409.430560	6572.966416
409.811399	6435.529438
410.192176	6706.304935
410.572891	6713.541511
410.953545	6912.178096
411.334138	6639.832280
411.714669	6812.748898
412.095139	6608.546879
412.475547	6852.579055
412.855894	6919.263438
413.236180	7100.792867
413.616405	6775.146932
413.996568	7001.033474
414.376670	7035.298197
414.756711	6932.781292
415.136691	7027.121445
415.516609	7229.470840
415.896466	7218.395425
416.276262	7417.210971
416.655997	7399.153558
417.035670	7583.861435
417.415283	7925.709639
417.794834	7983.897157
418.174324	7843.435487
418.553753	7765.655525
418.933121	8071.772030
419.312428	8174.450252
419.691674	7950.706200
420.070859	8430.611443
420.449983	8114.021941
420.829045	8472.047207
421.208047	8247.221828
421.586988	8549.587715
421.965867	8571.045387
422.344686	8673.484153
422.723444	8722.179179
423.102141	8077.992814
423.480777	8839.864915
423.859352	8359.516051
424.237866	8976.694434
424.616319	8842.370369
424.994712	9269.777036
425.373044	8818.573602
425.751314	9289.568606
426.129524	9164.530347
426.507673	9268.277293
426.885762	9425.543649
427.263789	9338.740021
427.641756	9267.069936
428.019662	9357.228452
428.397508	9618.687897
428.775292	9294.390470
429.153016	9679.131331
429.530679	9503.474846
429.908282	9536.033138
430.285824	9255.422350
430.663305	9942.609757
431.040726	9391.485613
431.418086	9372.793015
431.795385	9701.420793
432.172624	9796.602819
432.549802	9705.799035
432.926920	9780.564388
433.303977	9651.662084
433.680974	9862.457932
434.057910	9955.197519
434.434786	10023.006079
434.811601	9856.325368
435.188355	10421.859651
435.565050	10154.847376
435.941683	10075.212268
436.318257	10569.915819
436.694770	10722.814015
437.071222	10774.334607
437.447614	10613.932653
437.823946	10520.230206
438.200218	10632.085848
438.576429	10473.072733
438.952580	10716.474764
439.328670	10750.852912
439.704700	10540.803155
440.080670	10531.313183
440.456580	11065.988042
440.832429	10843.978148
441.208218	10439.415469
441.583947	10746.996430
441.959616	10922.022771
442.335224	10727.386341
442.710773	10845.470329
443.086261	11080.776267
443.461689	10339.474594
443.837057	11021.157061
444.212365	11266.807447
444.587612	10912.547922
444.962800	11129.587239
445.337927	10883.704960
445.712995	10515.718374
446.088002	11573.465877
446.462949	11257.665314
446.837837	11231.695810
447.212664	11171.108703
447.587431	11736.035526
447.962139	12487.217861
448.336786	14779.180978
448.711374	15285.562361
449.085901	13108.547634
449.460369	12744.987181
449.834776	12186.487828
450.209124	13105.404475
450.583412	13514.259696
450.957640	14458.205671
451.331808	13530.585473
451.705917	12565.121332
452.079965	11834.176709
452.453954	12758.487391
452.827883	12404.963874
453.201752	12691.009026
453.575562	12222.227088
453.949311	12638.732260
454.323001	12612.054474
454.696632	12851.663037
455.070202	13130.096046
455.443713	13343.367101
455.817164	13824.537674
456.190556	13802.021360
456.563888	14159.902954
456.937160	14323.662316
457.310373	13667.558664
457.683526	13774.426084
458.056619	13301.517962
458.429653	13494.621881
458.802628	12871.419319
459.175542	13281.159263
459.548398	14230.224530
459.921194	14573.648094
460.293930	14657.777390
460.666607	15503.599827
461.039224	16575.419710
461.411782	17288.473278
461.784280	17086.443996
462.156719	17187.183894
462.529099	16858.727515
462.901419	15799.316432
463.273680	15575.302678
463.645882	15465.496265
464.018024	15200.724783
464.390106	15414.860395
464.762130	16137.766898
465.134094	16926.425170
465.505999	18968.843610
465.877845	22241.288465
466.249631	25057.811365
466.621358	24687.679768
466.993026	23255.089709
467.364634	22678.248118
467.736184	21207.284796
468.107674	20410.732077
468.479105	20535.528361
468.850477	20003.424490
469.221790	19614.212125
469.593043	18911.399662
469.964238	18335.974636
470.335373	17989.796080
470.706449	18476.895050
471.077467	18048.333959
471.448425	19919.758981
471.819324	24037.444018
472.190164	25925.630877
472.560945	22265.181013
472.931667	19956.372881
473.302330	19323.788732
473.672934	18940.799671
474.043479	19192.151602
474.413965	19009.818108
474.784393	18604.756356
475.154761	19359.089412
475.525070	19290.749009
475.895321	18999.889556
476.265513	19597.563715
476.635645	20183.013076
477.005719	19950.121850
477.375734	20127.010897
477.745691	20627.781477
478.115588	21163.880462
478.485427	21714.583670
478.855207	22806.797541
479.224928	24598.322795
479.594591	26819.263616
479.964194	26764.821675
480.333739	26990.574627
480.703226	26560.322228
481.072653	26261.830468
481.442022	26878.819808
481.811333	27804.244584
482.180584	27702.816568
482.549777	26732.218012
482.918912	26407.923106
483.287988	26556.027165
483.657005	26178.064135
484.025964	25959.454498
484.394864	25833.027401
484.763706	25493.215823
485.132489	24959.644977
485.501213	25140.617358
485.869879	25048.023965
486.238487	24881.728903
486.607036	25018.331569
486.975527	24750.041361
487.343959	25048.117227
487.712333	24967.214269
488.080648	24620.695436
488.448905	25134.615865
488.817104	24884.156218
489.185244	25604.262360
489.553326	25545.258175
489.921350	26579.748314
490.289315	28935.918087
490.657222	30644.962502
491.025070	31159.419814
491.392861	30918.356878
491.760593	30048.901513
492.128267	29145.146136
492.495883	28080.726666
492.863440	27214.611065
493.230939	26352.790527
493.598380	26187.642327
493.965763	25791.604240
494.333088	25306.405785
494.700354	25272.592246
495.067563	25126.028259
495.434713	24872.105340
495.801805	25060.694905
496.168839	24814.137112
496.535815	24680.251627
496.902733	24901.822942
497.269593	24597.259112
497.636395	24757.469502
498.003139	24697.938516
498.369825	24435.916983
498.736453	24653.614171
499.103023	24531.363669
499.469535	24528.959039
499.835989	24753.376085
500.202385	24772.804692
500.568723	24297.862464
500.935003	24498.185315
501.301226	24177.565410
501.667390	25016.630180
502.033497	25229.266049
502.399546	24957.217661
502.765537	24494.759851
503.131470	24887.039758
503.497345	25020.819378
503.863163	24275.935966
504.228923	24802.139166
504.594625	25052.873555
504.960269	24600.543423
505.325856	25086.649286
505.691385	24481.725948
506.056856	25094.803352
506.422270	25079.700055
506.787625	24604.780513
507.152924	25035.983169
507.518164	25071.863582
507.883347	24889.978751
508.248472	24558.681682
508.613540	25339.364849
508.978550	25145.197247
509.343503	25153.789893
509.708398	25372.510435
510.073236	25531.909199
510.438016	25735.380251
510.802738	25398.099332
511.167403	25661.053479
511.532010	25401.575208
511.896561	26149.667315
512.261053	26120.831915
512.625488	25939.768793
512.989866	25830.476577
513.354186	25655.069629
513.718449	25792.393180
514.082655	26176.720667
514.446803	25886.352726
514.810894	26387.309828
515.174927	25861.295671
515.538904	25901.410653
515.902822	26394.916929
516.266684	26146.216645
516.630488	26057.762039
516.994235	26008.517528
517.357925	26338.440883
517.721558	26501.108835
518.085133	26625.690870
518.448651	26504.020101
518.812112	26269.896314
519.175516	26488.551321
519.538863	26626.240356
519.902152	26422.171928
520.265385	26680.836052
520.628560	26489.131053
520.991678	26468.215306
521.354739	26529.505655
521.717743	26616.538655
522.080690	26388.824695
522.443580	26725.581333
522.806413	26706.228344
523.169189	26821.176734
523.531908	26857.876334
523.894569	26491.752453
524.257174	26572.032828
524.619722	26709.384106
524.982213	26427.266013
525.344647	26464.061395
525.707025	26629.731355
526.069345	26587.423471
526.431608	26551.054067
526.793815	26727.350778
527.155964	26219.121812
527.518057	26406.347746
527.880093	26304.118187
528.242072	26519.594746
528.603995	26250.175320
528.965860	26044.171089
529.327669	26086.277326
529.689421	26074.871716
530.051117	25912.874237
530.412755	26089.019714
530.774337	25852.551790
531.135862	25750.362560
531.497331	25937.961539
531.858743	25536.534458
532.220098	25991.861556
532.581396	25687.476687
532.942638	25581.073052
533.303824	25692.971544
533.664953	25692.868201
534.026025	25359.403435
534.387040	25609.381652
534.747999	25652.261706
535.108902	25818.980226
535.469748	25309.627082
535.830537	25472.998276
536.191270	25616.023372
536.551947	25449.128412
536.912567	25079.775673
537.273131	25496.684137
537.633638	25162.770709
537.994089	25394.353755
538.354483	24897.593414
538.714821	25407.793471
539.075103	25457.937828
539.435328	25223.433434
539.795497	24814.603419
540.155609	25161.616285
540.515665	25481.848021
540.875665	24702.314237
541.235609	25036.089033
541.595496	24962.435255
541.955328	25329.847150
542.315102	25244.129891
542.674821	24756.325160
543.034483	24642.445494
543.394090	24812.440764
543.753640	24627.211127
544.113134	25259.326449
544.472571	24846.897050
544.831953	25144.400744
545.191278	24797.844103
545.550548	24674.703838
545.909761	24871.903694
546.268918	25120.135150
546.628019	25091.584576
546.987064	24767.234217
547.346053	24524.043914
547.704986	24612.826195
548.063863	24781.709890
548.422684	24812.534025
548.781449	24309.459639
549.140158	24728.011519
549.498811	24297.673421
549.857408	24058.468150
550.215949	24440.050729
550.574434	24144.664319
550.932864	24342.184289
551.291237	24531.872826
551.649555	24378.531008
552.007817	24433.172075
552.366022	24282.300422
552.724173	24301.091323
553.082267	24281.665237
553.440305	24772.746718
553.798288	24004.489996
554.156215	24488.160981
554.514086	24617.554797
554.871902	24015.376367
555.229661	24294.263080
555.587365	24131.867350
555.945014	24027.477657
556.302606	24246.881275
556.660143	24228.057607
557.017625	24469.019720
557.375050	23976.536797
557.732421	24366.868299
558.089735	24195.506877
558.446994	24245.424382
558.804197	24285.294868
559.161345	24189.137379
559.518437	23980.569721
559.875474	24146.920236
560.232455	24315.118334
560.589381	24140.142404
560.946251	24147.056347
561.303065	24451.257214
561.659825	24542.302973
562.016528	24141.264061
562.373177	23882.431058
562.729770	24239.135542
563.086307	24091.311268
563.442789	24256.028449
563.799216	24102.227886
564.155587	24094.356125
564.511904	24078.239556
564.868164	24028.420353
565.224370	23985.661286
565.580520	23935.300159
565.936615	24046.021542
566.292654	23754.126131
566.648638	23990.344518
567.004567	23834.935827
567.360441	23769.617597
567.716260	23504.520960
568.072023	23819.630884
568.427732	23603.272123
568.783385	23365.395196
569.138982	23603.546866
569.494525	23638.658502
569.850013	23395.596749
570.205445	23493.962263
570.560823	23314.189676
570.916145	23072.010125
571.271412	23263.379886
571.626625	23006.601153
571.981782	23112.379685
572.336884	22923.122166
572.691931	23053.433473
573.046923	22802.386532
573.401860	22680.279703
573.756743	22714.604920
574.111570	22602.996294
574.466342	22513.853571
574.821059	22601.088218
575.175722	22306.067292
575.530330	22273.796345
575.884882	22280.881687
576.239380	22201.748174
576.593823	22099.647165
576.948211	22070.660530
577.302544	21917.895925
577.656823	21788.219804
578.011047	21890.293087
578.365216	21757.917428
578.719330	21628.586626
579.073389	21526.669619
579.427394	21681.123011
579.781344	21423.210018
580.135239	21318.595994
580.489080	21265.043817
580.842866	21051.024151
581.196597	21258.717168
581.550273	21224.969164
581.903895	21098.531984
582.257463	21399.877038
582.610975	20950.722833
582.964434	21279.164088
583.317837	20947.993048
583.671186	21034.816841
584.024481	21026.347702
584.377721	20782.481885
584.730906	20872.479084
585.084037	20852.430415
585.437113	20775.583066
585.790135	20985.466465
586.143103	20435.640418
586.496016	20464.911878
586.848874	20686.737771
587.201679	20601.665779
587.554428	20306.624688
587.907124	20642.930144
588.259765	20409.804505
588.612352	20481.061214
588.964884	20047.549710
589.317362	20210.694051
589.669786	20278.187540
590.022155	20280.887078
590.374470	20518.713592
590.726731	20280.766090
591.078937	20066.569983
591.431090	20145.496809
591.783188	19917.848383
592.135232	19875.666528
592.487222	19978.049842
592.839157	19986.216512
593.191038	19861.609271
593.542866	19759.140257
593.894639	19469.019333
594.246358	19682.852476
594.598022	19566.341328
594.949633	19321.643721
595.301190	19308.047729
595.652692	19468.855495
596.004141	19693.695998
596.355535	19025.145737
596.706876	19047.379746
597.058162	18937.608621
597.409395	19182.354119
597.760573	19223.948680
598.111698	19007.761318
598.462768	18953.803328
598.813785	18928.673176
599.164748	18720.667606
599.515657	18780.107851
599.866511	18573.425585
600.217312	18915.462832
600.568060	18431.698585
600.918753	18739.579495
601.269392	18647.220515
601.619978	18450.849929
601.970510	18631.023288
602.320988	18578.895237
602.671412	18778.477038
603.021783	18718.177276
603.372100	18428.915868
603.722363	18570.768897
604.072572	18522.300723
604.422728	18666.162651
604.772830	18408.584895
605.122878	18377.385194
605.472872	18357.223099
605.822813	18336.385490
606.172701	18320.747830
606.522534	18509.503754
606.872314	18537.537610
607.222041	18371.943268
607.571714	18583.318849
607.921333	18404.577178
608.270899	18483.123396
608.620411	18639.184916
608.969870	18443.835163
609.319276	18436.165048
609.668627	18466.538000
610.017926	18589.065764
610.367171	18702.637919
610.716362	18763.797198
611.065500	18583.104600
611.414585	18728.297393
611.763616	18699.683803
612.112594	18640.241038
612.461518	18610.558724
612.810389	18798.858423
613.159207	18647.996853
613.507971	18574.408610
613.856682	18828.583587
614.205340	18744.282891
614.553945	18903.787520
614.902496	18649.604981
615.250994	18855.737762
615.599439	18813.928952
615.947830	18799.221386
616.296169	18871.776193
616.644454	18826.544440
616.992686	18807.924938
617.340864	19020.311270
617.688990	18757.679758
618.037063	18939.783879
618.385082	18795.929512
618.733048	19074.458304
619.080961	18960.147620
619.428821	18984.345158
619.776628	18863.014667
620.124382	18793.943298
620.472083	18850.658799
620.819731	18848.725517
621.167326	18545.961378
621.514868	18588.506196
621.862357	18365.493112
622.209793	18362.836424
622.557176	18199.218214
622.904506	18031.551958
623.251783	17956.756358
623.599007	17709.734778
623.946179	17643.879665
624.293297	17578.808451
624.640363	17312.655693
624.987376	17340.568562
625.334336	17144.906258
625.681243	16987.970097
626.028097	17011.045979
626.374899	16918.845796
626.721647	16780.919826
627.068343	16629.665046
627.414987	16555.489509
627.761577	16524.441042
628.108115	16561.077628
628.454600	16286.861544
628.801032	16383.475257
629.147412	16321.645505
629.493739	16330.225549
629.840014	16137.706404
630.186236	16229.364663
630.532405	15998.651217
630.878521	16206.245932
631.224585	16099.512102
631.570597	15930.779642
631.916556	15956.943230
632.262462	15923.525421
632.608316	15837.374623
632.954117	15795.361647
633.299866	15775.625529
633.645562	15697.943869
633.991206	15457.518639
634.336797	15323.766745
634.682336	15300.625329
635.027823	15162.908567
635.373257	15032.100707
635.718639	14953.108347
636.063968	14898.626077
636.409245	14653.252955
636.754470	14683.789744
637.099642	14521.709086
637.444762	14300.939315
637.789829	14340.577908
638.134845	14176.150593
638.479808	14210.402713
638.824719	14125.915495
639.169577	13991.654444
639.514383	14025.077294
639.859137	13859.548487
640.203839	13952.887971
640.548489	13797.282676
640.893086	13781.871868
641.237632	13660.112879
641.582125	13813.926045
641.926566	13637.168068
642.270955	13645.980005
642.615292	13608.080610
642.959576	13612.743677
643.303809	13643.383810
643.647990	13572.353953
643.992118	13645.385148
644.336195	13413.487030
644.680219	13636.744611
645.024192	13548.290005
645.368112	13782.307928
645.711981	13822.014576
646.055797	14011.798895
646.399562	13992.695443
646.743274	14252.506430
647.086935	14532.716446
647.430544	14490.995856
647.774101	14535.874728
648.117606	14669.162836
648.461059	14646.969156
648.804460	14630.396363
649.147810	14350.972767
649.491108	14266.185601
649.834354	14278.813691
650.177548	13953.535760
650.520690	13766.670269
650.863781	13693.860884
651.206820	13746.535900
651.549807	13575.116505
651.892742	13355.261703
652.235626	13298.049648
652.578458	13305.432418
652.921238	13008.939475
653.263967	13197.350080
653.606644	13022.979089
653.949269	13010.124147
654.291843	12799.174543
654.634365	12972.663332
654.976836	12817.715907
655.319255	12811.916060
655.661622	12774.482972
656.003938	12698.212835
656.346203	12616.808282
656.688416	12698.376672
657.030577	12658.221361
657.372687	12556.634549
657.714746	12553.584651
658.056753	12738.388310
658.398708	12545.095348
658.740612	12552.452912
659.082465	12656.940908
659.424266	12634.618679
659.766016	12657.490394
660.107715	12573.431674
660.449362	12653.270948
660.790958	12598.375303
661.132503	12532.411805
661.473996	12610.673198
661.815438	12621.642749
662.156829	12650.457984
662.498168	12619.618726
662.839456	12622.230043
663.180693	12638.946509
663.521879	12738.443763
663.863013	12708.743805
664.204097	12678.431347
664.545129	12814.537460
664.886110	12781.722069
665.227040	12879.477603
665.567918	12876.430226
665.908746	12899.279256
666.249522	12888.554201
666.590248	12942.383642
666.930922	13058.123493
667.271545	13027.949667
667.612118	13114.221453
667.952639	13012.977440
668.293109	13044.981205
668.633528	12980.376298
668.973896	12964.849544
669.314213	13033.048794
669.654480	12767.974842
669.994695	12857.243594
670.334859	12882.671174
670.674973	12818.325887
671.015035	12852.366278
671.355047	12797.233699
671.695008	12766.487702
672.034918	12789.772791
672.374777	12832.355418
672.714585	12739.136922
673.054342	12777.013631
673.394049	12725.553532
673.733705	12827.203359
674.073310	12718.100187
674.412864	12735.756828
674.752368	12585.364085
675.091820	12636.499029
675.431223	12606.451232
675.770574	12474.887199
676.109875	12395.070610
676.449125	12352.450175
676.788324	12305.945530
677.127473	12127.037501
677.466571	12124.683282
677.805619	12018.730831
678.144616	11947.660644
678.483562	11916.856674
678.822458	11792.972838
679.161303	11768.150197
679.500098	11753.583783
679.838842	11709.803882
680.177535	11747.282341
680.516179	11813.681898
680.854771	11752.658731
681.193314	11961.803601
681.531805	12136.051084
681.870247	12568.564440
682.208638	12990.211589
682.546978	13279.185651
682.885268	13304.058704
683.223508	13021.532278
683.561697	12851.844519
683.899836	12766.477619
684.237925	12555.782594
684.575963	12470.856796
684.913951	12387.962583
685.251889	12341.268895
685.589776	12442.260851
685.927614	12356.483098
686.265401	12334.937206
686.603137	12389.618602
686.940824	12543.177189
687.278460	12674.947910
687.616046	12711.221532
687.953582	12857.888862
688.291068	12807.016058
688.628504	13039.226728
688.965889	13039.617417
689.303224	12995.434224
689.640510	12882.651010
689.977745	12559.311402
690.314930	12339.685973
690.652065	12250.704567
690.989150	11957.327057
691.326185	11730.097047
691.663170	11523.671879
692.000105	11292.166971
692.336990	11165.374390
692.673825	10905.087014
693.010610	10799.666405
693.347345	10584.822511
693.684030	10398.771166
694.020665	10334.932514
694.357251	10137.856167
694.693786	10058.694928
695.030272	9916.138659
695.366707	9791.002097
695.703093	9731.130833
696.039429	9724.136232
696.375716	9629.032344
696.711952	9504.183128
697.048139	9555.277743
697.384276	9511.452472
697.720363	9534.611533
698.056400	9468.247263
698.392388	9408.325588
698.728326	9371.290751
699.064214	9316.478285
699.400053	9352.399027
699.735842	9167.789453
700.071581	9133.376016
700.407270	9055.162514
700.742910	8976.548240
701.078501	8878.200370
701.414042	8747.889063
701.749533	8691.874282
702.084974	8553.446718
702.420366	8674.454575
702.755709	8545.327940
703.091002	8417.512005
703.426246	8447.945451
703.761440	8397.702791
704.096584	8359.327007
704.431679	8289.864948
704.766725	8273.087988
705.101721	8233.998882
705.436668	8279.248278
705.771565	8164.148654
706.106413	8255.194413
706.441212	8284.864124
706.775961	8244.681087
707.110661	8297.966083
707.445311	8430.530785
707.779913	8324.769898
708.114465	8452.225390
708.448967	8489.129157
708.783421	8653.322058
709.117825	8815.485895
709.452180	8859.351496
709.786485	8944.010113
710.120742	9225.971930
710.454949	9229.515861
710.789107	9339.987706
711.123216	9570.968334
711.457275	9736.171987
711.791286	9877.132731
712.125247	9885.760666
712.459159	9865.926246
712.793023	10096.811092
713.126837	9672.708901
713.460602	9835.187810
713.794318	9661.552828
714.127985	9694.597591
714.461602	9343.191359
714.795171	9304.434969
715.128691	9052.026916
715.462162	8809.103795
715.795584	8747.289166
716.128957	8583.638189
716.462281	8420.970237
716.795556	8468.876322
717.128782	8260.464939
717.461960	8005.644695
717.795088	8074.837052
718.128167	7979.067732
718.461198	7814.317783
718.794180	7766.441945
719.127113	7760.790811
719.459997	7578.827843
719.792833	7366.134000
720.125619	7432.818383
720.458357	7284.449664
720.791046	7279.796679
721.123686	7269.464834
721.456278	7108.127746
721.788821	7128.690613
722.121315	7025.919130
722.453761	7099.290603
722.786158	7033.969853
723.118506	7042.958230
723.450805	7004.718557
723.783056	7069.174750
724.115259	6986.696432
724.447412	6988.934705
724.779518	7041.282046
725.111574	7035.603186
725.443582	7109.609845
725.775542	7091.320539
726.107453	7290.625077
726.439315	7196.000099
726.771129	7271.882067
727.102895	7452.070550
727.434612	7551.739202
727.766281	7595.672858
728.097901	7667.103487
728.429473	7670.085330
728.760996	7656.234760
729.092471	7624.898948
729.423897	7561.929895
729.755276	7566.237561
730.086606	7479.738923
730.417887	7590.465346
730.749120	7809.629510
731.080305	7997.762851
731.411442	8103.702699
731.742530	8090.094104
732.073570	8198.302471
732.404562	8285.103579
732.735506	8150.305645
733.066401	8275.931199
733.397249	8194.879528
733.728048	7954.955893
734.058798	7620.860983
734.389501	7392.441261
734.720156	7213.170269
735.050762	6989.285065
735.381320	6911.631131
735.711831	6839.721592
736.042293	6739.218628
736.372707	6746.208188
736.703073	6618.750175
737.033391	6657.844323
737.363661	6668.917217
737.693883	6707.585388
738.024056	6793.428676
738.354182	6828.822617
738.684260	6860.307144
739.014290	6987.543346
739.344272	7096.359172
739.674207	7126.028883
740.004093	7197.870367
740.333931	7208.053498
740.663722	7220.124541
740.993464	7294.151364
741.323159	7267.501304
741.652806	7022.970055
741.982405	7060.125879
742.311956	7095.499656
742.641460	6921.116062
742.970915	6722.605506
743.300323	6717.992850
743.629683	6677.383835
743.958996	6537.315376
744.288260	6444.490089
744.617477	6396.180712
744.946647	6388.694598
745.275768	6232.779272
745.604842	6186.751017
745.933869	6166.656977
746.262847	6124.432273
746.591778	6117.392301
746.920662	6074.834881
747.249498	6069.397996
747.578286	6120.149813
747.907027	6191.023394
748.235720	6251.071098
748.564365	6228.670731
748.892963	6265.519045
749.221514	6403.303862
749.550017	6219.168156
749.878473	6112.275530
750.206881	6175.605025
750.535242	6115.443895
750.863555	6047.572321
751.191821	6054.670265
751.520039	6053.251180
751.848210	5963.737932
752.176334	5998.587429
752.504411	6038.639396
752.832440	5961.058559
753.160421	5892.065327
753.488356	5944.354696
753.816243	5965.814888
754.144082	5817.690664
754.471875	5795.350791
754.799620	5837.399055
755.127318	5850.193503
755.454969	5804.228263
755.782572	5770.477738
756.110129	5820.271735
756.437638	5791.403567
756.765100	5731.882664
757.092515	5741.181072
757.419882	5796.374145
757.747203	5768.710813
758.074477	5832.488971
758.401703	5815.548174
758.728882	5768.037819
759.056014	5840.096072
759.383099	5959.672242
759.710138	5968.143901
760.037129	5959.735256
760.364073	5962.336491
760.690970	6043.597371
761.017820	6021.565008
761.344623	5980.928267
761.671379	6084.861736
761.998088	6213.879986
762.324751	6477.411344
762.651366	7113.163859
762.977935	8479.588773
763.304456	10138.720724
763.630931	10997.226704
763.957359	10535.981292
764.283740	9573.468747
764.610074	8710.367755
764.936362	7700.274280
765.262602	7115.984384
765.588796	6577.785759
765.914943	6251.522282
766.241044	6080.765798
766.567097	5869.796030
766.893104	5611.749447
767.219064	5439.437768
767.544978	5375.722624
767.870845	5290.103667
768.196665	5182.346483
768.522438	5110.293271
768.848165	5081.384774
769.173846	5012.555380
769.499479	4966.181806
769.825066	4915.248508
770.150607	4851.553529
770.476101	4834.683308
770.801548	4821.919107
771.126949	4744.688630
771.452303	4689.687121
771.777611	4652.712778
772.102872	4670.233308
772.428087	4632.021362
772.753256	4588.319599
773.078378	4539.059964
773.403453	4475.866580
773.728482	4457.892346
774.053465	4414.150254
774.378401	4403.016866
774.703291	4398.779776
775.028135	4321.186336
775.352932	4275.027011
775.677683	4266.648613
776.002388	4283.579328
776.327046	4288.771717
776.651658	4215.301941
776.976224	4154.112415
777.300743	4159.524094
777.625216	4184.692055
777.949643	4167.695804
778.274024	4134.499806
778.598359	4091.322324
778.922647	4121.269298
779.246889	4108.331177
779.571086	4098.513530
779.895236	4081.179522
780.219339	4072.528902
780.543397	4068.034713
780.867409	4122.627889
781.191374	4132.027120
781.515294	4066.361050
781.839167	4064.994898
782.162995	4085.068772
782.486776	4073.206937
782.810511	4085.167075
783.134201	4073.176690
783.457844	4024.098537
783.781441	3973.944097
784.104993	3977.530878
784.428498	3995.686594
784.751958	3991.883043
785.075372	3970.067450
785.398739	3937.010084
785.722061	3947.064665
786.045337	3994.365812
786.368568	4017.567722
786.691752	3932.299126
787.014891	3992.641737
787.337983	4124.677118
787.661030	4287.113177
787.984031	4445.390285
788.306987	4619.554588
788.629897	4699.429150
788.952760	4656.813756
789.275579	4591.593828
789.598351	4512.679606
789.921078	4367.259962
790.243759	4168.010877
790.566395	4156.025533
790.888984	4147.886590
791.211529	4038.196124
791.534027	3977.808142
791.856480	3964.189465
792.178888	3902.304260
792.501249	3857.548896
792.823566	3872.808469
793.145836	3894.719844
793.468062	3841.455013
793.790241	3801.403045
794.112375	3828.373218
794.434464	3894.266140
794.756507	3918.123401
795.078505	3893.653640
795.400457	3937.945218
795.722364	4083.596755
796.044226	4178.851878
796.366042	4257.614866
796.687812	4231.630238
797.009538	4232.683839
797.331218	4196.760577
797.652852	4171.390970
797.974442	4147.808453
798.295986	4141.801918
798.617484	4058.716141
798.938938	3979.030622
799.260346	4021.845141
799.581709	4010.028677
799.903026	3935.069240
800.224299	3900.237387
800.545526	3895.836460
800.866708	3851.287783
801.187845	3800.077222
801.508936	3830.671985
801.829983	3823.299297
802.150984	3746.169643
802.471940	3744.163264
802.792851	3747.500508
803.113717	3749.771548
803.434538	3745.799118
803.755314	3688.476158
804.076045	3668.167870
804.396731	3689.376004
804.717372	3714.198646
805.037967	3695.223742
805.358518	3687.760314
805.679024	3716.671332
805.999485	3730.166500
806.319901	3734.816965
806.640272	3748.067638
806.960598	3761.494751
807.280879	3734.365782
807.601115	3750.099223
807.921306	3769.409363
808.241453	3805.393119
808.561554	3773.543109
808.881611	3712.381310
809.201623	3756.060387
809.521590	3763.299484
809.841513	3734.643045
810.161390	3764.247221
810.481223	3738.139085
810.801011	3687.414995
811.120755	3687.551106
811.440453	3715.610169
811.760107	3715.393399
812.079716	3669.526461
812.399281	3643.057882
812.718801	3665.783404
813.038276	3638.964466
813.357707	3636.448930
813.677093	3655.764111
813.996434	3597.682457
814.315731	3612.543778
814.634983	3616.896815
814.954191	3631.516161
815.273354	3658.655212
815.592473	3652.000889
815.911547	3663.741737
816.230577	3704.996019
816.549562	3761.023403
816.868502	3796.513126
817.187399	3819.984738
817.506250	3818.235458
817.825058	3797.831388
818.143821	3896.383425
818.462539	3993.783558
818.781213	4035.962893
819.099843	4101.838171
819.418429	4366.445815
819.736970	4614.057210
820.055466	4864.277402
820.373919	5236.947220
820.692327	5652.280324
821.010691	6137.655219
821.329011	7617.304449
821.647286	10498.278502
821.965517	15212.107708
822.283704	19222.746365
822.601847	21228.679453
822.919945	19305.020516
823.237999	16644.843961
823.556010	14136.254901
823.873976	11982.280768
824.191897	9876.341270
824.509775	8540.536323
824.827609	7411.708551
825.145398	6889.049282
825.463144	6769.049656
825.780845	6881.328755
826.098502	7108.785617
826.416116	8048.781848
826.733685	9414.264067
827.051210	10510.931798
827.368692	10460.046391
827.686129	9128.821333
828.003522	7624.611602
828.320872	6597.312668
828.638177	5883.976796
828.955439	5312.582172
829.272656	4812.083815
829.589830	4541.683885
829.906960	4362.680073
830.224046	4171.133871
830.541088	4048.767423
830.858086	3999.182634
831.175041	3921.984925
831.491952	3912.749531
831.808819	3924.321500
832.125642	4003.054240
832.442421	4161.780010
832.759157	4452.548723
833.075849	5031.991549
833.392497	5924.691675
833.709101	6711.704011
834.025662	7025.299068
834.342179	6604.950016
834.658653	5924.290903
834.975083	5265.356643
835.291469	4685.187891
835.607811	4280.050521
835.924110	4139.377123
836.240366	3935.104528
836.556578	3731.477200
836.872746	3623.997280
837.188871	3580.446752
837.504952	3513.515352
837.820990	3427.364553
838.136984	3385.981722
838.452935	3412.505753
838.768842	3405.556522
839.084706	3430.169956
839.400526	3603.419290
839.716303	3962.760298
840.032037	4514.703629
840.347727	4749.074433
840.663373	4435.794448
840.978977	4048.888411
841.294537	3736.720000
841.610054	3514.057276
841.925527	3406.287489
842.240957	3337.148064
842.556344	3282.595218
842.871687	3222.711351
843.186987	3172.831655
843.502244	3133.041827
843.817458	3098.784666
844.132629	3071.839699
844.447756	3078.236923
844.762840	3062.871486
845.077881	3029.226826
845.392879	3012.558250
845.707833	3012.553209
846.022745	3009.949453
846.337613	3007.159175
846.652438	2997.056702
846.967221	2991.576968
847.281960	2978.366624
847.596656	2974.878146
847.911309	2977.156748
848.225919	2968.266673
848.540485	2967.029069
848.855009	2963.401959
849.169490	2950.763787
849.483928	2943.325564
849.798323	2946.733384
850.112675	2941.518310
850.426984	2954.587502
850.741251	2948.873354
851.055474	2936.751899
851.369654	2933.984306
851.683792	2938.896910
851.997887	2945.899073
852.311938	2948.840586
852.625947	2936.575459
852.939914	2941.956891
853.253837	2945.677262
853.567718	2929.364088
853.881555	2932.310643
854.195350	2947.303034
854.509103	2939.524534
854.822812	2931.735951
855.136479	2926.014242
855.450103	2930.851229
855.763685	2925.389139
856.077224	2924.464087
856.390720	2935.262238
856.704173	2945.649536
857.017584	2936.739297
857.330953	2934.395160
857.644278	2944.081737
857.957561	2954.930300
858.270802	2955.754529
858.584000	2955.593212
858.897155	2940.855399
859.210268	2939.884977
859.523339	2939.499328
859.836367	2938.665017
860.149352	2931.483894
860.462295	2926.588933
860.775195	2936.177208
861.088054	2934.604368
861.400869	2917.555186
861.713642	2915.349681
862.026373	2930.967175
862.339062	2935.053031
862.651708	2940.651232
862.964312	2943.103753
863.276873	2937.818103
863.589392	2947.260185
863.901869	2961.269551
864.214303	2984.857110
864.526696	2994.359685
864.839045	2990.203254
865.151353	2990.130157
865.463619	2990.026813
865.775842	2992.640652
866.088023	3012.528003
866.400162	3016.185361
866.712258	2987.748212
867.024313	2976.919813
867.336325	2985.976246
867.648296	3010.438445
867.960224	3000.066271
868.272110	2985.215032
868.583954	2989.951196
868.895755	3006.980214
869.207515	2990.795589
869.519233	3001.588700
869.830909	3009.520955
870.142542	3017.475896
870.454134	3018.118643
870.765684	3020.702234
871.077191	3022.232225
871.388657	3030.298071
871.700081	3044.123435
872.011463	3055.851680
872.322803	3053.197512
872.634101	3052.063253
872.945357	3070.995306
873.256571	3099.492948
873.567744	3088.914087
873.878874	3086.015424
874.189963	3108.342694
874.501010	3105.975872
874.812015	3096.062443
875.122979	3098.207454
875.433900	3093.801486
875.744780	3102.000923
876.055618	3109.519803
876.366415	3104.708022
876.677169	3116.849641
876.987882	3112.128601
877.298554	3109.786985
877.609183	3134.468474
877.919771	3155.875734
878.230317	3183.831452
878.540822	3236.471181
878.851285	3275.525000
879.161707	3322.344716
879.472087	3436.262190
879.782425	3681.317720
880.092722	4138.300836
880.402977	4681.981717
880.713191	5341.503272
881.023363	6558.226082
881.333494	7856.630707
881.643583	8374.158082
881.953631	8050.805871
882.263637	7376.639765
882.573602	6759.642863
882.883526	6172.555127
883.193408	5600.497592
883.503248	5149.858767
883.813048	4835.603319
884.122806	4513.035007
884.432522	4188.785472
884.742197	3946.835293
885.051831	3757.464348
885.361424	3625.607928
885.670975	3551.767627
885.980485	3459.065849
886.289954	3378.213303
886.599382	3335.277796
886.908768	3299.651962
887.218113	3254.311824
887.527417	3197.137578
887.836680	3148.140083
888.145901	3141.674803
888.455082	3127.751136
888.764221	3075.350863
889.073319	3046.568395
889.382376	3043.500853
889.691392	3049.547717
890.000366	3050.334137
890.309300	3036.486087
890.618193	3045.610576
890.927044	3062.490879
891.235855	3063.612536
891.544625	3050.661812
891.853353	3064.681261
892.162041	3083.678849
892.470687	3122.856176
892.779293	3173.580266
893.087858	3223.016341
893.396381	3300.335038
893.704864	3428.481169
894.013306	3680.672452
894.321707	3996.967047
894.630068	4193.730843
894.938387	4182.960418
895.246665	4140.622288
895.554903	4006.028521
895.863100	3799.648724
896.171256	3632.370636
896.479371	3486.419150
896.787446	3359.505582
897.095480	3256.144284
897.403473	3192.119109
897.711425	3160.906805
898.019336	3147.172182
898.327207	3114.636575
898.635038	3077.652149
898.942827	3065.250911
899.250576	3052.423695
899.558284	3023.467307
899.865952	3003.892507
900.173579	2978.666573
900.481165	2973.761530
900.788711	2956.913994
901.096216	2935.196703
901.403681	2925.096752
901.711105	2929.664037
902.018489	2928.519695
902.325832	2929.016249
902.633135	2941.041921
902.940397	2978.734629
903.247619	3066.480952
903.554800	3272.706995
903.861941	3643.851864
904.169041	4087.581788
904.476101	4377.871591
904.783121	4305.626815
905.090100	4048.792629
905.397039	3762.465173
905.703938	3508.181811
906.010796	3322.841270
906.317614	3211.509907
906.624391	3114.225721
906.931129	3039.049514
907.237826	2978.222952
907.544483	2931.743513
907.851099	2902.530027
908.157675	2879.403733
908.464211	2857.414220
908.770707	2846.308558
909.077163	2831.064109
909.383578	2814.763538
909.689954	2807.504277
909.996289	2805.213072
910.302584	2804.562763
910.608839	2804.451858
910.915054	2798.848615
911.221229	2791.344858
911.527363	2793.996505
911.833458	2802.616878
912.139513	2806.478402
912.445527	2809.036787
912.751502	2817.677325
913.057436	2828.286433
913.363331	2843.629185
913.669186	2867.544419
913.975000	2904.765778
914.280775	2966.545119
914.586510	3038.187477
914.892205	3121.520270
915.197859	3259.824326
915.503475	3466.546922
915.809050	3687.200746
916.114585	3837.570804
916.420081	3843.242102
916.725536	3779.766413
917.030952	3654.365191
917.336328	3521.046836
917.641665	3387.940210
917.946961	3284.427677
918.252218	3211.855227
918.557435	3132.394039
918.862612	3069.417425
919.167750	3020.687111
919.472848	2979.021974
919.777906	2953.037347
920.082925	2925.739499
920.387904	2893.425703
920.692843	2877.798126
920.997743	2865.202803
921.302603	2849.663446
921.607423	2839.399657
921.912204	2827.285764
922.216946	2816.197746
922.521647	2803.156281
922.826310	2798.258800
923.130932	2790.450053
923.435516	2779.919083
923.740059	2772.937085
924.044564	2765.733276
924.349028	2760.634149
924.653454	2753.843714
924.957840	2747.673342
925.262186	2742.266705
925.566493	2736.544995
925.870761	2733.689181
926.174989	2729.779767
926.479178	2724.854559
926.783328	2717.562530
927.087438	2719.357181
927.391509	2718.255689
927.695541	2712.072714
927.999533	2710.562888
928.303486	2710.336036
928.607400	2707.933926
928.911275	2706.925696
929.215110	2706.401416
929.518906	2702.396219
929.822663	2703.235571
930.126381	2704.989892
930.430060	2705.667928
930.733699	2707.018957
931.037299	2706.436704
931.340861	2708.367466
931.644383	2708.619523
931.947866	2706.582897
932.251309	2705.761189
932.554714	2704.397557
932.858080	2703.379244
933.161407	2699.114428
933.464694	2701.882021
933.767943	2693.153263
934.071153	2699.064016
934.374323	2700.052082
934.677455	2699.278265
934.980548	2696.064530
935.283602	2698.711135
935.586617	2697.100487
935.889593	2697.322297
936.192530	2696.283820
936.495428	2695.076463
936.798287	2697.329859
937.101108	2704.140458
937.403890	2705.292362
937.706632	2711.898794
938.009336	2720.360371
938.312002	2727.649879
938.614628	2737.023905
938.917216	2743.113618
939.219765	2742.521283
939.522275	2742.768299
939.824747	2738.962228
940.127179	2738.697568
940.429573	2735.085581
940.731929	2730.747668
941.034246	2726.487893
941.336524	2726.119889
941.638763	2721.880278
941.940964	2720.206615
942.243126	2717.635627
942.545250	2715.016747
942.847335	2714.678990
943.149381	2708.478371
943.451389	2704.001826
943.753359	2705.766230
944.055290	2702.403781
944.357182	2700.798173
944.659036	2700.140302
944.960851	2699.563090
945.262628	2698.015456
945.564367	2699.792463
945.866067	2696.482945
946.167729	2698.844726
946.469352	2698.310364
946.770937	2699.031249
947.072484	2695.988912
947.373992	2695.870445
947.675462	2695.963707
947.976893	2690.496575
948.278286	2691.088911
948.579641	2689.339630
948.880958	2686.279650
949.182236	2689.952131
949.483476	2689.493386
949.784678	2688.354085
950.085841	2691.043540
950.386967	2689.833663
950.688054	2693.816175
950.989103	2690.536904
951.290114	2690.201668
951.591087	2696.435054
951.892021	2697.420600
952.192917	2699.265662
952.493776	2703.192721
952.794596	2699.817669
953.095378	2702.940663
953.396122	2701.652649
953.696828	2697.927236
953.997496	2698.524613
954.298126	2695.179807
954.598718	2691.444312
954.899272	2690.219312
955.199788	2689.183355
955.500266	2685.309228
955.800706	2681.513239
956.101108	2683.963240
956.401472	2681.326716
956.701798	2677.097188
957.002087	2675.131138
957.302337	2672.716426
957.602550	2674.349759
957.902724	2671.836744
958.202861	2670.427742
958.502960	2669.157371
958.803022	2672.537465
959.103045	2668.093687
959.403031	2668.280210
959.702979	2666.442710
960.002889	2668.224757
960.302762	2669.522855
960.602596	2666.437668
960.902393	2663.967503
961.202153	2664.859787
961.501875	2664.343069
961.801559	2664.751402
962.101205	2663.675116
962.400814	2664.728717
962.700385	2662.558501
962.999918	2661.144457
963.299414	2659.934580
963.598873	2660.040444
963.898293	2656.577172
964.197677	2660.075732
964.497022	2661.993891
964.796331	2661.512461
965.095601	2659.848880
965.394835	2661.971206
965.694030	2661.522543
965.993189	2660.443737
966.292309	2660.020280
966.591393	2662.692091
966.890439	2659.261586
967.189447	2662.959272
967.488419	2659.301915
967.787353	2660.771412
968.086249	2660.829385
968.385108	2661.353665
968.683930	2661.769560
968.982714	2661.278047
969.281462	2662.339210
969.580172	2659.843839
969.878844	2657.620690
970.177480	2661.424241
970.476078	2660.988181
970.774639	2662.757626
971.073162	2663.581855
971.371649	2662.969355
971.670098	2662.026659
971.968510	2658.964158
972.266885	2663.160918
972.565223	2664.552277
972.863524	2661.693943
973.161788	2662.087153
973.460014	2661.928356
973.758204	2660.534477
974.056356	2660.239570
974.354471	2660.668068
974.652550	2660.002636
974.950591	2662.586227
975.248595	2662.354334
975.546563	2661.860301
975.844493	2661.494817
976.142386	2661.320897
976.440243	2660.602533
976.738062	2660.037924
977.035845	2659.067502
977.333590	2662.923984
977.631299	2658.593633
977.928971	2655.881492
978.226606	2656.980464
978.524204	2657.797131
978.821765	2653.587767
979.119290	2659.672440
979.416777	2658.500372
979.714228	2657.116575
980.011642	2659.942142
980.309020	2658.790238
980.606360	2660.451298
980.903664	2657.731596
981.200931	2658.520536
981.498162	2658.223108
981.795356	2661.530105
982.092513	2661.444406
982.389633	2664.005312
982.686717	2668.635612
982.983764	2671.728359
983.280775	2673.752383
983.577749	2673.550737
983.874686	2676.225069
984.171587	2674.521159
984.468451	2669.437155
984.765279	2668.257525
985.062070	2668.847340
985.358824	2664.869870
985.655543	2664.471618
985.952224	2661.797286
986.248869	2660.211843
986.545478	2660.163952
986.842050	2659.125475
987.138586	2657.088849
987.435086	2656.771256
987.731549	2655.294198
988.027975	2654.737150
988.324366	2656.367964
988.620719	2656.758653
988.917037	2653.970895
989.213318	2656.070536
989.509563	2652.927376
989.805772	2657.532470
990.101944	2655.417706
990.398080	2654.767397
990.694180	2654.810247
990.990244	2655.815957
991.286271	2656.458704
991.582262	2653.368477
991.878217	2653.123981
992.174136	2655.452994
992.470019	2656.161276
992.765865	2652.287150
993.061676	2650.651295
993.357450	2653.265133
993.653188	2650.101809
993.948890	2653.350833
994.244556	2655.190854
994.540186	2658.722182
994.835780	2657.716472
995.131337	2654.820329
995.426859	2657.842501
995.722345	2659.238901
996.017795	2660.327790
996.313208	2659.488438
996.608586	2661.439364
996.903928	2663.498676
997.199234	2659.248983
997.494504	2659.052378
997.789738	2658.394507
998.084936	2657.524908
998.380099	2656.466266
998.675225	2658.071874
998.970316	2657.182110
999.265371	2657.706390
999.560390	2655.899136
999.855373	2656.756132
1000.150320	2655.652120
1000.445232	2652.259423
1000.740108	2651.853610
1001.034948	2654.444763
1001.329752	2654.051553
1001.624521	2653.071049
1001.919254	2654.049033
1002.213951	2652.680360
1002.508613	2653.726399
1002.803239	2654.089362
1003.097829	2653.192037
1003.392384	2652.796306
1003.686903	2653.267654
1003.981386	2653.917963
1004.275834	2651.856131
1004.570246	2655.236225
1004.864623	2655.316883
1005.158964	2651.435195
1005.453270	2655.432830
1005.747540	2649.988383
1006.041775	2652.040133
1006.335974	2652.733292
1006.630138	2652.561892
1006.924266	2652.907212
1007.218359	2652.829074
1007.512416	2650.837818
1007.806438	2647.591315
1008.100425	2651.094917
1008.394376	2645.882364
1008.688292	2653.618014
1008.982172	2650.593322
1009.276017	2652.423261
1009.569827	2649.733805
1009.863602	2653.055926
1010.157341	2652.952582
1010.451045	2653.688590
1010.744714	2653.302942
1011.038347	2652.440905
1011.331945	2652.405617
1011.625508	2652.708086
1011.919036	2651.374701
1012.212528	2652.251862
1012.505986	2648.944865
1012.799408	2652.345123
1013.092795	2653.605411
1013.386147	2653.224804
1013.679464	2654.585916
1013.972745	2653.340751
1014.265992	2652.239259
1014.559204	2652.957623
1014.852380	2650.593322
1015.145521	2652.077942
1015.438628	2652.486275
1015.731699	2653.343271
1016.024736	2650.520225
1016.317737	2650.464772
1016.610703	2651.561223
1016.903635	2651.780514
1017.196531	2651.536018
1017.489393	2653.353354
1017.782219	2652.531646
1018.075011	2649.786737
1018.367768	2652.123312
1018.660490	2652.360246
1018.953177	2652.360246
1019.245829	2652.360246
