Dividing Wavelength (nm)	Counts (n)	Blue Motor Position (mm): 17.200000	Red Motor Position (mm): 0.000000	
326.493990	2060.090204
326.888308	2060.090204
327.282561	2060.090204
327.676750	2035.144055
328.070874	2038.816535
328.464933	2044.888605
328.858929	2053.418237
329.252859	2063.374516
329.646726	2078.303893
330.040528	2094.339804
330.434265	2111.058790
330.827938	2133.620474
331.221547	2155.133598
331.615091	2172.696978
332.008571	2192.544001
332.401986	2213.109388
332.795338	2233.112687
333.188625	2254.726634
333.581847	2269.875301
333.975006	2291.123765
334.368100	2307.646146
334.761129	2327.324290
335.154095	2337.885508
335.546996	2383.664226
335.939833	2472.915334
336.332606	2481.162662
336.725315	2495.320742
337.117960	2504.997237
337.510540	2515.661798
337.903056	2519.893847
338.295508	2528.347862
338.687896	2536.343132
339.080220	2538.588966
339.472480	2542.132897
339.864676	2550.211346
340.256807	2552.694114
340.648875	2552.590771
341.040879	2556.532953
341.432818	2555.509599
341.824694	2557.730227
342.216506	2558.685526
342.608253	2553.967006
342.999937	2555.655792
343.391557	2554.266954
343.783113	2552.144628
344.174605	2549.616490
344.566033	2546.974925
344.957397	2547.216901
345.348697	2546.377548
345.739934	2545.016437
346.131106	2540.239944
346.522215	2541.101981
346.913260	2539.324974
347.304241	2538.863709
347.695159	2536.222144
348.086012	2535.632329
348.476802	2532.811803
348.867528	2529.817358
349.258191	2526.860721
349.648789	2527.216123
350.039324	2522.530370
350.429796	2528.554549
350.820203	2526.117151
351.210548	2527.664785
351.600828	2526.679240
351.991045	2524.980371
352.381198	2519.964423
352.771288	2524.670340
353.161314	2521.456604
353.551276	2521.391069
353.941175	2520.962571
354.331010	2523.957017
354.720782	2526.606143
355.110490	2528.075639
355.500135	2520.672705
355.889717	2520.254289
356.279235	2523.904085
356.668689	2525.484486
357.058080	2522.278313
357.447408	2523.669671
357.836672	2527.533715
358.225873	2523.379805
358.615010	2527.289219
359.004084	2525.910464
359.393095	2526.454908
359.782043	2526.175124
360.170927	2527.513551
360.559748	2530.011442
360.948505	2531.286854
361.337199	2530.823068
361.725830	2528.794004
362.114398	2529.277955
362.502903	2531.276772
362.891344	2533.280631
363.279722	2530.500434
363.668037	2533.164684
364.056289	2530.888603
364.444478	2532.015301
364.832603	2532.743748
365.220665	2533.605785
365.608665	2535.844058
365.996601	2533.242822
366.384474	2534.382123
366.772284	2535.919675
367.160031	2535.498738
367.547715	2533.058820
367.935336	2533.436907
368.322893	2534.505631
368.710388	2530.694519
369.097820	2533.958666
369.485189	2533.275590
369.872495	2539.312371
370.259738	2538.551157
370.646918	2535.798687
371.034035	2537.666435
371.421090	2536.587628
371.808081	2538.349511
372.195010	2535.657535
372.581875	2537.200128
372.968678	2538.495704
373.355418	2539.927392
373.742096	2539.360262
374.128710	2539.755993
374.515262	2537.076620
374.901751	2538.220962
375.288177	2543.231868
375.674540	2541.641384
376.060841	2540.547454
376.447079	2541.288504
376.833254	2540.731456
377.219367	2541.502753
377.605417	2543.914945
377.991404	2540.832279
378.377329	2541.666590
378.763191	2540.570139
379.148991	2542.735315
379.534727	2541.515356
379.920402	2542.916796
380.306013	2543.151210
380.691563	2543.007537
381.077049	2543.375541
381.462474	2540.469316
381.847835	2542.944523
382.233134	2548.593136
382.618371	2544.618186
383.003545	2545.966694
383.388657	2544.708927
383.773706	2545.623896
384.158693	2546.667415
384.543618	2545.699513
384.928480	2546.864020
385.313280	2545.734801
385.698017	2551.128836
386.082692	2546.140614
386.467305	2548.061294
386.851856	2545.603731
387.236344	2545.649102
387.620770	2546.082641
388.005133	2546.942158
388.389435	2547.806716
388.773674	2541.449821
389.157851	2549.664381
389.541965	2549.664381
389.926018	2548.630944
390.310008	2549.616490
390.693936	2550.022303
391.077802	2550.607077
391.461606	2553.341902
391.845348	2551.118754
392.229027	2549.581202
392.612645	2550.092879
392.996200	2548.527601
393.379694	2550.692776
393.763125	2552.391645
394.146494	2553.147818
394.529801	2552.434495
394.913047	2552.832746
395.296230	2551.121274
395.679351	2554.072870
396.062410	2554.743343
396.445408	2549.606407
396.828343	2553.994732
397.211217	2551.459032
397.594028	2556.706873
397.976778	2554.894578
398.359466	2553.472972
398.742092	2550.523897
399.124656	2550.823846
399.507158	2553.823333
399.889598	2555.557490
400.271977	2554.864331
400.654294	2556.371636
401.036549	2554.203940
401.418742	2553.082283
401.800874	2555.338199
402.182944	2555.043292
402.564952	2556.235525
402.946898	2554.939948
403.328783	2554.859290
403.710606	2554.831563
404.092367	2555.567572
404.474067	2557.427758
404.855705	2553.341902
405.237282	2556.946328
405.618797	2557.616801
406.000250	2556.462377
406.381642	2558.090669
406.762972	2556.840463
407.144240	2553.357026
407.525447	2559.088818
407.906593	2556.371636
408.287677	2559.572769
408.668700	2558.756102
409.049661	2560.117213
409.430560	2558.967830
409.811399	2560.999415
410.192176	2557.367264
410.572891	2561.100238
410.953545	2562.814231
411.334138	2559.267779
411.714669	2562.259704
412.095139	2560.858263
412.475547	2558.458674
412.855894	2560.646534
413.236180	2557.994887
413.616405	2562.279868
413.996568	2557.521019
414.376670	2559.640824
414.756711	2561.138047
415.136691	2561.410269
415.516609	2563.451937
415.896466	2559.393808
416.276262	2562.821792
416.655997	2563.804817
417.035670	2563.371278
417.415283	2563.230126
417.794834	2563.184755
418.174324	2561.576627
418.553753	2560.419682
418.933121	2560.840619
419.312428	2560.860783
419.691674	2563.280537
420.070859	2561.677450
420.449983	2560.427244
420.829045	2561.891699
421.208047	2559.534960
421.586988	2562.398335
421.965867	2562.801628
422.344686	2562.110990
422.723444	2563.066288
423.102141	2562.980589
423.480777	2562.889848
423.859352	2563.809858
424.237866	2563.290620
424.616319	2562.201730
424.994712	2567.212637
425.373044	2559.469425
425.751314	2560.069322
426.129524	2558.219219
426.507673	2560.160063
426.885762	2559.930691
427.263789	2564.596278
427.641756	2564.913871
428.019662	2564.452606
428.397508	2563.104097
428.775292	2564.187945
429.153016	2563.676268
429.530679	2563.431772
429.908282	2564.636608
430.285824	2566.025446
430.663305	2561.521175
431.040726	2564.376988
431.418086	2561.710218
431.795385	2565.949828
432.172624	2565.360013
432.549802	2565.581824
432.926920	2563.036041
433.303977	2565.589386
433.680974	2563.235167
434.057910	2565.150805
434.434786	2564.813048
434.811601	2565.544015
435.188355	2563.661144
435.565050	2567.484860
435.941683	2565.170970
436.318257	2563.552760
436.694770	2565.256670
437.071222	2562.947821
437.447614	2563.830023
437.823946	2565.478480
438.200218	2565.216340
438.576429	2563.406566
438.952580	2565.049982
439.328670	2564.432441
439.704700	2562.978068
440.080670	2565.728017
440.456580	2564.046793
440.832429	2562.302553
441.208218	2567.016032
441.583947	2564.689540
441.959616	2566.398491
442.335224	2561.720300
442.710773	2564.586196
443.086261	2567.036197
443.461689	2563.656103
443.837057	2567.424366
444.212365	2564.298850
444.587612	2563.767009
444.962800	2563.189797
445.337927	2561.778273
445.712995	2560.573438
446.088002	2565.987637
446.462949	2566.622822
446.837837	2567.106773
447.212664	2565.584345
447.587431	2568.697257
447.962139	2565.407904
448.336786	2566.050651
448.711374	2568.283882
449.085901	2569.541650
449.460369	2568.672051
449.834776	2567.079047
450.209124	2569.024932
450.583412	2567.497462
450.957640	2570.265056
451.331808	2570.340673
451.705917	2568.220868
452.079965	2568.115004
452.453954	2565.599468
452.827883	2565.372616
453.201752	2566.174160
453.575562	2568.568708
453.949311	2567.658779
454.323001	2570.202042
454.696632	2568.992165
455.070202	2566.592575
455.443713	2565.876732
455.817164	2570.512073
456.190556	2567.101732
456.563888	2569.024932
456.937160	2569.702967
457.310373	2569.370251
457.683526	2568.598955
458.056619	2570.252453
458.429653	2568.551064
458.802628	2572.173133
459.175542	2569.632391
459.548398	2572.006775
459.921194	2571.505180
460.293930	2569.140879
460.666607	2571.409398
461.039224	2574.250088
461.411782	2568.009140
461.784280	2570.091136
462.156719	2569.266907
462.529099	2571.926116
462.901419	2571.134655
463.273680	2569.695406
463.645882	2568.261197
464.018024	2570.441496
464.390106	2566.637946
464.762130	2571.207752
465.134094	2572.271435
465.505999	2573.438462
465.877845	2573.647670
466.249631	2575.202866
466.621358	2576.637074
466.993026	2574.416446
467.364634	2578.923238
467.736184	2575.724626
468.107674	2574.111456
468.479105	2577.408371
468.850477	2574.187074
469.221790	2573.632547
469.593043	2572.886456
469.964238	2577.473906
470.335373	2572.130283
470.706449	2576.690007
471.077467	2576.972311
471.448425	2577.617579
471.819324	2578.464493
472.190164	2574.887794
472.560945	2578.703948
472.931667	2577.736046
473.302330	2578.217476
473.672934	2578.766962
474.043479	2578.892991
474.413965	2576.637074
474.784393	2575.719584
475.154761	2579.500450
475.525070	2577.940213
475.895321	2579.180337
476.265513	2579.157651
476.635645	2582.091603
477.005719	2580.601942
477.375734	2581.590008
477.745691	2582.194947
478.115588	2584.418095
478.485427	2585.123857
478.855207	2584.985225
479.224928	2588.786255
479.594591	2587.309197
479.964194	2586.127047
480.333739	2587.667119
480.703226	2588.821543
481.072653	2593.459405
481.442022	2592.602409
481.811333	2591.579054
482.180584	2589.844897
482.549777	2590.691811
482.918912	2589.764239
483.287988	2593.771956
483.657005	2594.815475
484.025964	2597.451999
484.394864	2595.695157
484.763706	2596.292533
485.132489	2596.718511
485.501213	2596.332862
485.869879	2598.949221
486.238487	2599.914602
486.607036	2597.751947
486.975527	2599.004674
487.343959	2597.820003
487.712333	2601.061465
488.080648	2600.164139
488.448905	2604.738987
488.817104	2604.542382
489.185244	2604.761672
489.553326	2608.318206
489.921350	2613.571088
490.289315	2614.307097
490.657222	2617.215842
491.025070	2620.285905
491.392861	2619.680967
491.760593	2619.706172
492.128267	2617.609052
492.495883	2618.035030
492.863440	2619.418827
493.230939	2617.213322
493.598380	2617.445215
493.965763	2616.691562
494.333088	2618.360184
494.700354	2616.754577
495.067563	2620.487551
495.434713	2619.567541
495.801805	2620.822788
496.168839	2623.300515
496.535815	2623.383694
496.902733	2623.827316
497.269593	2626.783952
497.636395	2628.230763
498.003139	2629.400311
498.369825	2628.974334
498.736453	2628.528192
499.103023	2633.655045
499.469535	2632.878707
499.835989	2633.438275
500.202385	2631.971300
500.568723	2629.352420
500.935003	2634.431383
501.301226	2635.099336
501.667390	2641.887249
502.033497	2644.967394
502.399546	2642.701396
502.765537	2644.216262
503.131470	2647.009062
503.497345	2649.900163
503.863163	2651.173055
504.228923	2652.347643
504.594625	2654.681698
504.960269	2653.088693
505.325856	2660.252173
505.691385	2657.603046
506.056856	2662.230826
506.422270	2666.858605
506.787625	2664.713594
507.152924	2670.742814
507.518164	2674.773216
507.883347	2675.083247
508.248472	2675.637774
508.613540	2681.790502
508.978550	2685.684794
509.343503	2687.487006
509.708398	2690.824250
510.073236	2695.343645
510.438016	2701.821527
510.802738	2704.236240
511.167403	2709.025336
511.532010	2717.368446
511.896561	2723.135526
512.261053	2731.730693
512.625488	2733.759757
512.989866	2741.061869
513.354186	2745.382138
513.718449	2750.950092
514.082655	2762.428799
514.446803	2765.720673
514.810894	2777.965636
515.174927	2787.211112
515.538904	2795.163532
515.902822	2805.195428
516.266684	2813.558702
516.630488	2825.576813
516.994235	2832.669717
517.357925	2849.005576
517.721558	2866.173225
518.085133	2879.386089
518.448651	2883.456821
518.812112	2902.174625
519.175516	2912.698034
519.538863	2930.185797
519.902152	2949.226235
520.265385	2972.622230
520.628560	2990.873727
520.991678	3005.661952
521.354739	3026.779345
521.717743	3047.558982
522.080690	3066.702763
522.443580	3096.516147
522.806413	3115.780917
523.169189	3138.360245
523.531908	3168.534071
523.894569	3189.374201
524.257174	3218.073490
524.619722	3247.077768
524.982213	3277.259157
525.344647	3305.235040
525.707025	3334.834175
526.069345	3375.188611
526.431608	3405.536357
526.793815	3448.156793
527.155964	3469.690081
527.518057	3509.290865
527.880093	3544.170609
528.242072	3595.396293
528.603995	3628.080614
528.965860	3666.673168
529.327669	3710.687482
529.689421	3756.060387
530.051117	3796.656799
530.412755	3850.627392
530.774337	3897.658837
531.135862	3943.319088
531.497331	3995.593333
531.858743	4046.637536
532.220098	4113.886528
532.581396	4153.081499
532.942638	4196.581616
533.303824	4263.097120
533.664953	4321.755987
534.026025	4365.956823
534.387040	4444.364410
534.747999	4509.722969
535.108902	4586.159465
535.469748	4615.375472
535.830537	4689.619065
536.191270	4770.872383
536.551947	4820.668900
536.912567	4903.038834
537.273131	4983.785515
537.633638	5030.204460
537.994089	5113.401143
538.354483	5173.365668
538.714821	5284.634015
539.075103	5384.496752
539.435328	5452.736331
539.795497	5517.116907
540.155609	5607.124188
540.515665	5728.018619
540.875665	5766.671667
541.235609	5864.049115
541.595496	5970.246062
541.955328	6098.165341
542.315102	6146.111755
542.674821	6226.140072
543.034483	6308.454553
543.394090	6403.707155
543.753640	6499.627709
544.113134	6691.899838
544.472571	6713.791048
544.831953	6920.735455
545.191278	6957.407328
545.550548	7020.457040
545.909761	7196.599996
546.268918	7330.278793
546.628019	7486.534398
546.987064	7531.536778
547.346053	7561.549288
547.704986	7789.187631
548.063863	7866.992799
548.422684	8008.664346
548.781449	8080.362156
549.140158	8272.631764
549.498811	8368.204479
549.857408	8408.218638
550.215949	8646.692941
550.574434	8760.123944
550.932864	8879.742963
551.291237	9115.341288
551.649555	9217.855672
552.007817	9389.532166
552.366022	9469.875556
552.724173	9624.046643
553.082267	9833.521709
553.440305	10040.786229
553.798288	10063.637779
554.156215	10269.533626
554.514086	10464.822884
554.871902	10544.780626
555.229661	10741.340255
555.587365	10834.994811
555.945014	11013.537357
556.302606	11178.531802
556.660143	11358.664832
557.017625	11570.136194
557.375050	11669.943479
557.732421	11913.915160
558.089735	12104.170827
558.446994	12251.112900
558.804197	12531.315354
559.161345	12688.702698
559.518437	12700.375490
559.875474	12956.559366
560.232455	13194.015357
560.589381	13382.907391
560.946251	13520.576262
561.303065	13878.583884
561.659825	13984.611952
562.016528	14118.061377
562.373177	14188.841698
562.729770	14551.522470
563.086307	14617.692655
563.442789	14956.518688
563.799216	15118.238903
564.155587	15277.299910
564.511904	15460.790348
564.868164	15680.932495
565.224370	15976.263452
565.580520	16092.933396
565.936615	16362.330137
566.292654	16455.530990
566.648638	16779.258766
567.004567	16965.146273
567.360441	17205.896657
567.716260	17316.401270
568.072023	17670.234818
568.427732	17870.214870
568.783385	17916.762364
569.138982	18270.608514
569.494525	18548.686122
569.850013	18605.439432
570.205445	18874.710144
570.560823	19007.597480
570.916145	19171.772737
571.271412	19482.612804
571.626625	19559.465195
571.981782	19807.235386
572.336884	19849.013948
572.691931	20196.152843
573.046923	20284.022675
573.401860	20430.614388
573.756743	20656.198461
574.111570	20931.006880
574.466342	21106.199579
574.821059	21388.143752
575.175722	21385.320706
575.530330	21645.532465
575.884882	21694.683715
576.239380	21870.854398
576.593823	22119.161472
576.948211	22315.784116
577.302544	22300.549749
577.656823	22520.754910
578.011047	22861.637733
578.365216	22983.578204
578.719330	23061.348084
579.073389	23268.458849
579.427394	23503.600949
579.781344	23670.863913
580.135239	23751.724021
580.489080	24002.662577
580.842866	23934.329737
581.196597	24408.689711
581.550273	24610.217398
581.903895	24783.186948
582.257463	25235.320475
582.610975	25116.409738
582.964434	25516.939493
583.317837	25453.723424
583.671186	25614.468176
584.024481	25979.253630
584.377721	25908.412816
584.730906	26239.059576
585.084037	26510.639136
585.437113	26548.636833
585.790135	26822.116909
586.143103	26746.020692
586.496016	27046.717957
586.848874	27302.279251
587.201679	27526.043468
587.554428	27409.272700
587.907124	27763.630528
588.259765	27808.242219
588.612352	28102.683412
588.964884	27940.118803
589.317362	28325.038626
589.669786	28520.990796
590.022155	28601.891233
590.374470	29087.956767
590.726731	28990.377672
591.078937	28742.476411
591.431090	29146.814758
591.783188	29010.272586
592.135232	29042.931701
592.487222	29412.080274
592.839157	29680.587251
593.191038	29613.444123
593.542866	29655.643622
593.894639	29404.803368
594.246358	29785.123138
594.598022	29947.410483
594.949633	29819.014815
595.301190	29974.357971
595.652692	30089.008933
596.004141	30607.632758
596.355535	29971.857558
596.706876	30137.567847
597.058162	30084.358468
597.409395	30615.822113
597.760573	30926.198393
598.111698	30772.342378
598.462768	30867.403416
598.813785	31032.342408
599.164748	30860.645749
599.515657	31227.087222
599.866511	30990.183238
600.217312	31660.906237
600.568060	30981.270478
600.918753	31750.406882
601.269392	31831.246825
601.619978	31743.906314
601.970510	32030.359799
602.320988	32272.040277
602.671412	32613.941413
603.021783	32647.964160
603.372100	32429.684719
603.722363	32636.964362
604.072572	32781.206897
604.422728	32911.195570
604.772830	32859.523743
605.122878	33108.687813
605.472872	33115.972280
605.822813	33454.813436
606.172701	33364.808675
606.522534	33743.439658
606.872314	34033.689132
607.222041	33995.593133
607.571714	34387.439500
607.921333	34071.351592
608.270899	34364.829925
608.620411	34788.632168
608.969870	34670.041544
609.319276	34802.064322
609.668627	34931.120381
610.017926	35365.816557
610.367171	35573.433957
610.716362	35714.803034
611.065500	35695.097164
611.414585	36007.903281
611.763616	36246.662409
612.112594	36248.769612
612.461518	36451.355941
612.810389	36874.298666
613.159207	36779.517412
613.507971	36854.686057
613.856682	37375.250727
614.205340	37318.502458
614.553945	38009.019547
614.902496	37485.299115
615.250994	37948.931514
615.599439	38088.805889
615.947830	38267.502190
616.296169	38346.698717
616.644454	38468.397212
616.992686	38668.195783
617.340864	39151.425667
617.688990	38794.481728
618.037063	39479.289710
618.385082	39401.431610
618.733048	39765.838977
619.080961	39724.073018
619.428821	39821.689921
619.776628	39912.229044
620.124382	39804.156788
620.472083	39978.792439
620.819731	40149.831227
621.167326	39833.884472
621.514868	39884.316175
621.862357	39488.215073
622.209793	39633.521292
622.557176	39317.602262
622.904506	39160.774487
623.251783	38900.053572
623.599007	38681.063328
623.946179	38659.257817
624.293297	38492.105758
624.640363	38049.356339
624.987376	37966.993968
625.334336	37841.645678
625.681243	37519.954527
626.028097	37488.530495
626.374899	37379.074442
626.721647	37399.977586
627.068343	37258.474918
627.414987	37040.286218
627.761577	36835.811977
628.108115	37188.970010
628.454600	36548.236835
628.801032	36796.874105
629.147412	36740.272029
629.493739	36721.433237
629.840014	36342.104054
630.186236	36769.331761
630.532405	36297.449514
630.878521	36548.531743
631.224585	36379.746350
631.570597	36109.429599
631.916556	36279.961751
632.262462	36194.531837
632.608316	36177.338982
632.954117	36078.489517
633.299866	36084.669972
633.645562	36046.395011
633.991206	35567.553451
634.336797	35234.219756
634.682336	35165.140825
635.027823	34980.861446
635.373257	34892.800050
635.718639	34621.769975
636.063968	34546.203079
636.409245	33957.560147
636.754470	33951.919096
637.099642	33765.918163
637.444762	33255.017386
637.789829	33410.204266
638.134845	33087.227621
638.479808	33027.016079
638.824719	33004.232585
639.169577	32540.597665
639.514383	32670.475433
639.859137	32304.512869
640.203839	32510.915352
640.548489	32233.679616
640.893086	32253.372884
641.237632	32028.965920
641.582125	32136.085398
641.926566	31953.830043
642.270955	32005.842148
642.615292	31960.655765
642.959576	31883.783210
643.303809	31919.855187
643.647990	32007.793074
643.992118	31981.397593
644.336195	31856.621473
644.680219	31952.683180
645.024192	32171.794412
645.368112	32701.907027
645.711981	32734.747623
646.055797	33454.392500
646.399562	33280.500418
646.743274	34139.513034
647.086935	34557.301179
647.430544	34517.463461
647.774101	34579.260445
648.117606	34869.842635
648.461059	35038.764139
648.804460	34641.896782
649.147810	34156.184129
649.491108	33846.495966
649.834354	33705.729307
650.177548	32902.237439
650.520690	32453.622638
650.863781	32429.067178
651.206820	32281.046298
651.549807	31886.213046
651.892742	31344.969564
652.235626	31254.604360
652.578458	31131.814456
652.921238	30473.991770
653.263967	30785.046085
653.606644	30512.891833
653.949269	30440.584043
654.291843	30063.588914
654.634365	30423.398750
654.976836	29980.306532
655.319255	30062.847865
655.661622	29962.097885
656.003938	29824.126545
656.346203	29654.869805
656.688416	29915.963765
657.030577	29683.352324
657.372687	29536.064932
657.714746	29698.042246
658.056753	29890.299251
658.398708	29287.732652
658.740612	29365.063952
659.082465	29571.879809
659.424266	29470.955909
659.766016	29487.067437
660.107715	29347.389667
660.449362	29452.051582
660.790958	29438.987432
661.132503	29374.097700
661.473996	29457.700195
661.815438	29548.972806
662.156829	29680.531798
662.498168	29482.729524
662.839456	29482.099380
663.180693	29612.574524
663.521879	29714.032786
663.863013	29675.878813
664.204097	29647.068619
664.545129	30067.936910
664.886110	30018.457985
665.227040	30110.804361
665.567918	30117.080598
665.908746	30184.105259
666.249522	30276.504568
666.590248	30310.219805
666.930922	30418.329869
667.271545	30418.450857
667.612118	30479.761370
667.952639	30285.119900
668.293109	30336.486737
668.633528	30197.519769
668.973896	30152.353551
669.314213	30145.734516
669.654480	29963.123759
669.994695	29953.709405
670.334859	29873.663443
670.674973	29709.387363
671.015035	29912.992005
671.355047	29841.258906
671.695008	29776.787590
672.034918	29689.885659
672.374777	29803.934203
672.714585	29671.500571
673.054342	29804.720623
673.394049	29661.418263
673.733705	29884.774146
674.073310	29592.992162
674.412864	29654.282510
674.752368	29351.112559
675.091820	29585.501007
675.431223	29181.724749
675.770574	28987.395830
676.109875	28833.164248
676.449125	28643.833633
676.788324	28539.196923
677.127473	28056.226659
677.466571	27963.161918
677.805619	27682.941819
678.144616	27630.261762
678.483562	27577.879132
678.822458	27265.504034
679.161303	27211.619140
679.500098	27128.994629
679.838842	27053.558803
680.177535	27145.471640
680.516179	27384.109781
680.854771	27537.365899
681.193314	28292.520663
681.531805	29333.733181
681.870247	30079.302191
682.208638	30816.260910
682.546978	31075.154407
682.885268	31201.062265
683.223508	30757.165984
683.561697	30486.151033
683.899836	30335.909525
684.237925	29915.104248
684.575963	29773.205850
684.913951	29420.526727
685.251889	29592.692213
685.589776	29613.544946
685.927614	29621.459557
686.265401	29808.020058
686.603137	29940.577199
686.940824	30437.871902
687.278460	30769.549578
687.616046	30940.406885
687.953582	31610.260285
688.291068	31526.617460
688.628504	31863.948790
688.965889	31840.570439
689.303224	31560.224312
689.640510	31284.808434
689.977745	30651.102628
690.314930	29920.490721
690.652065	29485.817231
690.989150	28818.497011
691.326185	27965.609398
691.663170	27341.285179
692.000105	26599.265142
692.336990	25992.325342
692.673825	25580.659678
693.010610	25095.718322
693.347345	24590.070426
693.684030	23961.229334
694.020665	23771.442494
694.357251	23099.607921
694.693786	23099.000462
695.030272	22876.602399
695.366707	22385.810784
695.703093	22106.576231
696.039429	22175.287158
696.375716	21945.448351
696.711952	21936.875869
697.048139	21801.374695
697.384276	21658.180720
697.720363	21770.568204
698.056400	21659.675422
698.392388	21493.952530
698.728326	21495.376656
699.064214	21333.028817
699.400053	21342.163388
699.735842	20954.755756
700.071581	20751.604818
700.407270	20510.062973
700.742910	20340.055100
701.078501	20079.747560
701.414042	19875.222907
701.749533	19567.495753
702.084974	19262.763044
702.420366	19495.659310
702.755709	19082.693028
703.091002	18780.911915
703.426246	18855.357155
703.761440	18784.763357
704.096584	18552.872800
704.431679	18484.277820
704.766725	18426.407894
705.101721	18363.728708
705.436668	18491.141351
705.771565	18206.986632
706.106413	18524.203758
706.441212	18606.359443
706.775961	18713.277275
707.110661	18786.805024
707.445311	19155.348658
707.779913	19030.726294
708.114465	19331.536985
708.448967	19652.582868
708.783421	20282.686769
709.117825	20661.181641
709.452180	20873.179805
709.786485	21337.066782
710.120742	22103.302002
710.454949	22220.047563
710.789107	22721.735632
711.123216	23432.480351
711.457275	23657.109125
711.791286	24199.464182
712.125247	24349.650238
712.459159	24087.464867
712.793023	24835.146121
713.126837	23803.128667
713.460602	24061.699530
713.794318	23724.131266
714.127985	23445.400828
714.461602	22548.735835
714.795171	22532.846118
715.128691	21543.907844
715.462162	21037.259280
715.795584	20597.247208
716.128957	20320.321503
716.462281	19938.323030
716.795556	19660.109311
717.128782	19194.982210
717.461960	18596.844265
717.795088	18550.082522
718.128167	18215.196151
718.461198	17758.228158
718.794180	17631.954816
719.127113	17290.386396
719.459997	17105.832274
719.792833	16730.785551
720.125619	16774.729289
720.458357	16439.212775
720.791046	16299.981147
721.123686	16149.301058
721.456278	15922.471820
721.788821	15917.889411
722.121315	15658.917777
722.453761	15764.469456
722.786158	15646.448482
723.118506	15714.917434
723.450805	15609.012874
723.783056	15794.166893
724.115259	15690.482961
724.447412	15685.991293
724.779518	15896.514919
725.111574	15943.082578
725.443582	16220.242696
725.775542	16179.936150
726.107453	16695.583174
726.439315	16618.516535
726.771129	17034.184875
727.102895	17452.628371
727.434612	17731.757059
727.766281	17889.494763
728.097901	18218.016677
728.429473	18301.699831
728.760996	18311.711562
729.092471	18435.093802
729.423897	18323.681782
729.755276	18203.583853
730.086606	18318.645669
730.417887	18901.894566
730.749120	19459.370564
731.080305	19679.653864
731.411442	20070.466795
731.742530	20192.714776
732.073570	20358.314159
732.404562	20674.308806
732.735506	20522.668378
733.066401	20302.695109
733.397249	19799.603079
733.728048	19170.880453
734.058798	18306.214184
734.389501	17551.830717
734.720156	17032.760749
735.050762	16457.645754
735.381320	16066.116978
735.711831	15804.879345
736.042293	15433.578200
736.372707	15470.615557
736.703073	15259.812147
737.033391	15461.607015
737.363661	15458.988136
737.693883	15588.545789
738.024056	15786.509380
738.354182	15999.752709
738.684260	16375.822786
739.014290	16648.685320
739.344272	16880.288530
739.674207	17226.441880
740.004093	17396.537972
740.333931	17449.389429
740.663722	17521.165378
740.993464	17575.511537
741.323159	17408.936690
741.652806	17117.321064
741.982405	16941.906554
742.311956	16578.371306
742.641460	16470.069677
742.970915	16145.981458
743.300323	15793.181348
743.629683	15580.739563
743.958996	15260.417086
744.288260	14941.390185
744.617477	14637.799297
744.946647	14600.905613
745.275768	14287.668478
745.604842	14091.628087
745.933869	13907.530190
746.262847	13878.178071
746.591778	13797.882573
746.920662	13682.407382
747.249498	13692.144371
747.578286	13845.665150
747.907027	14025.899002
748.235720	14296.422441
748.564365	14360.329149
748.892963	14283.501964
749.221514	14393.177307
749.550017	14253.307973
749.878473	14230.821906
750.206881	13997.174508
750.535242	13920.254062
750.863555	13843.487371
751.191821	13749.379111
751.520039	13754.392539
751.848210	13684.451570
752.176334	13738.502822
752.504411	13657.614988
752.832440	13488.945542
753.160421	13596.359927
753.488356	13484.131240
753.816243	13392.851067
754.144082	13231.072878
754.471875	13178.392821
754.799620	13147.649344
755.127318	13122.998102
755.454969	13105.618724
755.782572	13073.640164
756.110129	13094.845778
756.437638	12995.731652
756.765100	13006.013086
757.092515	13032.537117
757.419882	13070.890215
757.747203	13081.224580
758.074477	13170.793281
758.401703	13153.028255
758.728882	13353.615767
759.056014	13396.087488
759.383099	13568.626019
759.710138	13690.072457
760.037129	13819.405779
760.364073	13869.875291
760.690970	13897.505855
761.017820	13910.726281
761.344623	14147.347960
761.671379	14532.882804
761.998088	15244.726494
762.324751	17036.309721
762.651366	20475.962087
762.977935	24968.537572
763.304456	27941.807590
763.630931	28961.010430
763.957359	27747.539165
764.283740	25455.099659
764.610074	23184.886600
764.936362	20544.635206
765.262602	18655.019180
765.588796	16730.145325
765.914943	15432.874959
766.241044	14331.188759
766.567097	13546.069377
766.893104	12826.631188
767.219064	12360.130372
767.544978	11874.826053
767.870845	11485.618730
768.196665	11266.605801
768.522438	11041.777901
768.848165	10840.174597
769.173846	10628.410847
769.499479	10496.279684
769.825066	10324.754425
770.150607	10096.932080
770.476101	10015.456951
770.801548	9889.554134
771.126949	9734.664682
771.452303	9620.207804
771.777611	9418.649871
772.102872	9409.341380
772.428087	9267.972303
772.753256	9109.690154
773.078378	9021.008697
773.403453	8838.037497
773.728482	8724.293943
774.053465	8646.725709
774.378401	8546.628558
774.703291	8424.529291
775.028135	8301.192421
775.352932	8271.164788
775.677683	8166.631422
776.002388	8060.956235
776.327046	8070.725991
776.651658	7967.105073
776.976224	7868.230402
777.300743	7866.614713
777.625216	7776.874612
777.949643	7732.648570
778.274024	7748.913853
778.598359	7664.829927
778.922647	7680.893564
779.246889	7623.416848
779.571086	7636.571739
779.895236	7642.512739
780.219339	7651.793503
780.543397	7656.292733
780.867409	7731.980617
781.191374	7750.075839
781.515294	7714.800365
781.839167	7810.993142
782.162995	7776.859489
782.486776	7721.600881
782.810511	7679.257709
783.134201	7586.639110
783.457844	7583.092659
783.781441	7524.464039
784.104993	7464.252498
784.428498	7434.260153
784.751958	7424.865963
785.075372	7395.705408
785.398739	7342.959816
785.722061	7387.422793
786.045337	7387.218626
786.368568	7548.359109
786.691752	7577.043274
787.014891	7919.660254
787.337983	8281.496633
787.661030	8880.436122
787.984031	9506.948201
788.306987	9911.261342
788.629897	10113.446900
788.952760	10063.622656
789.275579	9832.901647
789.598351	9439.001009
789.921078	9084.048325
790.243759	8671.432404
790.566395	8375.168833
790.888984	8126.249259
791.211529	7912.708503
791.534027	7693.362858
791.856480	7489.884245
792.178888	7413.417502
792.501249	7316.917215
792.823566	7156.600961
793.145836	7159.116497
793.468062	7137.777292
793.790241	7090.219047
794.112375	7153.558625
794.434464	7310.739281
794.756507	7351.723862
795.078505	7514.001125
795.400457	7830.378899
795.722364	8184.020882
796.044226	8469.133420
796.366042	8743.523424
796.687812	8690.072070
797.009538	8768.676261
797.331218	8655.749374
797.652852	8575.267353
797.974442	8420.360257
798.295986	8332.447575
798.617484	8141.221486
798.938938	7993.934094
799.260346	7895.253508
799.581709	7695.026439
799.903026	7613.233718
800.224299	7508.324785
800.545526	7333.858012
800.866708	7241.642706
801.187845	7168.881212
801.508936	7067.677528
801.829983	7027.368462
802.150984	6876.436315
802.471940	6824.887997
802.792851	6816.862480
803.113717	6779.202540
803.434538	6751.970227
803.755314	6691.194076
804.076045	6694.710281
804.396731	6638.592156
804.717372	6673.265213
805.037967	6675.503485
805.358518	6719.371606
805.679024	6798.921013
805.999485	6812.227139
806.319901	6853.438572
806.640272	6865.222269
806.960598	6955.443799
807.280879	6955.663089
807.601115	7036.745008
807.921306	6980.276523
808.241453	6990.671382
808.561554	7017.243304
808.881611	6978.776780
809.201623	6989.315312
809.521590	6928.917247
809.841513	6908.913949
810.161390	6951.524302
810.481223	6819.463715
810.801011	6800.897146
811.120755	6779.270596
811.440453	6697.921496
811.760107	6675.276633
812.079716	6644.215563
812.399281	6575.650830
812.718801	6562.024591
813.038276	6515.764443
813.357707	6451.535102
813.677093	6498.495970
813.996434	6397.312451
814.315731	6443.295336
814.634983	6438.372649
814.954191	6451.446882
815.273354	6559.451082
815.592473	6626.190918
815.911547	6747.234063
816.230577	6831.822104
816.549562	6977.385421
816.868502	7082.304436
817.187399	7177.093251
817.506250	7333.512693
817.825058	7362.181735
818.143821	7635.974363
818.462539	7907.024602
818.781213	8277.947661
819.099843	8835.063216
819.418429	9839.593779
819.736970	10817.512090
820.055466	12000.973367
820.373919	13543.400086
820.692327	15916.631643
821.010691	20084.657643
821.329011	29105.749519
821.647286	42094.045469
821.965517	55453.077956
822.283704	60777.015327
822.601847	62743.062807
822.919945	60043.955941
823.237999	55849.473965
823.556010	49703.137879
823.873976	43011.608566
824.191897	36476.022306
824.509775	31648.928455
824.827609	27130.484290
825.145398	24547.661720
825.463144	23197.958312
825.780845	23526.626420
826.098502	25322.285420
826.416116	29118.669996
826.733685	32757.883999
827.051210	33914.801080
827.368692	32104.048866
827.686129	28124.136042
828.003522	23990.465506
828.320872	20287.730444
828.638177	17433.310669
828.955439	15281.927689
829.272656	13456.941777
829.589830	11972.606794
829.906960	10703.957579
830.224046	9761.458415
830.541088	9016.353191
830.858086	8558.686998
831.175041	8188.880555
831.491952	8062.274496
831.808819	8117.434802
832.125642	8518.085545
832.442421	9420.333616
832.759157	11233.966850
833.075849	14166.509386
833.392497	17393.339360
833.709101	19563.485515
834.025662	19394.125431
834.342179	17677.126075
834.658653	15476.644777
834.975083	13543.747925
835.291469	11928.524424
835.607811	10600.336662
835.924110	9698.050782
836.240366	8826.299170
836.556578	8023.016511
836.872746	7370.960905
837.188871	6875.720472
837.504952	6451.885462
837.820990	6143.782742
838.136984	5923.789308
838.452935	5827.180636
838.768842	5866.163879
839.084706	6292.153982
839.400526	7503.381934
839.716303	9094.216333
840.032037	10186.541110
840.347727	10102.152194
840.663373	9119.704407
840.978977	8076.775375
841.294537	7269.777385
841.610054	6667.528379
841.925527	6228.741308
842.240957	5870.814343
842.556344	5541.639600
842.871687	5254.533286
843.186987	4969.060305
843.502244	4745.112087
843.817458	4583.565791
844.132629	4444.170325
844.447756	4352.325543
844.762840	4276.400725
845.077881	4196.790824
845.392879	4139.508193
845.707833	4086.432404
846.022745	4042.428172
846.337613	4016.320037
846.652438	3969.686843
846.967221	3955.269143
847.281960	3921.397630
847.596656	3907.373140
847.911309	3884.367835
848.225919	3862.821943
848.540485	3844.779654
848.855009	3832.005370
849.169490	3810.560301
849.483928	3799.767191
849.798323	3786.934934
850.112675	3765.830143
850.426984	3777.018984
850.741251	3762.475255
851.055474	3760.494082
851.369654	3759.697580
851.683792	3754.931169
851.997887	3764.829474
852.311938	3765.101697
852.625947	3770.165536
852.939914	3760.461314
853.253837	3765.925925
853.567718	3766.934156
853.881555	3756.196498
854.195350	3772.091256
854.509103	3768.827109
854.822812	3771.017491
855.136479	3755.793206
855.450103	3771.042696
855.763685	3753.355808
856.077224	3756.748505
856.390720	3775.415897
856.704173	3797.100421
857.017584	3806.136689
857.330953	3815.636743
857.644278	3840.865198
857.957561	3843.993234
858.270802	3844.666228
858.584000	3847.012885
858.897155	3837.880835
859.210268	3825.101510
859.523339	3802.078560
859.836367	3801.309784
860.149352	3794.373156
860.462295	3787.590284
860.775195	3778.334725
861.088054	3769.069085
861.400869	3768.476749
861.713642	3767.823920
862.026373	3781.656846
862.339062	3786.196405
862.651708	3803.255669
862.964312	3838.836133
863.276873	3850.587063
863.589392	3909.331629
863.901869	3957.119247
864.214303	4004.680012
864.526696	4034.372409
864.839045	4081.008123
865.151353	4104.998974
865.463619	4117.637147
865.775842	4121.922128
866.088023	4139.719921
866.400162	4131.933859
866.712258	4137.600116
867.024313	4138.643635
867.336325	4135.767657
867.648296	4142.807628
867.960224	4145.237464
868.272110	4158.455369
868.583954	4156.683404
868.895755	4175.139068
869.207515	4169.845857
869.519233	4209.744069
869.830909	4222.321748
870.142542	4246.889811
870.454134	4262.174589
870.765684	4293.437305
871.077191	4329.045495
871.388657	4350.031818
871.700081	4390.444228
872.011463	4431.592647
872.322803	4464.778562
872.634101	4495.201926
872.945357	4537.091394
873.256571	4593.907718
873.567744	4624.270588
873.878874	4643.091736
874.189963	4680.799566
874.501010	4691.146535
874.812015	4687.012788
875.122979	4728.685487
875.433900	4725.565012
875.744780	4740.073453
876.055618	4769.297022
876.366415	4767.305766
876.677169	4787.374600
876.987882	4831.325900
877.298554	4890.561978
877.609183	4967.573165
877.919771	5075.393363
878.230317	5223.149582
878.540822	5440.433395
878.851285	5757.400985
879.161707	6224.463888
879.472087	6985.015208
879.782425	8221.186789
880.092722	10404.008925
880.402977	13709.967370
880.713191	17441.489941
881.023363	21122.623659
881.333494	23273.464715
881.643583	24495.720191
881.953631	24491.266332
882.263637	23681.226005
882.573602	22201.501158
882.883526	20649.725619
883.193408	18987.163163
883.503248	17296.269422
883.813048	15759.193888
884.122806	14334.964583
884.432522	12866.413453
884.742197	11606.228335
885.051831	10527.857472
885.361424	9529.555255
885.670975	8715.101399
885.980485	8027.815689
886.289954	7450.374201
886.599382	6985.005125
886.908768	6611.700121
887.218113	6246.471046
887.527417	5961.182067
887.836680	5690.194842
888.145901	5474.743488
888.455082	5308.282068
888.764221	5160.465355
889.073319	5026.284963
889.382376	4953.578922
889.691392	4892.888470
890.000366	4872.398701
890.309300	4851.276266
890.618193	4858.686762
890.927044	4843.434751
891.235855	4863.062484
891.544625	4896.853338
891.853353	4961.223831
892.162041	5080.094239
892.470687	5265.404534
892.779293	5514.475342
893.087858	5889.869905
893.396381	6461.884591
893.704864	7272.575226
894.013306	8424.161287
894.321707	9591.616900
894.630068	10400.447350
894.938387	10606.232291
895.246665	10361.995949
895.554903	9763.646275
895.863100	9064.375223
896.171256	8504.953339
896.479371	8003.454313
896.787446	7507.235896
897.095480	7075.292191
897.403473	6759.912565
897.711425	6442.314831
898.019336	6173.860786
898.327207	5906.054529
898.635038	5671.688766
898.942827	5428.808495
899.250576	5238.341099
899.558284	5046.366399
899.865952	4918.063993
900.173579	4773.889513
900.481165	4662.535466
900.788711	4573.609512
901.096216	4500.779962
901.403681	4442.232002
901.711105	4416.305347
902.018489	4401.718769
902.325832	4470.533039
902.633135	4594.920990
902.940397	4938.457981
903.247619	5735.867696
903.554800	7172.142838
903.861941	9084.562523
904.169041	10595.184602
904.476101	11203.977026
904.783121	10842.400266
905.090100	10110.475139
905.397039	9276.302810
905.703938	8532.641877
906.010796	7839.243768
906.317614	7290.655324
906.624391	6758.115393
906.931129	6335.308779
907.237826	5935.623417
907.544483	5558.388834
907.851099	5189.424263
908.157675	4836.094831
908.464211	4512.578783
908.770707	4279.135551
909.077163	4079.931837
909.383578	3935.298612
909.689954	3820.078000
909.996289	3750.855396
910.302584	3689.295346
910.608839	3656.255623
910.915054	3624.264461
911.221229	3609.622430
911.527363	3621.839666
911.833458	3634.377016
912.139513	3664.442457
912.445527	3691.861293
912.751502	3776.358593
913.057436	3876.044890
913.363331	4010.328625
913.669186	4210.923699
913.975000	4474.991940
914.280775	4893.052308
914.586510	5476.114682
914.892205	6275.639162
915.197859	7304.473127
915.503475	8513.659412
915.809050	9568.508251
916.114585	10207.461898
916.420081	10458.791144
916.725536	10430.117061
917.030952	9980.476385
917.336328	9577.718439
917.641665	9165.692333
917.946961	8698.266466
918.252218	8272.614120
918.557435	7764.848940
918.862612	7336.368507
919.167750	6963.668442
919.472848	6543.883999
919.777906	6170.997411
920.082925	5812.790663
920.387904	5446.404642
920.692843	5185.716494
920.997743	4944.300678
921.302603	4709.503896
921.607423	4547.047673
921.912204	4382.330491
922.216946	4265.963016
922.521647	4148.352897
922.826310	4040.903223
923.130932	3946.101805
923.435516	3847.932895
923.740059	3779.647946
924.044564	3702.450237
924.349028	3642.513438
924.653454	3578.299220
924.957840	3510.281452
925.262186	3463.738999
925.566493	3405.198600
925.870761	3346.993438
926.174989	3311.556647
926.479178	3275.058693
926.783328	3230.051271
927.087438	3204.449772
927.391509	3169.880059
927.695541	3137.513331
927.999533	3113.688838
928.303486	3093.362905
928.607400	3080.656677
928.911275	3069.205696
929.215110	3048.995710
929.518906	3040.854247
929.822663	3037.421221
930.126381	3037.171684
930.430060	3045.010678
930.733699	3046.452448
931.037299	3055.178686
931.340861	3051.551575
931.644383	3061.820406
931.947866	3061.396949
932.251309	3054.518294
932.554714	3055.710527
932.858080	3046.485216
933.161407	3043.735266
933.464694	3034.267979
933.767943	3024.079808
934.071153	3019.580578
934.374323	3013.276615
934.677455	3006.115656
934.980548	3001.041734
935.283602	2995.506548
935.586617	2988.058243
935.889593	3000.610716
936.192530	3004.787312
936.495428	3019.273067
936.798287	3041.391130
937.101108	3071.421283
937.403890	3124.827267
937.706632	3181.159641
938.009336	3263.146446
938.312002	3337.291737
938.614628	3398.849267
938.917216	3451.035291
939.219765	3482.933192
939.522275	3515.252030
939.824747	3521.185468
940.127179	3518.748070
940.429573	3510.662059
940.731929	3508.655680
941.034246	3494.860562
941.336524	3482.325733
941.638763	3465.911736
941.940964	3449.530507
942.243126	3409.629774
942.545250	3388.464490
942.847335	3351.873275
943.149381	3317.033860
943.451389	3285.156124
943.753359	3249.694127
944.055290	3224.415261
944.357182	3199.133875
944.659036	3185.197605
944.960851	3174.873322
945.262628	3160.206085
945.564367	3162.845129
945.866067	3160.311949
946.167729	3151.943634
946.469352	3151.933551
946.770937	3147.840134
947.072484	3131.456384
947.373992	3132.726755
947.675462	3126.853811
947.976893	3111.435442
948.278286	3104.181222
948.579641	3094.219902
948.880958	3090.144129
949.182236	3093.257041
949.483476	3087.258068
949.784678	3087.323603
950.085841	3086.925352
950.386967	3099.150150
950.688054	3116.050618
950.989103	3133.687095
951.290114	3155.984118
951.591087	3183.723068
951.892021	3211.860268
952.192917	3237.605440
952.493776	3263.519492
952.794596	3271.124072
953.095378	3278.305196
953.396122	3268.825306
953.696828	3264.873042
953.997496	3255.113368
954.298126	3232.987743
954.598718	3209.382541
954.899272	3184.025537
955.199788	3154.801968
955.500266	3126.269037
955.800706	3092.077411
956.101108	3052.408572
956.401472	3020.298942
956.701798	2987.826350
957.002087	2949.221193
957.302337	2922.122471
957.602550	2891.278171
957.902724	2864.681043
958.202861	2835.210458
958.502960	2815.620534
958.803022	2796.811989
959.103045	2774.822476
959.403031	2761.755805
959.702979	2747.426326
960.002889	2736.834861
960.302762	2721.582850
960.602596	2711.750080
960.902393	2700.692309
961.202153	2694.055630
961.501875	2685.470545
961.801559	2680.288239
962.101205	2673.288597
962.400814	2667.685354
962.700385	2660.829385
962.999918	2653.567603
963.299414	2646.535193
963.598873	2646.182312
963.898293	2636.624285
964.197677	2640.364821
964.497022	2635.782412
964.796331	2634.086064
965.095601	2633.579428
965.394835	2630.337966
965.694030	2627.751854
965.993189	2626.526853
966.292309	2626.635238
966.591393	2627.809827
966.890439	2625.563993
967.189447	2623.653396
967.488419	2627.451905
967.787353	2627.366206
968.086249	2627.938377
968.385108	2628.853346
968.683930	2630.466515
968.982714	2638.736528
969.281462	2638.358442
969.580172	2645.390851
969.878844	2650.137097
970.177480	2659.735454
970.476078	2666.054541
970.774639	2674.392609
971.073162	2683.133970
971.371649	2687.134126
971.670098	2695.202492
971.968510	2698.479242
972.266885	2703.679192
972.565223	2706.676158
972.863524	2707.278576
973.161788	2715.520863
973.460014	2717.817108
973.758204	2719.079917
974.056356	2720.211657
974.354471	2723.001935
974.652550	2724.350444
974.950591	2721.315669
975.248595	2719.722665
975.546563	2717.176882
975.844493	2713.443907
976.142386	2708.246478
976.440243	2704.510983
976.738062	2698.264993
977.035845	2692.374405
977.333590	2688.490196
977.631299	2680.676407
977.928971	2675.484019
978.226606	2667.607216
978.524204	2663.453305
978.821765	2661.940959
979.119290	2665.404232
979.416777	2662.261072
979.714228	2667.329953
980.011642	2666.851043
980.309020	2676.278001
980.606360	2692.296267
980.903664	2715.162941
981.200931	2750.435894
981.498162	2800.058492
981.795356	2874.932230
982.092513	2963.845581
982.389633	3062.710169
982.686717	3157.690549
982.983764	3232.768453
983.280775	3280.924075
983.577749	3289.209212
983.874686	3272.076850
984.171587	3238.240626
984.468451	3203.363403
984.765279	3157.927483
985.062070	3109.456789
985.358824	3069.097311
985.655543	3012.467510
985.952224	2963.273410
986.248869	2899.424676
986.545478	2839.646673
986.842050	2786.969136
987.138586	2741.593711
987.435086	2702.136599
987.731549	2675.005109
988.027975	2649.668270
988.324366	2631.013480
988.620719	2618.448404
988.917037	2607.735952
989.213318	2598.044334
989.509563	2591.437902
989.805772	2587.420102
990.101944	2582.472210
990.398080	2580.463310
990.694180	2579.901222
990.990244	2578.540110
991.286271	2576.919379
991.582262	2580.049936
991.878217	2582.719227
992.174136	2587.672160
992.470019	2589.892788
992.765865	2591.034610
993.061676	2595.327152
993.357450	2608.555140
993.653188	2609.137393
993.948890	2629.604478
994.244556	2649.025523
994.540186	2671.650222
994.835780	2701.017463
995.131337	2738.747979
995.426859	2780.922272
995.722345	2824.119920
996.017795	2877.803167
996.313208	2914.709454
996.608586	2938.075202
996.903928	2952.407203
997.199234	2954.723613
997.494504	2948.490226
997.789738	2935.756272
998.084936	2908.793660
998.380099	2879.421377
998.675225	2851.503467
998.970316	2820.018941
999.265371	2782.895884
999.560390	2748.540421
999.855373	2721.275340
1000.150320	2690.821730
1000.445232	2667.150992
1000.740108	2647.064514
1001.034948	2629.397791
1001.329752	2615.441356
1001.624521	2603.060282
1001.919254	2591.939497
1002.213951	2584.259299
1002.508613	2574.073648
1002.803239	2569.168605
1003.097829	2562.751216
1003.392384	2559.000598
1003.686903	2552.000956
1003.981386	2549.765204
1004.275834	2544.960984
1004.570246	2544.098947
1004.864623	2541.457382
1005.158964	2538.936805
1005.453270	2536.330529
1005.747540	2535.193749
1006.041775	2535.229037
1006.335974	2532.854653
1006.630138	2535.491177
1006.924266	2532.453882
1007.218359	2529.439272
1007.512416	2531.312060
1007.806438	2523.805782
1008.100425	2524.382994
1008.394376	2522.056502
1008.688292	2529.829961
1008.982172	2527.337110
1009.276017	2529.030938
1009.569827	2526.744775
1009.863602	2523.722603
1010.157341	2526.129754
1010.451045	2524.539270
1010.744714	2522.759743
1011.038347	2521.365864
1011.331945	2519.876203
1011.625508	2522.638755
1011.919036	2520.642458
1012.212528	2517.776562
1012.505986	2517.998373
1012.799408	2518.830163
1013.092795	2517.380832
1013.386147	2515.568537
1013.679464	2516.929648
1013.972745	2514.845131
1014.265992	2515.694566
1014.559204	2517.753877
1014.852380	2515.228259
1015.145521	2518.938548
1015.438628	2514.280522
1015.731699	2517.458969
1016.024736	2516.155831
1016.317737	2520.380318
1016.610703	2518.502488
1016.903635	2520.201357
1017.196531	2520.960051
1017.489393	2523.354599
1017.782219	2525.229908
1018.075011	2523.173117
1018.367768	2524.728313
1018.660490	2525.297964
1018.953177	2525.297964
1019.245829	2525.297964
