Dividing Wavelength (nm)	Counts (n)	Blue Motor Position (mm): 5.600000	Red Motor Position (mm): 0.000000	
326.493990	2064.460885
326.888308	2064.460885
327.282561	2064.460885
327.676750	2040.018850
328.070874	2039.265198
328.464933	2049.317259
328.858929	2054.340768
329.252859	2066.772254
329.646726	2077.484706
330.040528	2095.620257
330.434265	2114.638010
330.827938	2136.463685
331.221547	2155.650317
331.615091	2174.610096
332.008571	2198.855526
332.401986	2215.743391
332.795338	2237.009499
333.188625	2257.164032
333.581847	2272.554674
333.975006	2291.862294
334.368100	2309.309727
334.761129	2328.435865
335.154095	2342.558657
335.546996	2358.342510
335.939833	2373.723070
336.332606	2384.175903
336.725315	2395.218550
337.117960	2406.513256
337.510540	2415.121026
337.903056	2427.630649
338.295508	2432.132399
338.687896	2439.361414
339.080220	2444.037084
339.472480	2448.702672
339.864676	2454.068980
340.256807	2456.445884
340.648875	2460.836729
341.040879	2458.467387
341.432818	2460.415793
341.824694	2461.355968
342.216506	2460.710701
342.608253	2460.783797
342.999937	2462.023921
343.391557	2460.138530
343.783113	2458.386729
344.174605	2457.882613
344.566033	2455.896399
344.957397	2451.495471
345.348697	2454.759618
345.739934	2447.482713
346.131106	2448.838783
346.522215	2445.320058
346.913260	2445.776282
347.304241	2442.486929
347.695159	2438.131372
348.086012	2440.261260
348.476802	2438.741352
348.867528	2434.879828
349.258191	2430.824220
349.648789	2435.575508
350.039324	2430.110897
350.429796	2433.133068
350.820203	2432.250867
351.210548	2432.190373
351.600828	2434.385795
351.991045	2429.692481
352.381198	2429.349682
352.771288	2427.928077
353.161314	2431.189704
353.551276	2430.748603
353.941175	2428.492686
354.331010	2430.930084
354.720782	2429.180804
355.110490	2430.867070
355.500135	2432.460074
355.889717	2429.206010
356.279235	2429.775660
356.668689	2429.886565
357.058080	2434.151382
357.447408	2430.562080
357.836672	2433.012081
358.225873	2433.934612
358.615010	2432.850764
359.004084	2432.770105
359.393095	2435.010898
359.782043	2432.898655
360.170927	2434.708429
360.559748	2434.784046
360.948505	2434.688264
361.337199	2435.814962
361.725830	2434.448810
362.114398	2439.401743
362.502903	2435.900662
362.891344	2440.369645
363.279722	2437.402926
363.668037	2438.254881
364.056289	2437.833944
364.444478	2442.040787
364.832603	2437.380241
365.220665	2440.722526
365.608665	2439.121959
365.996601	2441.703030
366.384474	2441.975252
366.772284	2441.456013
367.160031	2443.280911
367.547715	2443.951385
367.935336	2443.096909
368.322893	2441.655139
368.710388	2438.423759
369.097820	2442.237392
369.485189	2439.298400
369.872495	2444.573967
370.259738	2443.696806
370.646918	2444.455500
371.034035	2445.025150
371.421090	2442.411312
371.808081	2444.699996
372.195010	2445.272167
372.581875	2440.901487
372.968678	2446.255192
373.355418	2446.267795
373.742096	2445.383072
374.128710	2447.414657
374.515262	2444.573967
374.901751	2444.715119
375.288177	2444.833587
375.674540	2447.308793
376.060841	2448.624534
376.447079	2445.546910
376.833254	2450.199895
377.219367	2448.077569
377.605417	2448.863989
377.991404	2448.334668
378.377329	2451.422375
378.763191	2448.304421
379.148991	2446.754266
379.534727	2449.171499
379.920402	2448.861468
380.306013	2448.853907
380.691563	2451.896243
381.077049	2451.888681
381.462474	2451.036726
381.847835	2451.066973
382.233134	2454.547890
382.618371	2450.207457
383.003545	2453.206943
383.388657	2452.947324
383.773706	2453.443877
384.158693	2450.577981
384.543618	2454.545369
384.928480	2449.151335
385.313280	2453.506892
385.698017	2450.779627
386.082692	2454.507561
386.467305	2451.901284
386.851856	2454.459670
387.236344	2450.530090
387.620770	2452.957406
388.005133	2448.919442
388.389435	2454.222736
388.773674	2449.075717
389.157851	2457.413786
389.541965	2451.142591
389.926018	2455.223405
390.310008	2454.227777
390.693936	2455.513271
391.077802	2457.655761
391.461606	2454.505040
391.845348	2455.029320
392.229027	2455.525874
392.612645	2458.472428
392.996200	2455.989660
393.379694	2455.997222
393.763125	2457.365895
394.146494	2460.133488
394.529801	2460.453602
394.913047	2457.166769
395.296230	2457.214660
395.679351	2458.036368
396.062410	2457.812037
396.445408	2457.401183
396.828343	2459.021914
397.211217	2457.486883
397.594028	2458.031327
397.976778	2458.827830
398.359466	2459.324383
398.742092	2458.333797
399.124656	2459.634414
399.507158	2456.234156
399.889598	2461.827316
400.271977	2460.854373
400.654294	2459.218519
401.036549	2457.532253
401.418742	2459.233642
401.800874	2459.888992
402.182944	2459.692388
402.564952	2463.188428
402.946898	2461.635752
403.328783	2460.761112
403.710606	2459.810855
404.092367	2463.422841
404.474067	2462.240691
404.855705	2463.349745
405.237282	2462.021401
405.618797	2462.641463
406.000250	2465.618264
406.381642	2461.915536
406.762972	2463.332101
407.144240	2458.187603
407.525447	2463.586679
407.906593	2459.437809
408.287677	2463.042234
408.668700	2463.092646
409.049661	2464.776391
409.430560	2463.536267
409.811399	2464.189097
410.192176	2462.921247
410.572891	2462.439816
410.953545	2464.239508
411.334138	2464.027780
411.714669	2466.026597
412.095139	2465.950980
412.475547	2463.226236
412.855894	2466.689509
413.236180	2465.033490
413.616405	2465.729169
413.996568	2465.121710
414.376670	2464.957873
414.756711	2466.853347
415.136691	2467.992647
415.516609	2468.380816
415.896466	2465.298151
416.276262	2469.245374
416.655997	2466.313943
417.035670	2467.221351
417.415283	2465.885445
417.794834	2465.497276
418.174324	2466.896196
418.553753	2468.471557
418.933121	2465.898048
419.312428	2468.219499
419.691674	2467.410394
420.070859	2466.447534
420.449983	2466.770168
420.829045	2465.426700
421.208047	2467.818727
421.586988	2467.060034
421.965867	2469.300827
422.344686	2467.291927
422.723444	2468.658080
423.102141	2468.834520
423.480777	2469.764613
423.859352	2470.770323
424.237866	2467.722946
424.616319	2470.193111
424.994712	2468.617750
425.373044	2470.425004
425.751314	2469.084057
426.129524	2467.251598
426.507673	2468.267390
426.885762	2466.500466
427.263789	2470.273769
427.641756	2470.031794
428.019662	2473.328709
428.397508	2469.126907
428.775292	2471.029943
429.153016	2470.606486
429.530679	2470.669500
429.908282	2469.295786
430.285824	2473.086733
430.663305	2472.582618
431.040726	2471.022381
431.418086	2470.571197
431.795385	2471.256794
432.172624	2474.959522
432.549802	2471.992803
432.926920	2474.067238
433.303977	2472.287710
433.680974	2471.894500
434.057910	2472.136476
434.434786	2471.713019
434.811601	2475.105715
435.188355	2471.886939
435.565050	2474.674697
435.941683	2475.609831
436.318257	2471.176136
436.694770	2472.239819
437.071222	2474.798205
437.447614	2470.856023
437.823946	2475.448514
438.200218	2470.387195
438.576429	2472.252422
438.952580	2474.412557
439.328670	2471.357618
439.704700	2474.062197
440.080670	2473.411888
440.456580	2472.625468
440.832429	2470.906434
441.208218	2471.473564
441.583947	2476.154275
441.959616	2474.599079
442.335224	2475.488843
442.710773	2475.312403
443.086261	2472.822073
443.461689	2473.903400
443.837057	2474.946919
444.212365	2476.476909
444.587612	2471.597072
444.962800	2473.381641
445.337927	2472.504480
445.712995	2470.092288
446.088002	2475.904738
446.462949	2475.080510
446.837837	2475.352732
447.212664	2474.427680
447.587431	2474.311734
447.962139	2475.362814
448.336786	2476.988586
448.711374	2473.510190
449.085901	2476.905407
449.460369	2475.506487
449.834776	2476.915490
450.209124	2475.577063
450.583412	2474.291569
450.957640	2478.473206
451.331808	2475.839203
451.705917	2476.544965
452.079965	2477.664101
452.453954	2478.372383
452.827883	2474.276446
453.201752	2478.047229
453.575562	2476.582773
453.949311	2476.141672
454.323001	2476.156796
454.696632	2476.366004
455.070202	2476.358442
455.443713	2476.481950
455.817164	2477.623772
456.190556	2478.200984
456.563888	2479.914976
456.937160	2474.430201
457.310373	2476.391210
457.683526	2477.076807
458.056619	2476.832311
458.429653	2479.020171
458.802628	2477.817856
459.175542	2477.747280
459.548398	2480.046046
459.921194	2477.016313
460.293930	2479.947744
460.666607	2477.573360
461.039224	2478.649647
461.411782	2478.805922
461.784280	2478.488330
462.156719	2481.084524
462.529099	2481.664257
462.901419	2478.044708
463.273680	2476.673514
463.645882	2474.810808
464.018024	2476.650829
464.390106	2475.017495
464.762130	2480.151910
465.134094	2479.438587
465.505999	2478.211066
465.877845	2479.834318
466.249631	2475.914821
466.621358	2478.979842
466.993026	2480.323310
467.364634	2480.330871
467.736184	2478.445480
468.107674	2480.141828
468.479105	2481.843218
468.850477	2480.986221
469.221790	2480.303145
469.593043	2479.806591
469.964238	2480.139308
470.335373	2478.548823
470.706449	2480.348515
471.077467	2478.543782
471.448425	2477.943885
471.819324	2480.345995
472.190164	2481.066880
472.560945	2480.572847
472.931667	2480.840028
473.302330	2479.390696
473.672934	2479.181488
474.043479	2482.259113
474.413965	2480.847590
474.784393	2481.697024
475.154761	2480.993783
475.525070	2478.705099
475.895321	2478.982363
476.265513	2479.597383
476.635645	2480.429174
477.005719	2482.914463
477.375734	2479.587301
477.745691	2478.634523
478.115588	2481.336582
478.485427	2480.862713
478.855207	2482.967395
479.224928	2481.606283
479.594591	2480.298104
479.964194	2482.876654
480.333739	2477.129739
480.703226	2481.661736
481.072653	2482.511170
481.442022	2480.824904
481.811333	2480.948413
482.180584	2478.072434
482.549777	2479.990593
482.918912	2476.043370
483.287988	2480.908083
483.657005	2483.806747
484.025964	2481.727271
484.394864	2481.316417
484.763706	2480.706437
485.132489	2480.318268
485.501213	2483.201808
485.869879	2483.630307
486.238487	2483.821870
486.607036	2480.706437
486.975527	2483.451346
487.343959	2482.357415
487.712333	2485.399752
488.080648	2479.088227
488.448905	2482.813640
488.817104	2482.690131
489.185244	2483.043012
489.553326	2484.880513
489.921350	2484.696511
490.289315	2484.651140
490.657222	2480.819863
491.025070	2482.264154
491.392861	2483.622745
491.760593	2486.246665
492.128267	2483.975626
492.495883	2485.293887
492.863440	2483.494195
493.230939	2482.538897
493.598380	2482.652323
493.965763	2485.051912
494.333088	2483.549648
494.700354	2481.351705
495.067563	2483.658033
495.434713	2483.002683
495.801805	2485.031747
496.168839	2485.745071
496.535815	2485.377066
496.902733	2484.232724
497.269593	2483.375728
497.636395	2484.673825
498.003139	2484.814978
498.369825	2484.618373
498.736453	2484.872951
499.103023	2483.244658
499.469535	2486.155925
499.835989	2482.352374
500.202385	2481.444966
500.568723	2480.351036
500.935003	2481.921355
501.301226	2478.095120
501.667390	2483.852117
502.033497	2484.351192
502.399546	2484.464617
502.765537	2484.693990
503.131470	2482.387662
503.497345	2485.624083
503.863163	2483.257261
504.228923	2484.179792
504.594625	2483.499237
504.960269	2484.641058
505.325856	2486.473517
505.691385	2485.815647
506.056856	2484.998980
506.422270	2485.024186
506.787625	2485.341778
507.152924	2481.787765
507.518164	2482.027220
507.883347	2485.581233
508.248472	2483.806747
508.613540	2481.823053
508.978550	2485.805564
509.343503	2482.866572
509.708398	2484.641058
510.073236	2484.623414
510.438016	2484.056284
510.802738	2485.056953
511.167403	2483.259782
511.532010	2483.872282
511.896561	2487.819505
512.261053	2483.567292
512.625488	2485.271202
512.989866	2483.683239
513.354186	2484.915801
513.718449	2485.034268
514.082655	2486.856645
514.446803	2484.867910
514.810894	2484.154587
515.174927	2484.799854
515.538904	2485.089721
515.902822	2486.939824
516.266684	2486.839001
516.630488	2484.308342
516.994235	2486.581902
517.357925	2485.477889
517.721558	2488.752119
518.085133	2485.437560
518.448651	2484.905718
518.812112	2482.145687
519.175516	2485.931593
519.538863	2481.066880
519.902152	2486.201295
520.265385	2484.341109
520.628560	2488.744557
520.991678	2485.694659
521.354739	2486.097951
521.717743	2486.428147
522.080690	2486.319762
522.443580	2486.062663
522.806413	2483.093424
523.169189	2485.112406
523.531908	2488.565596
523.894569	2484.605770
524.257174	2484.877992
524.619722	2486.503764
524.982213	2487.547283
525.344647	2486.483600
525.707025	2487.701038
526.069345	2484.315903
526.431608	2486.738178
526.793815	2484.177272
527.155964	2487.214567
527.518057	2484.928404
527.880093	2489.389825
528.242072	2486.002169
528.603995	2485.046871
528.965860	2486.476038
529.327669	2488.351347
529.689421	2487.685915
530.051117	2486.065184
530.412755	2485.787920
530.774337	2487.423775
531.135862	2485.240955
531.497331	2488.588281
531.858743	2488.545432
532.220098	2487.731285
532.581396	2487.501913
532.942638	2484.313383
533.303824	2487.630462
533.664953	2488.497541
534.026025	2486.095431
534.387040	2485.921511
534.747999	2487.920328
535.108902	2485.248517
535.469748	2487.310349
535.830537	2483.993270
536.191270	2486.405462
536.551947	2482.145687
536.912567	2483.685759
537.273131	2484.270533
537.633638	2481.404637
537.994089	2486.269351
538.354483	2486.753301
538.714821	2486.720534
539.075103	2484.726758
539.435328	2486.355050
539.795497	2487.695997
540.155609	2486.196254
540.515665	2487.625421
540.875665	2487.000318
541.235609	2485.167858
541.595496	2487.665750
541.955328	2486.415544
542.315102	2484.673825
542.674821	2489.772952
543.034483	2487.794300
543.394090	2489.329331
543.753640	2485.717344
544.113134	2485.160297
544.472571	2486.430668
544.831953	2486.241624
545.191278	2488.739516
545.550548	2486.261789
545.909761	2486.748260
546.268918	2485.956799
546.628019	2489.228508
546.987064	2486.110554
547.346053	2485.606439
547.704986	2485.326655
548.063863	2488.300936
548.422684	2484.724237
548.781449	2487.058291
549.140158	2485.903867
549.498811	2484.225163
549.857408	2485.823208
550.215949	2484.467138
550.574434	2487.491830
550.932864	2486.138281
551.291237	2489.344454
551.649555	2486.344968
552.007817	2489.898981
552.366022	2487.416213
552.724173	2488.389156
553.082267	2483.806747
553.440305	2487.312869
553.798288	2485.614001
554.156215	2487.466625
554.514086	2485.861017
554.871902	2483.027889
555.229661	2486.823877
555.587365	2482.864051
555.945014	2487.575009
556.302606	2487.249855
556.660143	2486.632314
557.017625	2488.865545
557.375050	2485.067035
557.732421	2488.253045
558.089735	2486.760863
558.446994	2486.881851
558.804197	2490.398056
559.161345	2487.988384
559.518437	2485.830770
559.875474	2488.782366
560.232455	2484.515029
560.589381	2487.670791
560.946251	2486.894454
561.303065	2485.745071
561.659825	2487.731285
562.016528	2488.157263
562.373177	2487.728765
562.729770	2487.209526
563.086307	2488.512664
563.442789	2485.583754
563.799216	2487.532160
564.155587	2487.978302
564.511904	2485.734988
564.868164	2487.824547
565.224370	2487.562407
565.580520	2487.005359
565.936615	2488.245483
566.292654	2485.848414
566.648638	2484.540235
567.004567	2489.314207
567.360441	2489.112561
567.716260	2486.874289
568.072023	2487.572489
568.427732	2487.244814
568.783385	2489.052068
569.138982	2487.622900
569.494525	2487.017962
569.850013	2487.781697
570.205445	2485.956799
570.560823	2487.811944
570.916145	2488.366471
571.271412	2489.006697
571.626625	2489.160452
571.981782	2486.856645
572.336884	2486.876810
572.691931	2482.551500
573.046923	2486.193733
573.401860	2483.721047
573.756743	2486.677684
574.111570	2483.650471
574.466342	2486.841522
574.821059	2487.199443
575.175722	2488.285812
575.530330	2491.000473
575.884882	2486.143322
576.239380	2489.273878
576.593823	2488.328662
576.948211	2488.580720
577.302544	2487.728765
577.656823	2487.542242
578.011047	2489.399907
578.365216	2489.122644
578.719330	2488.404279
579.073389	2487.753970
579.427394	2489.712459
579.781344	2487.620380
580.135239	2490.035093
580.489080	2487.421254
580.842866	2490.181286
581.196597	2488.505102
581.550273	2488.341265
581.903895	2488.447129
582.257463	2488.878148
582.610975	2485.669453
582.964434	2489.047026
583.317837	2487.466625
583.671186	2487.519557
584.024481	2485.903867
584.377721	2487.733806
584.730906	2487.136429
585.084037	2488.739516
585.437113	2489.397387
585.790135	2488.875627
586.143103	2487.509474
586.496016	2487.436378
586.848874	2487.327993
587.201679	2487.587612
587.554428	2488.084166
587.907124	2488.084166
588.259765	2489.440236
588.612352	2487.834629
588.964884	2487.927890
589.317362	2489.283961
589.669786	2482.586788
590.022155	2486.997797
590.374470	2483.771459
590.726731	2485.334217
591.078937	2485.929073
591.431090	2488.691625
591.783188	2486.521408
592.135232	2488.162304
592.487222	2489.730103
592.839157	2487.781697
593.191038	2487.320431
593.542866	2487.476707
593.894639	2487.708600
594.246358	2489.846049
594.598022	2489.130205
594.949633	2487.322952
595.301190	2487.534680
595.652692	2487.552324
596.004141	2486.813795
596.355535	2489.031903
596.706876	2487.789258
597.058162	2485.984525
597.409395	2486.786069
597.760573	2485.014103
598.111698	2488.926039
598.462768	2488.973930
598.813785	2487.083497
599.164748	2487.078456
599.515657	2487.731285
599.866511	2489.079794
600.217312	2489.291522
600.568060	2488.994094
600.918753	2487.774135
601.269392	2487.879999
601.619978	2487.564927
601.970510	2488.343785
602.320988	2491.479383
602.671412	2490.977788
603.021783	2484.913280
603.372100	2487.421254
603.722363	2488.459732
604.072572	2487.804382
604.422728	2488.978971
604.772830	2488.321100
605.122878	2487.282623
605.472872	2488.129536
605.822813	2487.912767
606.172701	2488.041316
606.522534	2485.578713
606.872314	2488.724393
607.222041	2488.477376
607.571714	2485.853455
607.921333	2484.255410
608.270899	2485.230873
608.620411	2482.415388
608.969870	2492.497696
609.319276	2486.657519
609.668627	2491.066008
610.017926	2488.197592
610.367171	2487.743888
610.716362	2488.905874
611.065500	2491.141626
611.414585	2489.500730
611.763616	2488.920998
612.112594	2487.612818
612.461518	2487.383446
612.810389	2488.104331
613.159207	2487.045688
613.507971	2487.638024
613.856682	2490.266986
614.205340	2490.587099
614.553945	2489.528457
614.902496	2488.114413
615.250994	2489.218426
615.599439	2488.623569
615.947830	2492.381750
616.296169	2487.945534
616.644454	2487.602736
616.992686	2487.360760
617.340864	2489.926708
617.688990	2489.629280
618.037063	2489.868734
618.385082	2489.515854
618.733048	2491.675988
619.080961	2490.468632
619.428821	2486.665081
619.776628	2487.002838
620.124382	2489.987202
620.472083	2489.478045
620.819731	2490.624907
621.167326	2488.079125
621.514868	2489.170535
621.862357	2490.443426
622.209793	2492.064157
622.557176	2489.810761
622.904506	2488.381594
623.251783	2489.898981
623.599007	2487.837149
623.946179	2487.867396
624.293297	2492.056595
624.640363	2488.086687
624.987376	2486.498723
625.334336	2485.475369
625.681243	2487.544763
626.028097	2487.106182
626.374899	2488.585761
626.721647	2490.072901
627.068343	2490.382932
627.414987	2492.588437
627.761577	2490.433344
628.108115	2490.768580
628.454600	2488.240442
628.801032	2492.888386
629.147412	2488.953765
629.493739	2490.788745
629.840014	2491.683550
630.186236	2491.338231
630.532405	2491.040803
630.878521	2490.897130
631.224585	2488.190030
631.570597	2492.275885
631.916556	2491.953252
632.262462	2491.638179
632.608316	2490.347644
632.954117	2490.327479
633.299866	2490.408138
633.645562	2491.794455
633.991206	2491.791935
634.336797	2490.140957
634.682336	2490.818992
635.027823	2490.385453
635.373257	2492.979126
635.718639	2491.093735
636.063968	2492.212871
636.409245	2490.098107
636.754470	2493.450474
637.099642	2490.816471
637.444762	2491.665906
637.789829	2489.694815
638.134845	2488.454691
638.479808	2491.398725
638.824719	2488.976450
639.169577	2492.346462
639.514383	2491.854949
639.859137	2492.890906
640.203839	2491.159270
640.548489	2493.362254
640.893086	2493.148005
641.237632	2494.640187
641.582125	2494.632625
641.926566	2490.380412
642.270955	2491.134064
642.615292	2488.308497
642.959576	2491.746564
643.303809	2487.670791
643.647990	2492.807727
643.992118	2493.543736
644.336195	2493.195896
644.680219	2494.660351
645.024192	2494.741010
645.368112	2495.628253
645.711981	2491.406286
646.055797	2493.647079
646.399562	2495.000629
646.743274	2495.547594
647.086935	2494.209168
647.430544	2492.777480
647.774101	2495.519868
648.117606	2492.759836
648.461059	2495.088849
648.804460	2500.147647
649.147810	2493.773108
649.491108	2496.903665
649.834354	2495.030876
650.177548	2494.073057
650.520690	2496.344097
650.863781	2495.799652
651.206820	2496.926350
651.549807	2494.773777
651.892742	2494.443582
652.235626	2495.449292
652.578458	2498.045486
652.921238	2496.326453
653.263967	2496.114724
653.606644	2496.162615
653.949269	2499.068840
654.291843	2494.441061
654.634365	2495.948366
654.976836	2497.856443
655.319255	2499.154540
655.661622	2496.371823
656.003938	2497.092708
656.346203	2495.557677
656.688416	2499.066320
657.030577	2495.900475
657.372687	2497.337204
657.714746	2496.109683
658.056753	2499.207472
658.398708	2498.771412
658.740612	2500.881135
659.082465	2499.850219
659.424266	2498.839468
659.766016	2495.219919
660.107715	2497.942142
660.449362	2494.239415
660.790958	2500.266114
661.132503	2500.863491
661.473996	2500.492966
661.815438	2501.415497
662.156829	2501.569253
662.498168	2504.619151
662.839456	2500.916423
663.180693	2504.238543
663.521879	2504.412463
663.863013	2503.530261
664.204097	2503.888183
664.545129	2504.125118
664.886110	2501.929695
665.227040	2504.866167
665.567918	2503.043790
665.908746	2503.590755
666.249522	2505.430776
666.590248	2507.099398
666.930922	2504.543533
667.271545	2506.476816
667.612118	2507.437156
667.952639	2504.871208
668.293109	2506.502022
668.633528	2506.917917
668.973896	2505.612258
669.314213	2507.691734
669.654480	2506.885149
669.994695	2507.169974
670.334859	2509.783813
670.674973	2508.440345
671.015035	2509.758607
671.355047	2508.021929
671.695008	2507.326250
672.034918	2507.530417
672.374777	2509.977897
672.714585	2509.768689
673.054342	2512.397651
673.394049	2512.180881
673.733705	2513.237003
674.073310	2509.746004
674.412864	2511.296159
674.752368	2510.955881
675.091820	2512.853875
675.431223	2512.969822
675.770574	2512.203567
676.109875	2510.761797
676.449125	2511.487723
676.788324	2508.952022
677.127473	2511.167609
677.466571	2506.824655
677.805619	2514.542662
678.144616	2512.609379
678.483562	2510.996210
678.822458	2516.233969
679.161303	2514.693897
679.500098	2512.732888
679.838842	2515.692045
680.177535	2512.342198
680.516179	2517.383352
680.854771	2514.855213
681.193314	2517.496778
681.531805	2521.156656
681.870247	2521.970802
682.208638	2524.783766
682.546978	2521.597757
682.885268	2525.098838
683.223508	2523.599095
683.561697	2523.157994
683.899836	2523.394928
684.237925	2524.483817
684.575963	2524.062881
684.913951	2524.887110
685.251889	2525.456760
685.589776	2524.882068
685.927614	2527.949611
686.265401	2527.334590
686.603137	2530.475229
686.940824	2531.407842
687.278460	2532.421114
687.616046	2533.036135
687.953582	2532.950435
688.291068	2539.662732
688.628504	2540.562577
688.965889	2539.962680
689.303224	2540.255067
689.640510	2538.798174
689.977745	2535.118131
690.314930	2535.914634
690.652065	2536.496887
690.989150	2532.668131
691.326185	2531.294416
691.663170	2532.935312
692.000105	2528.907430
692.336990	2529.550177
692.673825	2531.168387
693.010610	2530.404652
693.347345	2522.530370
693.684030	2523.619259
694.020665	2524.476256
694.357251	2520.395442
694.693786	2523.203364
695.030272	2524.529188
695.366707	2527.140505
695.703093	2525.665968
696.039429	2525.784435
696.375716	2527.236287
696.711952	2523.548683
697.048139	2524.897192
697.384276	2526.026410
697.720363	2526.787625
698.056400	2528.811648
698.392388	2526.893489
698.728326	2527.924405
699.064214	2525.212264
699.400053	2526.480114
699.735842	2527.513551
700.071581	2527.647141
700.407270	2529.459436
700.742910	2525.676050
701.078501	2527.687471
701.414042	2527.074970
701.749533	2523.059691
702.084974	2525.923067
702.420366	2525.918026
702.755709	2526.777542
703.091002	2525.575227
703.426246	2523.314270
703.761440	2524.559435
704.096584	2526.238139
704.431679	2524.927439
704.766725	2526.076822
705.101721	2526.931298
705.436668	2522.439629
705.771565	2526.525485
706.106413	2528.877183
706.441212	2526.384332
706.775961	2527.715197
707.110661	2528.680578
707.445311	2531.949766
707.779913	2531.223840
708.114465	2531.241484
708.448967	2534.616537
708.783421	2534.581248
709.117825	2535.942360
709.452180	2539.637526
709.786485	2542.871426
710.120742	2541.228010
710.454949	2540.136600
710.789107	2544.101467
711.123216	2543.494008
711.457275	2550.125646
711.791286	2552.462221
712.125247	2554.851728
712.459159	2555.872562
712.793023	2559.209806
713.126837	2552.351316
713.460602	2554.584547
713.794318	2557.258879
714.127985	2551.877447
714.461602	2550.697817
714.795171	2553.535987
715.128691	2547.158927
715.462162	2544.633309
715.795584	2545.691952
716.128957	2545.964174
716.462281	2541.354039
716.795556	2540.696168
717.128782	2537.966383
717.461960	2539.080478
717.795088	2540.106353
718.128167	2539.012423
718.461198	2534.916485
718.794180	2537.850437
719.127113	2534.820703
719.459997	2535.670138
719.792833	2534.238450
720.125619	2533.005888
720.458357	2533.063861
720.791046	2536.474202
721.123686	2532.524458
721.456278	2530.104704
721.788821	2537.016126
722.121315	2531.538912
722.453761	2534.702236
722.786158	2532.726104
723.118506	2534.354397
723.450805	2533.759540
723.783056	2532.985723
724.115259	2534.056968
724.447412	2535.103008
724.779518	2536.108718
725.111574	2535.221475
725.443582	2537.119469
725.775542	2537.731970
726.107453	2539.695499
726.439315	2537.628626
726.771129	2544.691283
727.102895	2539.624923
727.434612	2544.250182
727.766281	2543.362938
728.097901	2549.374514
728.429473	2547.403423
728.760996	2551.504402
729.092471	2549.596325
729.423897	2550.508774
729.755276	2546.226314
730.086606	2551.695966
730.417887	2551.925338
730.749120	2555.804506
731.080305	2555.812068
731.411442	2557.765515
731.742530	2558.423386
732.073570	2563.323387
732.404562	2563.482183
732.735506	2562.312636
733.066401	2562.655434
733.397249	2559.582851
733.728048	2554.433312
734.058798	2554.899619
734.389501	2550.596994
734.720156	2548.230172
735.050762	2545.023999
735.381320	2543.065510
735.711831	2543.985521
736.042293	2542.697506
736.372707	2541.598535
736.703073	2540.857485
737.033391	2541.890922
737.363661	2544.257743
737.693883	2546.438042
738.024056	2544.603062
738.354182	2547.156407
738.684260	2549.762683
739.014290	2553.846018
739.344272	2552.033723
739.674207	2553.339382
740.004093	2558.201575
740.333931	2555.297870
740.663722	2558.836760
740.993464	2559.323232
741.323159	2560.570917
741.652806	2558.428427
741.982405	2553.099927
742.311956	2552.467262
742.641460	2553.672098
742.970915	2551.403579
743.300323	2548.855276
743.629683	2546.795964
743.958996	2546.596839
744.288260	2542.122815
744.617477	2546.702703
744.946647	2546.942158
745.275768	2545.596170
745.604842	2544.260264
745.933869	2544.524924
746.262847	2539.004861
746.591778	2544.686241
746.920662	2543.642723
747.249498	2545.596170
747.578286	2540.340767
747.907027	2544.010727
748.235720	2545.815460
748.564365	2550.234031
748.892963	2546.372507
749.221514	2548.784699
749.550017	2548.532642
749.878473	2546.591798
750.206881	2548.714123
750.535242	2547.726057
750.863555	2545.606252
751.191821	2546.097764
751.520039	2546.057435
751.848210	2546.017106
752.176334	2545.240768
752.504411	2547.426108
752.832440	2547.887374
753.160421	2545.518032
753.488356	2547.307641
753.816243	2544.625748
754.144082	2545.581046
754.471875	2546.133053
754.799620	2544.915614
755.127318	2543.962836
755.454969	2544.277908
755.782572	2545.054246
756.110129	2548.194884
756.437638	2548.000800
756.765100	2547.378218
757.092515	2548.280584
757.419882	2548.232693
757.747203	2548.565409
758.074477	2547.625234
758.401703	2550.128167
758.728882	2550.869217
759.056014	2551.748898
759.383099	2553.959444
759.710138	2552.923487
760.037129	2550.208825
760.364073	2554.922304
760.690970	2551.421223
761.017820	2555.698642
761.344623	2555.071018
761.671379	2559.429096
761.998088	2565.828841
762.324751	2577.945254
762.651366	2599.249170
762.977935	2629.670013
763.304456	2647.298928
763.630931	2655.636996
763.957359	2648.355050
764.283740	2633.483646
764.610074	2620.714403
764.936362	2604.701178
765.262602	2591.485793
765.588796	2577.773855
765.914943	2567.862946
766.241044	2564.077040
766.567097	2556.217881
766.893104	2556.875751
767.219064	2549.303938
767.544978	2549.024154
767.870845	2547.985677
768.196665	2545.762528
768.522438	2545.281098
768.848165	2540.471837
769.173846	2539.362783
769.499479	2539.403112
769.825066	2538.921682
770.150607	2538.120138
770.476101	2536.862371
770.801548	2535.183666
771.126949	2533.504962
771.452303	2534.472864
771.777611	2533.172246
772.102872	2532.965559
772.428087	2531.223840
772.753256	2530.215609
773.078378	2533.197452
773.403453	2529.383819
773.728482	2529.308202
774.053465	2528.131092
774.378401	2526.331400
774.703291	2525.880217
775.028135	2526.734693
775.352932	2530.565969
775.677683	2523.599095
776.002388	2524.456091
776.327046	2521.375946
776.651658	2524.786287
776.976224	2522.419465
777.300743	2523.266379
777.625216	2524.347706
777.949643	2526.830474
778.274024	2521.093641
778.598359	2523.979702
778.922647	2522.568179
779.246889	2525.355937
779.571086	2523.236132
779.895236	2525.434075
780.219339	2523.107582
780.543397	2526.354085
780.867409	2526.641431
781.191374	2525.416431
781.515294	2523.921729
781.839167	2527.725279
782.162995	2526.006246
782.486776	2524.816533
782.810511	2527.793335
783.134201	2522.981553
783.457844	2524.539270
783.781441	2524.788807
784.104993	2525.991122
784.428498	2524.030113
784.751958	2525.567665
785.075372	2522.215298
785.398739	2524.236801
785.722061	2525.895340
786.045337	2525.398787
786.368568	2525.393746
786.691752	2527.097656
787.014891	2529.482121
787.337983	2533.668800
787.661030	2539.776158
787.984031	2545.870912
788.306987	2550.390307
788.629897	2550.967519
788.952760	2551.443908
789.275579	2546.826211
789.598351	2545.301262
789.921078	2543.914945
790.243759	2538.301620
790.566395	2538.503266
790.888984	2531.566638
791.211529	2531.228881
791.534027	2532.221988
791.856480	2527.914322
792.178888	2526.535567
792.501249	2522.018693
792.823566	2525.628159
793.145836	2520.292098
793.468062	2523.750329
793.790241	2523.462984
794.112375	2528.723428
794.434464	2528.730989
794.756507	2528.859539
795.078505	2529.797193
795.400457	2535.881866
795.722364	2538.392361
796.044226	2541.288504
796.366042	2545.071890
796.687812	2543.186498
797.009538	2545.134904
797.331218	2543.005017
797.652852	2542.725233
797.974442	2540.290355
798.295986	2542.445448
798.617484	2540.832279
798.938938	2541.636343
799.260346	2537.520241
799.581709	2534.268697
799.903026	2535.939839
800.224299	2532.844571
800.545526	2532.032945
800.866708	2533.091587
801.187845	2531.266690
801.508936	2527.200999
801.829983	2528.357944
802.150984	2530.639066
802.471940	2529.542615
802.792851	2528.753675
803.113717	2525.494569
803.434538	2528.652852
803.755314	2529.842564
804.076045	2528.224353
804.396731	2527.170752
804.717372	2528.000022
805.037967	2529.313243
805.358518	2527.931967
805.679024	2528.015146
805.999485	2530.079498
806.319901	2531.491021
806.640272	2530.412214
806.960598	2533.462112
807.280879	2533.338604
807.601115	2534.861033
807.921306	2532.665610
808.241453	2532.423635
808.561554	2527.490866
808.881611	2531.208717
809.201623	2529.698891
809.521590	2533.368851
809.841513	2531.972451
810.161390	2532.542102
810.481223	2531.221319
810.801011	2532.227030
811.120755	2533.172246
811.440453	2529.328366
811.760107	2532.285003
812.079716	2530.553367
812.399281	2527.236287
812.718801	2529.046062
813.038276	2530.139992
813.357707	2529.822399
813.677093	2530.006401
813.996434	2529.131761
814.315731	2531.044879
814.634983	2529.482121
814.954191	2529.565300
815.273354	2531.654859
815.592473	2531.969931
815.911547	2534.324150
816.230577	2534.780374
816.549562	2539.839172
816.868502	2535.758358
817.187399	2539.158616
817.506250	2540.877650
817.825058	2544.151879
818.143821	2545.510470
818.462539	2548.618341
818.781213	2553.120092
819.099843	2559.275341
819.418429	2573.766137
819.736970	2588.735844
820.055466	2600.877463
820.373919	2621.031996
820.692327	2653.897798
821.010691	2700.682227
821.329011	2800.242494
821.647286	2948.031481
821.965517	3114.969291
822.283704	3220.470558
822.601847	3272.739762
822.919945	3219.926114
823.237999	3145.034732
823.556010	3061.941393
823.873976	2978.769917
824.191897	2899.790159
824.509775	2840.296982
824.827609	2790.747481
825.145398	2760.031731
825.463144	2747.653177
825.780845	2750.120822
826.098502	2772.692589
826.416116	2816.258240
826.733685	2862.967051
827.051210	2881.243754
827.368692	2860.587627
827.686129	2813.926707
828.003522	2763.615991
828.320872	2716.534135
828.638177	2682.395441
828.955439	2655.135402
829.272656	2631.086577
829.589830	2613.129987
829.906960	2594.540732
830.224046	2580.395255
830.541088	2574.136662
830.858086	2569.322360
831.175041	2561.443037
831.491952	2559.751730
831.808819	2561.306926
832.125642	2566.443861
832.442421	2579.177816
832.759157	2607.430963
833.075849	2649.088537
833.392497	2687.938190
833.709101	2717.565051
834.025662	2717.040771
834.342179	2699.651311
834.658653	2667.632422
834.975083	2641.350366
835.291469	2622.859414
835.607811	2602.019284
835.924110	2588.531677
836.240366	2574.865109
836.556578	2563.784653
836.872746	2556.318704
837.188871	2548.734288
837.504952	2540.050900
837.820990	2537.265663
838.136984	2532.123686
838.452935	2534.145189
838.768842	2527.276617
839.084706	2540.116435
839.400526	2560.807851
839.716303	2582.777200
840.032037	2597.313367
840.347727	2593.293047
840.663373	2581.947930
840.978977	2562.592420
841.294537	2554.385421
841.610054	2547.158927
841.925527	2538.878832
842.240957	2534.182997
842.556344	2529.376257
842.871687	2523.513395
843.186987	2518.285719
843.502244	2515.331602
843.817458	2514.184740
844.132629	2510.229955
844.447756	2509.461179
844.762840	2508.510921
845.077881	2507.248112
845.392879	2504.488081
845.707833	2503.661331
846.022745	2504.609068
846.337613	2506.300375
846.652438	2503.757113
846.967221	2503.643687
847.281960	2505.861795
847.596656	2502.325426
847.911309	2505.072854
848.225919	2501.385250
848.540485	2501.506238
848.855009	2503.013543
849.169490	2501.680158
849.483928	2502.184273
849.798323	2502.131341
850.112675	2500.616474
850.426984	2501.738131
850.741251	2501.337359
851.055474	2500.961793
851.369654	2501.901969
851.683792	2500.964314
851.997887	2503.837772
852.311938	2499.572956
852.625947	2500.598830
852.939914	2503.101763
853.253837	2501.801146
853.567718	2501.808707
853.881555	2502.148985
854.195350	2501.728049
854.509103	2504.203255
854.822812	2502.002792
855.136479	2504.430107
855.450103	2502.330467
855.763685	2500.979437
856.077224	2498.317708
856.390720	2501.972545
856.704173	2499.731752
857.017584	2501.491115
857.330953	2503.923471
857.644278	2503.111846
857.957561	2509.383041
858.270802	2505.440859
858.584000	2504.213338
858.897155	2506.091168
859.210268	2506.542351
859.523339	2505.955056
859.836367	2504.964470
860.149352	2504.001609
860.462295	2503.774757
860.775195	2505.337515
861.088054	2503.132010
861.400869	2501.909530
861.713642	2504.268790
862.026373	2503.346259
862.339062	2502.305261
862.651708	2504.425066
862.964312	2507.795078
863.276873	2505.710560
863.589392	2506.156703
863.901869	2505.960098
864.214303	2509.753566
864.526696	2509.367918
864.839045	2509.473782
865.151353	2511.270953
865.463619	2511.369256
865.775842	2514.099040
866.088023	2509.383041
866.400162	2512.372445
866.712258	2511.076869
867.024313	2512.037208
867.336325	2513.778927
867.648296	2512.868999
867.960224	2514.414112
868.272110	2513.025275
868.583954	2514.058711
868.895755	2513.224400
869.207515	2511.626354
869.519233	2515.369411
869.830909	2513.814215
870.142542	2513.466376
870.454134	2514.409071
870.765684	2515.369411
871.077191	2516.579288
871.388657	2515.843280
871.700081	2513.000069
872.011463	2518.807478
872.322803	2514.643485
872.634101	2520.851666
872.945357	2521.708662
873.256571	2521.262520
873.567744	2522.721934
873.878874	2522.999197
874.189963	2522.396780
874.501010	2524.597243
874.812015	2523.538601
875.122979	2524.143539
875.433900	2526.238139
875.744780	2523.954496
876.055618	2528.665454
876.366415	2524.468694
876.677169	2526.107069
876.987882	2526.979188
877.298554	2527.485824
877.609183	2532.567308
877.919771	2534.906403
878.230317	2537.089222
878.540822	2543.554502
878.851285	2549.099772
879.161707	2558.340207
879.472087	2574.580284
879.782425	2600.915271
880.092722	2639.810294
880.402977	2691.280475
880.713191	2742.624627
881.023363	2783.891512
881.333494	2811.214566
881.643583	2832.095025
881.953631	2840.652384
882.263637	2837.506704
882.573602	2822.867193
882.883526	2802.725263
883.193408	2775.855913
883.503248	2754.279774
883.813048	2728.516957
884.122806	2707.777651
884.432522	2683.247396
884.742197	2660.663027
885.051831	2642.149389
885.361424	2625.490896
885.670975	2608.698813
885.980485	2598.918974
886.289954	2585.554876
886.599382	2577.025243
886.908768	2567.535271
887.218113	2558.433468
887.527417	2550.665050
887.836680	2548.187323
888.145901	2544.446787
888.455082	2543.045346
888.764221	2537.759696
889.073319	2536.827083
889.382376	2534.397246
889.691392	2537.820190
890.000366	2533.615868
890.309300	2531.029756
890.618193	2533.474715
890.927044	2532.612678
891.235855	2534.099818
891.544625	2532.756351
891.853353	2531.589324
892.162041	2535.750796
892.470687	2539.284645
892.779293	2548.714123
893.087858	2555.895247
893.396381	2566.083419
893.704864	2585.358271
894.013306	2607.158740
894.321707	2630.353089
894.630068	2647.059473
894.938387	2652.491316
895.246665	2649.839669
895.554903	2639.349028
895.863100	2624.860752
896.171256	2614.037395
896.479371	2603.377875
896.787446	2594.102152
897.095480	2585.189392
897.403473	2577.350398
897.711425	2569.823955
898.019336	2564.762637
898.327207	2557.934394
898.635038	2553.409958
898.942827	2549.344268
899.250576	2542.858823
899.558284	2538.145344
899.865952	2538.412525
900.173579	2535.876825
900.481165	2528.632687
900.788711	2528.935156
901.096216	2526.943900
901.403681	2523.921729
901.711105	2523.478107
902.018489	2525.408869
902.325832	2524.990453
902.633135	2526.278468
902.940397	2535.045035
903.247619	2549.198074
903.554800	2584.612180
903.861941	2621.261368
904.169041	2650.109371
904.476101	2663.377688
904.783121	2659.385094
905.090100	2645.307672
905.397039	2630.922740
905.703938	2616.532766
906.010796	2603.456013
906.317614	2590.870772
906.624391	2577.998186
906.931129	2569.899572
907.237826	2559.691236
907.544483	2549.190512
907.851099	2540.978473
908.157675	2536.267514
908.464211	2528.211751
908.770707	2519.767818
909.077163	2517.027951
909.383578	2514.373783
909.689954	2513.279853
909.996289	2511.991838
910.302584	2509.146107
910.608839	2506.746518
910.915054	2507.658966
911.221229	2504.155364
911.527363	2505.461023
911.833458	2507.048987
912.139513	2510.973525
912.445527	2510.345901
912.751502	2510.177023
913.057436	2514.426715
913.363331	2518.293280
913.669186	2523.271420
913.975000	2527.589168
914.280775	2538.072247
914.586510	2552.184958
914.892205	2575.623802
915.197859	2593.328335
915.503475	2616.739453
915.809050	2638.991106
916.114585	2649.781696
916.420081	2656.844353
916.725536	2658.810403
917.030952	2652.947541
917.336328	2643.666777
917.641665	2633.339973
917.946961	2621.067284
918.252218	2615.975718
918.557435	2600.171701
918.862612	2597.648604
919.167750	2588.093097
919.472848	2578.724112
919.777906	2570.257494
920.082925	2558.861966
920.387904	2554.899619
920.692843	2545.928886
920.997743	2541.127187
921.302603	2533.363810
921.607423	2531.433048
921.912204	2528.310053
922.216946	2524.128416
922.521647	2522.038858
922.826310	2517.620286
923.130932	2517.872344
923.435516	2514.746829
923.740059	2514.305728
924.044564	2510.343381
924.349028	2509.357835
924.653454	2510.731550
924.957840	2504.621671
925.262186	2504.735097
925.566493	2501.680158
925.870761	2500.230826
926.174989	2500.490446
926.479178	2501.634788
926.783328	2499.905672
927.087438	2497.901813
927.391509	2498.915085
927.695541	2493.102635
927.999533	2493.173211
928.303486	2493.160608
928.607400	2495.540033
928.911275	2492.144815
929.215110	2496.381905
929.518906	2494.022645
929.822663	2495.613129
930.126381	2490.100628
930.430060	2492.762357
930.733699	2492.348982
931.037299	2492.653972
931.340861	2495.623212
931.644383	2493.510968
931.947866	2491.746564
932.251309	2496.180259
932.554714	2492.467449
932.858080	2494.408293
933.161407	2488.968888
933.464694	2489.530977
933.767943	2489.258755
934.071153	2492.606081
934.374323	2491.693632
934.677455	2492.270844
934.980548	2494.244456
935.283602	2492.958962
935.586617	2490.783704
935.889593	2491.968375
936.192530	2489.195740
936.495428	2494.761174
936.798287	2491.807058
937.101108	2493.984837
937.403890	2496.840650
937.706632	2498.927688
938.009336	2498.998264
938.312002	2504.377175
938.614628	2503.910868
938.917216	2505.435817
939.219765	2505.851713
939.522275	2508.518483
939.824747	2509.947650
940.127179	2507.855571
940.429573	2506.665859
940.731929	2505.103101
941.034246	2508.705006
941.336524	2504.230982
941.638763	2504.374655
941.940964	2504.530930
942.243126	2500.755106
942.545250	2504.760303
942.847335	2503.560508
943.149381	2500.992040
943.451389	2500.477843
943.753359	2499.106649
944.055290	2498.226968
944.357182	2498.710918
944.659036	2498.282420
944.960851	2498.526916
945.262628	2499.104128
945.564367	2499.484735
945.866067	2497.990033
946.167729	2497.216216
946.469352	2497.382574
946.770937	2494.148674
947.072484	2497.748058
947.373992	2497.508603
947.675462	2496.296206
947.976893	2493.153046
948.278286	2493.160608
948.579641	2495.497183
948.880958	2492.752274
949.182236	2497.828716
949.483476	2494.738489
949.784678	2494.620022
950.085841	2496.301247
950.386967	2497.445589
950.688054	2497.995074
950.989103	2497.238901
951.290114	2498.272338
951.591087	2498.388284
951.892021	2498.930208
952.192917	2502.184273
952.493776	2499.633449
952.794596	2501.176042
953.095378	2502.484222
953.396122	2499.091525
953.696828	2499.230157
953.997496	2499.449447
954.298126	2499.393995
954.598718	2498.111021
954.899272	2498.937770
955.199788	2497.869046
955.500266	2498.272338
955.800706	2498.501710
956.101108	2496.931391
956.401472	2492.495176
956.701798	2492.921153
957.002087	2490.375370
957.302337	2490.887048
957.602550	2488.570637
957.902724	2488.973930
958.202861	2487.552324
958.502960	2485.528301
958.803022	2483.912611
959.103045	2487.824547
959.403031	2483.920173
959.702979	2487.368322
960.002889	2483.310193
960.302762	2482.480923
960.602596	2485.455204
960.902393	2484.290698
961.202153	2483.932776
961.501875	2484.751963
961.801559	2483.693321
962.101205	2481.966726
962.400814	2485.256079
962.700385	2481.467652
962.999918	2481.099647
963.299414	2479.920017
963.598873	2480.003196
963.898293	2476.794502
964.197677	2483.605101
964.497022	2480.656026
964.796331	2482.221304
965.095601	2483.012765
965.394835	2482.289360
965.694030	2479.990593
965.993189	2480.645943
966.292309	2480.819863
966.591393	2482.458238
966.890439	2481.374390
967.189447	2480.129225
967.488419	2482.740543
967.787353	2481.215594
968.086249	2481.777683
968.385108	2480.986221
968.683930	2481.165182
968.982714	2481.291211
969.281462	2480.623258
969.580172	2482.017137
969.878844	2481.177785
970.177480	2482.427991
970.476078	2481.896150
970.774639	2480.812302
971.073162	2485.240955
971.371649	2482.412868
971.670098	2482.977477
971.968510	2481.573516
972.266885	2481.293732
972.565223	2486.128198
972.863524	2480.915645
973.161788	2484.318424
973.460014	2485.039309
973.758204	2484.693990
974.056356	2485.379587
974.354471	2483.597539
974.652550	2483.721047
974.950591	2484.658702
975.248595	2481.785244
975.546563	2485.795482
975.844493	2485.198105
976.142386	2482.425471
976.440243	2483.169041
976.738062	2485.712303
977.035845	2483.836994
977.333590	2485.684577
977.631299	2483.620224
977.928971	2480.885398
978.226606	2479.867085
978.524204	2478.939513
978.821765	2477.162506
979.119290	2483.852117
979.416777	2482.609473
979.714228	2484.356233
980.011642	2485.747591
980.309020	2484.827581
980.606360	2482.518732
980.903664	2485.792962
981.200931	2484.809937
981.498162	2486.942345
981.795356	2490.085504
982.092513	2488.956286
982.389633	2493.647079
982.686717	2496.828047
982.983764	2497.836278
983.280775	2500.462719
983.577749	2497.851402
983.874686	2497.901813
984.171587	2497.427945
984.468451	2499.436844
984.765279	2496.187821
985.062070	2495.802173
985.358824	2490.755978
985.655543	2492.817809
985.952224	2490.375370
986.248869	2486.513847
986.545478	2486.448312
986.842050	2486.055102
987.138586	2488.280771
987.435086	2483.544607
987.731549	2482.246510
988.027975	2481.863382
988.324366	2480.754328
988.620719	2479.887250
988.917037	2479.693165
989.213318	2482.317086
989.509563	2479.549493
989.805772	2480.782055
990.101944	2480.343474
990.398080	2479.925058
990.694180	2478.357260
990.990244	2481.303814
991.286271	2479.451190
991.582262	2478.687455
991.878217	2480.348515
992.174136	2480.834987
992.470019	2478.294245
992.765865	2477.129739
993.061676	2478.011941
993.357450	2477.797692
993.653188	2475.602269
993.948890	2482.445635
994.244556	2478.349698
994.540186	2481.069400
994.835780	2483.083341
995.131337	2484.401603
995.426859	2484.726758
995.722345	2486.034937
996.017795	2487.794300
996.313208	2490.390494
996.608586	2490.040134
996.903928	2489.848570
997.199234	2489.689773
997.494504	2489.314208
997.789738	2489.064670
998.084936	2489.052068
998.380099	2490.423261
998.675225	2488.023672
998.970316	2486.135760
999.265371	2484.530153
999.560390	2484.502426
999.855373	2483.400934
1000.150320	2484.371356
1000.445232	2481.515542
1000.740108	2482.876654
1001.034948	2481.465131
1001.329752	2480.971098
1001.624521	2478.269039
1001.919254	2479.756180
1002.213951	2480.840028
1002.508613	2479.894812
1002.803239	2478.959678
1003.097829	2478.178299
1003.392384	2480.214925
1003.686903	2478.513535
1003.981386	2477.701910
1004.275834	2475.299800
1004.570246	2477.870788
1004.864623	2478.130408
1005.158964	2478.324492
1005.453270	2477.154944
1005.747540	2477.016313
1006.041775	2477.482619
1006.335974	2476.595376
1006.630138	2475.778709
1006.924266	2477.961529
1007.218359	2478.327013
1007.512416	2475.204018
1007.806438	2473.638740
1008.100425	2475.448514
1008.394376	2471.445838
1008.688292	2477.349029
1008.982172	2479.282311
1009.276017	2476.920531
1009.569827	2476.098823
1009.863602	2478.536221
1010.157341	2476.403813
1010.451045	2477.270891
1010.744714	2476.401292
1011.038347	2476.484471
1011.331945	2476.547485
1011.625508	2476.436580
1011.919036	2476.991107
1012.212528	2474.772999
1012.505986	2476.063535
1012.799408	2476.386168
1013.092795	2478.395068
1013.386147	2478.775675
1013.679464	2476.101343
1013.972745	2476.517238
1014.265992	2477.482619
1014.559204	2478.458083
1014.852380	2476.403812
1015.145521	2475.992958
1015.438628	2475.652681
1015.731699	2476.814667
1016.024736	2479.521766
1016.317737	2475.604790
1016.610703	2476.786940
1016.903635	2477.835500
1017.196531	2479.020171
1017.489393	2476.718885
1017.782219	2475.365335
1018.075011	2475.821559
1018.367768	2474.311734
1018.660490	2479.920017
1018.953177	2479.920017
1019.245829	2479.920017
