Dividing Wavelength (nm)	Counts (n)	Blue Motor Position (mm): 31.300000	Red Motor Position (mm): 0.000000	
326.493990	2217.291025
326.888308	2217.291025
327.282561	2217.291025
327.676750	2176.119922
328.070874	2172.787719
328.464933	2172.765034
328.858929	2173.299396
329.252859	2181.312310
329.646726	2189.761284
330.040528	2203.657225
330.434265	2215.496375
330.827938	2234.264590
331.221547	2251.160018
331.615091	2267.579056
332.008571	2286.695111
332.401986	2302.841927
332.795338	2323.472849
333.188625	2341.905828
333.581847	2361.284023
333.975006	2379.180119
334.368100	2399.876577
334.761129	2419.910122
335.154095	2436.981989
335.546996	2461.479477
335.939833	2499.209992
336.332606	2515.853362
336.725315	2528.632687
337.117960	2540.539892
337.510540	2551.355688
337.903056	2566.330435
338.295508	2572.488205
338.687896	2580.390213
339.080220	2587.684763
339.472480	2595.251535
339.864676	2601.628595
340.256807	2606.470623
340.648875	2610.241406
341.040879	2608.459358
341.432818	2614.223917
341.824694	2614.770883
342.216506	2618.324896
342.608253	2618.645009
342.999937	2620.364043
343.391557	2617.954371
343.783113	2620.951337
344.174605	2616.469752
344.566033	2616.517642
344.957397	2614.259206
345.348697	2616.752056
345.739934	2614.717951
346.131106	2610.906838
346.522215	2608.469440
346.913260	2606.626899
347.304241	2608.582866
347.695159	2604.164295
348.086012	2604.192021
348.476802	2602.404932
348.867528	2598.697164
349.258191	2594.704570
349.648789	2589.358426
350.039324	2586.958837
350.429796	2593.267841
350.820203	2590.517892
351.210548	2590.028900
351.600828	2589.744074
351.991045	2587.692325
352.381198	2590.122161
352.771288	2588.902202
353.161314	2585.184351
353.551276	2587.142839
353.941175	2584.755853
354.331010	2585.259968
354.720782	2582.457087
355.110490	2583.283836
355.500135	2584.856676
355.889717	2585.068404
356.279235	2584.408013
356.668689	2583.611511
357.058080	2585.070925
357.447408	2584.965061
357.836672	2586.989084
358.225873	2587.780545
358.615010	2584.990266
359.004084	2586.979002
359.393095	2586.928590
359.782043	2588.577047
360.170927	2586.616038
360.559748	2588.261975
360.948505	2588.690473
361.337199	2592.584765
361.725830	2588.332551
362.114398	2591.727768
362.502903	2591.563931
362.891344	2588.798858
363.279722	2589.991091
363.668037	2594.757502
364.056289	2594.697008
364.444478	2593.330855
364.832603	2594.656679
365.220665	2594.535691
365.608665	2594.795311
365.996601	2596.574838
366.384474	2595.115424
366.772284	2599.700353
367.160031	2596.879828
367.547715	2598.331680
367.935336	2596.995774
368.322893	2595.586772
368.710388	2594.969230
369.097820	2594.946545
369.485189	2595.012080
369.872495	2600.368306
370.259738	2600.564911
370.646918	2600.789242
371.034035	2598.596341
371.421090	2601.227823
371.808081	2601.716815
372.195010	2599.710436
372.581875	2601.159767
372.968678	2600.149016
373.355418	2601.290837
373.742096	2604.920468
374.128710	2601.978955
374.515262	2602.145313
374.901751	2606.034563
375.288177	2604.063472
375.674540	2604.610437
376.060841	2603.151023
376.447079	2603.198914
376.833254	2606.344594
377.219367	2604.108842
377.605417	2605.754779
377.991404	2603.110694
378.377329	2609.018926
378.763191	2605.840479
379.148991	2608.565222
379.534727	2606.697475
379.920402	2606.142948
380.306013	2608.676128
380.691563	2608.393823
381.077049	2605.517845
381.462474	2606.936930
381.847835	2611.395830
382.233134	2609.800305
382.618371	2609.029008
383.003545	2608.965994
383.388657	2610.440532
383.773706	2610.135542
384.158693	2612.961108
384.543618	2612.678804
384.928480	2612.378855
385.313280	2610.627054
385.698017	2613.152672
386.082692	2611.337857
386.467305	2613.775255
386.851856	2614.155862
387.236344	2612.492281
387.620770	2612.552775
388.005133	2612.333485
388.389435	2614.150821
388.773674	2609.926334
389.157851	2613.049329
389.541965	2618.032509
389.926018	2617.614093
390.310008	2616.391614
390.693936	2615.842128
391.077802	2616.656274
391.461606	2617.009155
391.845348	2616.852879
392.229027	2618.327417
392.612645	2617.470421
392.996200	2619.691049
393.379694	2616.177365
393.763125	2618.813888
394.146494	2621.490741
394.529801	2621.286574
394.913047	2624.291102
395.296230	2623.718931
395.679351	2622.589712
396.062410	2623.408900
396.445408	2622.556945
396.828343	2620.643827
397.211217	2623.108951
397.594028	2624.293622
397.976778	2626.693212
398.359466	2625.236318
398.742092	2626.264713
399.124656	2625.430402
399.507158	2627.348562
399.889598	2628.263531
400.271977	2626.514251
400.654294	2628.732358
401.036549	2627.885444
401.418742	2625.563993
401.800874	2631.913326
402.182944	2631.358799
402.564952	2632.117493
402.946898	2630.088429
403.328783	2631.378964
403.710606	2633.211423
404.092367	2633.960035
404.474067	2632.440127
404.855705	2636.621764
405.237282	2637.662762
405.618797	2636.268883
406.000250	2636.964562
406.381642	2636.215951
406.762972	2637.330046
407.144240	2631.971300
407.525447	2635.880714
407.906593	2636.352062
408.287677	2639.585962
408.668700	2640.964718
409.049661	2643.739873
409.430560	2642.517393
409.811399	2643.770120
410.192176	2644.090233
410.572891	2644.790954
410.953545	2644.554020
411.334138	2644.745583
411.714669	2647.245996
412.095139	2647.815646
412.475547	2647.029226
412.855894	2649.133908
413.236180	2648.357570
413.616405	2648.821356
413.996568	2650.711789
414.376670	2650.220277
414.756711	2654.227994
415.136691	2654.674136
415.516609	2655.752943
415.896466	2654.689259
416.276262	2659.259065
416.655997	2663.980106
417.035670	2666.863646
417.415283	2672.585356
417.794834	2677.137517
418.174324	2679.653053
418.553753	2685.904084
418.933121	2699.104345
419.312428	2709.884853
419.691674	2718.396841
420.070859	2740.603124
420.449983	2746.929772
420.829045	2774.676283
421.208047	2793.205044
421.586988	2823.971206
421.965867	2854.550845
422.344686	2892.790517
422.723444	2924.688418
423.102141	2932.396343
423.480777	3013.954650
423.859352	3033.960469
424.237866	3124.025724
424.616319	3173.353414
424.994712	3265.069647
425.373044	3292.332207
425.751314	3405.564084
426.129524	3460.101807
426.507673	3557.910273
426.885762	3653.656908
427.263789	3726.988053
427.641756	3797.027324
428.019662	3908.419180
428.397508	4038.911968
428.775292	4070.119231
429.153016	4252.394751
429.530679	4315.245336
429.908282	4420.600411
430.285824	4442.337866
430.663305	4729.355960
431.040726	4686.080175
431.418086	4781.751193
431.795385	4985.287779
432.172624	5116.871977
432.549802	5205.172828
432.926920	5348.923850
433.303977	5406.771091
433.680974	5593.147589
434.057910	5752.284213
434.434786	5890.931068
434.811601	5953.547240
435.188355	6326.726215
435.565050	6315.388660
435.941683	6401.736063
436.318257	6778.670698
436.694770	6955.610157
437.071222	7131.838813
437.447614	7169.738208
437.823946	7231.285655
438.200218	7457.852753
438.576429	7447.878830
438.952580	7715.682567
439.328670	7881.276909
439.704700	7853.111982
440.080670	7951.414482
440.456580	8452.603477
440.832429	8392.028972
441.208218	8218.625883
441.583947	8553.156852
441.959616	8763.766177
442.335224	8731.432217
442.710773	8936.965100
443.086261	9201.953352
443.461689	8727.762257
443.837057	9312.349580
444.212365	9651.147886
444.587612	9447.197925
444.962800	9737.205423
445.337927	9631.822623
445.712995	9326.336262
446.088002	10348.742755
446.462949	10111.054872
446.837837	10154.905349
447.212664	10236.090611
447.587431	10733.773483
447.962139	11428.134452
448.336786	13509.624355
448.711374	14138.115087
449.085901	12236.874161
449.460369	11925.620720
449.834776	11477.520116
450.209124	12295.346504
450.583412	12711.622304
450.957640	13683.506354
451.331808	12957.852422
451.705917	12001.792554
452.079965	11392.427960
452.453954	12274.370263
452.827883	11942.153184
453.201752	12246.376736
453.575562	11798.616410
453.949311	12219.373795
454.323001	12180.965244
454.696632	12417.748240
455.070202	12714.425185
455.443713	12990.864418
455.817164	13445.417699
456.190556	13472.322337
456.563888	13838.516793
456.937160	14031.139282
457.310373	13375.817008
457.683526	13453.662506
458.056619	13030.041745
458.429653	13159.801045
458.802628	12636.483906
459.175542	12983.453922
459.548398	13942.714923
459.921194	14258.727213
460.293930	14319.931862
460.666607	15222.719337
461.039224	16242.529637
461.411782	16944.822861
461.784280	16859.473606
462.156719	16898.116571
462.529099	16597.689007
462.901419	15522.587332
463.273680	15318.493698
463.645882	15180.005641
464.018024	14915.645012
464.390106	15125.483041
464.762130	15866.152049
465.134094	16591.707678
465.505999	18550.551349
465.877845	21807.676137
466.249631	24650.153418
466.621358	24375.463466
466.993026	22923.107043
467.364634	22387.348336
467.736184	20934.684402
468.107674	20129.125662
468.479105	20246.057746
468.850477	19721.674402
469.221790	19295.618764
469.593043	18629.994893
469.964238	18075.407476
470.335373	17741.756188
470.706449	18157.369075
471.077467	17692.380606
471.448425	19519.451036
471.819324	23478.619512
472.190164	25593.633087
472.560945	22106.054472
472.931667	19698.268325
473.302330	19047.878820
473.672934	18539.148259
474.043479	18909.252130
474.413965	18717.763902
474.784393	18354.039610
475.154761	19021.684985
475.525070	19033.100677
475.895321	18684.013377
476.265513	19254.452702
476.635645	19836.395940
477.005719	19629.943046
477.375734	19819.369443
477.745691	20298.337032
478.115588	20811.337450
478.485427	21319.974749
478.855207	22371.998022
479.224928	24117.263128
479.594591	26320.486813
479.964194	26418.050784
480.333739	26609.372655
480.703226	26162.365982
481.072653	25840.490829
481.442022	26397.999595
481.811333	27303.738665
482.180584	27245.430159
482.549777	26294.330787
482.918912	25933.845437
483.287988	26047.011779
483.657005	25738.904018
484.025964	25458.809948
484.394864	25392.470884
484.763706	25099.766368
485.132489	24522.634911
485.501213	24682.885630
485.869879	24602.509473
486.238487	24401.397682
486.607036	24573.694238
486.975527	24234.865685
487.343959	24577.044085
487.712333	24530.098340
488.080648	24196.346229
488.448905	24658.642722
488.817104	24409.745833
489.185244	25078.686783
489.553326	25058.423866
489.921350	26017.203436
490.289315	28288.969170
490.657222	30086.753016
491.025070	30582.613512
491.392861	30374.101306
491.760593	29532.735250
492.128267	28647.296906
492.495883	27600.425692
492.863440	26727.249955
493.230939	25852.768559
493.598380	25700.621495
493.965763	25294.375071
494.333088	24854.836868
494.700354	24785.891527
495.067563	24669.448435
495.434713	24414.547532
495.801805	24568.320368
496.168839	24374.195616
496.535815	24214.242325
496.902733	24424.264356
497.269593	24090.446710
497.636395	24284.505927
498.003139	24267.328195
498.369825	24010.678012
498.736453	24199.958215
499.103023	24083.573097
499.469535	24097.990797
499.835989	24298.321209
500.202385	24328.802546
500.568723	23846.253217
500.935003	24097.806794
501.301226	23701.907339
501.667390	24527.214800
502.033497	24766.379741
502.399546	24488.791125
502.765537	24074.763680
503.131470	24456.774757
503.497345	24593.697537
503.863163	23799.035250
504.228923	24418.162039
504.594625	24614.608243
504.960269	24130.586897
505.325856	24638.510874
505.691385	24030.746845
506.056856	24648.162163
506.422270	24622.530416
506.787625	24192.973697
507.152924	24605.796306
507.518164	24625.179542
507.883347	24433.398927
508.248472	24113.434371
508.613540	24905.490381
508.978550	24684.889489
509.343503	24680.624673
509.708398	24941.091010
510.073236	25095.403250
510.438016	25309.329654
510.802738	24979.867565
511.167403	25237.571350
511.532010	24925.309678
511.896561	25708.919234
512.261053	25684.872931
512.625488	25512.170562
512.989866	25395.755196
513.354186	25245.009572
513.718449	25363.214548
514.082655	25731.581742
514.446803	25476.227135
514.810894	25928.350579
515.174927	25415.758494
515.538904	25451.391890
515.902822	25939.345336
516.266684	25689.253693
516.630488	25604.930313
516.994235	25583.228146
517.357925	25870.450407
517.721558	26055.944703
518.085133	26146.153631
518.448651	26068.499697
518.812112	25777.728464
519.175516	25977.874874
519.538863	26159.323645
519.902152	25936.948267
520.265385	26227.243111
520.628560	26009.908887
520.991678	26019.958427
521.354739	26095.278306
521.717743	26171.689596
522.080690	25939.862054
522.443580	26289.854242
522.806413	26288.208305
523.169189	26369.685954
523.531908	26428.574193
523.894569	26025.128130
524.257174	26100.682423
524.619722	26298.172146
524.982213	25986.512892
525.344647	26041.080861
525.707025	26171.334194
526.069345	26155.900702
526.431608	26127.193851
526.793815	26310.119680
527.155964	25761.944611
527.518057	25933.028770
527.880093	25854.863159
528.242072	26095.323677
528.603995	25794.379395
528.965860	25596.698109
529.327669	25637.859130
529.689421	25633.163295
530.051117	25459.765247
530.412755	25632.782688
530.774337	25447.989111
531.135862	25314.839635
531.497331	25515.263309
531.858743	25066.333436
532.220098	25540.675766
532.581396	25221.449740
532.942638	25165.223230
533.303824	25258.303095
533.664953	25281.172289
534.026025	24939.802995
534.387040	25174.090620
534.747999	25239.250054
535.108902	25403.054787
535.469748	24893.933536
535.830537	25065.554578
536.191270	25201.713623
536.551947	25078.311218
536.912567	24717.747730
537.273131	25071.603962
537.633638	24772.345947
537.994089	24977.410003
538.354483	24533.526324
538.714821	25027.607292
539.075103	25066.923251
539.435328	24862.653177
539.795497	24411.243055
540.155609	24804.954650
540.515665	25105.651915
540.875665	24345.090514
541.235609	24627.017043
541.595496	24597.821200
541.955328	24953.409069
542.315102	24872.861513
542.674821	24419.218161
543.034483	24289.721001
543.394090	24451.289982
543.753640	24262.637402
544.113134	24901.921244
544.472571	24488.707946
544.831953	24784.795076
545.191278	24396.006168
545.550548	24332.956457
545.909761	24526.970304
546.268918	24749.912812
546.628019	24731.303393
546.987064	24427.795684
547.346053	24179.516337
547.704986	24302.336488
548.063863	24455.993378
548.422684	24465.848834
548.781449	24005.689790
549.140158	24411.832870
549.498811	23986.188087
549.857408	23716.665317
550.215949	24154.570187
550.574434	23831.596063
550.932864	24062.254057
551.291237	24213.932294
551.649555	24074.587240
552.007817	24125.906186
552.366022	23996.751824
552.724173	24045.325862
553.082267	23969.481703
553.440305	24457.505724
553.798288	23714.358989
554.156215	24229.804367
554.514086	24328.709285
554.871902	23695.051370
555.229661	23985.648683
555.587365	23838.573020
555.945014	23697.917266
556.302606	23941.200830
556.660143	23895.165013
557.017625	24147.923425
557.375050	23682.952600
557.732421	24067.300252
558.089735	23882.060533
558.446994	23956.793118
558.804197	23971.414985
559.161345	23915.952211
559.518437	23668.844931
559.875474	23874.105592
560.232455	24043.049781
560.589381	23874.826478
560.946251	23854.903837
561.303065	24166.517721
561.659825	24264.197639
562.016528	23863.105795
562.373177	23608.504840
562.729770	23956.294044
563.086307	23824.878725
563.442789	23987.256811
563.799216	23814.872035
564.155587	23829.801412
564.511904	23810.463546
564.868164	23748.197734
565.224370	23731.040167
565.580520	23641.897443
565.936615	23769.017699
566.292654	23455.621768
566.648638	23758.456482
567.004567	23580.894441
567.360441	23528.836966
567.716260	23253.320264
568.072023	23585.078598
568.427732	23343.940045
568.783385	23128.259319
569.138982	23353.240974
569.494525	23400.741246
569.850013	23152.945850
570.205445	23235.351071
570.560823	23037.619373
570.916145	22810.515392
571.271412	22992.415347
571.626625	22736.105441
571.981782	22846.511751
572.336884	22656.059480
572.691931	22789.907155
573.046923	22528.906456
573.401860	22408.851377
573.756743	22422.200353
574.111570	22315.206903
574.466342	22262.161362
574.821059	22340.450481
575.175722	22054.259136
575.530330	22032.960261
575.884882	22056.565464
576.239380	21969.290488
576.593823	21862.284436
576.948211	21843.082681
577.302544	21679.146879
577.656823	21556.750184
578.011047	21647.014564
578.365216	21519.357425
578.719330	21400.635732
579.073389	21284.338833
579.427394	21438.552770
579.781344	21206.100125
580.135239	21098.247159
580.489080	21061.237528
580.842866	20833.841161
581.196597	21022.639934
581.550273	21012.381186
581.903895	20896.485059
582.257463	21218.375335
582.610975	20737.343394
582.964434	21052.637320
583.317837	20746.243551
583.671186	20841.816266
584.024481	20806.893673
584.377721	20583.406720
584.730906	20647.073972
585.084037	20663.593833
585.437113	20567.121272
585.790135	20777.783530
586.143103	20240.787219
586.496016	20254.262223
586.848874	20497.775160
587.201679	20425.278327
587.554428	20092.776422
587.907124	20436.467168
588.259765	20210.545337
588.612352	20286.288674
588.964884	19861.521051
589.317362	20031.460867
589.669786	20084.196378
590.022155	20119.156780
590.374470	20323.172276
590.726731	20114.624783
591.078937	19870.562360
591.431090	19967.118100
591.783188	19712.154183
592.135232	19684.286684
592.487222	19787.358116
592.839157	19807.500046
593.191038	19698.462409
593.542866	19578.709799
593.894639	19292.258835
594.246358	19513.620942
594.598022	19413.853986
594.949633	19175.873716
595.301190	19142.060177
595.652692	19303.230906
596.004141	19540.394510
596.355535	18865.114308
596.706876	18885.243635
597.058162	18776.480741
597.409395	18996.017950
597.760573	19084.631352
598.111698	18861.472074
598.462768	18790.880797
598.813785	18753.621629
599.164748	18575.600842
599.515657	18607.619731
599.866511	18406.492816
600.217312	18766.302651
600.568060	18284.827089
600.918753	18591.659438
601.269392	18495.595210
601.619978	18279.450698
601.970510	18491.474067
602.320988	18432.550540
602.671412	18643.810175
603.021783	18550.717707
603.372100	18284.184342
603.722363	18415.703004
604.072572	18359.615127
604.422728	18498.629985
604.772830	18270.469882
605.122878	18211.057364
605.472872	18195.641515
605.822813	18191.394343
606.172701	18160.234971
606.522534	18354.284106
606.872314	18375.593064
607.222041	18203.656950
607.571714	18427.327905
607.921333	18258.519827
608.270899	18322.333273
608.620411	18516.067336
608.969870	18275.334596
609.319276	18273.560110
609.668627	18307.255182
610.017926	18443.948589
610.367171	18557.561073
610.716362	18608.300287
611.065500	18426.440662
611.414585	18557.939160
611.763616	18539.874185
612.112594	18492.646135
612.461518	18445.110575
612.810389	18649.945259
613.159207	18495.111260
613.507971	18417.996729
613.856682	18684.232667
614.205340	18610.999825
614.553945	18759.615561
614.902496	18507.651130
615.250994	18743.420854
615.599439	18674.442746
615.947830	18663.291714
616.296169	18721.353203
616.644454	18681.858283
616.992686	18652.445671
617.340864	18864.403505
617.688990	18626.758472
618.037063	18792.365417
618.385082	18652.891813
618.733048	18931.705430
619.080961	18799.738104
619.428821	18835.043825
619.776628	18725.955777
620.124382	18641.942427
620.472083	18686.450774
620.819731	18706.627993
621.167326	18399.906549
621.514868	18438.874668
621.862357	18211.170790
622.209793	18226.936998
622.557176	18057.276966
622.904506	17879.772898
623.251783	17788.792674
623.599007	17550.620840
623.946179	17498.618817
624.293297	17436.872244
624.640363	17183.466043
624.987376	17204.810289
625.334336	17005.011718
625.681243	16848.244436
626.028097	16859.997886
626.374899	16780.859333
626.721647	16645.902603
627.068343	16485.354456
627.414987	16408.950728
627.761577	16387.568674
628.108115	16425.364725
628.454600	16162.957544
628.801032	16250.285452
629.147412	16185.320102
629.493739	16199.150508
629.840014	16014.583783
630.186236	16109.357476
630.532405	15872.135899
630.878521	16077.658700
631.224585	15962.566637
631.570597	15787.666325
631.916556	15809.222299
632.262462	15799.502954
632.608316	15709.072216
632.954117	15660.087324
633.299866	15658.136398
633.645562	15564.166769
633.991206	15332.455174
634.336797	15199.421645
634.682336	15165.625749
635.027823	15055.136260
635.373257	14936.666624
635.718639	14838.001161
636.063968	14782.992090
636.409245	14531.783832
636.754470	14559.628645
637.099642	14402.090067
637.444762	14184.135781
637.789829	14223.350916
638.134845	14065.908120
638.479808	14090.599692
638.824719	14033.072564
639.169577	13881.810223
639.514383	13938.840796
639.859137	13759.015277
640.203839	13839.900590
640.548489	13682.298997
640.893086	13666.066482
641.237632	13538.797512
641.582125	13694.710318
641.926566	13523.303526
642.270955	13527.686809
642.615292	13495.123476
642.959576	13507.680990
643.303809	13534.948591
643.647990	13464.440493
643.992118	13530.187221
644.336195	13297.711891
644.680219	13511.262730
645.024192	13428.111418
645.368112	13666.444569
645.711981	13725.562180
646.055797	13903.615734
646.399562	13881.890881
646.743274	14144.040963
647.086935	14417.145473
647.430544	14377.340522
647.774101	14416.911059
648.117606	14568.533844
648.461059	14528.010528
648.804460	14521.618345
649.147810	14249.275050
649.491108	14150.299556
649.834354	14168.571218
650.177548	13857.161501
650.520690	13669.033201
650.863781	13589.919853
651.206820	13636.086740
651.549807	13466.255308
651.892742	13269.093261
652.235626	13200.115153
652.578458	13214.948748
652.921238	12904.776634
653.263967	13106.374897
653.606644	12928.404522
653.949269	12895.732804
654.291843	12700.786344
654.634365	12854.460877
654.976836	12706.530738
655.319255	12717.114641
655.661622	12667.716374
656.003938	12603.711365
656.346203	12523.836803
656.688416	12597.079727
657.030577	12552.188252
657.372687	12468.265643
657.714746	12446.389556
658.056753	12636.693114
658.398708	12445.593054
658.740612	12459.942698
659.082465	12556.044734
659.424266	12519.682892
659.766016	12548.477963
660.107715	12454.689816
660.449362	12532.991538
660.790958	12489.735917
661.132503	12432.377669
661.473996	12492.846309
661.815438	12516.350689
662.156829	12529.147658
662.498168	12512.514371
662.839456	12505.650840
663.180693	12522.901668
663.521879	12620.503448
663.863013	12590.256525
664.204097	12563.593862
664.545129	12694.081609
664.886110	12663.743945
665.227040	12757.839602
665.567918	12760.597113
665.908746	12793.750262
666.249522	12774.871141
666.590248	12823.873677
666.930922	12936.785440
667.271545	12923.524685
667.612118	13002.292714
667.952639	12903.589442
668.293109	12917.268613
668.633528	12869.052497
668.973896	12842.185668
669.314213	12925.364706
669.654480	12661.845951
669.994695	12733.614338
670.334859	12759.596444
670.674973	12700.924975
671.015035	12743.948703
671.355047	12681.914784
671.695008	12653.971668
672.034918	12655.915033
672.374777	12701.582846
672.714585	12617.030093
673.054342	12655.163901
673.394049	12599.582660
673.733705	12697.353318
674.073310	12599.743977
674.412864	12624.871608
674.752368	12479.497334
675.091820	12510.497909
675.431223	12488.611740
675.770574	12361.403264
676.109875	12284.629011
676.449125	12251.322108
676.788324	12186.984382
677.127473	12020.278465
677.466571	12006.929490
677.805619	11910.013307
678.144616	11831.693941
678.483562	11807.466156
678.822458	11666.921307
679.161303	11641.632359
679.500098	11635.804785
679.838842	11590.472209
680.177535	11617.480191
680.516179	11681.220540
680.854771	11621.954215
681.193314	11840.891526
681.531805	11997.953716
681.870247	12415.189855
682.208638	12823.629181
682.546978	13139.911173
682.885268	13184.469932
683.223508	12876.377294
683.561697	12719.249570
683.899836	12626.368831
684.237925	12423.974065
684.575963	12340.434584
684.913951	12263.531782
685.251889	12206.780993
685.589776	12308.304790
685.927614	12230.696227
686.265401	12202.463245
686.603137	12245.270203
686.940824	12386.362017
687.278460	12531.285107
687.616046	12571.649626
687.953582	12739.484761
688.291068	12671.797188
688.628504	12894.916137
688.965889	12907.750915
689.303224	12874.038198
689.640510	12768.587342
689.977745	12452.380967
690.314930	12232.803429
690.652065	12143.053247
690.989150	11844.763132
691.326185	11628.908487
691.663170	11421.943915
692.000105	11178.534322
692.336990	11067.223125
692.673825	10814.610906
693.010610	10693.988697
693.347345	10481.821655
693.684030	10284.001737
694.020665	10232.337472
694.357251	10032.864055
694.693786	9974.858019
695.030272	9806.531371
695.366707	9684.041415
695.703093	9621.021951
696.039429	9622.657805
696.375716	9541.349035
696.711952	9405.678982
697.048139	9454.726888
697.384276	9404.562366
697.720363	9424.174975
698.056400	9361.707518
698.392388	9309.879415
698.728326	9272.940360
699.064214	9207.503663
699.400053	9250.809695
699.735842	9067.467970
700.071581	9026.942135
700.407270	8955.544273
700.742910	8873.002940
701.078501	8782.524311
701.414042	8659.691556
701.749533	8590.521884
702.084974	8452.421995
702.420366	8571.347856
702.755709	8448.681459
703.091002	8319.433836
703.426246	8345.733536
703.761440	8292.262017
704.096584	8256.432016
704.431679	8182.518618
704.766725	8170.848347
705.101721	8124.731872
705.436668	8167.133017
705.771565	8062.256852
706.106413	8139.699058
706.441212	8183.410903
706.775961	8140.598904
707.110661	8176.116353
707.445311	8318.450811
707.779913	8221.612767
708.114465	8346.000717
708.448967	8384.868013
708.783421	8529.453347
709.117825	8719.114157
709.452180	8741.005368
709.786485	8838.556736
710.120742	9118.814643
710.454949	9118.204663
710.789107	9219.078152
711.123216	9433.513713
711.457275	9600.945556
711.791286	9759.046222
712.125247	9754.841900
712.459159	9743.501825
712.793023	9990.069700
713.126837	9563.784690
713.460602	9718.265808
713.794318	9539.466164
714.127985	9570.048324
714.461602	9249.342719
714.795171	9200.869504
715.128691	8956.676012
715.462162	8697.863173
715.795584	8648.810226
716.128957	8495.581834
716.462281	8331.199889
716.795556	8377.722178
717.128782	8167.405239
717.461960	7903.664673
717.795088	7979.118143
718.128167	7888.236222
718.461198	7718.863535
718.794180	7661.742220
719.127113	7648.715879
719.459997	7501.710792
719.792833	7267.985255
720.125619	7333.565626
720.458357	7194.949018
720.791046	7179.293715
721.123686	7175.558220
721.456278	7013.180134
721.788821	7035.535131
722.121315	6933.333298
722.453761	6998.220510
722.786158	6938.470234
723.118506	6956.336083
723.450805	6917.113386
723.783056	6984.261555
724.115259	6893.571197
724.447412	6889.419807
724.779518	6936.320182
725.111574	6939.480985
725.443582	7021.303953
725.775542	7007.337437
726.107453	7196.549585
726.439315	7100.505522
726.771129	7163.842578
727.102895	7333.797519
727.434612	7443.205681
727.766281	7478.503840
728.097901	7556.727424
728.429473	7557.377733
728.760996	7532.769340
729.092471	7505.002665
729.423897	7452.123482
729.755276	7458.208154
730.086606	7385.479428
730.417887	7487.913153
730.749120	7682.602515
731.080305	7874.355404
731.411442	7998.110690
731.742530	7990.518712
732.073570	8101.416535
732.404562	8183.078187
732.735506	8035.395064
733.066401	8178.831014
733.397249	8100.730938
733.728048	7865.379630
734.058798	7533.034001
734.389501	7305.224259
734.720156	7125.991075
735.050762	6895.585138
735.381320	6799.967053
735.711831	6748.784218
736.042293	6639.786910
736.372707	6658.368603
736.703073	6527.185177
737.033391	6558.241205
737.363661	6572.522794
737.693883	6605.401199
738.024056	6687.627460
738.354182	6729.234623
738.684260	6760.996413
739.014290	6880.870010
739.344272	6995.238668
739.674207	7023.877463
740.004093	7088.356341
740.333931	7105.564319
740.663722	7112.478262
740.993464	7186.656320
741.323159	7177.423447
741.652806	6928.322391
741.982405	6944.988446
742.311956	6993.824624
742.641460	6827.242216
742.970915	6635.557382
743.300323	6634.133256
743.629683	6579.202323
743.958996	6446.758608
744.288260	6352.413414
744.617477	6308.782228
744.946647	6309.873637
745.275768	6141.788965
745.604842	6095.745587
745.933869	6079.001394
746.262847	6036.605290
746.591778	6027.387541
746.920662	5984.187373
747.249498	5977.454912
747.578286	6026.311254
747.907027	6097.298262
748.235720	6153.799514
748.564365	6131.401668
748.892963	6162.016595
749.221514	6311.257434
749.550017	6142.887937
749.878473	6020.135841
750.206881	6072.503347
750.535242	6016.400346
750.863555	5951.767712
751.191821	5966.989476
751.520039	5966.961750
751.848210	5874.822061
752.176334	5897.300566
752.504411	5949.468946
752.832440	5872.518253
753.160421	5805.617101
753.488356	5846.664696
753.816243	5878.948245
754.144082	5736.127315
754.471875	5700.851841
754.799620	5745.733234
755.127318	5762.177478
755.454969	5715.393050
755.782572	5679.855436
756.110129	5719.955294
756.437638	5705.686308
756.765100	5649.578266
757.092515	5648.655734
757.419882	5698.389238
757.747203	5676.495507
758.074477	5739.857769
758.401703	5726.077775
758.728882	5674.685732
759.056014	5738.473972
759.383099	5863.582808
759.710138	5875.626125
760.037129	5862.161203
760.364073	5863.098857
760.690970	5947.165139
761.017820	5928.197798
761.344623	5887.803032
761.671379	5986.256766
761.998088	6106.362257
762.324751	6347.863773
762.651366	6961.175591
762.977935	8273.047659
763.304456	9911.793184
763.630931	10802.111365
763.957359	10403.903061
764.283740	9458.638824
764.610074	8625.260476
764.936362	7624.682178
765.262602	7026.887031
765.588796	6488.774105
765.914943	6156.862015
766.241044	5994.554506
766.567097	5782.674809
766.893104	5531.108630
767.219064	5353.516341
767.544978	5291.099295
767.870845	5206.614598
768.196665	5104.679946
768.522438	5032.747722
768.848165	5002.626828
769.173846	4932.421199
769.499479	4889.430239
769.825066	4838.146581
770.150607	4772.815747
770.476101	4752.532665
770.801548	4743.811469
771.126949	4673.079039
771.452303	4618.523672
771.777611	4574.655552
772.102872	4595.881330
772.428087	4558.972522
772.753256	4516.611706
773.078378	4475.251559
773.403453	4400.700456
773.728482	4390.300555
774.053465	4340.141075
774.378401	4335.341896
774.703291	4331.482893
775.028135	4258.423971
775.352932	4212.826734
775.677683	4196.279147
776.002388	4215.798494
776.327046	4227.236873
776.651658	4149.739214
776.976224	4091.730657
777.300743	4094.034464
777.625216	4118.148824
777.949643	4111.600365
778.274024	4066.232501
778.598359	4023.264226
778.922647	4047.078637
779.246889	4040.714180
779.571086	4032.050957
779.895236	4018.626365
780.219339	4002.464425
780.543397	3996.737675
780.867409	4049.654667
781.191374	4063.429619
781.515294	4001.809075
781.839167	3996.266327
782.162995	4015.405067
782.486776	4001.834281
782.810511	4012.592103
783.134201	4006.978779
783.457844	3963.392962
783.781441	3906.173346
784.104993	3912.399171
784.428498	3932.468004
784.751958	3930.272582
785.075372	3909.487904
785.398739	3871.475084
785.722061	3884.083010
786.045337	3927.260492
786.368568	3957.890543
786.691752	3868.384857
787.014891	3917.551230
787.337983	4047.882701
787.661030	4207.644428
787.984031	4370.140981
788.306987	4542.238412
788.629897	4623.806802
788.952760	4575.686468
789.275579	4508.074512
789.598351	4446.297692
789.921078	4303.917864
790.243759	4104.167184
790.566395	4084.980552
790.888984	4078.686672
791.211529	3972.784632
791.534027	3916.021240
791.856480	3902.410124
792.178888	3839.955269
792.501249	3790.292342
792.823566	3798.496820
793.145836	3832.237263
793.468062	3777.255918
793.790241	3732.465267
794.112375	3763.896861
794.434464	3831.244156
794.756507	3850.917258
795.078505	3830.530832
795.400457	3866.312942
795.722364	4006.567925
796.044226	4112.046507
796.366042	4179.787012
796.687812	4160.857479
797.009538	4167.476514
797.331218	4124.828353
797.652852	4097.316256
797.974442	4079.500818
798.295986	4079.982248
798.617484	3996.838498
798.938938	3908.787184
799.260346	3951.800829
799.581709	3945.769089
799.903026	3873.562122
800.224299	3839.246987
800.545526	3830.213240
800.866708	3791.615645
801.187845	3728.823033
801.508936	3767.176131
801.829983	3764.330400
802.150984	3687.004141
802.471940	3676.959642
802.792851	3687.417516
803.113717	3687.258719
803.434538	3688.027495
803.755314	3628.677991
804.076045	3606.474229
804.396731	3624.831591
804.717372	3649.676918
805.037967	3634.099752
805.358518	3625.013072
805.679024	3652.580622
805.999485	3666.874814
806.319901	3671.275741
806.640272	3685.191846
806.960598	3700.668189
807.280879	3670.892613
807.601115	3686.941127
807.921306	3702.840926
808.241453	3743.175198
808.561554	3718.665108
808.881611	3650.876712
809.201623	3689.310469
809.521590	3699.733055
809.841513	3671.805062
810.161390	3700.940411
810.481223	3678.028367
810.801011	3626.480048
811.120755	3619.775313
811.440453	3651.317813
811.760107	3656.033812
812.079716	3612.153089
812.399281	3584.588060
812.718801	3606.804425
813.038276	3573.444589
813.357707	3576.865012
813.677093	3594.594750
813.996434	3542.849826
814.315731	3550.635888
814.634983	3552.173440
814.954191	3566.449988
815.273354	3597.284206
815.592473	3590.975202
815.911547	3597.775718
816.230577	3638.951863
816.549562	3690.313659
816.868502	3732.709763
817.187399	3757.010645
817.506250	3753.217176
817.825058	3728.886047
818.143821	3819.649502
818.462539	3922.206736
818.781213	3966.533601
819.099843	4024.685832
819.418429	4272.413173
819.736970	4512.490563
820.055466	4763.030868
820.373919	5128.905211
820.692327	5537.873858
821.010691	5985.876159
821.329011	7381.202009
821.647286	10146.133741
821.965517	14745.039763
822.283704	18795.248957
822.601847	20947.173861
822.919945	19118.031517
823.237999	16504.200809
823.556010	14001.565353
823.873976	11889.856254
824.191897	9793.585688
824.509775	8441.538144
824.827609	7312.206257
825.145398	6767.877588
825.463144	6652.780484
825.780845	6759.897441
826.098502	6956.845240
826.416116	7847.712906
826.733685	9183.036422
827.051210	10290.041039
827.368692	10325.871040
827.686129	9054.837359
828.003522	7539.673201
828.320872	6519.663775
828.638177	5811.391742
828.955439	5252.385754
829.272656	4751.663066
829.589830	4470.238132
829.906960	4291.511584
830.224046	4106.720528
830.541088	3980.820231
830.858086	3934.159311
831.175041	3856.349102
831.491952	3842.228830
831.808819	3855.484544
832.125642	3925.886778
832.442421	4078.883277
832.759157	4354.236141
833.075849	4908.803393
833.392497	5782.543739
833.709101	6559.390588
834.025662	6890.354941
834.342179	6530.771958
834.658653	5856.406726
834.975083	5204.749371
835.291469	4626.740753
835.607811	4218.233372
835.924110	4076.892021
836.240366	3879.649315
836.556578	3672.122655
836.872746	3561.247517
837.188871	3523.249820
837.504952	3456.247844
837.820990	3373.484701
838.136984	3327.390911
838.452935	3353.743543
838.768842	3347.560568
839.084706	3370.525544
839.400526	3527.706200
839.716303	3874.111607
840.032037	4405.371085
840.347727	4667.087628
840.663373	4381.234040
840.978977	3997.816482
841.294537	3685.849717
841.610054	3462.163638
841.925527	3352.710106
842.240957	3283.275774
842.556344	3228.712845
842.871687	3170.568177
843.186987	3120.824591
843.502244	3085.914601
843.817458	3045.628220
844.132629	3015.673683
844.447756	3028.919315
844.762840	3012.205370
845.077881	2981.126656
845.392879	2964.180818
845.707833	2959.255610
846.022745	2957.667647
846.337613	2961.307360
846.652438	2946.440997
846.967221	2941.883794
847.281960	2929.666558
847.596656	2927.859304
847.911309	2926.785538
848.225919	2920.902512
848.540485	2911.304155
848.855009	2915.848755
849.169490	2903.782753
849.483928	2896.490724
849.798323	2891.237842
850.112675	2887.220042
850.426984	2902.996333
850.741251	2898.905437
851.055474	2889.722975
851.369654	2882.330123
851.683792	2886.131153
851.997887	2897.493914
852.311938	2899.263359
852.625947	2887.817419
852.939914	2891.305898
853.253837	2892.921587
853.567718	2879.784340
853.881555	2879.249978
854.195350	2893.161042
854.509103	2891.857904
854.822812	2885.264075
855.136479	2879.887684
855.450103	2884.855741
855.763685	2874.357538
856.077224	2871.668083
856.390720	2884.631410
856.704173	2895.870662
857.017584	2887.278016
857.330953	2881.299207
857.644278	2894.600292
857.957561	2900.127917
858.270802	2905.506828
858.584000	2903.034142
858.897155	2890.126267
859.210268	2892.084756
859.523339	2891.452091
859.836367	2890.065774
860.149352	2882.390617
860.462295	2878.269474
860.775195	2888.281205
861.088054	2885.437994
861.400869	2869.505428
861.713642	2867.791435
862.026373	2881.231152
862.339062	2885.440515
862.651708	2891.164745
862.964312	2894.507030
863.276873	2886.935217
863.589392	2897.430899
863.901869	2907.770306
864.214303	2929.848039
864.526696	2946.549382
864.839045	2941.845985
865.151353	2937.813062
865.463619	2938.407918
865.775842	2940.948660
866.088023	2960.783080
866.400162	2966.121662
866.712258	2937.641663
867.024313	2926.208326
867.336325	2933.215530
867.648296	2956.374591
867.960224	2948.734722
868.272110	2935.007660
868.583954	2940.235337
868.895755	2954.466514
869.207515	2941.241047
869.519233	2947.928138
869.830909	2955.076494
870.142542	2964.100159
870.454134	2965.604943
870.765684	2971.104842
871.077191	2968.254070
871.388657	2974.525265
871.700081	2989.542863
872.011463	2998.881600
872.322803	3003.680778
872.634101	3003.181704
872.945357	3017.496061
873.256571	3044.834238
873.567744	3038.837785
873.878874	3030.240098
874.189963	3053.237841
874.501010	3053.522667
874.812015	3044.748538
875.122979	3042.646377
875.433900	3039.677138
875.744780	3047.841286
876.055618	3053.948644
876.366415	3050.719785
876.677169	3064.305695
876.987882	3058.198337
877.298554	3049.653581
877.609183	3074.985379
877.919771	3094.603029
878.230317	3122.659571
878.540822	3179.347346
878.851285	3219.444684
879.161707	3257.621342
879.472087	3360.717979
879.782425	3595.504678
880.092722	4038.324673
880.402977	4571.807300
880.713191	5204.673753
881.023363	6378.350151
881.333494	7679.749222
881.643583	8224.324907
881.953631	7920.131602
882.263637	7279.479086
882.573602	6685.500093
882.883526	6097.431853
883.193408	5521.694275
883.503248	5059.276794
883.813048	4752.285648
884.122806	4446.451447
884.432522	4131.696925
884.742197	3889.308166
885.051831	3698.003939
885.361424	3563.037127
885.670975	3488.450735
885.980485	3401.755492
886.289954	3325.019048
886.599382	3281.307203
886.908768	3243.780854
887.218113	3195.625232
887.527417	3138.634988
887.836680	3088.571289
888.145901	3082.353025
888.455082	3074.236768
888.764221	3020.135105
889.073319	2992.486896
889.382376	2990.299036
889.691392	2995.383039
890.000366	2992.106289
890.309300	2979.904176
890.618193	2993.543018
890.927044	3011.852489
891.235855	3010.811491
891.544625	2995.299860
891.853353	3009.147910
892.162041	3027.275899
892.470687	3067.073288
892.779293	3119.566823
893.087858	3166.005932
893.396381	3236.982858
893.704864	3363.210830
894.013306	3603.419290
894.321707	3910.067637
894.630068	4112.122124
894.938387	4109.152885
895.246665	4066.847522
895.554903	3940.909416
895.863100	3740.417687
896.171256	3569.517530
896.479371	3431.790687
896.787446	3306.838127
897.095480	3203.028166
897.403473	3137.200779
897.711425	3100.486056
898.019336	3092.223605
898.327207	3063.521795
898.635038	3025.380425
898.942827	3013.591687
899.250576	3000.436796
899.558284	2970.688947
899.865952	2947.993673
900.173579	2931.317536
900.481165	2922.629107
900.788711	2912.206521
901.096216	2884.013868
901.403681	2873.873588
901.711105	2877.737632
902.018489	2877.551109
902.325832	2877.349463
902.633135	2889.160887
902.940397	2922.719848
903.247619	3003.824451
903.554800	3199.499358
903.861941	3549.423491
904.169041	3983.721415
904.476101	4283.234009
904.783121	4234.564190
905.090100	3989.284329
905.397039	3708.219837
905.703938	3457.863534
906.010796	3272.142385
906.317614	3156.261382
906.624391	3064.464491
906.931129	2989.958758
907.237826	2928.948193
907.544483	2882.390617
907.851099	2850.548169
908.157675	2831.593430
908.464211	2807.859678
908.770707	2796.620425
909.077163	2782.946296
909.383578	2769.236878
909.689954	2757.092738
909.996289	2758.663057
910.302584	2752.888416
910.608839	2757.866555
910.915054	2752.104516
911.221229	2745.863568
911.527363	2746.574371
911.833458	2753.904208
912.139513	2758.015269
912.445527	2762.905188
912.751502	2768.478184
913.057436	2777.960594
913.363331	2793.331072
913.669186	2815.181954
913.975000	2849.963395
914.280775	2909.569998
914.586510	2981.144300
914.892205	3062.546332
915.197859	3193.291177
915.503475	3389.870972
915.809050	3604.092284
916.114585	3753.686004
916.420081	3775.400774
916.725536	3714.054973
917.030952	3590.340016
917.336328	3460.114409
917.641665	3327.030468
917.946961	3228.503637
918.252218	3156.851197
918.557435	3078.516707
918.862612	3018.978160
919.167750	2965.728452
919.472848	2927.564397
919.777906	2898.242525
920.082925	2873.843341
920.387904	2846.101871
920.692843	2825.455825
920.997743	2814.360246
921.302603	2800.025725
921.607423	2791.173459
921.912204	2778.205090
922.216946	2767.129675
922.521647	2757.440578
922.826310	2751.829773
923.130932	2742.995151
923.435516	2735.188925
923.740059	2727.327245
924.044564	2717.880123
924.349028	2712.634802
924.653454	2707.409646
924.957840	2702.232381
925.262186	2694.688295
925.566493	2692.656710
925.870761	2688.601101
926.174989	2684.787468
926.479178	2679.932837
926.783328	2674.629543
927.087438	2673.558298
927.391509	2673.296158
927.695541	2667.513955
927.999533	2665.021104
928.303486	2659.674961
928.607400	2663.523882
928.911275	2659.790907
929.215110	2659.932059
929.518906	2660.806700
929.822663	2658.843170
930.126381	2659.385094
930.430060	2660.073212
930.733699	2660.489107
931.037299	2660.690753
931.340861	2660.756288
931.644383	2662.954231
931.947866	2660.983140
932.251309	2659.070022
932.554714	2660.852070
932.858080	2658.013900
933.161407	2655.115237
933.464694	2652.062818
933.767943	2650.162303
934.071153	2650.963847
934.374323	2652.501399
934.677455	2652.002324
934.980548	2651.409989
935.283602	2652.118271
935.586617	2651.195740
935.889593	2650.850421
936.192530	2648.284473
936.495428	2653.562562
936.798287	2653.217242
937.101108	2656.821667
937.403890	2658.969199
937.706632	2664.103614
938.009336	2670.750376
938.312002	2681.072138
938.614628	2688.906091
938.917216	2696.006556
939.219765	2698.408666
939.522275	2696.180476
939.824747	2691.978674
940.127179	2690.516740
940.429573	2687.451718
940.731929	2683.307890
941.034246	2681.364525
941.336524	2676.887980
941.638763	2674.450582
941.940964	2673.681807
942.243126	2673.424708
942.545250	2669.558143
942.847335	2668.441527
943.149381	2664.766526
943.451389	2658.046668
943.753359	2657.860145
944.055290	2654.679177
944.357182	2656.599857
944.659036	2658.245793
944.960851	2656.902326
945.262628	2650.870585
945.564367	2652.357726
945.866067	2652.564413
946.167729	2654.389311
946.469352	2654.969043
946.770937	2653.202119
947.072484	2653.131543
947.373992	2649.050729
947.675462	2648.649957
947.976893	2646.784730
948.278286	2642.754328
948.579641	2644.856489
948.880958	2643.802888
949.182236	2644.027219
949.483476	2645.544606
949.784678	2643.583597
950.085841	2643.623927
950.386967	2644.372538
950.688054	2645.214411
950.989103	2647.664412
951.290114	2646.966212
951.591087	2647.876140
951.892021	2654.205309
952.192917	2653.350833
952.493776	2657.416524
952.794596	2658.356699
953.095378	2658.165135
953.396122	2654.230514
953.696828	2656.524239
953.997496	2653.829743
954.298126	2650.578198
954.598718	2648.087868
954.899272	2644.095275
955.199788	2642.812301
955.500266	2639.369193
955.800706	2639.853144
956.101108	2635.855509
956.401472	2635.527834
956.701798	2631.210085
957.002087	2627.739251
957.302337	2627.482152
957.602550	2625.747995
957.902724	2626.962913
958.202861	2625.105248
958.502960	2622.597274
958.803022	2623.449229
959.103045	2624.432254
959.403031	2621.558796
959.702979	2621.626852
960.002889	2619.333127
960.302762	2620.767335
960.602596	2620.059053
960.902393	2620.132150
961.202153	2621.331944
961.501875	2621.410082
961.801559	2617.147787
962.101205	2615.953033
962.400814	2617.949330
962.700385	2615.985801
962.999918	2616.258023
963.299414	2614.627210
963.598873	2616.520163
963.898293	2611.549585
964.197677	2618.564351
964.497022	2616.656274
964.796331	2616.547889
965.095601	2617.926645
965.394835	2615.829525
965.694030	2615.030502
965.993189	2615.123763
966.292309	2615.085955
966.591393	2616.300873
966.890439	2618.501337
967.189447	2616.555451
967.488419	2614.838938
967.787353	2616.308435
968.086249	2616.429422
968.385108	2614.720471
968.683930	2616.973867
968.982714	2618.246758
969.281462	2616.371449
969.580172	2614.778444
969.878844	2616.237858
970.177480	2614.196191
970.476078	2616.414299
970.774639	2613.964298
971.073162	2614.513784
971.371649	2616.734412
971.670098	2616.542848
971.968510	2615.602673
972.266885	2615.496809
972.565223	2616.116871
972.863524	2616.114350
973.161788	2617.382200
973.460014	2615.895060
973.758204	2616.467231
974.056356	2617.447735
974.354471	2615.859772
974.652550	2616.636110
974.950591	2617.883795
975.248595	2615.779113
975.546563	2614.491099
975.844493	2615.257354
976.142386	2616.346243
976.440243	2614.113012
976.738062	2615.993362
977.035845	2613.704679
977.333590	2616.978908
977.631299	2613.187960
977.928971	2611.289966
978.226606	2610.851386
978.524204	2610.657301
978.821765	2608.270315
979.119290	2613.351798
979.416777	2615.015379
979.714228	2614.049998
980.011642	2614.574278
980.309020	2612.890532
980.606360	2611.796602
980.903664	2616.379011
981.200931	2614.203753
981.498162	2614.793568
981.795356	2613.132508
982.092513	2614.672580
982.389633	2616.686521
982.686717	2621.190792
982.983764	2624.712038
983.280775	2630.514406
983.577749	2631.915847
983.874686	2630.537091
984.171587	2627.013325
984.468451	2626.854528
984.765279	2624.170114
985.062070	2622.514095
985.358824	2621.853704
985.655543	2617.170472
985.952224	2617.268774
986.248869	2616.341202
986.545478	2616.048815
986.842050	2614.828856
987.138586	2613.666870
987.435086	2610.899277
987.731549	2610.947167
988.027975	2611.809205
988.324366	2612.048660
988.620719	2610.435490
988.917037	2610.932044
989.213318	2609.636467
989.509563	2610.564040
989.805772	2610.001951
990.101944	2610.301900
990.398080	2612.550254
990.694180	2609.369286
990.990244	2609.770058
991.286271	2609.215531
991.582262	2608.356014
991.878217	2610.269132
992.174136	2612.600666
992.470019	2607.982969
992.765865	2608.345932
993.061676	2606.379882
993.357450	2605.858123
993.653188	2607.746035
993.948890	2610.498505
994.244556	2611.226952
994.540186	2610.170830
994.835780	2612.981273
995.131337	2613.624020
995.426859	2613.616458
995.722345	2612.676283
996.017795	2614.591922
996.313208	2615.252313
996.608586	2613.913887
996.903928	2613.273660
997.199234	2615.953033
997.494504	2615.569906
997.789738	2613.573609
998.084936	2613.666870
998.380099	2613.429936
998.675225	2614.722992
998.970316	2612.124277
999.265371	2611.849534
999.560390	2612.265429
999.855373	2611.310131
1000.150320	2610.102774
1000.445232	2610.566560
1000.740108	2611.363063
1001.034948	2610.364914
1001.329752	2611.068155
1001.624521	2608.915582
1001.919254	2610.412805
1002.213951	2608.839965
1002.508613	2607.985490
1002.803239	2608.537496
1003.097829	2609.515480
1003.392384	2609.752414
1003.686903	2608.655963
1003.981386	2611.264760
1004.275834	2609.429780
1004.570246	2611.325254
1004.864623	2605.638832
1005.158964	2608.358535
1005.453270	2606.483226
1005.747540	2608.799636
1006.041775	2605.800149
1006.335974	2607.004985
1006.630138	2608.769389
1006.924266	2607.733432
1007.218359	2609.560850
1007.512416	2606.417691
1007.806438	2602.921651
1008.100425	2605.109511
1008.394376	2600.829572
1008.688292	2608.348453
1008.982172	2606.465582
1009.276017	2607.829214
1009.569827	2607.854420
1009.863602	2607.004985
1010.157341	2608.698813
1010.451045	2607.078082
1010.744714	2606.079933
1011.038347	2608.356014
1011.331945	2606.780654
1011.625508	2608.764348
1011.919036	2606.702516
1012.212528	2606.871395
1012.505986	2608.396344
1012.799408	2606.868874
1013.092795	2606.256374
1013.386147	2608.981117
1013.679464	2605.701847
1013.972745	2603.884511
1014.265992	2607.100767
1014.559204	2609.155037
1014.852380	2604.005499
1015.145521	2606.914244
1015.438628	2608.444235
1015.731699	2605.956425
1016.024736	2606.190839
1016.317737	2606.800818
1016.610703	2606.465582
1016.903635	2610.138062
1017.196531	2606.490787
1017.489393	2605.338884
1017.782219	2603.771085
1018.075011	2606.435335
1018.367768	2604.260077
1018.660490	2605.480036
1018.953177	2605.480036
1019.245829	2605.480036
