Dividing Wavelength (nm)	Counts (n)	Blue Motor Position (mm): 8.600000	Red Motor Position (mm): 0.000000	
326.493990	2076.955385
326.888308	2076.955385
327.282561	2076.955385
327.676750	2097.120000
328.070874	2061.831923
328.464933	2081.996538
328.858929	2097.120000
329.252859	2056.790769
329.646726	2016.461538
330.040528	2029.064423
330.434265	2099.640577
330.827938	2112.243462
331.221547	2107.202308
331.615091	2122.325769
332.008571	2197.943077
332.401986	2248.354615
332.795338	2265.998654
333.188625	2192.901923
333.581847	2255.916346
333.975006	2334.054231
334.368100	2303.807308
334.761129	2296.245577
335.154095	2326.492500
335.546996	2286.163269
335.939833	2296.245577
336.332606	2417.233269
336.725315	2301.286731
337.117960	2452.521346
337.510540	2417.233269
337.903056	2402.109808
338.295508	2432.356731
338.687896	2404.630385
339.080220	2465.124231
339.472480	2442.439038
339.864676	2485.288846
340.256807	2419.753846
340.648875	2432.356731
341.040879	2497.891731
341.432818	2424.795000
341.824694	2543.262115
342.216506	2450.000769
342.608253	2394.548077
342.999937	2386.986346
343.391557	2487.809423
343.783113	2465.124231
344.174605	2404.630385
344.566033	2477.727115
344.957397	2437.397885
345.348697	2392.027500
345.739934	2603.755962
346.131106	2518.056346
346.522215	2437.397885
346.913260	2497.891731
347.304241	2374.383462
347.695159	2480.247692
348.086012	2497.891731
348.476802	2407.150962
348.867528	2462.603654
349.258191	2437.397885
349.648789	2414.712692
350.039324	2482.768269
350.429796	2447.480192
350.820203	2520.576923
351.210548	2427.315577
351.600828	2422.274423
351.991045	2429.836154
352.381198	2507.974038
352.771288	2364.301154
353.161314	2497.891731
353.551276	2465.124231
353.941175	2490.330000
354.331010	2482.768269
354.720782	2487.809423
355.110490	2442.439038
355.500135	2341.615962
355.889717	2455.041923
356.279235	2419.753846
356.668689	2518.056346
357.058080	2485.288846
357.447408	2444.959615
357.836672	2467.644808
358.225873	2465.124231
358.615010	2376.904038
359.004084	2417.233269
359.393095	2371.862885
359.782043	2422.274423
360.170927	2422.274423
360.559748	2457.562500
360.948505	2497.891731
361.337199	2470.165385
361.725830	2409.671538
362.114398	2515.535769
362.502903	2381.945192
362.891344	2462.603654
363.279722	2404.630385
363.668037	2414.712692
364.056289	2386.986346
364.444478	2485.288846
364.832603	2455.041923
365.220665	2492.850577
365.608665	2447.480192
365.996601	2442.439038
366.384474	2447.480192
366.772284	2548.303269
367.160031	2434.877308
367.547715	2407.150962
367.935336	2439.918462
368.322893	2402.109808
368.710388	2472.685962
369.097820	2442.439038
369.485189	2492.850577
369.872495	2455.041923
370.259738	2439.918462
370.646918	2515.535769
371.034035	2384.465769
371.421090	2394.548077
371.808081	2457.562500
372.195010	2510.494615
372.581875	2543.262115
372.968678	2457.562500
373.355418	2376.904038
373.742096	2502.932885
374.128710	2434.877308
374.515262	2439.918462
374.901751	2492.850577
375.288177	2447.480192
375.674540	2470.165385
376.060841	2386.986346
376.447079	2399.589231
376.833254	2470.165385
377.219367	2442.439038
377.605417	2495.371154
377.991404	2437.397885
378.377329	2540.741538
378.763191	2535.700385
379.148991	2379.424615
379.534727	2507.974038
379.920402	2492.850577
380.306013	2505.453462
380.691563	2402.109808
381.077049	2419.753846
381.462474	2467.644808
381.847835	2560.906154
382.233134	2407.150962
382.618371	2414.712692
383.003545	2510.494615
383.388657	2507.974038
383.773706	2455.041923
384.158693	2518.056346
384.543618	2462.603654
384.928480	2520.576923
385.313280	2457.562500
385.698017	2442.439038
386.082692	2502.932885
386.467305	2450.000769
386.851856	2495.371154
387.236344	2427.315577
387.620770	2480.247692
388.005133	2480.247692
388.389435	2490.330000
388.773674	2381.945192
389.157851	2472.685962
389.541965	2374.383462
389.926018	2434.877308
390.310008	2475.206538
390.693936	2500.412308
391.077802	2475.206538
391.461606	2477.727115
391.845348	2457.562500
392.229027	2376.904038
392.612645	2379.424615
392.996200	2381.945192
393.379694	2442.439038
393.763125	2427.315577
394.146494	2528.138654
394.529801	2485.288846
394.913047	2429.836154
395.296230	2510.494615
395.679351	2452.521346
396.062410	2538.220962
396.445408	2492.850577
396.828343	2480.247692
397.211217	2404.630385
397.594028	2505.453462
397.976778	2412.192115
398.359466	2470.165385
398.742092	2540.741538
399.124656	2452.521346
399.507158	2427.315577
399.889598	2465.124231
400.271977	2419.753846
400.654294	2535.700385
401.036549	2399.589231
401.418742	2462.603654
401.800874	2472.685962
402.182944	2349.177692
402.564952	2472.685962
402.946898	2470.165385
403.328783	2419.753846
403.710606	2369.342308
404.092367	2490.330000
404.474067	2510.494615
404.855705	2505.453462
405.237282	2505.453462
405.618797	2394.548077
406.000250	2450.000769
406.381642	2525.618077
406.762972	2472.685962
407.144240	2412.192115
407.525447	2427.315577
407.906593	2439.918462
408.287677	2492.850577
408.668700	2515.535769
409.049661	2455.041923
409.430560	2402.109808
409.811399	2515.535769
410.192176	2460.083077
410.572891	2497.891731
410.953545	2507.974038
411.334138	2515.535769
411.714669	2437.397885
412.095139	2455.041923
412.475547	2487.809423
412.855894	2437.397885
413.236180	2462.603654
413.616405	2462.603654
413.996568	2432.356731
414.376670	2432.356731
414.756711	2427.315577
415.136691	2450.000769
415.516609	2475.206538
415.896466	2414.712692
416.276262	2515.535769
416.655997	2568.467885
417.035670	2455.041923
417.415283	2492.850577
417.794834	2528.138654
418.174324	2518.056346
418.553753	2502.932885
418.933121	2462.603654
419.312428	2535.700385
419.691674	2492.850577
420.070859	2427.315577
420.449983	2444.959615
420.829045	2535.700385
421.208047	2447.480192
421.586988	2520.576923
421.965867	2452.521346
422.344686	2513.015192
422.723444	2397.068654
423.102141	2442.439038
423.480777	2434.877308
423.859352	2439.918462
424.237866	2465.124231
424.616319	2543.262115
424.994712	2485.288846
425.373044	2528.138654
425.751314	2490.330000
426.129524	2558.385577
426.507673	2424.795000
426.885762	2477.727115
427.263789	2513.015192
427.641756	2424.795000
428.019662	2477.727115
428.397508	2452.521346
428.775292	2507.974038
429.153016	2480.247692
429.530679	2497.891731
429.908282	2583.591346
430.285824	2510.494615
430.663305	2402.109808
431.040726	2520.576923
431.418086	2477.727115
431.795385	2500.412308
432.172624	2530.659231
432.549802	2460.083077
432.926920	2530.659231
433.303977	2422.274423
433.680974	2515.535769
434.057910	2515.535769
434.434786	2465.124231
434.811601	2475.206538
435.188355	2520.576923
435.565050	2462.603654
435.941683	2437.397885
436.318257	2538.220962
436.694770	2437.397885
437.071222	2525.618077
437.447614	2450.000769
437.823946	2553.344423
438.200218	2563.426731
438.576429	2457.562500
438.952580	2432.356731
439.328670	2535.700385
439.704700	2439.918462
440.080670	2505.453462
440.456580	2447.480192
440.832429	2439.918462
441.208218	2558.385577
441.583947	2394.548077
441.959616	2523.097500
442.335224	2492.850577
442.710773	2490.330000
443.086261	2477.727115
443.461689	2432.356731
443.837057	2490.330000
444.212365	2535.700385
444.587612	2409.671538
444.962800	2492.850577
445.337927	2465.124231
445.712995	2530.659231
446.088002	2402.109808
446.462949	2439.918462
446.837837	2520.576923
447.212664	2507.974038
447.587431	2490.330000
447.962139	2550.823846
448.336786	2510.494615
448.711374	2384.465769
449.085901	2507.974038
449.460369	2535.700385
449.834776	2434.877308
450.209124	2404.630385
450.583412	2502.932885
450.957640	2492.850577
451.331808	2462.603654
451.705917	2477.727115
452.079965	2477.727115
452.453954	2465.124231
452.827883	2404.630385
453.201752	2535.700385
453.575562	2417.233269
453.949311	2497.891731
454.323001	2477.727115
454.696632	2462.603654
455.070202	2507.974038
455.443713	2472.685962
455.817164	2507.974038
456.190556	2477.727115
456.563888	2419.753846
456.937160	2482.768269
457.310373	2470.165385
457.683526	2472.685962
458.056619	2528.138654
458.429653	2475.206538
458.802628	2450.000769
459.175542	2450.000769
459.548398	2480.247692
459.921194	2492.850577
460.293930	2422.274423
460.666607	2550.823846
461.039224	2565.947308
461.411782	2525.618077
461.784280	2394.548077
462.156719	2455.041923
462.529099	2475.206538
462.901419	2533.179808
463.273680	2497.891731
463.645882	2462.603654
464.018024	2593.673654
464.390106	2467.644808
464.762130	2565.947308
465.134094	2482.768269
465.505999	2550.823846
465.877845	2444.959615
466.249631	2513.015192
466.621358	2412.192115
466.993026	2495.371154
467.364634	2520.576923
467.736184	2392.027500
468.107674	2505.453462
468.479105	2485.288846
468.850477	2487.809423
469.221790	2530.659231
469.593043	2470.165385
469.964238	2371.862885
470.335373	2578.550192
470.706449	2487.809423
471.077467	2460.083077
471.448425	2485.288846
471.819324	2520.576923
472.190164	2457.562500
472.560945	2417.233269
472.931667	2500.412308
473.302330	2507.974038
473.672934	2520.576923
474.043479	2477.727115
474.413965	2457.562500
474.784393	2424.795000
475.154761	2558.385577
475.525070	2475.206538
475.895321	2467.644808
476.265513	2538.220962
476.635645	2543.262115
477.005719	2553.344423
477.375734	2462.603654
477.745691	2492.850577
478.115588	2462.603654
478.485427	2460.083077
478.855207	2530.659231
479.224928	2475.206538
479.594591	2444.959615
479.964194	2530.659231
480.333739	2540.741538
480.703226	2505.453462
481.072653	2457.562500
481.442022	2437.397885
481.811333	2520.576923
482.180584	2429.836154
482.549777	2447.480192
482.918912	2533.179808
483.287988	2507.974038
483.657005	2394.548077
484.025964	2545.782692
484.394864	2447.480192
484.763706	2560.906154
485.132489	2533.179808
485.501213	2472.685962
485.869879	2437.397885
486.238487	2427.315577
486.607036	2475.206538
486.975527	2455.041923
487.343959	2460.083077
487.712333	2523.097500
488.080648	2437.397885
488.448905	2533.179808
488.817104	2487.809423
489.185244	2450.000769
489.553326	2540.741538
489.921350	2472.685962
490.289315	2500.412308
490.657222	2417.233269
491.025070	2434.877308
491.392861	2510.494615
491.760593	2414.712692
492.128267	2480.247692
492.495883	2487.809423
492.863440	2492.850577
493.230939	2520.576923
493.598380	2472.685962
493.965763	2439.918462
494.333088	2361.780577
494.700354	2520.576923
495.067563	2485.288846
495.434713	2490.330000
495.801805	2500.412308
496.168839	2465.124231
496.535815	2414.712692
496.902733	2563.426731
497.269593	2540.741538
497.636395	2475.206538
498.003139	2523.097500
498.369825	2497.891731
498.736453	2470.165385
499.103023	2530.659231
499.469535	2528.138654
499.835989	2455.041923
500.202385	2492.850577
500.568723	2450.000769
500.935003	2439.918462
501.301226	2467.644808
501.667390	2492.850577
502.033497	2515.535769
502.399546	2525.618077
502.765537	2515.535769
503.131470	2563.426731
503.497345	2384.465769
503.863163	2538.220962
504.228923	2477.727115
504.594625	2523.097500
504.960269	2505.453462
505.325856	2513.015192
505.691385	2507.974038
506.056856	2568.467885
506.422270	2470.165385
506.787625	2482.768269
507.152924	2444.959615
507.518164	2558.385577
507.883347	2513.015192
508.248472	2505.453462
508.613540	2611.317692
508.978550	2472.685962
509.343503	2482.768269
509.708398	2475.206538
510.073236	2523.097500
510.438016	2495.371154
510.802738	2550.823846
511.167403	2409.671538
511.532010	2518.056346
511.896561	2475.206538
512.261053	2462.603654
512.625488	2510.494615
512.989866	2535.700385
513.354186	2422.274423
513.718449	2523.097500
514.082655	2485.288846
514.446803	2495.371154
514.810894	2543.262115
515.174927	2616.358846
515.538904	2540.741538
515.902822	2558.385577
516.266684	2548.303269
516.630488	2439.918462
516.994235	2437.397885
517.357925	2500.412308
517.721558	2432.356731
518.085133	2477.727115
518.448651	2490.330000
518.812112	2553.344423
519.175516	2576.029615
519.538863	2455.041923
519.902152	2462.603654
520.265385	2525.618077
520.628560	2480.247692
520.991678	2477.727115
521.354739	2407.150962
521.717743	2485.288846
522.080690	2417.233269
522.443580	2500.412308
522.806413	2427.315577
523.169189	2386.986346
523.531908	2472.685962
523.894569	2513.015192
524.257174	2434.877308
524.619722	2477.727115
524.982213	2467.644808
525.344647	2540.741538
525.707025	2424.795000
526.069345	2487.809423
526.431608	2538.220962
526.793815	2447.480192
527.155964	2505.453462
527.518057	2502.932885
527.880093	2447.480192
528.242072	2518.056346
528.603995	2492.850577
528.965860	2553.344423
529.327669	2545.782692
529.689421	2482.768269
530.051117	2497.891731
530.412755	2470.165385
530.774337	2545.782692
531.135862	2497.891731
531.497331	2576.029615
531.858743	2513.015192
532.220098	2525.618077
532.581396	2462.603654
532.942638	2573.509038
533.303824	2472.685962
533.664953	2515.535769
534.026025	2528.138654
534.387040	2500.412308
534.747999	2465.124231
535.108902	2465.124231
535.469748	2553.344423
535.830537	2487.809423
536.191270	2495.371154
536.551947	2477.727115
536.912567	2573.509038
537.273131	2434.877308
537.633638	2427.315577
537.994089	2563.426731
538.354483	2412.192115
538.714821	2470.165385
539.075103	2507.974038
539.435328	2482.768269
539.795497	2480.247692
540.155609	2596.194231
540.515665	2500.412308
540.875665	2608.797115
541.235609	2470.165385
541.595496	2490.330000
541.955328	2492.850577
542.315102	2495.371154
542.674821	2427.315577
543.034483	2545.782692
543.394090	2495.371154
543.753640	2485.288846
544.113134	2497.891731
544.472571	2553.344423
544.831953	2523.097500
545.191278	2497.891731
545.550548	2548.303269
545.909761	2437.397885
546.268918	2591.153077
546.628019	2480.247692
546.987064	2422.274423
547.346053	2507.974038
547.704986	2538.220962
548.063863	2465.124231
548.422684	2515.535769
548.781449	2490.330000
549.140158	2482.768269
549.498811	2558.385577
549.857408	2533.179808
550.215949	2482.768269
550.574434	2470.165385
550.932864	2500.412308
551.291237	2407.150962
551.649555	2515.535769
552.007817	2465.124231
552.366022	2490.330000
552.724173	2490.330000
553.082267	2518.056346
553.440305	2442.439038
553.798288	2523.097500
554.156215	2439.918462
554.514086	2460.083077
554.871902	2432.356731
555.229661	2500.412308
555.587365	2530.659231
555.945014	2470.165385
556.302606	2505.453462
556.660143	2460.083077
557.017625	2470.165385
557.375050	2475.206538
557.732421	2535.700385
558.089735	2518.056346
558.446994	2520.576923
558.804197	2505.453462
559.161345	2482.768269
559.518437	2502.932885
559.875474	2402.109808
560.232455	2460.083077
560.589381	2432.356731
560.946251	2576.029615
561.303065	2444.959615
561.659825	2515.535769
562.016528	2530.659231
562.373177	2515.535769
562.729770	2457.562500
563.086307	2528.138654
563.442789	2548.303269
563.799216	2444.959615
564.155587	2523.097500
564.511904	2397.068654
564.868164	2528.138654
565.224370	2507.974038
565.580520	2533.179808
565.936615	2510.494615
566.292654	2573.509038
566.648638	2417.233269
567.004567	2513.015192
567.360441	2485.288846
567.716260	2530.659231
568.072023	2515.535769
568.427732	2477.727115
568.783385	2530.659231
569.138982	2492.850577
569.494525	2550.823846
569.850013	2472.685962
570.205445	2528.138654
570.560823	2495.371154
570.916145	2500.412308
571.271412	2576.029615
571.626625	2495.371154
571.981782	2472.685962
572.336884	2507.974038
572.691931	2555.865000
573.046923	2543.262115
573.401860	2513.015192
573.756743	2409.671538
574.111570	2523.097500
574.466342	2462.603654
574.821059	2434.877308
575.175722	2470.165385
575.530330	2530.659231
575.884882	2439.918462
576.239380	2596.194231
576.593823	2457.562500
576.948211	2490.330000
577.302544	2581.070769
577.656823	2535.700385
578.011047	2462.603654
578.365216	2472.685962
578.719330	2414.712692
579.073389	2495.371154
579.427394	2507.974038
579.781344	2525.618077
580.135239	2505.453462
580.489080	2558.385577
580.842866	2477.727115
581.196597	2412.192115
581.550273	2603.755962
581.903895	2417.233269
582.257463	2538.220962
582.610975	2533.179808
582.964434	2475.206538
583.317837	2505.453462
583.671186	2402.109808
584.024481	2442.439038
584.377721	2480.247692
584.730906	2487.809423
585.084037	2492.850577
585.437113	2465.124231
585.790135	2455.041923
586.143103	2495.371154
586.496016	2447.480192
586.848874	2520.576923
587.201679	2472.685962
587.554428	2578.550192
587.907124	2528.138654
588.259765	2447.480192
588.612352	2525.618077
588.964884	2570.988462
589.317362	2543.262115
589.669786	2417.233269
590.022155	2523.097500
590.374470	2538.220962
590.726731	2455.041923
591.078937	2465.124231
591.431090	2578.550192
591.783188	2439.918462
592.135232	2472.685962
592.487222	2482.768269
592.839157	2538.220962
593.191038	2462.603654
593.542866	2525.618077
593.894639	2520.576923
594.246358	2475.206538
594.598022	2422.274423
594.949633	2530.659231
595.301190	2467.644808
595.652692	2490.330000
596.004141	2573.509038
596.355535	2505.453462
596.706876	2409.671538
597.058162	2442.439038
597.409395	2535.700385
597.760573	2555.865000
598.111698	2533.179808
598.462768	2576.029615
598.813785	2550.823846
599.164748	2538.220962
599.515657	2432.356731
599.866511	2570.988462
600.217312	2462.603654
600.568060	2550.823846
600.918753	2528.138654
601.269392	2520.576923
601.619978	2470.165385
601.970510	2510.494615
602.320988	2490.330000
602.671412	2427.315577
603.021783	2535.700385
603.372100	2424.795000
603.722363	2465.124231
604.072572	2555.865000
604.422728	2528.138654
604.772830	2497.891731
605.122878	2507.974038
605.472872	2502.932885
605.822813	2528.138654
606.172701	2548.303269
606.522534	2482.768269
606.872314	2492.850577
607.222041	2460.083077
607.571714	2548.303269
607.921333	2523.097500
608.270899	2525.618077
608.620411	2540.741538
608.969870	2475.206538
609.319276	2558.385577
609.668627	2419.753846
610.017926	2507.974038
610.367171	2500.412308
610.716362	2452.521346
611.065500	2553.344423
611.414585	2495.371154
611.763616	2548.303269
612.112594	2545.782692
612.461518	2424.795000
612.810389	2525.618077
613.159207	2472.685962
613.507971	2477.727115
613.856682	2518.056346
614.205340	2477.727115
614.553945	2482.768269
614.902496	2530.659231
615.250994	2472.685962
615.599439	2497.891731
615.947830	2472.685962
616.296169	2450.000769
616.644454	2450.000769
616.992686	2475.206538
617.340864	2497.891731
617.688990	2485.288846
618.037063	2520.576923
618.385082	2444.959615
618.733048	2533.179808
619.080961	2482.768269
619.428821	2533.179808
619.776628	2490.330000
620.124382	2507.974038
620.472083	2525.618077
620.819731	2439.918462
621.167326	2475.206538
621.514868	2535.700385
621.862357	2523.097500
622.209793	2472.685962
622.557176	2550.823846
622.904506	2482.768269
623.251783	2462.603654
623.599007	2485.288846
623.946179	2475.206538
624.293297	2520.576923
624.640363	2460.083077
624.987376	2460.083077
625.334336	2432.356731
625.681243	2462.603654
626.028097	2485.288846
626.374899	2550.823846
626.721647	2485.288846
627.068343	2570.988462
627.414987	2545.782692
627.761577	2563.426731
628.108115	2470.165385
628.454600	2507.974038
628.801032	2525.618077
629.147412	2477.727115
629.493739	2455.041923
629.840014	2450.000769
630.186236	2523.097500
630.532405	2528.138654
630.878521	2497.891731
631.224585	2462.603654
631.570597	2550.823846
631.916556	2505.453462
632.262462	2513.015192
632.608316	2492.850577
632.954117	2465.124231
633.299866	2586.111923
633.645562	2553.344423
633.991206	2525.618077
634.336797	2480.247692
634.682336	2502.932885
635.027823	2432.356731
635.373257	2510.494615
635.718639	2568.467885
636.063968	2424.795000
636.409245	2490.330000
636.754470	2480.247692
637.099642	2475.206538
637.444762	2482.768269
637.789829	2513.015192
638.134845	2434.877308
638.479808	2490.330000
638.824719	2528.138654
639.169577	2450.000769
639.514383	2515.535769
639.859137	2518.056346
640.203839	2495.371154
640.548489	2588.632500
640.893086	2480.247692
641.237632	2427.315577
641.582125	2528.138654
641.926566	2452.521346
642.270955	2578.550192
642.615292	2470.165385
642.959576	2447.480192
643.303809	2482.768269
643.647990	2520.576923
643.992118	2487.809423
644.336195	2460.083077
644.680219	2518.056346
645.024192	2545.782692
645.368112	2505.453462
645.711981	2407.150962
646.055797	2565.947308
646.399562	2422.274423
646.743274	2472.685962
647.086935	2603.755962
647.430544	2487.809423
647.774101	2543.262115
648.117606	2525.618077
648.461059	2591.153077
648.804460	2565.947308
649.147810	2518.056346
649.491108	2535.700385
649.834354	2477.727115
650.177548	2480.247692
650.520690	2543.262115
650.863781	2543.262115
651.206820	2548.303269
651.549807	2467.644808
651.892742	2465.124231
652.235626	2500.412308
652.578458	2465.124231
652.921238	2573.509038
653.263967	2518.056346
653.606644	2528.138654
653.949269	2520.576923
654.291843	2543.262115
654.634365	2450.000769
654.976836	2492.850577
655.319255	2447.480192
655.661622	2540.741538
656.003938	2581.070769
656.346203	2470.165385
656.688416	2475.206538
657.030577	2412.192115
657.372687	2535.700385
657.714746	2550.823846
658.056753	2470.165385
658.398708	2452.521346
658.740612	2510.494615
659.082465	2472.685962
659.424266	2439.918462
659.766016	2540.741538
660.107715	2414.712692
660.449362	2550.823846
660.790958	2450.000769
661.132503	2455.041923
661.473996	2485.288846
661.815438	2543.262115
662.156829	2470.165385
662.498168	2465.124231
662.839456	2472.685962
663.180693	2578.550192
663.521879	2545.782692
663.863013	2460.083077
664.204097	2482.768269
664.545129	2535.700385
664.886110	2462.603654
665.227040	2513.015192
665.567918	2515.535769
665.908746	2480.247692
666.249522	2538.220962
666.590248	2414.712692
666.930922	2434.877308
667.271545	2588.632500
667.612118	2490.330000
667.952639	2518.056346
668.293109	2457.562500
668.633528	2437.397885
668.973896	2523.097500
669.314213	2505.453462
669.654480	2513.015192
669.994695	2507.974038
670.334859	2507.974038
670.674973	2460.083077
671.015035	2477.727115
671.355047	2465.124231
671.695008	2482.768269
672.034918	2497.891731
672.374777	2465.124231
672.714585	2518.056346
673.054342	2497.891731
673.394049	2495.371154
673.733705	2513.015192
674.073310	2457.562500
674.412864	2492.850577
674.752368	2437.397885
675.091820	2513.015192
675.431223	2586.111923
675.770574	2497.891731
676.109875	2419.753846
676.449125	2422.274423
676.788324	2475.206538
677.127473	2573.509038
677.466571	2533.179808
677.805619	2414.712692
678.144616	2545.782692
678.483562	2457.562500
678.822458	2505.453462
679.161303	2576.029615
679.500098	2497.891731
679.838842	2457.562500
680.177535	2472.685962
680.516179	2528.138654
680.854771	2628.961731
681.193314	2351.698269
681.531805	2487.809423
681.870247	2570.988462
682.208638	2472.685962
682.546978	2492.850577
682.885268	2490.330000
683.223508	2487.809423
683.561697	2495.371154
683.899836	2510.494615
684.237925	2535.700385
684.575963	2545.782692
684.913951	2538.220962
685.251889	2497.891731
685.589776	2520.576923
685.927614	2482.768269
686.265401	2477.727115
686.603137	2427.315577
686.940824	2578.550192
687.278460	2455.041923
687.616046	2530.659231
687.953582	2538.220962
688.291068	2528.138654
688.628504	2538.220962
688.965889	2507.974038
689.303224	2470.165385
689.640510	2507.974038
689.977745	2482.768269
690.314930	2467.644808
690.652065	2502.932885
690.989150	2500.412308
691.326185	2528.138654
691.663170	2414.712692
692.000105	2507.974038
692.336990	2570.988462
692.673825	2525.618077
693.010610	2533.179808
693.347345	2462.603654
693.684030	2578.550192
694.020665	2409.671538
694.357251	2502.932885
694.693786	2535.700385
695.030272	2480.247692
695.366707	2608.797115
695.703093	2465.124231
696.039429	2500.412308
696.375716	2538.220962
696.711952	2480.247692
697.048139	2457.562500
697.384276	2442.439038
697.720363	2480.247692
698.056400	2513.015192
698.392388	2434.877308
698.728326	2437.397885
699.064214	2540.741538
699.400053	2470.165385
699.735842	2470.165385
700.071581	2356.739423
700.407270	2412.192115
700.742910	2384.465769
701.078501	2505.453462
701.414042	2444.959615
701.749533	2548.303269
702.084974	2404.630385
702.420366	2538.220962
702.755709	2543.262115
703.091002	2558.385577
703.426246	2467.644808
703.761440	2447.480192
704.096584	2533.179808
704.431679	2409.671538
704.766725	2482.768269
705.101721	2427.315577
705.436668	2502.932885
705.771565	2540.741538
706.106413	2439.918462
706.441212	2485.288846
706.775961	2492.850577
707.110661	2540.741538
707.445311	2450.000769
707.779913	2525.618077
708.114465	2432.356731
708.448967	2525.618077
708.783421	2450.000769
709.117825	2505.453462
709.452180	2528.138654
709.786485	2475.206538
710.120742	2442.439038
710.454949	2495.371154
710.789107	2518.056346
711.123216	2482.768269
711.457275	2482.768269
711.791286	2500.412308
712.125247	2513.015192
712.459159	2533.179808
712.793023	2586.111923
713.126837	2505.453462
713.460602	2480.247692
713.794318	2419.753846
714.127985	2455.041923
714.461602	2487.809423
714.795171	2502.932885
715.128691	2520.576923
715.462162	2565.947308
715.795584	2533.179808
716.128957	2533.179808
716.462281	2570.988462
716.795556	2485.288846
717.128782	2472.685962
717.461960	2530.659231
717.795088	2495.371154
718.128167	2535.700385
718.461198	2518.056346
718.794180	2510.494615
719.127113	2460.083077
719.459997	2497.891731
719.792833	2518.056346
720.125619	2452.521346
720.458357	2520.576923
720.791046	2495.371154
721.123686	2442.439038
721.456278	2477.727115
721.788821	2450.000769
722.121315	2525.618077
722.453761	2432.356731
722.786158	2414.712692
723.118506	2518.056346
723.450805	2586.111923
723.783056	2462.603654
724.115259	2570.988462
724.447412	2437.397885
724.779518	2447.480192
725.111574	2477.727115
725.443582	2581.070769
725.775542	2379.424615
726.107453	2492.850577
726.439315	2442.439038
726.771129	2477.727115
727.102895	2470.165385
727.434612	2455.041923
727.766281	2540.741538
728.097901	2475.206538
728.429473	2487.809423
728.760996	2560.906154
729.092471	2563.426731
729.423897	2581.070769
729.755276	2533.179808
730.086606	2513.015192
730.417887	2535.700385
730.749120	2500.412308
731.080305	2439.918462
731.411442	2460.083077
731.742530	2475.206538
732.073570	2553.344423
732.404562	2429.836154
732.735506	2530.659231
733.066401	2460.083077
733.397249	2513.015192
733.728048	2465.124231
734.058798	2591.153077
734.389501	2455.041923
734.720156	2510.494615
735.050762	2480.247692
735.381320	2432.356731
735.711831	2465.124231
736.042293	2467.644808
736.372707	2530.659231
736.703073	2470.165385
737.033391	2535.700385
737.363661	2507.974038
737.693883	2472.685962
738.024056	2535.700385
738.354182	2505.453462
738.684260	2472.685962
739.014290	2422.274423
739.344272	2505.453462
739.674207	2578.550192
740.004093	2472.685962
740.333931	2485.288846
740.663722	2455.041923
740.993464	2543.262115
741.323159	2538.220962
741.652806	2490.330000
741.982405	2452.521346
742.311956	2437.397885
742.641460	2490.330000
742.970915	2492.850577
743.300323	2570.988462
743.629683	2545.782692
743.958996	2543.262115
744.288260	2545.782692
744.617477	2510.494615
744.946647	2495.371154
745.275768	2598.714808
745.604842	2414.712692
745.933869	2457.562500
746.262847	2429.836154
746.591778	2477.727115
746.920662	2462.603654
747.249498	2548.303269
747.578286	2427.315577
747.907027	2374.383462
748.235720	2447.480192
748.564365	2505.453462
748.892963	2462.603654
749.221514	2467.644808
749.550017	2497.891731
749.878473	2548.303269
750.206881	2528.138654
750.535242	2429.836154
750.863555	2492.850577
751.191821	2518.056346
751.520039	2533.179808
751.848210	2482.768269
752.176334	2470.165385
752.504411	2545.782692
752.832440	2482.768269
753.160421	2545.782692
753.488356	2450.000769
753.816243	2525.618077
754.144082	2432.356731
754.471875	2510.494615
754.799620	2588.632500
755.127318	2490.330000
755.454969	2568.467885
755.782572	2455.041923
756.110129	2500.412308
756.437638	2538.220962
756.765100	2535.700385
757.092515	2533.179808
757.419882	2598.714808
757.747203	2520.576923
758.074477	2533.179808
758.401703	2487.809423
758.728882	2515.535769
759.056014	2528.138654
759.383099	2460.083077
759.710138	2510.494615
760.037129	2507.974038
760.364073	2523.097500
760.690970	2513.015192
761.017820	2530.659231
761.344623	2450.000769
761.671379	2477.727115
761.998088	2465.124231
762.324751	2444.959615
762.651366	2510.494615
762.977935	2444.959615
763.304456	2447.480192
763.630931	2447.480192
763.957359	2467.644808
764.283740	2545.782692
764.610074	2558.385577
764.936362	2432.356731
765.262602	2497.891731
765.588796	2447.480192
765.914943	2492.850577
766.241044	2452.521346
766.567097	2550.823846
766.893104	2432.356731
767.219064	2507.974038
767.544978	2576.029615
767.870845	2404.630385
768.196665	2560.906154
768.522438	2495.371154
768.848165	2472.685962
769.173846	2492.850577
769.499479	2513.015192
769.825066	2429.836154
770.150607	2467.644808
770.476101	2505.453462
770.801548	2530.659231
771.126949	2455.041923
771.452303	2505.453462
771.777611	2497.891731
772.102872	2513.015192
772.428087	2465.124231
772.753256	2578.550192
773.078378	2457.562500
773.403453	2543.262115
773.728482	2500.412308
774.053465	2507.974038
774.378401	2492.850577
774.703291	2442.439038
775.028135	2581.070769
775.352932	2510.494615
775.677683	2437.397885
776.002388	2450.000769
776.327046	2535.700385
776.651658	2570.988462
776.976224	2545.782692
777.300743	2472.685962
777.625216	2510.494615
777.949643	2457.562500
778.274024	2535.700385
778.598359	2437.397885
778.922647	2480.247692
779.246889	2500.412308
779.571086	2487.809423
779.895236	2497.891731
780.219339	2472.685962
780.543397	2450.000769
780.867409	2500.412308
781.191374	2528.138654
781.515294	2487.809423
781.839167	2505.453462
782.162995	2500.412308
782.486776	2404.630385
782.810511	2502.932885
783.134201	2407.150962
783.457844	2482.768269
783.781441	2570.988462
784.104993	2533.179808
784.428498	2570.988462
784.751958	2447.480192
785.075372	2515.535769
785.398739	2439.918462
785.722061	2560.906154
786.045337	2530.659231
786.368568	2553.344423
786.691752	2477.727115
787.014891	2379.424615
787.337983	2485.288846
787.661030	2540.741538
787.984031	2560.906154
788.306987	2492.850577
788.629897	2419.753846
788.952760	2442.439038
789.275579	2570.988462
789.598351	2505.453462
789.921078	2540.741538
790.243759	2621.400000
790.566395	2500.412308
790.888984	2505.453462
791.211529	2462.603654
791.534027	2565.947308
791.856480	2419.753846
792.178888	2409.671538
792.501249	2588.632500
792.823566	2520.576923
793.145836	2452.521346
793.468062	2565.947308
793.790241	2510.494615
794.112375	2417.233269
794.434464	2490.330000
794.756507	2470.165385
795.078505	2427.315577
795.400457	2530.659231
795.722364	2487.809423
796.044226	2576.029615
796.366042	2475.206538
796.687812	2533.179808
797.009538	2465.124231
797.331218	2467.644808
797.652852	2492.850577
797.974442	2543.262115
798.295986	2565.947308
798.617484	2452.521346
798.938938	2492.850577
799.260346	2515.535769
799.581709	2555.865000
799.903026	2437.397885
800.224299	2535.700385
800.545526	2485.288846
800.866708	2518.056346
801.187845	2452.521346
801.508936	2543.262115
801.829983	2467.644808
802.150984	2467.644808
802.471940	2487.809423
802.792851	2409.671538
803.113717	2455.041923
803.434538	2422.274423
803.755314	2533.179808
804.076045	2497.891731
804.396731	2404.630385
804.717372	2518.056346
805.037967	2490.330000
805.358518	2535.700385
805.679024	2407.150962
805.999485	2457.562500
806.319901	2528.138654
806.640272	2500.412308
806.960598	2513.015192
807.280879	2507.974038
807.601115	2507.974038
807.921306	2477.727115
808.241453	2399.589231
808.561554	2611.317692
808.881611	2437.397885
809.201623	2543.262115
809.521590	2492.850577
809.841513	2530.659231
810.161390	2424.795000
810.481223	2472.685962
810.801011	2535.700385
811.120755	2555.865000
811.440453	2460.083077
811.760107	2513.015192
812.079716	2520.576923
812.399281	2568.467885
812.718801	2457.562500
813.038276	2490.330000
813.357707	2444.959615
813.677093	2490.330000
813.996434	2523.097500
814.315731	2578.550192
814.634983	2570.988462
814.954191	2482.768269
815.273354	2480.247692
815.592473	2460.083077
815.911547	2538.220962
816.230577	2424.795000
816.549562	2545.782692
816.868502	2490.330000
817.187399	2399.589231
817.506250	2467.644808
817.825058	2452.521346
818.143821	2427.315577
818.462539	2485.288846
818.781213	2550.823846
819.099843	2593.673654
819.418429	2409.671538
819.736970	2502.932885
820.055466	2538.220962
820.373919	2525.618077
820.692327	2490.330000
821.010691	2525.618077
821.329011	2626.441154
821.647286	2507.974038
821.965517	2487.809423
822.283704	2470.165385
822.601847	2427.315577
822.919945	2563.426731
823.237999	2563.426731
823.556010	2543.262115
823.873976	2570.988462
824.191897	2513.015192
824.509775	2555.865000
824.827609	2465.124231
825.145398	2460.083077
825.463144	2384.465769
825.780845	2475.206538
826.098502	2543.262115
826.416116	2442.439038
826.733685	2515.535769
827.051210	2462.603654
827.368692	2513.015192
827.686129	2515.535769
828.003522	2565.947308
828.320872	2477.727115
828.638177	2409.671538
828.955439	2545.782692
829.272656	2533.179808
829.589830	2437.397885
829.906960	2543.262115
830.224046	2565.947308
830.541088	2452.521346
830.858086	2404.630385
831.175041	2477.727115
831.491952	2470.165385
831.808819	2482.768269
832.125642	2475.206538
832.442421	2477.727115
832.759157	2497.891731
833.075849	2485.288846
833.392497	2470.165385
833.709101	2437.397885
834.025662	2487.809423
834.342179	2507.974038
834.658653	2477.727115
834.975083	2500.412308
835.291469	2482.768269
835.607811	2513.015192
835.924110	2437.397885
836.240366	2492.850577
836.556578	2520.576923
836.872746	2439.918462
837.188871	2500.412308
837.504952	2472.685962
837.820990	2530.659231
838.136984	2505.453462
838.452935	2495.371154
838.768842	2490.330000
839.084706	2485.288846
839.400526	2480.247692
839.716303	2371.862885
840.032037	2497.891731
840.347727	2439.918462
840.663373	2487.809423
840.978977	2545.782692
841.294537	2530.659231
841.610054	2548.303269
841.925527	2470.165385
842.240957	2573.509038
842.556344	2442.439038
842.871687	2500.412308
843.186987	2487.809423
843.502244	2545.782692
843.817458	2470.165385
844.132629	2535.700385
844.447756	2555.865000
844.762840	2487.809423
845.077881	2502.932885
845.392879	2570.988462
845.707833	2477.727115
846.022745	2487.809423
846.337613	2513.015192
846.652438	2525.618077
846.967221	2404.630385
847.281960	2538.220962
847.596656	2513.015192
847.911309	2535.700385
848.225919	2417.233269
848.540485	2487.809423
848.855009	2583.591346
849.169490	2485.288846
849.483928	2452.521346
849.798323	2548.303269
850.112675	2513.015192
850.426984	2490.330000
850.741251	2467.644808
851.055474	2434.877308
851.369654	2457.562500
851.683792	2450.000769
851.997887	2490.330000
852.311938	2502.932885
852.625947	2507.974038
852.939914	2523.097500
853.253837	2555.865000
853.567718	2576.029615
853.881555	2485.288846
854.195350	2583.591346
854.509103	2500.412308
854.822812	2538.220962
855.136479	2457.562500
855.450103	2583.591346
855.763685	2540.741538
856.077224	2455.041923
856.390720	2502.932885
856.704173	2513.015192
857.017584	2500.412308
857.330953	2555.865000
857.644278	2528.138654
857.957561	2490.330000
858.270802	2490.330000
858.584000	2480.247692
858.897155	2392.027500
859.210268	2412.192115
859.523339	2510.494615
859.836367	2455.041923
860.149352	2500.412308
860.462295	2475.206538
860.775195	2510.494615
861.088054	2429.836154
861.400869	2452.521346
861.713642	2424.795000
862.026373	2513.015192
862.339062	2404.630385
862.651708	2429.836154
862.964312	2505.453462
863.276873	2447.480192
863.589392	2434.877308
863.901869	2523.097500
864.214303	2540.741538
864.526696	2482.768269
864.839045	2487.809423
865.151353	2472.685962
865.463619	2470.165385
865.775842	2444.959615
866.088023	2505.453462
866.400162	2457.562500
866.712258	2500.412308
867.024313	2485.288846
867.336325	2502.932885
867.648296	2573.509038
867.960224	2618.879423
868.272110	2490.330000
868.583954	2412.192115
868.895755	2535.700385
869.207515	2429.836154
869.519233	2472.685962
869.830909	2520.576923
870.142542	2565.947308
870.454134	2462.603654
870.765684	2439.918462
871.077191	2480.247692
871.388657	2560.906154
871.700081	2573.509038
872.011463	2414.712692
872.322803	2424.795000
872.634101	2525.618077
872.945357	2490.330000
873.256571	2550.823846
873.567744	2492.850577
873.878874	2427.315577
874.189963	2472.685962
874.501010	2515.535769
874.812015	2424.795000
875.122979	2505.453462
875.433900	2447.480192
875.744780	2495.371154
876.055618	2487.809423
876.366415	2538.220962
876.677169	2553.344423
876.987882	2543.262115
877.298554	2467.644808
877.609183	2477.727115
877.919771	2432.356731
878.230317	2455.041923
878.540822	2414.712692
878.851285	2482.768269
879.161707	2533.179808
879.472087	2480.247692
879.782425	2553.344423
880.092722	2452.521346
880.402977	2409.671538
880.713191	2450.000769
881.023363	2586.111923
881.333494	2439.918462
881.643583	2444.959615
881.953631	2550.823846
882.263637	2565.947308
882.573602	2487.809423
882.883526	2505.453462
883.193408	2487.809423
883.503248	2480.247692
883.813048	2523.097500
884.122806	2487.809423
884.432522	2462.603654
884.742197	2518.056346
885.051831	2485.288846
885.361424	2535.700385
885.670975	2467.644808
885.980485	2500.412308
886.289954	2502.932885
886.599382	2487.809423
886.908768	2518.056346
887.218113	2518.056346
887.527417	2485.288846
887.836680	2470.165385
888.145901	2538.220962
888.455082	2492.850577
888.764221	2402.109808
889.073319	2492.850577
889.382376	2485.288846
889.691392	2422.274423
890.000366	2485.288846
890.309300	2490.330000
890.618193	2419.753846
890.927044	2538.220962
891.235855	2465.124231
891.544625	2502.932885
891.853353	2465.124231
892.162041	2510.494615
892.470687	2457.562500
892.779293	2543.262115
893.087858	2399.589231
893.396381	2497.891731
893.704864	2429.836154
894.013306	2513.015192
894.321707	2444.959615
894.630068	2520.576923
894.938387	2457.562500
895.246665	2369.342308
895.554903	2505.453462
895.863100	2533.179808
896.171256	2409.671538
896.479371	2507.974038
896.787446	2520.576923
897.095480	2472.685962
897.403473	2444.959615
897.711425	2475.206538
898.019336	2482.768269
898.327207	2555.865000
898.635038	2475.206538
898.942827	2412.192115
899.250576	2523.097500
899.558284	2460.083077
899.865952	2528.138654
900.173579	2538.220962
900.481165	2475.206538
900.788711	2495.371154
901.096216	2465.124231
901.403681	2518.056346
901.711105	2422.274423
902.018489	2492.850577
902.325832	2533.179808
902.633135	2513.015192
902.940397	2548.303269
903.247619	2485.288846
903.554800	2475.206538
903.861941	2596.194231
904.169041	2465.124231
904.476101	2543.262115
904.783121	2538.220962
905.090100	2467.644808
905.397039	2497.891731
905.703938	2447.480192
906.010796	2500.412308
906.317614	2442.439038
906.624391	2513.015192
906.931129	2523.097500
907.237826	2432.356731
907.544483	2525.618077
907.851099	2414.712692
908.157675	2485.288846
908.464211	2439.918462
908.770707	2500.412308
909.077163	2482.768269
909.383578	2447.480192
909.689954	2523.097500
909.996289	2470.165385
910.302584	2530.659231
910.608839	2495.371154
910.915054	2427.315577
911.221229	2450.000769
911.527363	2475.206538
911.833458	2576.029615
912.139513	2513.015192
912.445527	2427.315577
912.751502	2591.153077
913.057436	2513.015192
913.363331	2482.768269
913.669186	2444.959615
913.975000	2528.138654
914.280775	2450.000769
914.586510	2510.494615
914.892205	2500.412308
915.197859	2553.344423
915.503475	2523.097500
915.809050	2510.494615
916.114585	2520.576923
916.420081	2485.288846
916.725536	2485.288846
917.030952	2500.412308
917.336328	2470.165385
917.641665	2500.412308
917.946961	2497.891731
918.252218	2477.727115
918.557435	2414.712692
918.862612	2444.959615
919.167750	2505.453462
919.472848	2523.097500
919.777906	2467.644808
920.082925	2462.603654
920.387904	2452.521346
920.692843	2422.274423
920.997743	2465.124231
921.302603	2472.685962
921.607423	2570.988462
921.912204	2424.795000
922.216946	2515.535769
922.521647	2437.397885
922.826310	2505.453462
923.130932	2530.659231
923.435516	2371.862885
923.740059	2427.315577
924.044564	2472.685962
924.349028	2432.356731
924.653454	2540.741538
924.957840	2439.918462
925.262186	2563.426731
925.566493	2505.453462
925.870761	2424.795000
926.174989	2460.083077
926.479178	2535.700385
926.783328	2550.823846
927.087438	2487.809423
927.391509	2502.932885
927.695541	2540.741538
927.999533	2477.727115
928.303486	2545.782692
928.607400	2487.809423
928.911275	2500.412308
929.215110	2480.247692
929.518906	2487.809423
929.822663	2452.521346
930.126381	2452.521346
930.430060	2555.865000
930.733699	2515.535769
931.037299	2457.562500
931.340861	2550.823846
931.644383	2515.535769
931.947866	2497.891731
932.251309	2462.603654
932.554714	2543.262115
932.858080	2455.041923
933.161407	2558.385577
933.464694	2472.685962
933.767943	2500.412308
934.071153	2500.412308
934.374323	2497.891731
934.677455	2497.891731
934.980548	2510.494615
935.283602	2540.741538
935.586617	2429.836154
935.889593	2523.097500
936.192530	2467.644808
936.495428	2414.712692
936.798287	2434.877308
937.101108	2505.453462
937.403890	2500.412308
937.706632	2462.603654
938.009336	2553.344423
938.312002	2457.562500
938.614628	2528.138654
938.917216	2465.124231
939.219765	2520.576923
939.522275	2485.288846
939.824747	2543.262115
940.127179	2528.138654
940.429573	2371.862885
940.731929	2490.330000
941.034246	2513.015192
941.336524	2460.083077
941.638763	2487.809423
941.940964	2510.494615
942.243126	2439.918462
942.545250	2535.700385
942.847335	2550.823846
943.149381	2553.344423
943.451389	2480.247692
943.753359	2505.453462
944.055290	2523.097500
944.357182	2500.412308
944.659036	2450.000769
944.960851	2480.247692
945.262628	2432.356731
945.564367	2510.494615
945.866067	2450.000769
946.167729	2495.371154
946.469352	2581.070769
946.770937	2480.247692
947.072484	2520.576923
947.373992	2565.947308
947.675462	2533.179808
947.976893	2455.041923
948.278286	2470.165385
948.579641	2545.782692
948.880958	2487.809423
949.182236	2495.371154
949.483476	2518.056346
949.784678	2475.206538
950.085841	2492.850577
950.386967	2502.932885
950.688054	2487.809423
950.989103	2487.809423
951.290114	2452.521346
951.591087	2545.782692
951.892021	2434.877308
952.192917	2558.385577
952.493776	2497.891731
952.794596	2450.000769
953.095378	2487.809423
953.396122	2558.385577
953.696828	2553.344423
953.997496	2442.439038
954.298126	2606.276538
954.598718	2513.015192
954.899272	2452.521346
955.199788	2510.494615
955.500266	2444.959615
955.800706	2533.179808
956.101108	2485.288846
956.401472	2515.535769
956.701798	2450.000769
957.002087	2523.097500
957.302337	2414.712692
957.602550	2513.015192
957.902724	2447.480192
958.202861	2434.877308
958.502960	2455.041923
958.803022	2553.344423
959.103045	2444.959615
959.403031	2563.426731
959.702979	2497.891731
960.002889	2497.891731
960.302762	2535.700385
960.602596	2492.850577
960.902393	2414.712692
961.202153	2427.315577
961.501875	2518.056346
961.801559	2523.097500
962.101205	2490.330000
962.400814	2467.644808
962.700385	2462.603654
962.999918	2528.138654
963.299414	2586.111923
963.598873	2520.576923
963.898293	2497.891731
964.197677	2515.535769
964.497022	2533.179808
964.796331	2457.562500
965.095601	2470.165385
965.394835	2462.603654
965.694030	2457.562500
965.993189	2540.741538
966.292309	2442.439038
966.591393	2455.041923
966.890439	2460.083077
967.189447	2502.932885
967.488419	2444.959615
967.787353	2495.371154
968.086249	2442.439038
968.385108	2480.247692
968.683930	2500.412308
968.982714	2518.056346
969.281462	2528.138654
969.580172	2510.494615
969.878844	2434.877308
970.177480	2424.795000
970.476078	2528.138654
970.774639	2457.562500
971.073162	2565.947308
971.371649	2457.562500
971.670098	2543.262115
971.968510	2487.809423
972.266885	2507.974038
972.565223	2487.809423
972.863524	2528.138654
973.161788	2485.288846
973.460014	2548.303269
973.758204	2528.138654
974.056356	2568.467885
974.354471	2402.109808
974.652550	2518.056346
974.950591	2432.356731
975.248595	2573.509038
975.546563	2452.521346
975.844493	2530.659231
976.142386	2497.891731
976.440243	2515.535769
976.738062	2515.535769
977.035845	2530.659231
977.333590	2505.453462
977.631299	2528.138654
977.928971	2467.644808
978.226606	2432.356731
978.524204	2495.371154
978.821765	2507.974038
979.119290	2502.932885
979.416777	2457.562500
979.714228	2475.206538
980.011642	2487.809423
980.309020	2497.891731
980.606360	2545.782692
980.903664	2452.521346
981.200931	2538.220962
981.498162	2452.521346
981.795356	2528.138654
982.092513	2472.685962
982.389633	2505.453462
982.686717	2462.603654
982.983764	2510.494615
983.280775	2392.027500
983.577749	2480.247692
983.874686	2427.315577
984.171587	2515.535769
984.468451	2570.988462
984.765279	2570.988462
985.062070	2505.453462
985.358824	2437.397885
985.655543	2548.303269
985.952224	2434.877308
986.248869	2515.535769
986.545478	2513.015192
986.842050	2397.068654
987.138586	2467.644808
987.435086	2442.439038
987.731549	2528.138654
988.027975	2470.165385
988.324366	2553.344423
988.620719	2412.192115
988.917037	2510.494615
989.213318	2472.685962
989.509563	2535.700385
989.805772	2450.000769
990.101944	2545.782692
990.398080	2500.412308
990.694180	2550.823846
990.990244	2538.220962
991.286271	2470.165385
991.582262	2477.727115
991.878217	2490.330000
992.174136	2450.000769
992.470019	2497.891731
992.765865	2515.535769
993.061676	2492.850577
993.357450	2465.124231
993.653188	2434.877308
993.948890	2518.056346
994.244556	2467.644808
994.540186	2460.083077
994.835780	2477.727115
995.131337	2432.356731
995.426859	2447.480192
995.722345	2538.220962
996.017795	2530.659231
996.313208	2487.809423
996.608586	2480.247692
996.903928	2482.768269
997.199234	2538.220962
997.494504	2455.041923
997.789738	2507.974038
998.084936	2460.083077
998.380099	2419.753846
998.675225	2487.809423
998.970316	2417.233269
999.265371	2513.015192
999.560390	2565.947308
999.855373	2495.371154
1000.150320	2477.727115
1000.445232	2523.097500
1000.740108	2525.618077
1001.034948	2502.932885
1001.329752	2497.891731
1001.624521	2563.426731
1001.919254	2500.412308
1002.213951	2558.385577
1002.508613	2505.453462
1002.803239	2487.809423
1003.097829	2490.330000
1003.392384	2485.288846
1003.686903	2507.974038
1003.981386	2462.603654
1004.275834	2472.685962
1004.570246	2470.165385
1004.864623	2462.603654
1005.158964	2608.797115
1005.453270	2470.165385
1005.747540	2525.618077
1006.041775	2455.041923
1006.335974	2555.865000
1006.630138	2462.603654
1006.924266	2480.247692
1007.218359	2487.809423
1007.512416	2482.768269
1007.806438	2432.356731
1008.100425	2480.247692
1008.394376	2455.041923
1008.688292	2558.385577
1008.982172	2470.165385
1009.276017	2500.412308
1009.569827	2550.823846
1009.863602	2477.727115
1010.157341	2528.138654
1010.451045	2495.371154
1010.744714	2570.988462
1011.038347	2530.659231
1011.331945	2487.809423
1011.625508	2422.274423
1011.919036	2467.644808
1012.212528	2570.988462
1012.505986	2455.041923
1012.799408	2543.262115
1013.092795	2460.083077
1013.386147	2492.850577
1013.679464	2434.877308
1013.972745	2457.562500
1014.265992	2485.288846
1014.559204	2470.165385
1014.852380	2520.576923
1015.145521	2553.344423
1015.438628	2528.138654
1015.731699	2452.521346
1016.024736	2490.330000
1016.317737	2550.823846
1016.610703	2550.823846
1016.903635	2523.097500
1017.196531	2510.494615
1017.489393	2510.494615
1017.782219	2505.453462
1018.075011	2555.865000
1018.367768	2570.988462
1018.660490	2500.412308
1018.953177	2500.412308
1019.245829	2500.412308
