Dividing Wavelength (nm)	Counts (n)	Blue Motor Position (mm): 21.000000	Red Motor Position (mm): 0.000000	
326.493990	2061.181614
326.888308	2061.181614
327.282561	2061.181614
327.676750	2035.345701
328.070874	2035.950639
328.464933	2042.834335
328.858929	2049.960006
329.252859	2061.824361
329.646726	2076.937741
330.040528	2093.387026
330.434265	2109.198605
330.827938	2129.506893
331.221547	2151.471200
331.615091	2173.506084
332.008571	2193.398477
332.401986	2214.099975
332.795338	2236.699468
333.188625	2252.138001
333.581847	2269.897986
333.975006	2288.368774
334.368100	2305.029788
334.761129	2320.123002
335.154095	2335.725373
335.546996	2387.674464
335.939833	2480.449338
336.332606	2490.657675
336.725315	2504.931702
337.117960	2515.220697
337.510540	2523.515916
337.903056	2534.422452
338.295508	2540.933102
338.687896	2547.796633
339.080220	2550.478527
339.472480	2556.016235
339.864676	2562.922615
340.256807	2562.461350
340.648875	2565.221382
341.040879	2565.022256
341.432818	2565.793552
341.824694	2569.294634
342.216506	2568.808163
342.608253	2566.630384
342.999937	2566.204407
343.391557	2565.433110
343.783113	2563.018397
344.174605	2559.298026
344.566033	2560.621329
344.957397	2558.156204
345.348697	2555.799465
345.739934	2554.047664
346.131106	2553.102448
346.522215	2554.004814
346.913260	2553.427602
347.304241	2549.626572
347.695159	2550.501212
348.086012	2547.642878
348.476802	2545.175233
348.867528	2543.559543
349.258191	2538.417567
349.648789	2536.454037
350.039324	2536.305323
350.429796	2539.072917
350.820203	2536.396064
351.210548	2535.377751
351.600828	2534.969417
351.991045	2533.217616
352.381198	2533.152081
352.771288	2533.073943
353.161314	2534.356917
353.551276	2530.873480
353.941175	2532.141330
354.331010	2533.744417
354.720782	2539.226672
355.110490	2540.938143
355.500135	2536.990920
355.889717	2534.548481
356.279235	2538.362114
356.668689	2533.061341
357.058080	2533.462112
357.447408	2537.041332
357.836672	2535.907072
358.225873	2537.343801
358.615010	2538.614172
359.004084	2536.789274
359.393095	2539.282124
359.782043	2538.911600
360.170927	2540.786909
360.559748	2536.373379
360.948505	2541.843031
361.337199	2539.435880
361.725830	2542.037115
362.114398	2540.434028
362.502903	2544.527445
362.891344	2544.655994
363.279722	2541.689275
363.668037	2543.710778
364.056289	2543.494008
364.444478	2543.821683
364.832603	2546.317055
365.220665	2543.743546
365.608665	2546.773279
365.996601	2546.921993
366.384474	2547.055584
366.772284	2545.696993
367.160031	2546.594318
367.547715	2548.560368
367.935336	2545.371838
368.322893	2546.816129
368.710388	2543.448638
369.097820	2543.488967
369.485189	2543.521735
369.872495	2548.514998
370.259738	2551.658157
370.646918	2548.623383
371.034035	2551.075904
371.421090	2550.428116
371.808081	2550.783517
372.195010	2549.654298
372.581875	2552.474824
372.968678	2549.946685
373.355418	2546.911911
373.742096	2554.617314
374.128710	2552.545400
374.515262	2551.761501
374.901751	2553.268806
375.288177	2552.817622
375.674540	2554.524053
376.060841	2550.453321
376.447079	2553.084804
376.833254	2554.897098
377.219367	2554.503888
377.605417	2555.696121
377.991404	2555.857438
378.377329	2555.260062
378.763191	2551.789227
379.148991	2552.931048
379.534727	2553.571275
379.920402	2555.103786
380.306013	2554.093034
380.691563	2557.014383
381.077049	2556.520350
381.462474	2554.730740
381.847835	2555.854918
382.233134	2556.212840
382.618371	2556.996739
383.003545	2555.713765
383.388657	2558.625032
383.773706	2559.081256
384.158693	2563.048644
384.543618	2560.460012
384.928480	2560.220557
385.313280	2559.756771
385.698017	2558.801472
386.082692	2561.284240
386.467305	2558.272151
386.851856	2560.533108
387.236344	2562.358006
387.620770	2557.112686
388.005133	2557.286605
388.389435	2560.112172
388.773674	2557.626883
389.157851	2562.368088
389.541965	2560.533108
389.926018	2561.604354
390.310008	2562.529405
390.693936	2563.527554
391.077802	2562.330280
391.461606	2564.858418
391.845348	2565.037379
392.229027	2563.882955
392.612645	2563.446895
392.996200	2562.635270
393.379694	2565.705332
393.763125	2562.302553
394.146494	2565.801114
394.529801	2564.611402
394.913047	2566.272462
395.296230	2563.882955
395.679351	2569.103070
396.062410	2566.274983
396.445408	2568.598955
396.828343	2567.179870
397.211217	2566.345559
397.594028	2568.125086
397.976778	2567.396639
398.359466	2567.101732
398.742092	2566.390929
399.124656	2567.212637
399.507158	2566.305230
399.889598	2567.494942
400.271977	2567.714232
400.654294	2568.377144
401.036549	2568.049469
401.418742	2568.409911
401.800874	2567.835220
402.182944	2571.250602
402.564952	2571.396795
402.946898	2568.936712
403.328783	2570.542319
403.710606	2570.164233
404.092367	2573.312433
404.474067	2569.256825
404.855705	2569.266908
405.237282	2573.168761
405.618797	2572.697413
406.000250	2572.329408
406.381642	2573.070458
406.762972	2572.127762
407.144240	2568.931671
407.525447	2572.110118
407.906593	2569.763461
408.287677	2571.815211
408.668700	2572.170612
409.049661	2575.157496
409.430560	2575.434759
409.811399	2570.449058
410.192176	2574.368555
410.572891	2573.720767
410.953545	2572.372258
411.334138	2572.765468
411.714669	2573.471230
412.095139	2575.306210
412.475547	2572.773030
412.855894	2575.752352
413.236180	2577.552044
413.616405	2573.985427
413.996568	2578.537589
414.376670	2575.149934
414.756711	2575.825449
415.136691	2576.417784
415.516609	2578.741756
415.896466	2575.336457
416.276262	2578.837538
416.655997	2577.123546
417.035670	2578.136818
417.415283	2579.452559
417.794834	2577.068093
418.174324	2575.664132
418.553753	2576.914338
418.933121	2577.189081
419.312428	2576.732856
419.691674	2579.215625
420.070859	2575.613720
420.449983	2578.464493
420.829045	2577.862075
421.208047	2577.851992
421.586988	2577.998186
421.965867	2577.937692
422.344686	2581.305183
422.723444	2579.843248
423.102141	2579.886098
423.480777	2579.444997
423.859352	2581.365677
424.237866	2579.205542
424.616319	2580.112950
424.994712	2579.951633
425.373044	2577.166396
425.751314	2579.225707
426.129524	2576.775706
426.507673	2581.083372
426.885762	2576.949626
427.263789	2580.480954
427.641756	2579.795357
428.019662	2581.315265
428.397508	2584.123188
428.775292	2579.359298
429.153016	2581.748804
429.530679	2578.303176
429.908282	2581.234607
430.285824	2579.356777
430.663305	2580.208732
431.040726	2581.796695
431.418086	2581.038002
431.795385	2583.510688
432.172624	2582.472210
432.549802	2583.571182
432.926920	2580.735532
433.303977	2582.111767
433.680974	2582.999011
434.057910	2583.394741
434.434786	2583.193095
434.811601	2583.268712
435.188355	2585.559917
435.565050	2580.334761
435.941683	2581.582446
436.318257	2583.702252
436.694770	2585.146542
437.071222	2584.536562
437.447614	2581.620255
437.823946	2584.037488
438.200218	2584.997828
438.576429	2583.508167
438.952580	2584.897005
439.328670	2585.156624
439.704700	2585.307859
440.080670	2582.769638
440.456580	2584.231573
440.832429	2585.902715
441.208218	2584.995307
441.583947	2586.154773
441.959616	2582.847776
442.335224	2585.020513
442.710773	2586.608477
443.086261	2586.321131
443.461689	2584.995307
443.837057	2590.543097
444.212365	2586.830287
444.587612	2584.314752
444.962800	2584.879361
445.337927	2584.070256
445.712995	2582.502457
446.088002	2587.770463
446.462949	2588.236769
446.837837	2588.670309
447.212664	2591.821030
447.587431	2590.530494
447.962139	2590.870772
448.336786	2589.686101
448.711374	2592.289857
449.085901	2590.548138
449.460369	2589.502099
449.834776	2592.330186
450.209124	2590.598550
450.583412	2591.435382
450.957640	2591.904209
451.331808	2592.136102
451.705917	2591.949579
452.079965	2592.516709
452.453954	2593.426637
452.827883	2594.253387
453.201752	2591.679878
453.575562	2593.091401
453.949311	2595.526278
454.323001	2593.630804
454.696632	2594.518047
455.070202	2597.487287
455.443713	2596.428644
455.817164	2593.935794
456.190556	2596.927719
456.563888	2601.076588
456.937160	2597.056268
457.310373	2598.850919
457.683526	2597.951073
458.056619	2597.580548
458.429653	2598.750096
458.802628	2602.311671
459.175542	2599.125662
459.548398	2604.209665
459.921194	2602.596496
460.293930	2607.665376
460.666607	2604.552464
461.039224	2604.224789
461.411782	2610.248968
461.784280	2609.026488
462.156719	2608.955912
462.529099	2612.532610
462.901419	2609.402054
463.273680	2607.481374
463.645882	2603.584562
464.018024	2608.603031
464.390106	2610.974894
464.762130	2617.604011
465.134094	2616.862962
465.505999	2624.286061
465.877845	2628.805455
466.249631	2631.532719
466.621358	2630.917698
466.993026	2631.124386
467.364634	2634.302833
467.736184	2630.176649
468.107674	2628.429889
468.479105	2629.375105
468.850477	2630.267390
469.221790	2629.904427
469.593043	2626.126082
469.964238	2630.078346
470.335373	2627.814868
470.706449	2631.981382
471.077467	2636.057155
471.448425	2646.184833
471.819324	2653.058446
472.190164	2648.967550
472.560945	2646.051242
472.931667	2644.458238
473.302330	2646.976294
473.672934	2646.799854
474.043479	2654.288488
474.413965	2652.166162
474.784393	2654.900988
475.154761	2660.882317
475.525070	2658.490289
475.895321	2664.088491
476.265513	2666.803152
476.635645	2674.647187
477.005719	2676.973680
477.375734	2684.411902
477.745691	2688.817871
478.115588	2697.372709
478.485427	2712.329812
478.855207	2726.298850
479.224928	2744.903228
479.594591	2760.495517
479.964194	2760.959303
480.333739	2770.235026
480.703226	2782.048970
481.072653	2801.071764
481.442022	2814.027530
481.811333	2825.942297
482.180584	2834.282886
482.549777	2848.461131
482.918912	2856.463963
483.287988	2877.828373
483.657005	2895.903430
484.025964	2906.837693
484.394864	2928.776794
484.763706	2943.776747
485.132489	2956.757718
485.501213	2981.358549
485.869879	3007.875018
486.238487	3029.811599
486.607036	3057.863100
486.975527	3080.286152
487.343959	3116.947944
487.712333	3151.651247
488.080648	3182.185516
488.448905	3226.903071
488.817104	3258.443050
489.185244	3321.707010
489.553326	3403.545102
489.921350	3508.002850
490.289315	3632.408445
490.657222	3711.431052
491.025070	3780.641053
491.392861	3821.784430
491.760593	3848.018595
492.128267	3867.837891
492.495883	3893.220101
492.863440	3917.664656
493.230939	3947.069706
493.598380	3987.499760
493.965763	4054.216911
494.333088	4100.391359
494.700354	4159.612314
495.067563	4233.692070
495.434713	4304.621105
495.801805	4399.956886
496.168839	4476.138802
496.535815	4544.184297
496.902733	4640.049399
497.269593	4714.499680
497.636395	4816.751924
498.003139	4929.031023
498.369825	5002.704966
498.736453	5138.042303
499.103023	5220.767637
499.469535	5328.555068
499.835989	5445.280465
500.202385	5534.098034
500.568723	5644.763964
500.935003	5799.885309
501.301226	5896.551954
501.667390	6093.010761
502.033497	6239.357977
502.399546	6338.933369
502.765537	6412.546818
503.131470	6592.815959
503.497345	6782.829650
503.863163	6781.811337
504.228923	7014.001842
504.594625	7214.498613
504.960269	7276.630834
505.325856	7526.956890
505.691385	7620.608926
506.056856	7825.002508
506.422270	8058.498672
506.787625	8134.337791
507.152924	8366.949232
507.518164	8569.013802
507.883347	8640.910738
508.248472	8834.175973
508.613540	9137.179566
508.978550	9356.804995
509.343503	9489.462959
509.708398	9747.406198
510.073236	10063.141225
510.438016	10262.216391
510.802738	10372.075736
511.167403	10691.881495
511.532010	10946.525299
511.896561	11251.351269
512.261053	11636.674384
512.625488	11778.973554
512.989866	11974.161990
513.354186	12187.884228
513.718449	12378.931356
514.082655	12855.083460
514.446803	12975.579640
514.810894	13382.433523
515.174927	13605.234879
515.538904	13816.791941
515.902822	14235.419439
516.266684	14356.099621
516.630488	14687.011041
516.994235	14915.927317
517.357925	15346.852709
517.721558	15664.780638
518.085133	16034.372833
518.448651	16330.591033
518.812112	16523.077410
519.175516	16807.658106
519.538863	17228.720481
519.902152	17487.422414
520.265385	17962.422615
520.628560	18229.939006
520.991678	18448.818344
521.354739	18789.393657
521.717743	19189.550367
522.080690	19388.544873
522.443580	19951.677046
522.806413	20207.092147
523.169189	20518.970691
523.531908	20872.232068
523.894569	21058.974050
524.257174	21401.401987
524.619722	21813.838948
524.982213	22125.581381
525.344647	22396.606415
525.707025	22713.480742
526.069345	23200.514177
526.431608	23395.735381
526.793815	23848.367982
527.155964	23865.938923
527.518057	24239.634617
527.880093	24405.443208
528.242072	25009.000393
528.603995	25108.142245
528.965860	25309.327134
529.327669	25673.043863
529.689421	25945.218280
530.051117	26157.090414
530.412755	26555.351650
530.774337	26838.966966
531.135862	27051.418833
531.497331	27367.884827
531.858743	27606.923740
532.220098	28098.476569
532.581396	28160.989397
532.942638	28241.163908
533.303824	28647.697678
533.664953	28900.866944
534.026025	28928.063969
534.387040	29526.958087
534.747999	29806.202723
535.108902	30238.017879
535.469748	30013.794917
535.830537	30397.232641
536.191270	30782.792690
536.551947	30820.462712
536.912567	31225.612685
537.273131	31545.093289
537.633638	31473.589563
537.994089	31837.298731
538.354483	31849.682325
538.714821	32526.348844
539.075103	32938.886628
539.435328	33046.280849
539.795497	33070.324632
540.155609	33347.928372
540.515665	34004.775594
540.875665	33663.930580
541.235609	34086.273408
541.595496	34374.299733
541.955328	35007.700549
542.315102	34762.236686
542.674821	34861.660843
543.034483	34965.291842
543.394090	35162.015309
543.753640	35315.899051
544.113134	36347.467842
544.472571	35809.934649
544.831953	36918.096211
545.191278	36475.508109
545.550548	36388.409573
545.909761	37089.535771
546.268918	37396.884838
546.628019	37902.736900
546.987064	37597.580735
547.346053	37160.426997
547.704986	38105.144268
548.063863	37962.381312
548.422684	38289.746281
548.781449	38118.679767
549.140158	38736.027028
549.498811	38678.668780
549.857408	38313.051535
550.215949	39197.527019
550.574434	39202.605981
550.932864	39281.913414
551.291237	40061.721940
551.649555	39994.528401
552.007817	40281.695209
552.366022	40132.847580
552.724173	40345.254077
553.082267	40826.762407
553.440305	41258.151586
553.798288	40732.225649
554.156215	41217.451830
554.514086	41512.641635
554.871902	41321.266832
555.229661	41596.347474
555.587365	41440.321242
555.945014	41669.953361
556.302606	41787.293778
556.660143	42021.732638
557.017625	42332.746625
557.375050	42189.872763
557.732421	42654.059688
558.089735	42839.506094
558.446994	42808.893688
558.804197	43381.490627
559.161345	43355.828633
559.518437	42839.178419
559.875474	43193.679920
560.232455	43516.812840
560.589381	43686.082183
560.946251	43596.329480
561.303065	44300.245956
561.659825	44102.375627
562.016528	44027.819482
562.373177	43704.774782
562.729770	44402.188169
563.086307	44037.228796
563.442789	44633.761133
563.799216	44586.732209
564.155587	44560.631635
564.511904	44626.874917
564.868164	44765.176452
565.224370	45109.678824
565.580520	44938.609788
565.936615	45207.134410
566.292654	44940.991734
566.648638	45363.662237
567.004567	45376.955759
567.360441	45521.077307
567.716260	45331.696280
568.072023	45758.346774
568.427732	45751.798315
568.783385	45365.502258
569.138982	45819.886660
569.494525	46015.808583
569.850013	45670.824782
570.205445	45837.558425
570.560823	45693.769593
570.916145	45618.033819
571.271412	45899.425985
571.626625	45608.642149
571.981782	45726.879892
572.336884	45384.096554
572.691931	45753.686228
573.046923	45472.513351
573.401860	45359.727616
573.756743	45412.064875
574.111570	45592.291167
574.466342	45559.964767
574.821059	45734.915491
575.175722	45290.658767
575.530330	45436.832064
575.884882	45118.571419
576.239380	45050.727571
576.593823	45181.270770
576.948211	45154.978632
577.302544	44732.532460
577.656823	44768.158295
578.011047	45057.628910
578.365216	44908.660293
578.719330	44662.888920
579.073389	44676.149675
579.427394	44747.870171
579.781344	44703.432400
580.135239	44485.125233
580.489080	44564.082305
580.842866	44087.980612
581.196597	44592.363178
581.550273	44614.299759
581.903895	44562.907716
582.257463	45023.389393
582.610975	44486.262013
582.964434	44839.243605
583.317837	44355.612949
583.671186	44338.921689
584.024481	44624.669412
584.377721	44205.273138
584.730906	44429.337303
585.084037	44553.876489
585.437113	44293.836129
585.790135	44433.753354
586.143103	44005.663611
586.496016	44180.566443
586.848874	44290.105675
587.201679	44325.451726
587.554428	43854.764232
587.907124	44141.275690
588.259765	43932.534112
588.612352	44092.782311
588.964884	43559.029983
589.317362	43888.590374
589.669786	43880.073345
590.022155	43742.401954
590.374470	44221.603956
590.726731	43814.634127
591.078937	43161.038448
591.431090	43511.300338
591.783188	43032.189077
592.135232	42859.605175
592.487222	43130.824293
592.839157	43274.978608
593.191038	42937.533852
593.542866	42730.871750
593.894639	42166.002899
594.246358	42462.939464
594.598022	42460.121459
594.949633	42063.864081
595.301190	42043.618808
595.652692	41997.545182
596.004141	42468.010865
596.355535	41406.106930
596.706876	41426.279108
597.058162	41148.362817
597.409395	41657.068172
597.760573	41880.403890
598.111698	41482.374547
598.462768	41381.465770
598.813785	41421.399271
599.164748	41005.940138
599.515657	41302.664974
599.866511	40831.196102
600.217312	41521.075485
600.568060	40462.501233
600.918753	41304.242855
601.269392	41210.432023
601.619978	40932.004055
601.970510	41151.886583
602.320988	41272.838987
602.671412	41564.711713
603.021783	41420.229723
603.372100	40981.430048
603.722363	41103.453697
604.072572	41140.516261
604.422728	41138.333441
604.772830	40931.542790
605.122878	41081.570049
605.472872	40950.056427
605.822813	41218.838147
606.172701	40973.991826
606.522534	41298.082565
606.872314	41514.693384
607.222041	41336.753256
607.571714	41664.516477
607.921333	41175.474142
608.270899	41381.178425
608.620411	41782.973510
608.969870	41510.143743
609.319276	41529.161496
609.668627	41568.162383
610.017926	41980.816113
610.367171	42097.402878
610.716362	42141.119764
611.065500	42044.432954
611.414585	42264.073506
611.763616	42449.761888
612.112594	42341.208201
612.461518	42461.787560
612.810389	42845.316024
613.159207	42651.120696
613.507971	42613.448153
613.856682	43126.793890
614.205340	42965.250115
614.553945	43643.779341
614.902496	42968.516783
615.250994	43383.617994
615.599439	43444.734422
615.947830	43558.299016
616.296169	43570.828803
616.644454	43624.373419
616.992686	43772.444710
617.340864	44237.755813
617.688990	43760.310653
618.037063	44429.526347
618.385082	44254.091672
618.733048	44599.665289
619.080961	44495.668806
619.428821	44509.660528
619.776628	44505.738511
620.124382	44315.220704
620.472083	44439.001195
620.819731	44526.462694
621.167326	44104.870998
621.514868	44087.789048
621.862357	43563.640118
622.209793	43641.480575
622.557176	43220.710587
622.904506	42971.806136
623.251783	42604.263171
623.599007	42291.204996
623.946179	42219.141702
624.293297	41954.269397
624.640363	41402.071487
624.987376	41256.503128
625.334336	41054.897304
625.681243	40634.409620
626.028097	40566.762377
626.374899	40377.865301
626.721647	40359.429801
627.068343	40148.260908
627.414987	39850.356442
627.761577	39598.303791
628.108115	39940.852715
628.454600	39174.579687
628.801032	39406.303885
629.147412	39301.974685
629.493739	39228.220084
629.840014	38778.821383
630.186236	39205.033297
630.532405	38654.622476
630.878521	38882.626303
631.224585	38660.318980
631.570597	38321.777773
631.916556	38481.867175
632.262462	38372.148982
632.608316	38298.311202
632.954117	38161.423710
633.299866	38126.301991
633.645562	38050.311638
633.991206	37506.673607
634.336797	37107.252906
634.682336	36994.754517
635.027823	36780.321476
635.373257	36634.032233
635.718639	36314.864180
636.063968	36197.874122
636.409245	35544.406993
636.754470	35502.444429
637.099642	35291.361235
637.444762	34711.807503
637.789829	34862.250658
638.134845	34493.333978
638.479808	34400.967437
638.824719	34341.280175
639.169577	33834.261086
639.514383	33939.157415
639.859137	33536.354099
640.203839	33721.714806
640.548489	33428.806123
640.893086	33430.285702
641.237632	33146.856909
641.582125	33243.969697
641.926566	33038.724159
642.270955	33073.175405
642.615292	33004.406504
642.959576	32890.143711
643.303809	32897.828950
643.647990	32995.574403
643.992118	32932.708694
644.336195	32779.616413
644.680219	32878.165930
645.024192	33074.513831
645.368112	33601.576548
645.711981	33616.800832
646.055797	34342.888303
646.399562	34147.135258
646.743274	35013.709604
647.086935	35419.141882
647.430544	35375.440119
647.774101	35400.053553
648.117606	35701.809460
648.461059	35855.299992
648.804460	35445.854956
649.147810	34937.613387
649.491108	34575.882872
649.834354	34429.941468
650.177548	33612.712457
650.520690	33118.301293
650.863781	33115.621920
651.206820	32919.455500
651.549807	32520.193595
651.892742	31936.876643
652.235626	31833.853102
652.578458	31717.354557
652.921238	31022.121468
653.263967	31329.979693
653.606644	31041.393800
653.949269	30956.243670
654.291843	30540.560206
654.634365	30916.365622
654.976836	30448.662492
655.319255	30532.569977
655.661622	30401.479813
656.003938	30281.386925
656.346203	30084.544991
656.688416	30349.931494
657.030577	30105.400244
657.372687	29931.225858
657.714746	30095.627968
658.056753	30302.821911
658.398708	29672.654995
658.740612	29734.890560
659.082465	29928.695199
659.424266	29832.129377
659.766016	29835.499388
660.107715	29698.964777
660.449362	29789.153540
660.790958	29779.270358
661.132503	29695.362873
661.473996	29780.893610
661.815438	29855.346411
662.156829	29981.271913
662.498168	29786.259918
662.839456	29763.340312
663.180693	29896.625899
663.521879	29986.043365
663.863013	29941.431674
664.204097	29933.118812
664.545129	30331.004482
664.886110	30268.874781
665.227040	30364.233248
665.567918	30375.507788
665.908746	30445.640320
666.249522	30524.899862
666.590248	30550.382894
666.930922	30641.829425
667.271545	30658.944142
667.612118	30697.103157
667.952639	30509.683139
668.293109	30550.829037
668.633528	30410.223694
668.973896	30371.235410
669.314213	30342.901605
669.654480	30155.249694
669.994695	30158.513841
670.334859	30063.490612
670.674973	29908.908670
671.015035	30093.845920
671.355047	30034.819049
671.695008	29958.206114
672.034918	29860.790857
672.374777	29963.650560
672.714585	29837.500726
673.054342	29961.805498
673.394049	29815.881738
673.733705	30023.857060
674.073310	29749.514947
674.412864	29807.241200
674.752368	29503.020168
675.091820	29722.746421
675.431223	29335.706793
675.770574	29125.838517
676.109875	28978.415014
676.449125	28768.461039
676.788324	28682.022894
677.127473	28188.178861
677.466571	28079.751203
677.805619	27815.262025
678.144616	27745.820131
678.483562	27694.460856
678.822458	27384.321509
679.161303	27316.918762
679.500098	27244.348832
679.838842	27163.534094
680.177535	27247.638185
680.516179	27488.867478
680.854771	27626.942162
681.193314	28398.538649
681.531805	29407.961651
681.870247	30161.384778
682.208638	30877.541176
682.546978	31145.009676
682.885268	31279.447167
683.223508	30849.136795
683.561697	30578.701576
683.899836	30405.739588
684.237925	29997.146507
684.575963	29851.258035
684.913951	29484.440996
685.251889	29653.896862
685.589776	29684.252170
685.927614	29685.479691
686.265401	29861.660456
686.603137	29982.166718
686.940824	30488.779994
687.278460	30816.845684
687.616046	30993.235657
687.953582	31651.839722
688.291068	31571.602197
688.628504	31905.306417
688.965889	31896.970869
689.303224	31625.040948
689.640510	31351.742354
689.977745	30720.083256
690.314930	29974.791510
690.652065	29545.559945
690.989150	28870.299908
691.326185	28023.562502
691.663170	27403.051917
692.000105	26661.543556
692.336990	26048.723251
692.673825	25631.240095
693.010610	25136.803726
693.347345	24627.692557
693.684030	24018.151523
694.020665	23802.743019
694.357251	23137.104024
694.693786	23132.839208
695.030272	22903.459146
695.366707	22414.608375
695.703093	22143.051500
696.039429	22206.494421
696.375716	21966.328810
696.711952	21963.599026
697.048139	21824.450577
697.384276	21665.140033
697.720363	21787.128394
698.056400	21666.826299
698.392388	21515.178309
698.728326	21506.862925
699.064214	21352.354081
699.400053	21365.836647
699.735842	20969.473405
700.071581	20775.348652
700.407270	20515.275526
700.742910	20347.120277
701.078501	20095.995198
701.414042	19900.337935
701.749533	19590.876624
702.084974	19277.750394
702.420366	19504.695579
702.755709	19100.117777
703.091002	18789.668399
703.426246	18856.072998
703.761440	18796.022774
704.096584	18547.355258
704.431679	18484.872676
704.766725	18437.848793
705.101721	18369.016878
705.436668	18483.151122
705.771565	18206.411941
706.106413	18511.830246
706.441212	18598.545654
706.775961	18687.847174
707.110661	18784.218912
707.445311	19140.106730
707.779913	19025.720428
708.114465	19324.247477
708.448967	19623.818044
708.783421	20264.553739
709.117825	20629.152670
709.452180	20847.061587
709.786485	21312.463430
710.120742	22075.578176
710.454949	22179.335204
710.789107	22679.256349
711.123216	23392.861923
711.457275	23602.747843
711.791286	24170.437218
712.125247	24312.648168
712.459159	24048.983219
712.793023	24801.390554
713.126837	23764.006792
713.460602	24029.998234
713.794318	23693.425597
714.127985	23426.010030
714.461602	22535.646479
714.795171	22512.895752
715.128691	21535.642873
715.462162	21018.264212
715.795584	20590.968451
716.128957	20311.222221
716.462281	19939.958884
716.795556	19652.935749
717.128782	19176.811371
717.461960	18579.416996
717.795088	18544.915339
718.128167	18196.382565
718.461198	17742.346003
718.794180	17610.991178
719.127113	17275.598171
719.459997	17083.908296
719.792833	16714.774847
720.125619	16755.497287
720.458357	16418.092861
720.791046	16279.312416
721.123686	16122.451873
721.456278	15904.893317
721.788821	15898.334776
722.121315	15639.642925
722.453761	15739.036835
722.786158	15623.286901
723.118506	15702.188521
723.450805	15585.004379
723.783056	15756.259937
724.115259	15654.995759
724.447412	15661.766028
724.779518	15861.894795
725.111574	15913.304482
725.443582	16180.188208
725.775542	16137.839995
726.107453	16654.480126
726.439315	16573.657827
726.771129	16985.686454
727.102895	17420.095284
727.434612	17683.157815
727.766281	17854.733487
728.097901	18169.979522
728.429473	18263.008975
728.760996	18269.111292
729.092471	18398.752124
729.423897	18287.725752
729.755276	18159.020053
730.086606	18280.103528
730.417887	18848.849025
730.749120	19409.591691
731.080305	19627.926584
731.411442	20020.405617
731.742530	20140.690068
732.073570	20302.619492
732.404562	20623.178903
732.735506	20475.513425
733.066401	20249.914228
733.397249	19763.510938
733.728048	19142.256782
734.058798	18278.916336
734.389501	17516.890479
734.720156	17010.998088
735.050762	16425.553768
735.381320	16045.899431
735.711831	15776.243071
736.042293	15400.477983
736.372707	15437.248160
736.703073	15225.156735
737.033391	15416.274439
737.363661	15412.702782
737.693883	15543.427462
738.024056	15737.436268
738.354182	15965.641741
738.684260	16319.281204
739.014290	16592.705827
739.344272	16814.481308
739.674207	17165.433836
740.004093	17339.124271
740.333931	17399.219866
740.663722	17478.880179
740.993464	17521.490532
741.323159	17369.434209
741.652806	17067.895071
741.982405	16907.157880
742.311956	16542.765636
742.641460	16441.110769
742.970915	16110.700943
743.300323	15768.217554
743.629683	15545.287648
743.958996	15233.320884
744.288260	14918.082410
744.617477	14611.698723
744.946647	14572.304627
745.275768	14264.519499
745.604842	14064.758737
745.933869	13881.598494
746.262847	13858.830123
746.591778	13765.883849
746.920662	13649.271878
747.249498	13673.308100
747.578286	13813.295901
747.907027	13993.358354
748.235720	14255.810906
748.564365	14332.617926
748.892963	14249.622890
749.221514	14349.682232
749.550017	14209.253330
749.878473	14182.487323
750.206881	13958.748313
750.535242	13886.221232
750.863555	13808.158965
751.191821	13705.195918
751.520039	13718.376015
751.848210	13648.921518
752.176334	13695.605123
752.504411	13628.071306
752.832440	13449.309470
753.160421	13561.064289
753.488356	13447.804685
753.816243	13361.099360
754.144082	13192.074512
754.471875	13141.947799
754.799620	13102.306686
755.127318	13085.375971
755.454969	13073.715782
755.782572	13039.188919
756.110129	13053.778018
756.437638	12960.751086
756.765100	12966.384575
757.092515	12999.076458
757.419882	13038.019371
757.747203	13043.768807
758.074477	13135.348929
758.401703	13115.063326
758.728882	13313.258810
759.056014	13357.633566
759.383099	13520.961910
759.710138	13643.658553
760.037129	13770.272173
760.364073	13826.707891
760.690970	13854.396428
761.017820	13876.627917
761.344623	14104.636784
761.671379	14482.821625
761.998088	15182.745508
762.324751	16958.867516
762.651366	20368.293123
762.977935	24836.043446
763.304456	27789.794116
763.630931	28836.541821
763.957359	27644.644173
764.283740	25385.864452
764.610074	23134.795175
764.936362	20504.195069
765.262602	18622.712946
765.588796	16698.559975
765.914943	15408.805970
766.241044	14306.109018
766.567097	13517.667516
766.893104	12791.748924
767.219064	12331.105929
767.544978	11856.350225
767.870845	11469.151801
768.196665	11246.549570
768.522438	11014.341421
768.848165	10811.097222
769.173846	10606.204565
769.499479	10474.716149
769.825066	10306.654162
770.150607	10074.647659
770.476101	9997.618828
770.801548	9867.259631
771.126949	9714.653822
771.452303	9604.063509
771.777611	9405.774764
772.102872	9392.035099
772.428087	9255.538297
772.753256	9095.590047
773.078378	8999.525819
773.403453	8820.259868
773.728482	8721.811175
774.053465	8643.085996
774.378401	8534.113893
774.703291	8411.124863
775.028135	8291.669682
775.352932	8257.694825
775.677683	8150.411510
776.002388	8044.811939
776.327046	8055.171511
776.651658	7959.523178
776.976224	7859.375616
777.300743	7850.172989
777.625216	7770.875639
777.949643	7724.244966
778.274024	7738.130825
778.598359	7649.101527
778.922647	7664.915627
779.246889	7617.501054
779.571086	7621.770912
779.895236	7632.722818
780.219339	7641.905280
780.543397	7645.721433
780.867409	7722.470480
781.191374	7737.656956
781.515294	7701.370731
781.839167	7794.213661
782.162995	7766.610823
782.486776	7708.158644
782.810511	7666.934609
783.134201	7576.594611
783.457844	7572.750732
783.781441	7516.032710
784.104993	7446.956299
784.428498	7424.717249
784.751958	7420.646517
785.075372	7385.474387
785.398739	7328.942888
785.722061	7372.364866
786.045337	7375.364353
786.368568	7533.268415
786.691752	7563.260759
787.014891	7902.759786
787.337983	8259.305474
787.661030	8850.315227
787.984031	9477.147420
788.306987	9876.996620
788.629897	10084.919010
788.952760	10034.479745
789.275579	9809.256115
789.598351	9411.766175
789.921078	9058.363647
790.243759	8651.693766
790.566395	8365.666258
790.888984	8110.989687
791.211529	7898.096718
791.534027	7681.518667
791.856480	7481.246227
792.178888	7400.267653
792.501249	7306.126625
792.823566	7151.242214
793.145836	7149.311452
793.468062	7121.549818
793.790241	7074.662046
794.112375	7142.992366
794.434464	7295.613299
794.756507	7337.729619
795.078505	7498.519741
795.400457	7808.293604
795.722364	8157.015421
796.044226	8435.738297
796.366042	8715.361018
796.687812	8666.618102
797.009538	8742.709278
797.331218	8635.741034
797.652852	8552.957727
797.974442	8402.721260
798.295986	8313.018968
798.617484	8120.378836
798.938938	7979.080334
799.260346	7881.647433
799.581709	7682.020262
799.903026	7604.010927
800.224299	7494.388516
800.545526	7319.674726
800.866708	7227.920685
801.187845	7155.375961
801.508936	7055.596402
801.829983	7019.448809
802.150984	6860.476022
802.471940	6817.217881
802.792851	6805.403937
803.113717	6772.485203
803.434538	6740.907415
803.755314	6680.277457
804.076045	6683.511358
804.396731	6628.976155
804.717372	6658.817266
805.037967	6659.039076
805.358518	6705.387445
805.679024	6781.967613
805.999485	6793.562267
806.319901	6833.037022
806.640272	6857.970569
806.960598	6937.754390
807.280879	6939.720440
807.601115	7018.619539
807.921306	6963.023174
808.241453	6981.473797
808.561554	7002.155131
808.881611	6962.241795
809.201623	6973.652447
809.521590	6916.848725
809.841513	6898.135962
810.161390	6940.098527
810.481223	6810.112375
810.801011	6796.982690
811.120755	6769.803309
811.440453	6693.938984
811.760107	6660.800960
812.079716	6634.418081
812.399281	6566.317134
812.718801	6556.035700
813.038276	6503.884964
813.357707	6446.791376
813.677093	6487.286965
813.996434	6398.318161
814.315731	6442.723165
814.634983	6432.378717
814.954191	6446.433454
815.273354	6551.985133
815.592473	6612.945286
815.911547	6737.784420
816.230577	6825.886145
816.549562	6965.079965
816.868502	7068.713485
817.187399	7166.630337
817.506250	7320.501475
817.825058	7352.832916
818.143821	7620.913915
818.462539	7893.151347
818.781213	8259.612984
819.099843	8808.060276
819.418429	9806.289396
819.736970	10779.574887
820.055466	11956.056686
820.373919	13485.010921
820.692327	15846.995665
821.010691	20003.958853
821.329011	28985.888525
821.647286	41942.062243
821.965517	55324.805796
822.283704	60723.117831
822.601847	62723.500609
822.919945	60023.267045
823.237999	55853.811878
823.556010	49706.896059
823.873976	43005.067669
824.191897	36484.667885
824.509775	31645.576088
824.827609	27132.195762
825.145398	24545.947727
825.463144	23166.960257
825.780845	23479.216888
826.098502	25256.609267
826.416116	29019.170222
826.733685	32652.541528
827.051210	33785.024136
827.368692	32004.869205
827.686129	28046.124186
828.003522	23943.986067
828.320872	20245.788044
828.638177	17402.090803
828.955439	15258.566982
829.272656	13441.394858
829.589830	11978.273051
829.906960	10699.022289
830.224046	9766.333210
830.541088	9013.096606
830.858086	8553.613077
831.175041	8178.992331
831.491952	8060.915905
831.808819	8101.761854
832.125642	8506.127928
832.442421	9401.207478
832.759157	11197.816736
833.075849	14109.272125
833.392497	17310.924057
833.709101	19477.417895
834.025662	19321.681529
834.342179	17619.079709
834.658653	15439.438541
834.975083	13527.023897
835.291469	11907.039027
835.607811	10592.134704
835.924110	9677.215693
836.240366	8817.809867
836.556578	8011.174840
836.872746	7370.784464
837.188871	6868.289811
837.504952	6447.817251
837.820990	6137.352750
838.136984	5924.099339
838.452935	5823.472868
838.768842	5861.704978
839.084706	6282.033865
839.400526	7485.634552
839.716303	9061.166528
840.032037	10153.022478
840.347727	10078.985572
840.663373	9111.401626
840.978977	8068.707009
841.294537	7257.381188
841.610054	6660.372462
841.925527	6233.394292
842.240957	5868.069435
842.556344	5535.844794
842.871687	5254.409777
843.186987	4970.819668
843.502244	4749.825565
843.817458	4584.009412
844.132629	4449.014874
844.447756	4358.808467
844.762840	4276.196559
845.077881	4199.888613
845.392879	4139.167915
845.707833	4089.542796
846.022745	4048.664080
846.337613	4017.035881
846.652438	3973.485352
846.967221	3958.019092
847.281960	3925.601953
847.596656	3908.361207
847.911309	3889.169534
848.225919	3866.408724
848.540485	3844.368800
848.855009	3835.148529
849.169490	3814.641115
849.483928	3800.084784
849.798323	3792.175213
850.112675	3773.948922
850.426984	3781.205663
850.741251	3765.820061
851.055474	3760.811675
851.369654	3766.553549
851.683792	3760.746140
851.997887	3764.680760
852.311938	3769.752161
852.625947	3772.764250
852.939914	3762.873507
853.253837	3771.398098
853.567718	3768.438940
853.881555	3758.270933
854.195350	3773.648973
854.509103	3768.869959
854.822812	3765.709156
855.136479	3757.408896
855.450103	3771.982872
855.763685	3757.751694
856.077224	3756.269595
856.390720	3777.142493
856.704173	3794.937766
857.017584	3809.806649
857.330953	3822.848114
857.644278	3843.340404
857.957561	3849.969522
858.270802	3845.147658
858.584000	3847.012885
858.897155	3842.561546
859.210268	3827.322138
859.523339	3810.003254
859.836367	3806.839930
860.149352	3796.621511
860.462295	3788.159934
860.775195	3777.659211
861.088054	3774.032101
861.400869	3771.960186
861.713642	3770.866256
862.026373	3781.694654
862.339062	3788.686735
862.651708	3806.875218
862.964312	3845.366948
863.276873	3855.023278
863.589392	3911.837082
863.901869	3954.825522
864.214303	4003.964169
864.526696	4035.874672
864.839045	4077.819593
865.151353	4106.229016
865.463619	4117.672435
865.775842	4123.056387
866.088023	4140.859222
866.400162	4128.082418
866.712258	4140.602123
867.024313	4138.182369
867.336325	4138.434427
867.648296	4145.902896
867.960224	4143.137823
868.272110	4151.715347
868.583954	4158.470493
868.895755	4175.214685
869.207515	4170.057585
869.519233	4212.317578
869.830909	4223.309814
870.142542	4245.750510
870.454134	4261.090741
870.765684	4294.589208
871.077191	4329.403417
871.388657	4354.039536
871.700081	4390.003127
872.011463	4433.079787
872.322803	4469.088749
872.634101	4497.362060
872.945357	4538.684398
873.256571	4593.353191
873.567744	4621.853354
873.878874	4637.715345
874.189963	4680.643291
874.501010	4687.549671
874.812015	4689.034291
875.122979	4729.950816
875.433900	4725.088623
875.744780	4744.678547
876.055618	4767.482207
876.366415	4769.927166
876.677169	4790.747132
876.987882	4834.834543
877.298554	4888.260691
877.609183	4968.417558
877.919771	5075.635338
878.230317	5219.096495
878.540822	5434.963743
878.851285	5757.285038
879.161707	6216.382919
879.472087	6973.642364
879.782425	8205.160961
880.092722	10386.621985
880.402977	13677.376311
880.713191	17427.851099
881.023363	21110.676124
881.333494	23309.418224
881.643583	24523.877556
881.953631	24532.013978
882.263637	23698.698644
882.573602	22218.159651
882.883526	20675.077582
883.193408	19013.455301
883.503248	17322.662383
883.813048	15779.595438
884.122806	14353.493344
884.432522	12887.644273
884.742197	11630.793878
885.051831	10542.559997
885.361424	9538.304178
885.670975	8723.515085
885.980485	8034.354066
886.289954	7462.110008
886.599382	6986.628377
886.908768	6610.071828
887.218113	6249.314256
887.527417	5961.013188
887.836680	5692.659966
888.145901	5478.216843
888.455082	5318.611392
888.764221	5168.238814
889.073319	5030.353174
889.382376	4959.552689
889.691392	4897.486003
890.000366	4873.243094
890.309300	4859.236248
890.618193	4861.076269
890.927044	4844.614381
891.235855	4867.402917
891.544625	4899.782248
891.853353	4962.458914
892.162041	5078.652469
892.470687	5263.332620
892.779293	5513.756978
893.087858	5885.763885
893.396381	6464.072451
893.704864	7263.183556
894.013306	8407.994307
894.321707	9575.195342
894.630068	10383.413291
894.938387	10592.142266
895.246665	10349.929947
895.554903	9755.777034
895.863100	9059.959172
896.171256	8505.870829
896.479371	8001.644539
896.787446	7504.228848
897.095480	7079.042809
897.403473	6763.189315
897.711425	6442.513957
898.019336	6179.133833
898.327207	5907.939921
898.635038	5675.373850
898.942827	5433.209422
899.250576	5241.340586
899.558284	5051.581473
899.865952	4924.977935
900.173579	4778.880256
900.481165	4667.977392
900.788711	4583.280966
901.096216	4508.182897
901.403681	4439.776960
901.711105	4417.605965
902.018489	4404.889655
902.325832	4475.866580
902.633135	4595.389817
902.940397	4939.453608
903.247619	5730.166151
903.554800	7166.746283
903.861941	9072.393178
904.169041	10594.015055
904.476101	11212.168901
904.783121	10855.224962
905.090100	10123.274629
905.397039	9296.676633
905.703938	8540.697640
906.010796	7855.718259
906.317614	7298.501880
906.624391	6768.477485
906.931129	6340.329768
907.237826	5944.092556
907.544483	5564.377724
907.851099	5196.827198
908.157675	4840.397456
908.464211	4520.062376
908.770707	4288.307931
909.077163	4088.471551
909.383578	3942.830096
909.689954	3832.718693
909.996289	3760.272271
910.302584	3692.635110
910.608839	3663.855163
910.915054	3628.816623
911.221229	3613.793984
911.527363	3625.469297
911.833458	3639.624857
912.139513	3668.064526
912.445527	3700.380843
912.751502	3778.561577
913.057436	3883.243657
913.363331	4019.233824
913.669186	4220.597673
913.975000	4476.557218
914.280775	4898.474069
914.586510	5477.937059
914.892205	6273.872237
915.197859	7306.633261
915.503475	8519.723920
915.809050	9562.829391
916.114585	10209.828720
916.420081	10464.220467
916.725536	10426.537842
917.030952	9988.232200
917.336328	9581.484181
917.641665	9176.666924
917.946961	8700.182104
918.252218	8280.621993
918.557435	7775.848738
918.862612	7345.800506
919.167750	6970.010213
919.472848	6553.164763
919.777906	6177.780283
920.082925	5822.356252
920.387904	5460.444256
920.692843	5191.198749
920.997743	4949.881235
921.302603	4709.587075
921.607423	4554.851379
921.912204	4393.234507
922.216946	4271.364613
922.521647	4149.698885
922.826310	4044.225344
923.130932	3954.772589
923.435516	3855.673587
923.740059	3788.590953
924.044564	3707.274621
924.349028	3652.217659
924.653454	3588.298349
924.957840	3515.864530
925.262186	3468.447437
925.566493	3411.389137
925.870761	3355.061804
926.174989	3318.306752
926.479178	3283.343829
926.783328	3236.153588
927.087438	3212.344218
927.391509	3176.453724
927.695541	3145.934578
927.999533	3120.169241
928.303486	3099.213164
928.607400	3084.896287
928.911275	3072.648804
929.215110	3054.994683
929.518906	3045.456820
929.822663	3044.188970
930.126381	3042.991696
930.430060	3050.238355
930.733699	3051.937224
931.037299	3059.466187
931.340861	3059.125909
931.644383	3067.463977
931.947866	3064.981209
932.251309	3057.757236
932.554714	3061.890982
932.858080	3054.374622
933.161407	3046.772562
933.464694	3037.872404
933.767943	3029.670447
934.071153	3028.591640
934.374323	3015.383817
934.677455	3011.986079
934.980548	3002.370078
935.283602	2999.703308
935.586617	3000.477125
935.889593	3004.116838
936.192530	3007.595234
936.495428	3024.084849
936.798287	3043.505894
937.101108	3076.916141
937.403890	3127.093266
937.706632	3187.289684
938.009336	3267.096190
938.312002	3338.373065
938.614628	3401.251377
938.917216	3455.355560
939.219765	3485.859582
939.522275	3518.916948
939.824747	3524.129502
940.127179	3519.191691
940.429573	3512.980990
940.731929	3513.817821
941.034246	3498.550687
941.336524	3485.509222
941.638763	3472.475319
941.940964	3457.810602
942.243126	3414.186977
942.545250	3392.381466
942.847335	3353.831763
943.149381	3321.782627
943.451389	3289.587298
943.753359	3254.654623
944.055290	3230.424317
944.357182	3207.393805
944.659036	3192.298070
944.960851	3183.639888
945.262628	3167.755213
945.564367	3168.569359
945.866067	3164.506189
946.167729	3158.721465
946.469352	3155.724499
946.770937	3151.855413
947.072484	3135.005357
947.373992	3139.013074
947.675462	3133.276241
947.976893	3116.469034
948.278286	3105.975872
948.579641	3100.584358
948.880958	3092.722679
949.182236	3097.330293
949.483476	3091.865683
949.784678	3093.085642
950.085841	3094.381218
950.386967	3102.373968
950.688054	3120.703603
950.989103	3137.077271
951.290114	3159.530570
951.591087	3189.263296
951.892021	3211.421687
952.192917	3242.182808
952.493776	3266.982764
952.794596	3273.528703
953.095378	3279.280659
953.396122	3273.022067
953.696828	3267.985954
953.997496	3257.250817
954.298126	3235.944380
954.598718	3215.081565
954.899272	3189.217925
955.199788	3159.759943
955.500266	3133.261117
955.800706	3094.451795
956.101108	3058.848646
956.401472	3027.560724
956.701798	2995.423368
957.002087	2955.419292
957.302337	2926.604057
957.602550	2897.773698
957.902724	2868.663555
958.202861	2845.323013
958.502960	2825.095383
958.803022	2803.327681
959.103045	2784.173817
959.403031	2768.717639
959.702979	2753.357243
960.002889	2740.194790
960.302762	2728.758933
960.602596	2717.307952
960.902393	2707.487784
961.202153	2697.271886
961.501875	2690.496575
961.801559	2686.070442
962.101205	2679.889987
962.400814	2672.197187
962.700385	2664.106135
962.999918	2659.695125
963.299414	2653.955772
963.598873	2654.570792
963.898293	2644.647281
964.197677	2646.225162
964.497022	2643.371869
964.796331	2642.091416
965.095601	2640.218627
965.394835	2635.099336
965.694030	2634.985910
965.993189	2634.973307
966.292309	2630.244704
966.591393	2633.836527
966.890439	2629.866618
967.189447	2629.617081
967.488419	2631.159674
967.787353	2631.144550
968.086249	2632.498100
968.385108	2636.596558
968.683930	2639.583442
968.982714	2640.884060
969.281462	2645.607621
969.580172	2650.663898
969.878844	2654.391831
970.177480	2665.684016
970.476078	2671.191477
970.774639	2680.777231
971.073162	2684.764783
971.371649	2692.031607
971.670098	2697.140816
971.968510	2701.745910
972.266885	2707.197918
972.565223	2711.719833
972.863524	2712.569267
973.161788	2716.335009
973.460014	2718.381718
973.758204	2722.654096
974.056356	2725.449415
974.354471	2727.060064
974.652550	2727.286916
974.950591	2723.974878
975.248595	2722.162583
975.546563	2722.286091
975.844493	2717.123950
976.142386	2714.973898
976.440243	2710.630944
976.738062	2704.395036
977.035845	2697.939839
977.333590	2691.608150
977.631299	2685.563806
977.928971	2677.109791
978.226606	2674.291786
978.524204	2672.192146
978.821765	2667.478667
979.119290	2670.949501
979.416777	2669.674089
979.714228	2670.452947
980.011642	2677.404699
980.309020	2682.304700
980.606360	2695.767102
980.903664	2722.235680
981.200931	2755.771956
981.498162	2803.771302
981.795356	2878.340050
982.092513	2967.434882
982.389633	3070.299627
982.686717	3164.201199
982.983764	3236.803897
983.280775	3285.768624
983.577749	3295.432516
983.874686	3281.047584
984.171587	3246.082141
984.468451	3211.078889
984.765279	3166.157167
985.062070	3119.448356
985.358824	3074.395564
985.655543	3018.285001
985.952224	2968.838844
986.248869	2904.365007
986.545478	2843.898887
986.842050	2789.898047
987.138586	2747.239803
987.435086	2706.540047
987.731549	2677.944102
988.027975	2656.362922
988.324366	2635.298461
988.620719	2626.088273
988.917037	2610.397682
989.213318	2604.156733
989.509563	2594.081987
989.805772	2589.217274
990.101944	2587.200812
990.398080	2585.191912
990.694180	2582.252920
990.990244	2582.663774
991.286271	2583.402303
991.582262	2584.347519
991.878217	2587.299115
992.174136	2589.086204
992.470019	2594.727255
992.765865	2597.880497
993.061676	2601.621033
993.357450	2609.644029
993.653188	2617.299021
993.948890	2631.177318
994.244556	2651.798158
994.540186	2676.187260
994.835780	2702.703729
995.131337	2741.906262
995.426859	2782.303548
995.722345	2830.892710
996.017795	2880.863147
996.313208	2920.030392
996.608586	2944.958898
996.903928	2957.324848
997.199234	2954.809313
997.494504	2955.144549
997.789738	2940.666355
998.084936	2914.757345
998.380099	2882.075545
998.675225	2853.598067
998.970316	2827.189982
999.265371	2789.673715
999.560390	2754.211719
999.855373	2724.204250
1000.150320	2696.619057
1000.445232	2669.729542
1000.740108	2652.604742
1001.034948	2631.625981
1001.329752	2616.583177
1001.624521	2605.689244
1001.919254	2593.472008
1002.213951	2588.544280
1002.508613	2577.282342
1002.803239	2572.715057
1003.097829	2565.569221
1003.392384	2561.806000
1003.686903	2558.536812
1003.981386	2556.759805
1004.275834	2548.986346
1004.570246	2549.240924
1004.864623	2544.086344
1005.158964	2542.211035
1005.453270	2537.230375
1005.747540	2538.571322
1006.041775	2538.286497
1006.335974	2535.715508
1006.630138	2534.424973
1006.924266	2536.338091
1007.218359	2533.628470
1007.512416	2532.310209
1007.806438	2527.551359
1008.100425	2528.655372
1008.394376	2526.593540
1008.688292	2529.726617
1008.982172	2530.311391
1009.276017	2530.555887
1009.569827	2528.231915
1009.863602	2525.945752
1010.157341	2529.724097
1010.451045	2527.632018
1010.744714	2526.520443
1011.038347	2525.295443
1011.331945	2524.075484
1011.625508	2523.687315
1011.919036	2521.375946
1012.212528	2520.637417
1012.505986	2520.634896
1012.799408	2520.579444
1013.092795	2521.133971
1013.386147	2516.294463
1013.679464	2523.016842
1013.972745	2521.018024
1014.265992	2519.966943
1014.559204	2519.762777
1014.852380	2517.869823
1015.145521	2520.584485
1015.438628	2518.436953
1015.731699	2519.286388
1016.024736	2518.426871
1016.317737	2520.763446
1016.610703	2522.311080
1016.903635	2522.250586
1017.196531	2524.579599
1017.489393	2524.945083
1017.782219	2528.272244
1018.075011	2526.540608
1018.367768	2529.809796
1018.660490	2528.688140
1018.953177	2528.688140
1019.245829	2528.688140
