Dividing Wavelength (nm)	Counts (n)	Blue Motor Position (mm): 27.400000	Red Motor Position (mm): 0.000000	
326.493990	2053.561910
326.888308	2053.561910
327.282561	2053.561910
327.676750	2032.008457
328.070874	2033.571215
328.464933	2039.696217
328.858929	2045.327185
329.252859	2057.914947
329.646726	2068.869374
330.040528	2086.528536
330.434265	2105.364807
330.827938	2128.002108
331.221547	2149.215284
331.615091	2165.117604
332.008571	2188.609381
332.401986	2208.947916
332.795338	2226.332335
333.188625	2250.408886
333.581847	2265.686102
333.975006	2285.316355
334.368100	2298.214148
334.761129	2319.646613
335.154095	2336.768892
335.546996	2384.382590
335.939833	2484.741881
336.332606	2496.845691
336.725315	2511.039060
337.117960	2520.781090
337.510540	2530.049251
337.903056	2539.798843
338.295508	2546.811088
338.687896	2555.865000
339.080220	2558.609908
339.472480	2564.278686
339.864676	2565.735579
340.256807	2568.997206
340.648875	2569.755899
341.040879	2570.933009
341.432818	2573.756055
341.824694	2573.559450
342.216506	2575.137331
342.608253	2572.750345
342.999937	2572.672207
343.391557	2571.502659
343.783113	2570.073492
344.174605	2566.728687
344.566033	2570.108780
344.957397	2564.364385
345.348697	2565.647359
345.739934	2560.795248
346.131106	2561.256514
346.522215	2558.173848
346.913260	2559.310629
347.304241	2555.597819
347.695159	2557.006821
348.086012	2553.112530
348.476802	2550.294525
348.867528	2549.072045
349.258191	2545.941489
349.648789	2545.777651
350.039324	2540.882691
350.429796	2547.201777
350.820203	2544.260264
351.210548	2544.489636
351.600828	2545.308824
351.991045	2543.947712
352.381198	2541.270860
352.771288	2541.008720
353.161314	2540.895294
353.551276	2539.261960
353.941175	2540.371014
354.331010	2543.773792
354.720782	2546.077600
355.110490	2546.122970
355.500135	2542.447969
355.889717	2541.263298
356.279235	2540.189532
356.668689	2539.912269
357.058080	2544.174564
357.447408	2544.230017
357.836672	2543.451159
358.225873	2545.641540
358.615010	2543.879657
359.004084	2546.422919
359.393095	2546.710265
359.782043	2546.168341
360.170927	2549.162786
360.559748	2548.383928
360.948505	2548.562889
361.337199	2551.413661
361.725830	2547.922662
362.114398	2548.436860
362.502903	2551.874927
362.891344	2552.149670
363.279722	2548.141952
363.668037	2551.852242
364.056289	2553.425082
364.444478	2552.668908
364.832603	2551.464073
365.220665	2555.159238
365.608665	2555.807027
365.996601	2554.385421
366.384474	2555.396173
366.772284	2553.369629
367.160031	2554.728220
367.547715	2556.114537
367.935336	2552.633620
368.322893	2554.080432
368.710388	2550.302087
369.097820	2554.665205
369.485189	2552.426933
369.872495	2558.161246
370.259738	2557.505896
370.646918	2559.277861
371.034035	2558.756102
371.421090	2558.836760
371.808081	2559.466904
372.195010	2558.710731
372.581875	2559.121585
372.968678	2560.054199
373.355418	2557.498334
373.742096	2562.731052
374.128710	2559.597974
374.515262	2560.691905
374.901751	2563.467060
375.288177	2561.720300
375.674540	2564.288768
376.060841	2563.716597
376.447079	2561.813562
376.833254	2562.022769
377.219367	2562.736093
377.605417	2563.356155
377.991404	2564.999571
378.377329	2564.354303
378.763191	2565.002091
379.148991	2565.196176
379.534727	2567.394119
379.920402	2568.472926
380.306013	2565.440672
380.691563	2566.169118
381.077049	2568.208265
381.462474	2564.341700
381.847835	2565.455795
382.233134	2567.767164
382.618371	2563.988819
383.003545	2570.088616
383.388657	2570.287741
383.773706	2568.210786
384.158693	2566.015363
384.543618	2571.096846
384.928480	2567.855384
385.313280	2565.511248
385.698017	2568.833368
386.082692	2570.610375
386.467305	2571.621126
386.851856	2573.231775
387.236344	2570.093657
387.620770	2567.842782
388.005133	2565.468398
388.389435	2568.833368
388.773674	2565.516289
389.157851	2572.667166
389.541965	2571.101887
389.926018	2573.776220
390.310008	2571.510221
390.693936	2574.650860
391.077802	2573.226734
391.461606	2573.015005
391.845348	2571.900910
392.229027	2574.751683
392.612645	2574.240006
392.996200	2572.135324
393.379694	2576.193453
393.763125	2575.833010
394.146494	2575.369224
394.529801	2576.808474
394.913047	2577.305027
395.296230	2577.993145
395.679351	2575.835531
396.062410	2576.813515
396.445408	2579.311407
396.828343	2577.017682
397.211217	2578.411561
397.594028	2579.765110
397.976778	2579.901222
398.359466	2574.802094
398.742092	2576.914338
399.124656	2582.431881
399.507158	2579.165213
399.889598	2579.863413
400.271977	2580.932137
400.654294	2581.758887
401.036549	2581.111098
401.418742	2582.716706
401.800874	2582.376428
402.182944	2581.242168
402.564952	2581.763928
402.946898	2582.930955
403.328783	2584.715523
403.710606	2583.452714
404.092367	2585.522108
404.474067	2582.807447
404.855705	2583.891295
405.237282	2585.040678
405.618797	2584.160997
406.000250	2583.419947
406.381642	2585.098651
406.762972	2584.987746
407.144240	2583.911459
407.525447	2585.648137
407.906593	2582.222673
408.287677	2587.452870
408.668700	2587.304156
409.049661	2587.752819
409.430560	2588.231728
409.811399	2590.901019
410.192176	2588.297263
410.572891	2586.429516
410.953545	2592.741040
411.334138	2590.719538
411.714669	2589.353385
412.095139	2590.638879
412.475547	2590.573344
412.855894	2592.032758
413.236180	2590.356575
413.616405	2592.063005
413.996568	2589.804568
414.376670	2593.277923
414.756711	2590.641400
415.136691	2597.207503
415.516609	2595.858994
415.896466	2592.801534
416.276262	2591.377408
416.655997	2592.310022
417.035670	2593.187182
417.415283	2597.288161
417.794834	2595.269179
418.174324	2591.619384
418.553753	2592.609970
418.933121	2593.514857
419.312428	2594.883531
419.691674	2597.154571
420.070859	2600.010384
420.449983	2596.184148
420.829045	2598.966865
421.208047	2600.380909
421.586988	2599.329828
421.965867	2599.115579
422.344686	2601.195055
422.723444	2602.664552
423.102141	2601.699171
423.480777	2603.138420
423.859352	2601.729418
424.237866	2602.699840
424.616319	2603.965169
424.994712	2603.710591
425.373044	2603.183791
425.751314	2603.481219
426.129524	2599.344952
426.507673	2602.485591
426.885762	2599.783532
427.263789	2604.335694
427.641756	2606.430294
428.019662	2608.910541
428.397508	2608.507249
428.775292	2610.551437
429.153016	2611.904987
429.530679	2612.696448
429.908282	2610.677466
430.285824	2611.027826
430.663305	2611.032867
431.040726	2611.894904
431.418086	2614.672580
431.795385	2611.889863
432.172624	2616.250461
432.549802	2614.828856
432.926920	2618.597118
433.303977	2619.202057
433.680974	2617.750205
434.057910	2621.198354
434.434786	2622.342696
434.811601	2621.921759
435.188355	2625.788324
435.565050	2624.782614
435.941683	2629.281844
436.318257	2628.540794
436.694770	2630.849643
437.071222	2634.136475
437.447614	2635.232926
437.823946	2637.042700
438.200218	2638.207207
438.576429	2641.751138
438.952580	2646.404123
439.328670	2647.061994
439.704700	2654.268323
440.080670	2656.390649
440.456580	2658.124806
440.832429	2668.272648
441.208218	2669.631239
441.583947	2677.077024
441.959616	2679.274967
442.335224	2687.560103
442.710773	2699.704243
443.086261	2708.826211
443.461689	2713.806871
443.837057	2726.961762
444.212365	2738.874008
444.587612	2749.364649
444.962800	2756.817995
445.337927	2772.140582
445.712995	2774.462034
446.088002	2812.724391
446.462949	2831.855570
446.837837	2846.815194
447.212664	2869.263452
447.587431	2933.480191
447.962139	2993.759788
448.336786	3054.636762
448.711374	3063.294943
449.085901	3036.024822
449.460369	3064.686302
449.834776	3099.389605
450.209124	3194.858976
450.583412	3217.660115
450.957640	3271.393774
451.331808	3279.804939
451.705917	3282.983387
452.079965	3320.446722
452.453954	3384.628172
452.827883	3426.384049
453.201752	3468.628918
453.575562	3519.980632
453.949311	3607.623612
454.323001	3673.251873
454.696632	3718.115622
455.070202	3849.881301
455.443713	3924.873506
455.817164	4012.355169
456.190556	4125.791213
456.563888	4169.936597
456.937160	4272.705560
457.310373	4261.236935
457.683526	4335.087318
458.056619	4419.987910
458.429653	4515.953836
458.802628	4627.975836
459.175542	4723.515783
459.548398	4930.815591
459.921194	5153.369931
460.293930	5327.388041
460.666607	5637.262727
461.039224	5925.165543
461.411782	6098.467810
461.784280	6101.668942
462.156719	6184.497621
462.529099	6274.862824
462.901419	6212.443257
463.273680	6217.376026
463.645882	6398.537451
464.018024	6508.006107
464.390106	6750.541060
464.762130	7293.982486
465.134094	8034.832975
465.505999	8997.940377
465.877845	9891.547910
466.249631	10399.618080
466.621358	10332.084263
466.993026	10177.709008
467.364634	10073.828472
467.736184	9947.431621
468.107674	9878.534172
468.479105	9970.492379
468.850477	10009.100056
469.221790	9975.369696
469.593043	9828.218415
469.964238	9808.270569
470.335373	9994.586574
470.706449	10577.333877
471.077467	11300.336161
471.448425	12668.696879
471.819324	13616.464049
472.190164	13509.717616
472.560945	12754.499838
472.931667	12122.064403
473.302330	12132.507153
473.672934	12026.637881
474.043479	12415.217581
474.413965	12445.081377
474.784393	12487.343890
475.154761	13017.388449
475.525070	13237.243251
475.895321	13271.661729
476.265513	13729.000247
476.635645	14233.544129
477.005719	14416.369135
477.375734	14802.839113
477.745691	15344.715260
478.115588	15937.532267
478.485427	16929.606138
478.855207	18403.417712
479.224928	19754.658672
479.594591	20751.294787
479.964194	20541.028260
480.333739	20981.383131
480.703226	21371.081967
481.072653	21905.366137
481.442022	22435.324997
481.811333	22815.445641
482.180584	22610.598354
482.549777	22607.198096
482.918912	22610.129527
483.287988	22725.697979
483.657005	22754.155292
484.025964	22643.159167
484.394864	22930.598197
484.763706	23033.135267
485.132489	22785.412967
485.501213	22981.912103
485.869879	23264.864506
486.238487	23364.785217
486.607036	23729.663932
486.975527	23609.213123
487.343959	24030.530076
487.712333	24400.298710
488.080648	24514.319528
488.448905	24992.387271
488.817104	25057.032507
489.185244	25929.467195
489.553326	27077.123676
489.921350	28874.531957
490.289315	31080.311507
490.657222	31777.150203
491.025070	32257.436054
491.392861	32022.583820
491.760593	31439.450869
492.128267	30670.632058
492.495883	29941.623238
492.863440	29307.708224
493.230939	28606.705535
493.598380	28256.272246
493.965763	28239.759947
494.333088	27916.884125
494.700354	27855.760135
495.067563	27921.713551
495.434713	27932.846939
495.801805	28286.846844
496.168839	28235.429596
496.535815	28183.674590
496.902733	28397.916066
497.269593	28310.963724
497.636395	28533.452529
498.003139	28878.259890
498.369825	28728.613238
498.736453	29178.165694
499.103023	29099.483365
499.469535	29256.850544
499.835989	29446.818865
500.202385	29364.443890
500.568723	29513.392343
500.935003	29858.602996
501.301226	29820.096142
501.667390	30523.553874
502.033497	30775.936720
502.399546	30630.801901
502.765537	30283.796597
503.131470	30770.704003
503.497345	31242.820663
503.863163	30304.989608
504.228923	31084.117578
504.594625	31513.417199
504.960269	31058.606819
505.325856	31739.147465
505.691385	31474.239872
506.056856	31817.184527
506.422270	32311.366318
506.787625	31905.543351
507.152924	32373.995092
507.518164	32611.365383
507.883347	32205.204659
508.248472	32389.980591
508.613540	33092.238528
508.978550	33339.880169
509.343503	33223.515215
509.708398	33610.234730
510.073236	34227.529059
510.438016	34331.349102
510.802738	34064.760284
511.167403	34645.440713
511.532010	34906.575003
511.896561	35400.832411
512.261053	36147.628942
512.625488	35948.566379
512.989866	35908.905102
513.354186	35979.685422
513.718449	35965.686138
514.082655	36843.701383
514.446803	36561.540440
514.810894	37182.711417
515.174927	37231.567760
515.538904	37244.841118
515.902822	37886.665702
516.266684	37593.704087
516.630488	37963.429872
516.994235	37983.332348
517.357925	38587.975902
517.721558	38853.501036
518.085133	39245.808670
518.448651	39434.945200
518.812112	39327.346813
519.175516	39499.461887
519.538863	39952.591042
519.902152	40024.099809
520.265385	40573.278068
520.628560	40604.881062
520.991678	40570.651627
521.354739	40796.311317
521.717743	41173.785355
522.080690	41085.847468
522.443580	41770.415995
522.806413	41802.785244
523.169189	41938.034361
523.531908	42176.982532
523.894569	42037.115719
524.257174	42241.118612
524.619722	42594.894186
524.982213	42735.633119
525.344647	42766.830300
525.707025	42911.244234
526.069345	43354.084394
526.431608	43268.989717
526.793815	43649.785876
527.155964	43204.833472
527.518057	43499.940098
527.880093	43341.063093
528.242072	43971.620699
528.603995	43710.892222
528.965860	43641.692303
529.327669	43871.904155
529.689421	43922.383749
530.051117	43891.506682
530.412755	44171.333570
530.774337	44247.084468
531.135862	44197.640832
531.497331	44329.393908
531.858743	44333.744424
532.220098	44735.405918
532.581396	44475.484026
532.942638	44244.397533
533.303824	44498.869938
533.664953	44553.634513
534.026025	44238.270011
534.387040	44805.472915
534.747999	44896.407769
535.108902	45193.367019
535.469748	44546.045056
535.830537	44794.909177
536.191270	45031.974478
536.551947	44781.381241
536.912567	45061.286267
537.273131	45224.440691
537.633638	44843.982290
537.994089	45052.217232
538.354483	44807.161702
538.714821	45445.170133
539.075103	45733.272075
539.435328	45585.052070
539.795497	45343.245564
540.155609	45476.884032
540.515665	46047.081381
540.875665	45372.257404
541.235609	45643.897458
541.595496	45773.442509
541.955328	46342.291351
542.315102	45782.377955
542.674821	45671.054154
543.034483	45555.077369
543.394090	45570.972127
543.753640	45565.633545
544.113134	46632.845814
544.472571	45733.120840
544.831953	46868.673512
545.191278	46118.542258
545.550548	45790.988245
545.909761	46453.249667
546.268918	46583.434945
546.628019	47002.029675
546.987064	46439.638552
547.346053	45736.135450
547.704986	46630.373128
548.063863	46303.920608
548.422684	46496.737181
548.781449	46091.193998
549.140158	46633.541493
549.498811	46391.470327
549.857408	45783.981042
550.215949	46627.083775
550.574434	46452.133052
550.932864	46392.304638
551.291237	47102.575488
551.649555	46855.074999
552.007817	47044.304791
552.366022	46713.206848
552.724173	46765.007224
553.082267	47176.125923
553.440305	47517.724590
553.798288	46764.165351
554.156215	47176.309925
554.514086	47359.502935
554.871902	46998.505908
555.229661	47165.536979
555.587365	46833.324941
555.945014	46982.389340
556.302606	46996.224786
556.660143	47098.882843
557.017625	47299.588822
557.375050	47021.203704
557.732421	47423.681865
558.089735	47469.979822
558.446994	47343.081377
558.804197	47820.297164
559.161345	47688.735652
559.518437	47019.348559
559.875474	47282.985782
560.232455	47498.265736
560.589381	47570.376921
560.946251	47375.543887
561.303065	48027.622178
561.659825	47714.702635
562.016528	47522.470836
562.373177	47108.932383
562.729770	47731.396416
563.086307	47252.418745
563.442789	47793.684913
563.799216	47657.722473
564.155587	47527.403605
564.511904	47491.742483
564.868164	47549.730876
565.224370	47849.407307
565.580520	47592.346270
565.936615	47777.616235
566.292654	47437.887837
566.648638	47801.292014
567.004567	47737.972602
567.360441	47841.870782
567.716260	47562.464830
568.072023	47919.166794
568.427732	47849.366978
568.783385	47386.616781
569.138982	47794.478895
569.494525	47933.602138
569.850013	47533.763021
570.205445	47642.709917
570.560823	47424.793439
570.916145	47307.722724
571.271412	47527.733801
571.626625	47183.256635
571.981782	47265.813091
572.336884	46853.141717
572.691931	47176.957713
573.046923	46851.026953
573.401860	46682.085284
573.756743	46691.464351
574.111570	46833.634972
574.466342	46763.250382
574.821059	46898.328099
575.175722	46401.023313
575.530330	46512.233688
575.884882	46156.376117
576.239380	46044.311267
576.593823	46139.279044
576.948211	46070.792448
577.302544	45616.471061
577.656823	45600.493124
578.011047	45886.447535
578.365216	45689.988728
578.719330	45410.234937
579.073389	45385.727367
579.427394	45446.737932
579.781344	45371.788577
580.135239	45136.414583
580.489080	45184.913004
580.842866	44692.999732
581.196597	45178.241037
581.550273	45173.638463
581.903895	45095.767760
582.257463	45552.140897
582.610975	44981.721736
582.964434	45316.519887
583.317837	44824.641903
583.671186	44770.507472
584.024481	45039.140478
584.377721	44600.328201
584.730906	44806.092977
585.084037	44916.592549
585.437113	44630.744003
585.790135	44756.987098
586.143103	44306.532275
586.496016	44471.491432
586.848874	44570.623202
587.201679	44589.237662
587.554428	44105.279331
587.907124	44381.272422
588.259765	44159.723793
588.612352	44306.255012
588.964884	43753.913429
589.317362	44068.569649
589.669786	44081.275877
590.022155	43935.105101
590.374470	44382.071445
590.726731	43948.537255
591.078937	43307.322651
591.431090	43621.557935
591.783188	43163.347297
592.135232	42950.865183
592.487222	43217.348137
592.839157	43373.051735
593.191038	43015.931356
593.542866	42816.818382
593.894639	42223.232598
594.246358	42516.428627
594.598022	42518.858463
594.949633	42097.070162
595.301190	42063.410377
595.652692	42015.239632
596.004141	42493.047755
596.355535	41400.717937
596.706876	41423.456061
597.058162	41124.427418
597.409395	41636.343988
597.760573	41861.683565
598.111698	41442.627569
598.462768	41367.431198
598.813785	41391.061607
599.164748	40998.575012
599.515657	41254.862233
599.866511	40765.288056
600.217312	41465.552217
600.568060	40410.955435
600.918753	41227.322409
601.269392	41164.766731
601.619978	40873.622453
601.970510	41067.164952
602.320988	41215.674823
602.671412	41474.018834
603.021783	41342.870697
603.372100	40900.300239
603.722363	41022.409588
604.072572	41050.345142
604.422728	41057.044835
604.772830	40843.551970
605.122878	40976.441826
605.472872	40849.215706
605.822813	41109.659358
606.172701	40857.354649
606.522534	41188.848323
606.872314	41398.502350
607.222041	41213.625594
607.571714	41549.915926
607.921333	41050.846737
608.270899	41258.474219
608.620411	41664.554285
608.969870	41386.582542
609.319276	41404.362691
609.668627	41437.967023
610.017926	41856.990251
610.367171	41980.168325
610.716362	42025.916796
611.065500	41898.501632
611.414585	42126.515541
611.763616	42309.232163
612.112594	42203.370452
612.461518	42333.424660
612.810389	42719.730800
613.159207	42511.911753
613.507971	42486.264883
613.856682	42976.259995
614.205340	42819.107065
614.553945	43494.611598
614.902496	42824.503621
615.250994	43264.654325
615.599439	43299.879387
615.947830	43432.668421
616.296169	43422.959158
616.644454	43461.027432
616.992686	43623.022390
617.340864	44074.694651
617.688990	43603.200573
618.037063	44272.774188
618.385082	44091.917753
618.733048	44447.946723
619.080961	44304.460361
619.428821	44331.264176
619.776628	44345.966701
620.124382	44161.410059
620.472083	44264.216830
620.819731	44358.839287
621.167326	43925.078246
621.514868	43894.591868
621.862357	43372.860171
622.209793	43455.386380
622.557176	43043.077969
622.904506	42794.939774
623.251783	42401.046697
623.599007	42100.006634
623.946179	42020.646269
624.293297	41756.751948
624.640363	41232.802143
624.987376	41066.000445
625.334336	40865.002079
625.681243	40458.599380
626.028097	40374.633921
626.374899	40190.392351
626.721647	40154.839614
627.068343	39941.684506
627.414987	39658.245631
627.761577	39405.583000
628.108115	39740.166901
628.454600	38994.945731
628.801032	39196.208757
629.147412	39108.245664
629.493739	39016.922641
629.840014	38580.769572
630.186236	39015.634626
630.532405	38460.578382
630.878521	38688.216725
631.224585	38471.628591
631.570597	38127.564800
631.916556	38298.412025
632.262462	38187.068060
632.608316	38106.109649
632.954117	37983.128181
633.299866	37930.072557
633.645562	37841.257509
633.991206	37312.697569
634.336797	36899.869919
634.682336	36805.726371
635.027823	36562.100008
635.373257	36425.769564
635.718639	36120.147092
636.063968	35999.781982
636.409245	35338.317062
636.754470	35306.504861
637.099642	35066.051905
637.444762	34509.430382
637.789829	34654.666025
638.134845	34284.814211
638.479808	34203.039134
638.824719	34147.727594
639.169577	33637.220026
639.514383	33747.654063
639.859137	33348.460213
640.203839	33523.516801
640.548489	33233.786566
640.893086	33237.217071
641.237632	32940.618264
641.582125	33049.217321
641.926566	32838.623119
642.270955	32880.923441
642.615292	32806.664724
642.959576	32707.278376
643.303809	32701.402911
643.647990	32795.238949
643.992118	32750.591970
644.336195	32595.263938
644.680219	32680.194777
645.024192	32889.899215
645.368112	33414.368259
645.711981	33437.192083
646.055797	34181.483160
646.399562	33987.055938
646.743274	34859.268815
647.086935	35248.793732
647.430544	35207.925098
647.774101	35243.407259
648.117606	35515.198548
648.461059	35660.189694
648.804460	35248.181232
649.147810	34737.393880
649.491108	34383.250302
649.834354	34231.640120
650.177548	33406.589758
650.520690	32903.033942
650.863781	32896.619073
651.206820	32715.639130
651.549807	32309.889260
651.892742	31735.976579
652.235626	31638.029481
652.578458	31520.757119
652.921238	30833.347901
653.263967	31136.054066
653.606644	30845.217298
653.949269	30758.002816
654.291843	30375.354033
654.634365	30734.924413
654.976836	30276.784352
655.319255	30341.054022
655.661622	30217.175228
656.003938	30083.829147
656.346203	29903.655788
656.688416	30153.490332
657.030577	29922.665979
657.372687	29737.617824
657.714746	29894.964839
658.056753	30090.750651
658.398708	29478.331118
658.740612	29549.474401
659.082465	29755.876884
659.424266	29643.872527
659.766016	29659.989096
660.107715	29529.471103
660.449362	29619.420411
660.790958	29609.995974
661.132503	29514.907209
661.473996	29605.229563
661.815438	29683.185966
662.156829	29795.092019
662.498168	29599.069273
662.839456	29592.258674
663.180693	29716.308867
663.521879	29800.639809
663.863013	29757.081719
664.204097	29739.425078
664.545129	30146.551183
664.886110	30077.653734
665.227040	30189.272442
665.567918	30185.403356
665.908746	30275.047674
666.249522	30350.876710
666.590248	30377.136081
666.930922	30458.530551
667.271545	30463.241509
667.612118	30527.264163
667.952639	30344.043426
668.293109	30369.821367
668.633528	30231.880274
668.973896	30189.050631
669.314213	30165.717650
669.654480	29975.842591
669.994695	29962.496136
670.334859	29874.593536
670.674973	29720.777850
671.015035	29903.297866
671.355047	29838.037609
671.695008	29773.379770
672.034918	29690.311637
672.374777	29783.580545
672.714585	29645.679781
673.054342	29795.971701
673.394049	29645.102569
673.733705	29866.472237
674.073310	29579.713762
674.412864	29635.884819
674.752368	29339.220477
675.091820	29564.418902
675.431223	29158.474947
675.770574	28958.759555
676.109875	28801.460432
676.449125	28590.372197
676.788324	28479.592841
677.127473	28011.834258
677.466571	27911.749710
677.805619	27639.106466
678.144616	27573.047186
678.483562	27518.242282
678.822458	27203.444909
679.161303	27144.533986
679.500098	27076.629643
679.838842	27013.519438
680.177535	27087.180778
680.516179	27340.513882
680.854771	27468.397873
681.193314	28243.094670
681.531805	29286.777354
681.870247	30028.225220
682.208638	30754.292526
682.546978	31011.862720
682.885268	31139.955919
683.223508	30700.016943
683.561697	30422.642577
683.899836	30254.983882
684.237925	29844.785193
684.575963	29714.244515
684.913951	29340.778194
685.251889	29506.276754
685.589776	29545.824606
685.927614	29552.972962
686.265401	29743.896582
686.603137	29866.426867
686.940824	30369.904546
687.278460	30704.140607
687.616046	30876.911032
687.953582	31544.047250
688.291068	31460.399384
688.628504	31769.641405
688.965889	31772.799688
689.303224	31493.595382
689.640510	31191.905009
689.977745	30551.728883
690.314930	29817.462140
690.652065	29370.626866
690.989150	28699.188023
691.326185	27858.613428
691.663170	27218.071817
692.000105	26491.036610
692.336990	25887.229887
692.673825	25464.471164
693.010610	24973.830783
693.347345	24476.266378
693.684030	23852.385781
694.020665	23655.634588
694.357251	22990.658504
694.693786	22992.798474
695.030272	22757.971446
695.366707	22275.424638
695.703093	22006.431189
696.039429	22066.705745
696.375716	21850.407478
696.711952	21844.509328
697.048139	21712.370603
697.384276	21554.660626
697.720363	21665.649189
698.056400	21554.597611
698.392388	21407.469016
698.728326	21399.418293
699.064214	21238.363510
699.400053	21236.929302
699.735842	20850.509736
700.071581	20658.174593
700.407270	20397.763709
700.742910	20230.941846
701.078501	19986.340020
701.414042	19775.317320
701.749533	19477.067535
702.084974	19158.930398
702.420366	19385.051354
702.755709	18988.393205
703.091002	18684.189817
703.426246	18752.757071
703.761440	18687.428758
704.096584	18450.986040
704.431679	18383.442140
704.766725	18333.585129
705.101721	18265.285056
705.436668	18397.882525
705.771565	18115.638404
706.106413	18435.466848
706.441212	18507.797323
706.775961	18614.780690
707.110661	18692.162402
707.445311	19065.550585
707.779913	18945.331668
708.114465	19239.135156
708.448967	19549.488751
708.783421	20174.002013
709.117825	20556.912936
709.452180	20792.097886
709.786485	21230.597612
710.120742	22008.694667
710.454949	22112.602930
710.789107	22630.810861
711.123216	23341.059026
711.457275	23556.863260
711.791286	24110.961685
712.125247	24264.641260
712.459159	23989.207738
712.793023	24717.384767
713.126837	23687.981151
713.460602	23937.024234
713.794318	23597.139559
714.127985	23304.525784
714.461602	22412.334815
714.795171	22387.265157
715.128691	21417.944533
715.462162	20891.355685
715.795584	20465.988164
716.128957	20195.316012
716.462281	19827.538633
716.795556	19537.092554
717.128782	19065.422035
717.461960	18468.181416
717.795088	18433.261343
718.128167	18091.342563
718.461198	17645.139954
718.794180	17509.404366
719.127113	17186.979728
719.459997	16985.187380
719.792833	16627.635982
720.125619	16671.244483
720.458357	16345.651480
720.791046	16198.127154
721.123686	16054.492078
721.456278	15837.994685
721.788821	15832.633417
722.121315	15568.940742
722.453761	15676.123235
722.786158	15556.352981
723.118506	15637.374406
723.450805	15526.090934
723.783056	15700.489652
724.115259	15598.078611
724.447412	15591.184833
724.779518	15812.940150
725.111574	15863.875968
725.443582	16130.101824
725.775542	16087.559526
726.107453	16608.096470
726.439315	16527.564037
726.771129	16944.659024
727.102895	17365.600411
727.434612	17644.487124
727.766281	17803.459911
728.097901	18125.748438
728.429473	18205.882619
728.760996	18218.737562
729.092471	18338.447322
729.423897	18227.342811
729.755276	18097.344057
730.086606	18221.300988
730.417887	18803.579463
730.749120	19357.130923
731.080305	19581.172403
731.411442	19970.445262
731.742530	20071.512835
732.073570	20240.583053
732.404562	20562.445602
732.735506	20389.665095
733.066401	20179.121305
733.397249	19668.631381
733.728048	19043.903870
734.058798	18185.481070
734.389501	17428.519052
734.720156	16924.378462
735.050762	16341.999164
735.381320	15968.023686
735.711831	15703.282451
736.042293	15338.121431
736.372707	15375.602410
736.703073	15167.133054
737.033391	15369.361461
737.363661	15370.130237
737.693883	15499.609753
738.024056	15711.408791
738.354182	15923.417037
738.684260	16292.081658
739.014290	16569.829071
739.344272	16799.168803
739.674207	17142.093294
740.004093	17310.268707
740.333931	17367.727778
740.663722	17445.016228
740.993464	17479.560735
741.323159	17311.256773
741.652806	17014.473963
741.982405	16839.946697
742.311956	16486.622306
742.641460	16377.390584
742.970915	16038.725869
743.300323	15697.585947
743.629683	15478.555374
743.958996	15167.458209
744.288260	14847.523900
744.617477	14548.984249
744.946647	14506.497404
745.275768	14203.224110
745.604842	13995.276513
745.933869	13826.970031
746.262847	13794.575576
746.591778	13724.417838
746.920662	13606.565743
747.249498	13608.771248
747.578286	13772.848203
747.907027	13945.525366
748.235720	14212.217528
748.564365	14283.459114
748.892963	14206.674779
749.221514	14315.810719
749.550017	14180.985059
749.878473	14149.321572
750.206881	13926.026183
750.535242	13851.724617
750.863555	13765.432666
751.191821	13671.432790
751.520039	13688.176983
751.848210	13613.930869
752.176334	13660.700174
752.504411	13590.870111
752.832440	13416.453749
753.160421	13518.761446
753.488356	13420.451384
753.816243	13327.648783
754.144082	13163.622240
754.471875	13111.307666
754.799620	13082.958737
755.127318	13050.123182
755.454969	13039.609855
755.782572	13015.308973
756.110129	13026.076878
756.437638	12937.281994
756.765100	12942.222325
757.092515	12970.198208
757.419882	13004.208353
757.747203	13023.042103
758.074477	13112.101648
758.401703	13092.814193
758.728882	13288.821816
759.056014	13335.747397
759.383099	13500.547757
759.710138	13624.340852
760.037129	13739.982400
760.364073	13809.943533
760.690970	13842.093492
761.017820	13854.436757
761.344623	14083.426130
761.671379	14461.421927
761.998088	15165.461912
762.324751	16955.933564
762.651366	20387.073942
762.977935	24863.981521
763.304456	27816.290421
763.630931	28828.536469
763.957359	27605.222350
764.283740	25324.909340
764.610074	23054.285428
764.936362	20412.655277
765.262602	18543.319814
765.588796	16626.347967
765.914943	15337.176215
766.241044	14235.351383
766.567097	13467.170278
766.893104	12743.603384
767.219064	12283.189762
767.544978	11815.174080
767.870845	11426.410378
768.196665	11207.689836
768.522438	10969.631428
768.848165	10771.405697
769.173846	10564.864583
769.499479	10440.655593
769.825066	10270.088153
770.150607	10040.062823
770.476101	9969.101021
770.801548	9837.141257
771.126949	9681.291466
771.452303	9564.603878
771.777611	9369.143219
772.102872	9362.022590
772.428087	9220.751815
772.753256	9059.717196
773.078378	8978.360535
773.403453	8792.452863
773.728482	8680.057818
774.053465	8610.860420
774.378401	8509.266046
774.703291	8387.456646
775.028135	8259.154239
775.352932	8223.810710
775.677683	8123.164073
776.002388	8020.730347
776.327046	8026.910802
776.651658	7928.210051
776.976224	7829.552150
777.300743	7823.066705
777.625216	7738.488747
777.949643	7695.091974
778.274024	7711.793316
778.598359	7622.990871
778.922647	7643.052143
779.246889	7598.105215
779.571086	7611.754139
779.895236	7614.758667
780.219339	7627.769885
780.543397	7623.810058
780.867409	7709.734005
781.191374	7717.794810
781.515294	7688.682147
781.839167	7773.623068
782.162995	7746.892350
782.486776	7690.834719
782.810511	7647.697566
783.134201	7562.076088
783.457844	7556.344296
783.781441	7494.403639
784.104993	7431.111953
784.428498	7404.477016
784.751958	7396.943012
785.075372	7362.658124
785.398739	7310.847666
785.722061	7349.901485
786.045337	7364.682148
786.368568	7520.010180
786.691752	7538.869137
787.014891	7891.323928
787.337983	8246.770645
787.661030	8846.809105
787.984031	9471.445875
788.306987	9875.907730
788.629897	10073.810828
788.952760	10023.888281
789.275579	9798.415113
789.598351	9400.481552
789.921078	9045.092809
790.243759	8629.293399
790.566395	8344.836211
790.888984	8086.048578
791.211529	7876.591156
791.534027	7653.976323
791.856480	7452.962834
792.178888	7383.152935
792.501249	7290.168853
792.823566	7132.529451
793.145836	7135.044987
793.468062	7107.820236
793.790241	7058.306023
794.112375	7130.427290
794.434464	7282.387832
794.756507	7324.234450
795.078505	7486.736044
795.400457	7799.801780
795.722364	8150.653485
796.044226	8440.083771
796.366042	8715.313127
796.687812	8664.636928
797.009538	8739.742559
797.331218	8630.110066
797.652852	8540.579173
797.974442	8392.684322
798.295986	8301.452041
798.617484	8107.440714
798.938938	7966.336298
799.260346	7861.966769
799.581709	7659.198958
799.903026	7584.030313
800.224299	7475.776576
800.545526	7310.298180
800.866708	7210.702624
801.187845	7144.247613
801.508936	7037.700306
801.829983	7001.378793
802.150984	6848.417582
802.471940	6803.006868
802.792851	6788.808459
803.113717	6753.966524
803.434538	6719.613581
803.755314	6673.320665
804.076045	6667.130128
804.396731	6618.150277
804.717372	6652.185628
805.037967	6656.142933
805.358518	6694.778337
805.679024	6786.671009
805.999485	6796.118132
806.319901	6835.368556
806.640272	6857.237081
806.960598	6940.297652
807.280879	6942.160359
807.601115	7020.328490
807.921306	6962.861857
808.241453	6976.530946
808.561554	6995.621795
808.881611	6962.534182
809.201623	6964.076775
809.521590	6914.086173
809.841513	6891.726135
810.161390	6927.588903
810.481223	6801.325644
810.801011	6781.576923
811.120755	6756.293016
811.440453	6682.059505
811.760107	6650.343086
812.079716	6615.533919
812.399281	6548.501696
812.718801	6538.747063
813.038276	6492.091184
813.357707	6433.966681
813.677093	6478.875800
813.996434	6377.087342
814.315731	6421.457057
814.634983	6416.783908
814.954191	6429.936278
815.273354	6532.059973
815.592473	6597.993224
815.911547	6722.943263
816.230577	6808.862169
816.549562	6949.820392
816.868502	7050.371247
817.187399	7147.342882
817.506250	7301.592107
817.825058	7333.653846
818.143821	7603.453879
818.462539	7874.496557
818.781213	8244.008093
819.099843	8798.865211
819.418429	9804.144385
819.736970	10773.671695
820.055466	11950.821448
820.373919	13485.762053
820.692327	15833.571072
821.010691	19987.922942
821.329011	28979.458533
821.647286	41979.089518
821.965517	55409.724033
822.283704	60764.833379
822.601847	62731.906733
822.919945	60003.467913
823.237999	55764.611181
823.556010	49559.401980
823.873976	42822.656038
824.191897	36330.343043
824.509775	31488.065236
824.827609	26990.166293
825.145398	24410.902777
825.463144	23067.606677
825.780845	23388.491243
826.098502	25177.435426
826.416116	28980.822165
826.733685	32653.693431
827.051210	33831.637165
827.368692	32025.474921
827.686129	28044.798363
828.003522	23915.934567
828.320872	20198.907834
828.638177	17351.855705
828.955439	15206.890114
829.272656	13395.391809
829.589830	11922.575863
829.906960	10658.282204
830.224046	9716.866888
830.541088	8969.946849
830.858086	8515.557406
831.175041	8140.077144
831.491952	8028.622274
831.808819	8074.960560
832.125642	8480.380235
832.442421	9367.187252
832.759157	11170.715493
833.075849	14112.080048
833.392497	17345.907144
833.709101	19517.442136
834.025662	19341.644499
834.342179	17628.751162
834.658653	15437.837975
834.975083	13503.053211
835.291469	11885.649411
835.607811	10564.509181
835.924110	9656.448659
836.240366	8792.200806
836.556578	7984.449163
836.872746	7347.834612
837.188871	6844.994639
837.504952	6426.810763
837.820990	6116.802486
838.136984	5897.401389
838.452935	5811.789993
838.768842	5840.574982
839.084706	6269.521722
839.400526	7480.837894
839.716303	9070.283455
840.032037	10164.594447
840.347727	10084.238454
840.663373	9096.860418
840.978977	8048.809574
841.294537	7243.195381
841.610054	6641.715151
841.925527	6211.424944
842.240957	5851.153843
842.556344	5520.275190
842.871687	5245.141616
843.186987	4958.241989
843.502244	4740.154112
843.817458	4569.541301
844.132629	4434.395528
844.447756	4344.862115
844.762840	4263.079476
845.077881	4190.638096
845.392879	4132.228767
845.707833	4081.638267
846.022745	4038.475908
846.337613	4007.200589
846.652438	3968.892861
846.967221	3949.668421
847.281960	3917.553751
847.596656	3898.435175
847.911309	3879.815673
848.225919	3858.161397
848.540485	3837.656503
848.855009	3824.804082
849.169490	3801.279537
849.483928	3790.383083
849.798323	3785.357053
850.112675	3764.222015
850.426984	3770.583951
850.741251	3754.202722
851.055474	3755.594080
851.369654	3756.420830
851.683792	3757.091303
851.997887	3763.057509
852.311938	3765.507509
852.625947	3766.689660
852.939914	3757.615583
853.253837	3766.873662
853.567718	3764.148918
853.881555	3752.607197
854.195350	3768.146553
854.509103	3762.513064
854.822812	3764.761419
855.136479	3757.245058
855.450103	3764.237139
855.763685	3750.575612
856.077224	3754.784975
856.390720	3773.492697
856.704173	3790.680511
857.017584	3805.400680
857.330953	3815.762772
857.644278	3841.636494
857.957561	3841.492821
858.270802	3840.630784
858.584000	3844.716639
858.897155	3837.364116
859.210268	3823.692507
859.523339	3798.590082
859.836367	3798.229639
860.149352	3793.483393
860.462295	3784.111888
860.775195	3772.580248
861.088054	3766.863580
861.400869	3766.883744
861.713642	3763.977519
862.026373	3777.807925
862.339062	3786.284625
862.651708	3802.754075
862.964312	3836.534847
863.276873	3850.428267
863.589392	3909.654262
863.901869	3956.834421
864.214303	4001.350330
864.526696	4033.472563
864.839045	4078.548040
865.151353	4101.875979
865.463619	4115.587918
865.775842	4120.624030
866.088023	4139.104900
866.400162	4127.999238
866.712258	4136.468377
867.024313	4136.153305
867.336325	4134.819920
867.648296	4139.664468
867.960224	4140.992813
868.272110	4147.637053
868.583954	4151.170902
868.895755	4167.078263
869.207515	4161.933766
869.519233	4205.144016
869.830909	4222.442735
870.142542	4244.999378
870.454134	4258.875154
870.765684	4285.673928
871.077191	4325.768745
871.388657	4347.256663
871.700081	4382.416191
872.011463	4428.104168
872.322803	4464.274447
872.634101	4498.879448
872.945357	4535.873955
873.256571	4594.835290
873.567744	4618.765648
873.878874	4637.667454
874.189963	4675.574410
874.501010	4683.826779
874.812015	4684.058672
875.122979	4726.235486
875.433900	4723.780444
875.744780	4736.574892
876.055618	4763.083800
876.366415	4760.676649
876.677169	4783.835710
876.987882	4829.357329
877.298554	4879.229464
877.609183	4960.989418
877.919771	5067.514040
878.230317	5216.969128
878.540822	5428.977373
878.851285	5751.820427
879.161707	6210.890582
879.472087	6969.795964
879.782425	8205.123152
880.092722	10375.823834
880.402977	13678.618955
880.713191	17422.890604
881.023363	21126.840584
881.333494	23314.943328
881.643583	24541.519074
881.953631	24539.502612
882.263637	23690.557181
882.573602	22206.723793
882.883526	20650.635548
883.193408	18974.575402
883.503248	17273.453160
883.813048	15739.130096
884.122806	14323.576617
884.432522	12837.638547
884.742197	11591.863568
885.051831	10509.119503
885.361424	9512.538841
885.670975	8700.436682
885.980485	8006.796598
886.289954	7439.628982
886.599382	6970.983156
886.908768	6593.433500
887.218113	6237.308748
887.527417	5946.109017
887.836680	5685.453637
888.145901	5466.211336
888.455082	5305.345596
888.764221	5156.976876
889.073319	5021.329509
889.382376	4948.164722
889.691392	4893.659767
890.000366	4871.178741
890.309300	4849.219475
890.618193	4854.580742
890.927044	4842.103887
891.235855	4861.872771
891.544625	4892.848141
891.853353	4953.576401
892.162041	5075.221964
892.470687	5254.548409
892.779293	5503.130226
893.087858	5879.081836
893.396381	6458.796884
893.704864	7261.136848
894.013306	8412.334740
894.321707	9590.081869
894.630068	10417.173898
894.938387	10613.899886
895.246665	10385.575946
895.554903	9770.419066
895.863100	9070.311181
896.171256	8510.254112
896.479371	7998.776122
896.787446	7504.705237
897.095480	7078.992397
897.403473	6759.703357
897.711425	6439.113699
898.019336	6173.699469
898.327207	5902.661833
898.635038	5668.170041
898.942827	5427.162558
899.250576	5233.874637
899.558284	5040.697622
899.865952	4915.561060
900.173579	4773.244246
900.481165	4660.279550
900.788711	4570.020211
901.096216	4496.731916
901.403681	4434.750929
901.711105	4407.468205
902.018489	4396.768356
902.325832	4466.573213
902.633135	4588.838838
902.940397	4932.816929
903.247619	5731.060956
903.554800	7169.690317
903.861941	9081.641174
904.169041	10596.306259
904.476101	11212.738551
904.783121	10857.196053
905.090100	10117.560481
905.397039	9279.579560
905.703938	8530.149026
906.010796	7828.097777
906.317614	7279.763911
906.624391	6750.437716
906.931129	6326.133879
907.237826	5931.605618
907.544483	5552.064706
907.851099	5181.907903
908.157675	4829.392617
908.464211	4511.510058
908.770707	4278.465078
909.077163	4080.312444
909.383578	3934.176955
909.689954	3821.716375
909.996289	3750.633585
910.302584	3687.440201
910.608839	3655.769152
910.915054	3624.183802
911.221229	3609.705609
911.527363	3623.465438
911.833458	3637.416831
912.139513	3664.225687
912.445527	3693.219884
912.751502	3771.783746
913.057436	3875.749982
913.363331	4011.067154
913.669186	4211.417732
913.975000	4470.452381
914.280775	4891.597935
914.586510	5470.846677
914.892205	6266.396206
915.197859	7300.583877
915.503475	8516.321141
915.809050	9580.944778
916.114585	10220.571419
916.420081	10487.031688
916.725536	10448.444176
917.030952	9998.243931
917.336328	9593.232590
917.641665	9179.782358
917.946961	8697.371661
918.252218	8279.868340
918.557435	7769.779188
918.862612	7342.153231
919.167750	6968.603731
919.472848	6548.347941
919.777906	6173.550755
920.082925	5809.428213
920.387904	5449.704077
920.692843	5184.244478
920.997743	4941.588537
921.302603	4706.126323
921.607423	4545.888207
921.912204	4382.501890
922.216946	4267.641721
922.521647	4141.202020
922.826310	4042.571845
923.130932	3945.335549
923.435516	3850.002289
923.740059	3781.866054
924.044564	3704.146585
924.349028	3644.073675
924.653454	3582.135538
924.957840	3509.074096
925.262186	3469.990030
925.566493	3405.601892
925.870761	3347.668952
926.174989	3309.794763
926.479178	3274.539454
926.783328	3234.663927
927.087438	3207.398847
927.391509	3170.043897
927.695541	3143.068682
927.999533	3115.380145
928.303486	3094.275354
928.607400	3084.004003
928.911275	3067.360634
929.215110	3049.638458
929.518906	3037.229657
929.822663	3044.947664
930.126381	3038.477343
930.430060	3048.786502
930.733699	3049.010834
931.037299	3060.996177
931.340861	3053.431926
931.644383	3065.611353
931.947866	3061.545663
932.251309	3058.415106
932.554714	3059.846794
932.858080	3052.395969
933.161407	3042.127138
933.464694	3036.687733
933.767943	3027.817823
934.071153	3023.873120
934.374323	3012.858199
934.677455	3008.769823
934.980548	3001.180366
935.283602	2994.024448
935.586617	2993.308604
935.889593	3004.575583
936.192530	3006.753362
936.495428	3023.321114
936.798287	3044.050338
937.101108	3074.970256
937.403890	3129.674337
937.706632	3189.790096
938.009336	3269.931839
938.312002	3344.094774
938.614628	3407.719177
938.917216	3459.454018
939.219765	3489.695900
939.522275	3520.237731
939.824747	3526.876930
940.127179	3522.964995
940.429573	3517.699510
940.731929	3516.305631
941.034246	3499.054802
941.336524	3486.303204
941.638763	3469.354844
941.940964	3458.241621
942.243126	3415.669077
942.545250	3394.549163
942.847335	3354.721527
943.149381	3320.393789
943.451389	3288.004376
943.753359	3253.575816
944.055290	3228.586816
944.357182	3198.445757
944.659036	3188.363450
944.960851	3178.719722
945.262628	3164.463339
945.564367	3168.365192
945.866067	3159.429747
946.167729	3156.992349
946.469352	3155.336330
946.770937	3151.217707
947.072484	3136.361427
947.373992	3138.244298
947.675462	3130.284316
947.976893	3113.088940
948.278286	3105.806994
948.579641	3098.313318
948.880958	3094.056064
949.182236	3094.542535
949.483476	3090.660847
949.784678	3094.383739
950.085841	3093.453646
950.386967	3099.114862
950.688054	3116.438787
950.989103	3139.234885
951.290114	3162.441837
951.591087	3186.790610
951.892021	3217.213973
952.192917	3244.612644
952.493776	3267.456633
952.794596	3276.533230
953.095378	3283.805095
953.396122	3276.160185
953.696828	3269.029473
953.997496	3258.589243
954.298126	3232.501272
954.598718	3214.610217
954.899272	3187.508974
955.199788	3160.304387
955.500266	3128.633338
955.800706	3093.461208
956.101108	3054.601473
956.401472	3022.121319
956.701798	2993.129643
957.002087	2953.400310
957.302337	2920.763880
957.602550	2894.426372
957.902724	2864.363451
958.202861	2841.655573
958.502960	2821.203612
958.803022	2798.833492
959.103045	2780.788682
959.403031	2762.219592
959.702979	2749.765421
960.002889	2739.405850
960.302762	2722.023951
960.602596	2711.833259
960.902393	2704.717670
961.202153	2696.780373
961.501875	2689.067408
961.801559	2680.212621
962.101205	2676.051149
962.400814	2670.158040
962.700385	2663.438182
962.999918	2656.493992
963.299414	2648.070224
963.598873	2647.745070
963.898293	2641.045377
964.197677	2643.739873
964.497022	2638.807104
964.796331	2637.866929
965.095601	2636.906589
965.394835	2632.198152
965.694030	2633.125724
965.993189	2631.157153
966.292309	2629.503655
966.591393	2630.201855
966.890439	2626.428551
967.189447	2627.557769
967.488419	2630.161525
967.787353	2629.962400
968.086249	2631.023563
968.385108	2632.465333
968.683930	2634.199490
968.982714	2638.837351
969.281462	2642.373721
969.580172	2648.357570
969.878844	2654.780000
970.177480	2662.621515
970.476078	2668.023111
970.774639	2677.639112
971.073162	2682.534073
971.371649	2690.138653
971.670098	2695.094108
971.968510	2700.843543
972.266885	2703.361600
972.565223	2705.660366
972.863524	2709.753783
973.161788	2713.138918
973.460014	2716.788713
973.758204	2722.449929
974.056356	2722.969168
974.354471	2724.224415
974.652550	2724.534446
974.950591	2723.805999
975.248595	2721.247614
975.546563	2717.272664
975.844493	2716.473641
976.142386	2710.943495
976.440243	2704.984851
976.738062	2701.425797
977.035845	2695.237780
977.333590	2687.885257
977.631299	2683.738908
977.928971	2676.640964
978.226606	2669.948832
978.524204	2670.072340
978.821765	2661.184786
979.119290	2667.748368
979.416777	2662.820641
979.714228	2668.885149
980.011642	2673.250788
980.309020	2677.757579
980.606360	2694.229550
980.903664	2716.672767
981.200931	2753.223652
981.498162	2800.648307
981.795356	2876.656304
982.092513	2965.017649
982.389633	3068.089081
982.686717	3160.420334
982.983764	3238.838002
983.280775	3285.597225
983.577749	3294.693987
983.874686	3279.623458
984.171587	3243.289341
984.468451	3207.892880
984.765279	3162.824964
985.062070	3116.007768
985.358824	3072.810121
985.655543	3012.999351
985.952224	2963.454891
986.248869	2900.984913
986.545478	2841.826972
986.842050	2788.741102
987.138586	2743.363156
987.435086	2705.998123
987.731549	2673.026457
988.027975	2648.062663
988.324366	2631.308388
988.620719	2618.415637
988.917037	2606.969697
989.213318	2597.104159
989.509563	2589.761718
989.805772	2586.432036
990.101944	2580.917014
990.398080	2581.310224
990.694180	2576.324523
990.990244	2582.152097
991.286271	2578.035995
991.582262	2583.150245
991.878217	2582.210070
992.174136	2588.992942
992.470019	2589.426482
992.765865	2592.083170
993.061676	2594.843202
993.357450	2605.013729
993.653188	2613.460183
993.948890	2631.709160
994.244556	2647.563588
994.540186	2669.868174
994.835780	2701.604758
995.131337	2738.531210
995.426859	2780.970163
995.722345	2827.936073
996.017795	2877.783002
996.313208	2913.484454
996.608586	2941.477981
996.903928	2953.715382
997.199234	2954.791668
997.494504	2952.331585
997.789738	2935.436158
998.084936	2913.313055
998.380099	2881.223590
998.675225	2852.307531
998.970316	2823.580516
999.265371	2786.273457
999.560390	2749.336923
999.855373	2723.538818
1000.150320	2693.990095
1000.445232	2669.422032
1000.740108	2648.549134
1001.034948	2625.425361
1001.329752	2616.600822
1001.624521	2601.815117
1001.919254	2589.454208
1002.213951	2583.525811
1002.508613	2570.887638
1002.803239	2568.238512
1003.097829	2561.621998
1003.392384	2557.737789
1003.686903	2553.057077
1003.981386	2551.464073
1004.275834	2545.606252
1004.570246	2541.790098
1004.864623	2540.144162
1005.158964	2539.239275
1005.453270	2536.995961
1005.747540	2534.883718
1006.041775	2532.363141
1006.335974	2532.499252
1006.630138	2530.381967
1006.924266	2531.876669
1007.218359	2528.584796
1007.512416	2526.293592
1007.806438	2523.268899
1008.100425	2524.713190
1008.394376	2522.313601
1008.688292	2526.994312
1008.982172	2527.301822
1009.276017	2525.232429
1009.569827	2526.843077
1009.863602	2525.676050
1010.157341	2522.303518
1010.451045	2522.391738
1010.744714	2521.275123
1011.038347	2520.783610
1011.331945	2520.453415
1011.625508	2518.973836
1011.919036	2518.918383
1012.212528	2518.230266
1012.505986	2516.866634
1012.799408	2515.319000
1013.092795	2514.688855
1013.386147	2516.223887
1013.679464	2513.925121
1013.972745	2513.741118
1014.265992	2514.227590
1014.559204	2513.695748
1014.852380	2515.674401
1015.145521	2515.772703
1015.438628	2515.865965
1015.731699	2513.579802
1016.024736	2516.443177
1016.317737	2517.332941
1016.610703	2517.632889
1016.903635	2520.607170
1017.196531	2520.057684
1017.489393	2523.261338
1017.782219	2524.037675
1018.075011	2526.457429
1018.367768	2523.899043
1018.660490	2524.181348
1018.953177	2524.181348
1019.245829	2524.181348
