Dividing Wavelength (nm)	Counts (n)	Blue Motor Position (mm): 40.200000	Red Motor Position (mm): 0.000000	
326.493990	2245.828997
326.888308	2245.828997
327.282561	2245.828997
327.676750	2208.589994
328.070874	2204.461289
328.464933	2204.317616
328.858929	2208.093440
329.252859	2215.173741
329.646726	2223.249669
330.040528	2234.982955
330.434265	2247.603483
330.827938	2265.925557
331.221547	2283.630089
331.615091	2299.844961
332.008571	2320.077632
332.401986	2336.605055
332.795338	2356.799917
333.188625	2378.252547
333.581847	2396.970351
333.975006	2415.100861
334.368100	2436.177925
334.761129	2451.722323
335.154095	2468.930302
335.546996	2497.453150
335.939833	2536.451517
336.332606	2553.828374
336.725315	2565.816238
337.117960	2576.067424
337.510540	2590.112079
337.903056	2602.248657
338.295508	2608.643360
338.687896	2618.738271
339.080220	2626.607512
339.472480	2631.545322
339.864676	2635.671507
340.256807	2642.421612
340.648875	2643.601242
341.040879	2646.784730
341.432818	2650.835297
341.824694	2650.885709
342.216506	2655.672284
342.608253	2657.081287
342.999937	2655.596667
343.391557	2655.896616
343.783113	2654.898467
344.174605	2652.740853
344.566033	2654.457366
344.957397	2652.448467
345.348697	2649.413692
345.739934	2648.589463
346.131106	2645.751294
346.522215	2648.657519
346.913260	2643.757517
347.304241	2640.574029
347.695159	2639.467495
348.086012	2640.994965
348.476802	2635.212762
348.867528	2633.171094
349.258191	2632.099849
349.648789	2628.500465
350.039324	2625.120372
350.429796	2627.535084
350.820203	2627.615743
351.210548	2626.668006
351.600828	2627.129271
351.991045	2626.453757
352.381198	2624.601133
352.771288	2624.049126
353.161314	2622.738426
353.551276	2620.099382
353.941175	2619.948148
354.331010	2620.164917
354.720782	2621.750360
355.110490	2622.751029
355.500135	2623.771863
355.889717	2622.751029
356.279235	2622.377984
356.668689	2622.947634
357.058080	2624.417131
357.447408	2623.134157
357.836672	2623.363529
358.225873	2623.202212
358.615010	2623.643313
359.004084	2625.107769
359.393095	2624.759929
359.782043	2628.427368
360.170927	2626.690691
360.559748	2625.379991
360.948505	2627.424179
361.337199	2628.548356
361.725830	2628.750002
362.114398	2628.044241
362.502903	2629.594396
362.891344	2629.543984
363.279722	2632.205713
363.668037	2629.919550
364.056289	2633.239150
364.444478	2632.609006
364.832603	2633.413070
365.220665	2634.978348
365.608665	2634.675879
365.996601	2632.535909
366.384474	2635.028759
366.772284	2635.963893
367.160031	2636.336939
367.547715	2637.375417
367.935336	2639.195273
368.322893	2634.980868
368.710388	2636.720067
369.097820	2635.086733
369.485189	2634.764099
369.872495	2642.177116
370.259738	2639.570839
370.646918	2642.446817
371.034035	2643.623927
371.421090	2641.930099
371.808081	2642.000675
372.195010	2643.911272
372.581875	2644.720378
372.968678	2644.463279
373.355418	2645.496715
373.742096	2645.743732
374.128710	2647.185502
374.515262	2645.940337
374.901751	2645.224493
375.288177	2647.989566
375.674540	2647.805564
376.060841	2648.876809
376.447079	2648.491161
376.833254	2650.003507
377.219367	2648.102992
377.605417	2650.522746
377.991404	2652.030051
378.377329	2653.323107
378.763191	2648.281953
379.148991	2650.028713
379.534727	2652.982829
379.920402	2651.853610
380.306013	2654.669095
380.691563	2656.390649
381.077049	2653.353354
381.462474	2655.208498
381.847835	2654.855617
382.233134	2658.835608
382.618371	2659.511123
383.003545	2657.061122
383.388657	2659.773263
383.773706	2659.488438
384.158693	2657.827378
384.543618	2660.194199
384.928480	2659.927018
385.313280	2662.913902
385.698017	2661.958603
386.082692	2666.558656
386.467305	2665.938594
386.851856	2668.426404
387.236344	2673.659121
387.620770	2674.579132
388.005133	2681.780420
388.389435	2688.651513
388.773674	2697.191227
389.157851	2715.936758
389.541965	2733.270766
389.926018	2749.954464
390.310008	2776.186108
390.693936	2810.244144
391.077802	2841.489215
391.461606	2877.276366
391.845348	2923.783531
392.229027	2972.261787
392.612645	3021.445805
392.996200	3085.259251
393.379694	3152.974550
393.763125	3229.504306
394.146494	3292.685087
394.529801	3369.882797
394.913047	3457.863534
395.296230	3500.118486
395.679351	3599.769494
396.062410	3691.581509
396.445408	3740.672265
396.828343	3836.242460
397.211217	3930.166717
397.594028	3936.256431
397.976778	4063.981626
398.359466	4153.696520
398.742092	4235.579982
399.124656	4236.595775
399.507158	4375.436713
399.889598	4483.753465
400.271977	4627.615393
400.654294	4675.337476
401.036549	4767.134367
401.418742	4758.796299
401.800874	4968.830933
402.182944	5067.292229
402.564952	5206.420513
402.946898	5305.721162
403.328783	5216.863263
403.710606	5268.772025
404.092367	5590.614410
404.474067	5649.031300
404.855705	5598.216470
405.237282	5569.045833
405.618797	5824.607127
406.000250	5840.335527
406.381642	6051.038114
406.762972	6099.070228
407.144240	6172.479510
407.525447	6174.465725
407.906593	6225.940947
408.287677	6386.408435
408.668700	6315.388660
409.049661	6436.925838
409.430560	6480.894782
409.811399	6347.336972
410.192176	6631.781558
410.572891	6640.981663
410.953545	6848.402459
411.334138	6586.126348
411.714669	6758.916937
412.095139	6557.212810
412.475547	6802.076776
412.855894	6873.603187
413.236180	7052.634725
413.616405	6743.654844
413.996568	6965.072403
414.376670	6989.133830
414.756711	6888.582976
415.136691	6988.604509
415.516609	7190.311157
415.896466	7185.050713
416.276262	7378.938531
416.655997	7360.742486
417.035670	7556.021663
417.415283	7892.720328
417.794834	7942.796630
418.174324	7805.931823
418.553753	7716.897485
418.933121	8033.068572
419.312428	8145.380438
419.691674	7921.475069
420.070859	8398.600116
420.449983	8071.701454
420.829045	8432.355683
421.208047	8216.385090
421.586988	8511.123711
421.965867	8523.693828
422.344686	8639.925192
422.723444	8678.439607
423.102141	8047.254378
423.480777	8794.348337
423.859352	8319.819485
424.237866	8936.753372
424.616319	8808.929875
424.994712	9222.629645
425.373044	8788.639231
425.751314	9244.858613
426.129524	9115.008572
426.507673	9237.042303
426.885762	9386.318431
427.263789	9301.362385
427.641756	9220.383811
428.019662	9321.655550
428.397508	9567.346265
428.775292	9255.001414
429.153016	9629.778435
429.530679	9463.624525
429.908282	9501.072736
430.285824	9219.889778
430.663305	9910.613554
431.040726	9357.692238
431.418086	9340.118776
431.795385	9669.666565
432.172624	9751.681097
432.549802	9671.244446
432.926920	9752.008772
433.303977	9618.834090
433.680974	9828.480555
434.057910	9923.218959
434.434786	9983.680038
434.811601	9823.194905
435.188355	10393.261185
435.565050	10117.648701
435.941683	10045.721518
436.318257	10536.823164
436.694770	10673.466160
437.071222	10739.417055
437.447614	10577.270862
437.823946	10480.115225
438.200218	10606.096180
438.576429	10434.056723
438.952580	10680.556543
439.328670	10725.841228
439.704700	10511.720739
440.080670	10501.015848
440.456580	11048.079343
440.832429	10810.595627
441.208218	10411.207693
441.583947	10730.370704
441.959616	10889.963553
442.335224	10696.700838
442.710773	10826.631537
443.086261	11041.893847
443.461689	10322.165792
443.837057	10977.480504
444.212365	11247.323387
444.587612	10879.787984
444.962800	11111.923036
445.337927	10869.919925
445.712995	10478.514658
446.088002	11551.524254
446.462949	11227.146169
446.837837	11195.243227
447.212664	11172.507623
447.587431	11696.684279
447.962139	12429.010178
448.336786	14707.677252
448.711374	15241.669034
449.085901	13075.397007
449.460369	12695.072196
449.834776	12145.132723
450.209124	13044.051112
450.583412	13461.193990
450.957640	14399.582093
451.331808	13501.440042
451.705917	12521.694312
452.079965	11803.818881
452.453954	12715.259496
452.827883	12352.843385
453.201752	12642.482879
453.575562	12171.369408
453.949311	12585.727048
454.323001	12555.520454
454.696632	12793.288996
455.070202	13074.799630
455.443713	13296.660811
455.817164	13768.369138
456.190556	13741.716557
456.563888	14115.558444
456.937160	14275.393268
457.310373	13626.354793
457.683526	13714.857290
458.056619	13255.303184
458.429653	13423.549173
458.802628	12827.006754
459.175542	13222.644069
459.548398	14169.040045
459.921194	14505.647970
460.293930	14587.115537
460.666607	15443.879798
461.039224	16491.103892
461.411782	17208.404631
461.784280	17038.631173
462.156719	17125.452445
462.529099	16806.221377
462.901419	15735.409724
463.273680	15524.813002
463.645882	15410.348563
464.018024	15132.868332
464.390106	15354.167424
464.762130	16071.190900
465.134094	16848.826689
465.505999	18873.162510
465.877845	22134.910036
466.249631	24956.491735
466.621358	24619.598985
466.993026	23173.975023
467.364634	22616.907358
467.736184	21138.531020
468.107674	20335.356745
468.479105	20479.039712
468.850477	19931.348593
469.221790	19536.364107
469.593043	18841.993056
469.964238	18286.354558
470.335373	17928.934230
470.706449	18394.071413
471.077467	17971.867217
471.448425	19814.172013
471.819324	23906.021137
472.190164	25837.453534
472.560945	22226.238100
472.931667	19897.593027
473.302330	19268.666235
473.672934	18835.971398
474.043479	19123.317167
474.413965	18928.456406
474.784393	18539.680101
475.154761	19270.302089
475.525070	19231.472602
475.895321	18921.623122
476.265513	19516.106230
476.635645	20097.603327
477.005719	19872.140241
477.375734	20064.820703
477.745691	20554.304139
478.115588	21082.518759
478.485427	21626.497068
478.855207	22700.824926
479.224928	24476.536080
479.594591	26706.462758
479.964194	26673.317171
480.333739	26906.659580
480.703226	26480.445145
481.072653	26175.420050
481.442022	26764.284792
481.811333	27694.077728
482.180584	27593.925125
482.549777	26636.894834
482.918912	26304.133310
483.287988	26425.854490
483.657005	26063.957618
484.025964	25840.969739
484.394864	25728.383129
484.763706	25397.146554
485.132489	24845.898902
485.501213	25022.462795
485.869879	24930.358393
486.238487	24775.161431
486.607036	24913.989767
486.975527	24632.280008
487.343959	24940.816267
487.712333	24865.108218
488.080648	24528.946436
488.448905	25021.847774
488.817104	24774.818632
489.185244	25465.335722
489.553326	25430.783653
489.921350	26445.484743
490.289315	28769.744012
490.657222	30509.713386
491.025070	31025.879649
491.392861	30778.290939
491.760593	29916.137685
492.128267	29024.365131
492.495883	27962.874572
492.863440	27094.334176
493.230939	26222.708593
493.598380	26069.719656
493.965763	25675.067886
494.333088	25194.235071
494.700354	25154.483052
495.067563	25010.076680
495.434713	24766.530976
495.801805	24920.533184
496.168839	24713.762698
496.535815	24573.074176
496.902733	24792.220696
497.269593	24467.572908
497.636395	24646.959847
498.003139	24607.084321
498.369825	24342.569937
498.736453	24541.781214
499.103023	24411.190123
499.469535	24419.631535
499.835989	24637.752180
500.202385	24666.022971
500.568723	24192.862791
500.935003	24398.325099
501.301226	24049.948600
501.667390	24893.121910
502.033497	25107.335661
502.399546	24834.495812
502.765537	24391.673296
503.131470	24775.630258
503.497345	24918.592340
503.863163	24154.497090
504.228923	24724.026487
504.594625	24948.849346
504.960269	24487.419931
505.325856	24980.747247
505.691385	24355.792884
506.056856	24989.110521
506.422270	24940.854076
506.787625	24496.035263
507.152924	24916.875827
507.518164	24955.604492
507.883347	24764.958136
508.248472	24448.696308
508.613540	25236.805094
508.978550	25040.976432
509.343503	25039.753952
509.708398	25254.161787
510.073236	25431.696102
510.438016	25641.534131
510.802738	25298.501256
511.167403	25559.131430
511.532010	25274.530569
511.896561	26053.892954
512.261053	26008.620872
512.625488	25841.983011
512.989866	25734.500570
513.354186	25579.913587
513.718449	25687.562386
514.082655	26065.028863
514.446803	25792.183973
514.810894	26270.317250
515.174927	25762.363027
515.538904	25789.469311
515.902822	26278.347808
516.266684	26038.343515
516.630488	25944.373887
516.994235	25902.260087
517.357925	26223.873100
517.721558	26394.160756
518.085133	26508.907500
518.448651	26400.313484
518.812112	26153.503633
519.175516	26369.454061
519.538863	26518.301690
519.902152	26301.217003
520.265385	26565.055872
520.628560	26371.031942
520.991678	26353.670208
521.354739	26422.282833
521.717743	26505.787026
522.080690	26281.652285
522.443580	26621.141229
522.806413	26596.041324
523.169189	26719.269809
523.531908	26751.969253
523.894569	26369.494390
524.257174	26466.730686
524.619722	26615.759797
524.982213	26325.301115
525.344647	26349.284405
525.707025	26512.879929
526.069345	26472.989279
526.431608	26445.520032
526.793815	26615.474972
527.155964	26105.791633
527.518057	26280.240762
527.880093	26186.427409
528.242072	26419.729488
528.603995	26128.408769
528.965860	25930.455261
529.327669	25969.950181
529.689421	25947.045698
530.051117	25792.448633
530.412755	25972.064945
530.774337	25768.828307
531.135862	25641.294676
531.497331	25836.931775
531.858743	25410.225828
532.220098	25879.043053
532.581396	25567.131741
532.942638	25486.942107
533.303824	25603.332267
533.664953	25592.289620
534.026025	25262.585555
534.387040	25503.212431
534.747999	25547.708176
535.108902	25701.496135
535.469748	25217.081580
535.830537	25383.752208
536.191270	25518.598033
536.551947	25362.183632
536.912567	24995.364072
537.273131	25401.751648
537.633638	25072.992800
537.994089	25292.189731
538.354483	24814.185003
538.714821	25315.184954
539.075103	25362.503745
539.435328	25136.307172
539.795497	24718.521547
540.155609	25077.953296
540.515665	25391.381995
540.875665	24615.898778
541.235609	24939.167810
541.595496	24881.993563
541.955328	25232.890638
542.315102	25170.413098
542.674821	24673.950185
543.034483	24555.427617
543.394090	24736.982252
543.753640	24532.702096
544.113134	25168.202552
544.472571	24742.353602
544.831953	25067.220679
545.191278	24698.409864
545.550548	24593.405150
545.909761	24789.921929
546.268918	25042.042636
546.628019	25010.167420
546.987064	24679.366905
547.346053	24440.958137
547.704986	24536.921541
548.063863	24707.378076
548.422684	24718.740837
548.781449	24230.628595
549.140158	24647.736185
549.498811	24219.492687
549.857408	23977.582837
550.215949	24368.481468
550.574434	24076.591098
550.932864	24285.584734
551.291237	24451.746206
551.649555	24306.553413
552.007817	24368.400809
552.366022	24212.301481
552.724173	24235.241251
553.082267	24213.617222
553.440305	24683.291443
553.798288	23929.454941
554.156215	24426.530354
554.514086	24562.094543
554.871902	23931.423512
555.229661	24203.555079
555.587365	24061.737339
555.945014	23958.887718
556.302606	24174.318907
556.660143	24151.061544
557.017625	24389.480394
557.375050	23910.038937
557.732421	24299.067300
558.089735	24129.976918
558.446994	24162.734335
558.804197	24205.546334
559.161345	24110.886068
559.518437	23899.243306
559.875474	24076.913732
560.232455	24245.303394
560.589381	24073.747888
560.946251	24060.686258
561.303065	24375.435740
561.659825	24465.813546
562.016528	24072.401900
562.373177	23821.405370
562.729770	24177.608260
563.086307	24025.564539
563.442789	24198.261867
563.799216	24031.442525
564.155587	24027.820456
564.511904	24014.484083
564.868164	23973.098731
565.224370	23933.500467
565.580520	23876.122054
565.936615	23987.786132
566.292654	23668.310569
566.648638	23932.003244
567.004567	23774.252938
567.360441	23721.219999
567.716260	23443.132309
568.072023	23753.190997
568.427732	23531.349981
568.783385	23299.598056
569.138982	23555.290420
569.494525	23584.478701
569.850013	23334.528211
570.205445	23450.552887
570.560823	23265.648406
570.916145	23020.852495
571.271412	23200.317572
571.626625	22945.459519
571.981782	23058.441859
572.336884	22872.433364
572.691931	23008.519313
573.046923	22741.980906
573.401860	22614.961473
573.756743	22652.039159
574.111570	22548.178787
574.466342	22465.609728
574.821059	22545.582593
575.175722	22244.043455
575.530330	22225.121484
575.884882	22245.845668
576.239380	22174.639370
576.593823	22041.000902
576.948211	22014.935616
577.302544	21874.489070
577.656823	21745.833782
578.011047	21850.157941
578.365216	21709.524872
578.719330	21586.704720
579.073389	21469.908747
579.427394	21629.937655
579.781344	21386.528063
580.135239	21271.146133
580.489080	21227.940924
580.842866	21006.349445
581.196597	21205.018798
581.550273	21170.557470
581.903895	21058.210315
582.257463	21376.027339
582.610975	20902.531923
582.964434	21225.337168
583.317837	20908.679610
583.671186	21002.671923
584.024481	20982.398923
584.377721	20734.923640
584.730906	20815.927420
585.084037	20814.228552
585.437113	20742.273642
585.790135	20946.132863
586.143103	20394.534850
586.496016	20413.981101
586.848874	20664.743217
587.201679	20576.490257
587.554428	20264.442834
587.907124	20599.712332
588.259765	20355.256700
588.612352	20435.501787
588.964884	20007.444811
589.317362	20169.601086
589.669786	20230.934284
590.022155	20248.578323
590.374470	20477.159361
590.726731	20232.381095
591.078937	20027.498521
591.431090	20121.516040
591.783188	19875.232989
592.135232	19842.689821
592.487222	19940.011816
592.839157	19945.983063
593.191038	19826.656431
593.542866	19724.716738
593.894639	19424.808414
594.246358	19640.645416
594.598022	19535.209683
594.949633	19291.139699
595.301190	19276.049005
595.652692	19442.530590
596.004141	19659.448919
596.355535	18994.182970
596.706876	19012.996556
597.058162	18913.809333
597.409395	19145.483120
597.760573	19200.545123
598.111698	18975.686976
598.462768	18921.139171
598.813785	18889.455519
599.164748	18689.372123
599.515657	18750.544004
599.866511	18543.546666
600.217312	18889.694974
600.568060	18408.663033
600.918753	18713.451194
601.269392	18614.992419
601.619978	18410.923990
601.970510	18614.079970
602.320988	18556.331032
602.671412	18755.449047
603.021783	18682.218726
603.372100	18389.466319
603.722363	18544.567499
604.072572	18486.657245
604.422728	18633.095202
604.772830	18379.333600
605.122878	18356.020784
605.472872	18326.845106
605.822813	18309.594278
606.172701	18299.239748
606.522534	18471.226273
606.872314	18507.106685
607.222041	18333.317947
607.571714	18551.935146
607.921333	18384.697387
608.270899	18453.279765
608.620411	18628.013719
608.969870	18413.379032
609.319276	18410.714783
609.668627	18426.990148
610.017926	18568.341581
610.367171	18675.808899
610.716362	18746.027131
611.065500	18542.470379
611.414585	18691.449078
611.763616	18681.190330
612.112594	18605.114278
612.461518	18580.362212
612.810389	18775.621224
613.159207	18631.862640
613.507971	18539.554072
613.856682	18810.286719
614.205340	18718.482266
614.553945	18875.587305
614.902496	18622.904510
615.250994	18836.120112
615.599439	18779.482748
615.947830	18774.444115
616.296169	18843.361729
616.644454	18804.081058
616.992686	18781.234549
617.340864	18990.603751
617.688990	18734.326613
618.037063	18908.153159
618.385082	18769.644936
618.733048	19048.660199
619.080961	18927.175953
619.428821	18949.639334
619.776628	18833.511314
620.124382	18767.484802
620.472083	18821.324325
620.819731	18832.611468
621.167326	18534.628865
621.514868	18561.399912
621.862357	18346.792952
622.209793	18344.647941
622.557176	18168.441970
622.904506	18008.229059
623.251783	17939.319007
623.599007	17688.146037
623.946179	17628.705792
624.293297	17552.775933
624.640363	17288.566539
624.987376	17314.236095
625.334336	17122.485726
625.681243	16972.750854
626.028097	16985.557905
626.374899	16901.388280
626.721647	16763.699245
627.068343	16600.822085
627.414987	16529.391455
627.761577	16505.622415
628.108115	16538.042075
628.454600	16263.606701
628.801032	16361.004314
629.147412	16298.506609
629.493739	16304.384594
629.840014	16118.938188
630.186236	16218.480812
630.532405	15987.157386
630.878521	16174.562280
631.224585	16083.393013
631.570597	15899.753860
631.916556	15934.626042
632.262462	15904.454736
632.608316	15825.006152
632.954117	15760.938128
633.299866	15763.418375
633.645562	15671.354303
633.991206	15437.694302
634.336797	15310.831145
634.682336	15276.299241
635.027823	15145.713192
635.373257	15021.156362
635.718639	14940.702067
636.063968	14880.069590
636.409245	14638.051355
636.754470	14663.567155
637.099642	14507.467827
637.444762	14289.422799
637.789829	14324.930166
638.134845	14161.884127
638.479808	14176.450542
638.824719	14110.492085
639.169577	13978.711282
639.514383	14015.998176
639.859137	13851.918701
640.203839	13936.383234
640.548489	13778.169141
640.893086	13766.110701
641.237632	13647.872958
641.582125	13797.985917
641.926566	13614.505561
642.270955	13637.213438
642.615292	13592.480759
642.959576	13591.691819
643.303809	13621.598464
643.647990	13557.003639
643.992118	13623.730872
644.336195	13393.556829
644.680219	13619.725675
645.024192	13518.980736
645.368112	13768.411988
645.711981	13813.116940
646.055797	13999.193490
646.399562	13981.254544
646.743274	14246.308331
647.086935	14507.051931
647.430544	14473.326612
647.774101	14515.556358
648.117606	14650.301359
648.461059	14634.164626
648.804460	14619.366318
649.147810	14342.818701
649.491108	14251.157921
649.834354	14271.352783
650.177548	13943.476137
650.520690	13759.610133
650.863781	13677.015868
651.206820	13725.809196
651.549807	13557.444740
651.892742	13349.736599
652.235626	13283.894088
652.578458	13292.348103
652.921238	12985.235970
653.263967	13185.820961
653.606644	13020.360209
653.949269	12998.882373
654.291843	12790.763378
654.634365	12954.502576
654.976836	12808.513281
655.319255	12808.508240
655.661622	12759.992175
656.003938	12687.646576
656.346203	12608.049278
656.688416	12692.639839
657.030577	12643.642344
657.372687	12552.576421
657.714746	12539.131663
658.056753	12724.109242
658.398708	12540.056715
658.740612	12548.540977
659.082465	12649.812717
659.424266	12615.605967
659.766016	12644.169145
660.107715	12559.170250
660.449362	12638.374338
660.790958	12585.091863
661.132503	12529.820652
661.473996	12600.091816
661.815438	12609.062549
662.156829	12634.462403
662.498168	12610.647992
662.839456	12613.435750
663.180693	12622.850105
663.521879	12722.233933
663.863013	12701.507229
664.204097	12671.613186
664.545129	12790.123152
664.886110	12762.180036
665.227040	12863.083771
665.567918	12857.301568
665.908746	12894.013771
666.249522	12876.273950
666.590248	12915.683170
666.930922	13043.978015
667.271545	13018.666382
667.612118	13101.885749
667.952639	13001.269360
668.293109	13026.961600
668.633528	12969.376500
668.973896	12950.099128
669.314213	13021.668389
669.654480	12758.976383
669.994695	12841.532838
670.334859	12870.088454
670.674973	12808.198209
671.015035	12842.379752
671.355047	12783.546966
671.695008	12756.584355
672.034918	12768.804112
672.374777	12814.650886
672.714585	12717.618756
673.054342	12762.326229
673.394049	12708.312786
673.733705	12805.627220
674.073310	12706.354298
674.412864	12726.357597
674.752368	12576.584916
675.091820	12620.193417
675.431223	12593.271135
675.770574	12465.087196
676.109875	12385.361347
676.449125	12340.101868
676.788324	12290.292748
677.127473	12121.083898
677.466571	12114.054009
677.805619	12005.550734
678.144616	11934.019282
678.483562	11909.226887
678.822458	11769.012234
679.161303	11754.592014
679.500098	11738.906463
679.838842	11695.487005
680.177535	11723.538506
680.516179	11784.644852
680.854771	11729.776934
681.193314	11948.361365
681.531805	12117.320677
681.870247	12547.857901
682.208638	12952.445785
682.546978	13260.414914
682.885268	13294.420018
683.223508	12987.622956
683.561697	12836.446314
683.899836	12736.734812
684.237925	12538.879606
684.575963	12446.467694
684.913951	12366.835107
685.251889	12327.493943
685.589776	12425.761154
685.927614	12344.308711
686.265401	12307.727578
686.603137	12365.060621
686.940824	12516.816996
687.278460	12647.529074
687.616046	12675.562930
687.953582	12835.538907
688.291068	12783.030248
688.628504	13009.572140
688.965889	13021.139068
689.303224	12970.452786
689.640510	12869.952343
689.977745	12541.415306
690.314930	12333.563492
690.652065	12244.564441
690.989150	11945.979419
691.326185	11719.147661
691.663170	11511.842812
692.000105	11275.236256
692.336990	11161.467496
692.673825	10897.547969
693.010610	10784.411874
693.347345	10572.920346
693.684030	10381.379185
694.020665	10322.407768
694.357251	10122.208425
694.693786	10047.828721
695.030272	9901.690712
695.366707	9781.028174
695.703093	9716.758503
696.039429	9711.719870
696.375716	9619.590263
696.711952	9496.744906
697.048139	9542.289210
697.384276	9498.307663
697.720363	9516.448255
698.056400	9450.315879
698.392388	9394.956448
698.728326	9361.780614
699.064214	9296.638824
699.400053	9343.140948
699.735842	9163.121344
700.071581	9112.833314
700.407270	9044.492912
700.742910	8964.227660
701.078501	8869.285089
701.414042	8738.328515
701.749533	8682.245679
702.084974	8541.557157
702.420366	8660.881269
702.755709	8535.923668
703.091002	8401.120693
703.426246	8431.692771
703.761440	8389.468066
704.096584	8336.291455
704.431679	8279.175182
704.766725	8263.925691
705.101721	8215.056746
705.436668	8261.440403
705.771565	8148.049729
706.106413	8236.181701
706.441212	8273.579501
706.775961	8225.819609
707.110661	8277.683000
707.445311	8414.966222
707.779913	8302.745097
708.114465	8434.959438
708.448967	8466.370868
708.783421	8632.552505
709.117825	8801.486611
709.452180	8841.445317
709.786485	8924.470600
710.120742	9217.066731
710.454949	9216.928100
710.789107	9313.635074
711.123216	9545.747442
711.457275	9708.874139
711.791286	9859.768476
712.125247	9859.556748
712.459159	9850.621303
712.793023	10082.448845
713.126837	9662.182972
713.460602	9822.796654
713.794318	9646.182350
714.127985	9669.366616
714.461602	9339.748251
714.795171	9289.538359
715.128691	9035.444041
715.462162	8794.970920
715.795584	8743.594000
716.128957	8573.268535
716.462281	8405.660252
716.795556	8459.976164
717.128782	8249.535718
717.461960	7994.138261
717.795088	8060.313487
718.128167	7972.088254
718.461198	7805.820918
718.794180	7754.353258
719.127113	7745.692555
719.459997	7571.109836
719.792833	7348.177410
720.125619	7418.715755
720.458357	7273.001203
720.791046	7261.769512
721.123686	7254.991681
721.456278	7089.848522
721.788821	7110.885257
722.121315	7009.016141
722.453761	7080.524908
722.786158	7014.805906
723.118506	7024.537854
723.450805	6989.320353
723.783056	7051.049282
724.115259	6974.680842
724.447412	6973.438198
724.779518	7019.935280
725.111574	7020.557863
725.443582	7097.105263
725.775542	7077.916111
726.107453	7270.828466
726.439315	7181.146339
726.771129	7254.084273
727.102895	7431.482477
727.434612	7530.210955
727.766281	7572.196205
728.097901	7647.377453
728.429473	7652.010273
728.760996	7639.810681
729.092471	7610.067873
729.423897	7551.056126
729.755276	7550.002525
730.086606	7466.392468
730.417887	7571.041780
730.749120	7791.602343
731.080305	7977.295766
731.411442	8084.019513
731.742530	8072.855878
732.073570	8183.340327
732.404562	8271.179912
732.735506	8121.205585
733.066401	8262.892255
733.397249	8184.643465
733.728048	7940.124818
734.058798	7607.943027
734.389501	7374.953499
734.720156	7208.174485
735.050762	6976.553631
735.381320	6886.984930
735.711831	6828.010992
736.042293	6720.677264
736.372707	6737.638227
736.703073	6604.708041
737.033391	6640.908567
737.363661	6651.583210
737.693883	6686.452871
738.024056	6775.278002
738.354182	6805.933258
738.684260	6837.216138
739.014290	6966.252033
739.344272	7074.626758
739.674207	7102.216993
740.004093	7177.186513
740.333931	7184.574324
740.663722	7194.896086
740.993464	7272.774351
741.323159	7257.121569
741.652806	7005.076479
741.982405	7037.178547
742.311956	7084.051195
742.641460	6905.543938
742.970915	6713.642334
743.300323	6704.686724
743.629683	6660.037225
743.958996	6523.348859
744.288260	6435.479027
744.617477	6384.049175
744.946647	6378.831581
745.275768	6215.079781
745.604842	6170.437843
745.933869	6155.518548
746.262847	6113.064471
746.591778	6095.591832
746.920662	6058.103291
747.249498	6053.838475
747.578286	6103.990394
747.907027	6178.833884
748.235720	6237.185240
748.564365	6207.666764
748.892963	6248.948773
749.221514	6387.285596
749.550017	6204.700045
749.878473	6092.355411
750.206881	6156.050390
750.535242	6101.563078
750.863555	6031.455752
751.191821	6040.068563
751.520039	6038.520929
751.848210	5945.728410
752.176334	5975.614891
752.504411	6022.555595
752.832440	5943.936280
753.160421	5876.145363
753.488356	5924.059010
753.816243	5953.421211
754.144082	5806.446370
754.471875	5779.307319
754.799620	5817.592362
755.127318	5834.283622
755.454969	5791.353156
755.782572	5756.054997
756.110129	5797.712571
756.437638	5776.718686
756.765100	5717.235591
757.092515	5722.470830
757.419882	5778.571310
757.747203	5752.047279
758.074477	5815.457433
758.401703	5799.177027
758.728882	5751.767495
759.056014	5817.761240
759.383099	5939.333706
759.710138	5949.171518
760.037129	5934.514363
760.364073	5942.272699
760.690970	6016.493607
761.017820	6002.857286
761.344623	5958.900945
761.671379	6064.911369
761.998088	6189.291758
762.324751	6447.666016
762.651366	7081.185299
762.977935	8433.290817
763.304456	10081.554040
763.630931	10952.431011
763.957359	10511.640080
764.283740	9556.785048
764.610074	8697.041465
764.936362	7696.695061
765.262602	7102.403516
765.588796	6565.520631
765.914943	6234.054684
766.241044	6062.174023
766.567097	5856.134503
766.893104	5592.719091
767.219064	5421.060241
767.544978	5357.541703
767.870845	5276.008601
768.196665	5170.494730
768.522438	5100.117702
768.848165	5067.597219
769.173846	4998.160366
769.499479	4948.704126
769.825066	4901.743257
770.150607	4838.907795
770.476101	4817.868539
770.801548	4807.529133
771.126949	4728.186412
771.452303	4674.566180
771.777611	4635.908091
772.102872	4656.473478
772.428087	4617.626347
772.753256	4577.050100
773.078378	4525.922717
773.403453	4459.881081
773.728482	4444.382054
774.053465	4401.229777
774.378401	4387.764855
774.703291	4384.626737
775.028135	4308.734686
775.352932	4264.932100
775.677683	4247.255294
776.002388	4265.128705
776.327046	4278.918782
776.651658	4201.940363
776.976224	4141.035662
777.300743	4148.604955
777.625216	4168.547759
777.949643	4161.674146
778.274024	4121.347436
778.598359	4080.821600
778.922647	4111.197073
779.246889	4098.016976
779.571086	4085.083896
779.895236	4070.794745
780.219339	4061.279567
780.543397	4054.048032
780.867409	4106.534005
781.191374	4120.129997
781.515294	4053.150707
781.839167	4048.134759
782.162995	4070.293150
782.486776	4060.331830
782.810511	4067.046647
783.134201	4058.184299
783.457844	4011.263759
783.781441	3957.845173
784.104993	3962.357005
784.428498	3980.641270
784.751958	3978.110611
785.075372	3958.636634
785.398739	3920.409564
785.722061	3933.340124
786.045337	3980.525324
786.368568	4005.055578
786.691752	3916.137186
787.014891	3975.602637
787.337983	4107.086012
787.661030	4268.508799
787.984031	4430.249179
788.306987	4591.714816
788.629897	4681.991799
788.952760	4632.323831
789.275579	4571.096497
789.598351	4495.118747
789.921078	4353.220348
790.243759	4153.895646
790.566395	4138.507524
790.888984	4134.804796
791.211529	4025.240358
791.534027	3965.464877
791.856480	3946.588276
792.178888	3889.245151
792.501249	3846.395343
792.823566	3853.024461
793.145836	3880.226527
793.468062	3828.201819
793.790241	3787.557516
794.112375	3815.122546
794.434464	3880.234089
794.756507	3903.884662
795.078505	3879.505642
795.400457	3920.880912
795.722364	4065.204106
796.044226	4168.933408
796.366042	4240.895879
796.687812	4214.074420
797.009538	4218.462744
797.331218	4183.809853
797.652852	4154.787930
797.974442	4133.325218
798.295986	4131.487717
798.617484	4044.613513
798.938938	3963.592088
799.260346	4003.381915
799.581709	3999.487624
799.903026	3920.838062
800.224299	3887.006879
800.545526	3877.221999
800.866708	3837.868232
801.187845	3779.703399
801.508936	3817.819563
801.829983	3807.641473
802.150984	3733.415524
802.471940	3726.178948
802.792851	3735.305957
803.113717	3734.007860
803.434538	3733.057602
803.755314	3673.897141
804.076045	3653.238493
804.396731	3674.718849
804.717372	3699.024773
805.037967	3681.905014
805.358518	3671.830268
805.679024	3700.786656
805.999485	3715.090930
806.319901	3719.842217
806.640272	3735.472315
806.960598	3746.867843
807.280879	3716.308368
807.601115	3735.769743
807.921306	3750.399171
808.241453	3790.975419
808.561554	3760.652878
808.881611	3695.790872
809.201623	3740.848705
809.521590	3749.305241
809.841513	3720.830283
810.161390	3748.024788
810.481223	3726.383114
810.801011	3672.614167
811.120755	3671.235412
811.440453	3701.595761
811.760107	3703.047613
812.079716	3656.084224
812.399281	3631.914412
812.718801	3655.393586
813.038276	3625.522229
813.357707	3624.594657
813.677093	3641.535454
813.996434	3586.657453
814.315731	3599.585492
814.634983	3600.271089
814.954191	3618.366311
815.273354	3644.353459
815.592473	3637.429434
815.911547	3652.409223
816.230577	3692.814071
816.549562	3741.499014
816.868502	3783.184315
817.187399	3810.434272
817.506250	3804.780618
817.825058	3782.324799
818.143821	3878.736866
818.462539	3977.268738
818.781213	4019.594266
819.099843	4083.836210
819.418429	4346.046786
819.736970	4587.288683
820.055466	4837.806303
820.373919	5211.247418
820.692327	5625.589935
821.010691	6101.875630
821.329011	7566.550112
821.647286	10420.717829
821.965517	15099.702580
822.283704	19113.940621
822.601847	21154.718165
822.919945	19254.409852
823.237999	16617.225999
823.556010	14114.469555
823.873976	11977.668113
824.191897	9870.387667
824.509775	8525.281792
824.827609	7393.877990
825.145398	6862.043821
825.463144	6749.908395
825.780845	6854.449323
826.098502	7068.206849
826.416116	7996.794949
826.733685	9359.300367
827.051210	10459.204518
827.368692	10423.555999
827.686129	9114.950598
828.003522	7605.195598
828.320872	6585.823878
828.638177	5868.813005
828.955439	5302.157066
829.272656	4802.629131
829.589830	4526.590670
829.906960	4347.289431
830.224046	4157.119464
830.541088	4038.654869
830.858086	3985.780727
831.175041	3910.342380
831.491952	3896.590112
831.808819	3905.291144
832.125642	3986.015140
832.442421	4137.421155
832.759157	4426.359929
833.075849	5002.639431
833.392497	5891.503239
833.709101	6675.896695
834.025662	6996.859398
834.342179	6586.766574
834.658653	5908.544859
834.975083	5254.651753
835.291469	4673.242877
835.607811	4270.283285
835.924110	4128.601656
836.240366	3922.902415
836.556578	3718.425653
836.872746	3611.827934
837.188871	3568.350503
837.504952	3499.374916
837.820990	3414.814601
838.136984	3374.258518
838.452935	3398.816499
838.768842	3393.137639
839.084706	3418.189653
839.400526	3585.107298
839.716303	3939.606278
840.032037	4488.789578
840.347727	4728.050301
840.663373	4428.182306
840.978977	4035.287378
841.294537	3729.357395
841.610054	3500.887262
841.925527	3397.772980
842.240957	3327.224553
842.556344	3269.720111
842.871687	3209.558981
843.186987	3157.541835
843.502244	3122.276443
843.817458	3084.561051
844.132629	3059.120868
844.447756	3066.107907
844.762840	3048.718447
845.077881	3016.911287
845.392879	3002.312105
845.707833	2998.327073
846.022745	2996.469408
846.337613	2994.833553
846.652438	2981.628251
846.967221	2979.518528
847.281960	2966.716518
847.596656	2963.646455
847.911309	2963.296095
848.225919	2955.084055
848.540485	2952.250927
848.855009	2953.859055
849.169490	2940.464709
849.483928	2932.928184
849.798323	2935.421035
850.112675	2927.183789
850.426984	2939.542178
850.741251	2938.929678
851.055474	2925.227822
851.369654	2919.922007
851.683792	2925.941145
851.997887	2936.124276
852.311938	2937.949173
852.625947	2924.408634
852.939914	2928.567586
853.253837	2932.108997
853.567718	2918.991914
853.881555	2918.150042
854.195350	2935.269800
854.509103	2928.144129
854.822812	2921.555341
855.136479	2917.252716
855.450103	2917.015782
855.763685	2912.435894
856.077224	2909.824576
856.390720	2924.953079
856.704173	2931.524223
857.017584	2923.211360
857.330953	2923.808737
857.644278	2932.615633
857.957561	2940.343722
858.270802	2944.381686
858.584000	2941.147786
858.897155	2928.383584
859.210268	2930.246290
859.523339	2925.805034
859.836367	2923.496185
860.149352	2920.287491
860.462295	2919.243972
860.775195	2924.083480
861.088054	2923.002152
861.400869	2904.932136
861.713642	2905.733680
862.026373	2919.760690
862.339062	2922.505599
862.651708	2927.473656
862.964312	2930.445416
863.276873	2921.073911
863.589392	2934.816096
863.901869	2947.746656
864.214303	2969.884883
864.526696	2983.135556
864.839045	2978.139773
865.151353	2977.839824
865.463619	2975.805718
865.775842	2980.453662
866.088023	2997.787670
866.400162	3004.192456
866.712258	2972.695326
867.024313	2965.078143
867.336325	2972.009729
867.648296	2995.123420
867.960224	2989.356340
868.272110	2977.945688
868.583954	2979.800833
868.895755	2990.785507
869.207515	2979.372335
869.519233	2987.460866
869.830909	2997.245746
870.142542	3003.151457
870.454134	3003.315295
870.765684	3007.083557
871.077191	3008.739576
871.388657	3017.352388
871.700081	3029.753626
872.011463	3041.862478
872.322803	3038.752086
872.634101	3037.451468
872.945357	3056.280178
873.256571	3085.085331
873.567744	3075.310533
873.878874	3070.281982
874.189963	3094.482042
874.501010	3099.003957
874.812015	3085.055084
875.122979	3085.234045
875.433900	3082.668097
875.744780	3089.786207
876.055618	3094.255190
876.366415	3091.132195
876.677169	3101.693412
876.987882	3098.278030
877.298554	3093.055395
877.609183	3118.001545
877.919771	3144.205462
878.230317	3168.876869
878.540822	3220.349571
878.851285	3259.199223
879.161707	3306.265956
879.472087	3416.959612
879.782425	3659.862569
880.092722	4117.664873
880.402977	4654.114218
880.713191	5311.468077
881.023363	6512.616242
881.333494	7813.410375
881.643583	8341.418308
881.953631	8022.414093
882.263637	7355.529933
882.573602	6744.526963
882.883526	6155.311861
883.193408	5585.069140
883.503248	5135.594822
883.813048	4823.759128
884.122806	4500.674098
884.432522	4176.888348
884.742197	3932.888941
885.051831	3741.204107
885.361424	3611.863222
885.670975	3539.469733
885.980485	3448.030764
886.289954	3368.680482
886.599382	3326.004594
886.908768	3283.570681
887.218113	3242.389495
887.527417	3181.469672
887.836680	3132.114255
888.145901	3124.900364
888.455082	3111.611882
888.764221	3058.536094
889.073319	3032.685057
889.382376	3029.945190
889.691392	3034.356200
890.000366	3032.095242
890.309300	3021.433202
890.618193	3035.704708
890.927044	3050.787841
891.235855	3047.710216
891.544625	3036.556663
891.853353	3048.794064
892.162041	3066.632187
892.470687	3110.318826
892.779293	3163.918895
893.087858	3208.928837
893.396381	3285.100671
893.704864	3415.963984
894.013306	3662.055471
894.321707	3975.312771
894.630068	4174.972710
894.938387	4165.344106
895.246665	4120.974391
895.554903	3994.355729
895.863100	3787.103812
896.171256	3617.713482
896.479371	3474.234681
896.787446	3348.581401
897.095480	3240.703229
897.403473	3179.458251
897.711425	3144.228148
898.019336	3136.210193
898.327207	3102.436982
898.635038	3065.623956
898.942827	3050.939075
899.250576	3039.704864
899.558284	3008.167405
899.865952	2990.997235
900.173579	2970.998978
900.481165	2959.759726
900.788711	2948.533076
901.096216	2923.387801
901.403681	2912.922365
901.711105	2920.557193
902.018489	2917.328334
902.325832	2918.175248
902.633135	2928.887699
902.940397	2962.905406
903.247619	3048.375648
903.554800	3255.166300
903.861941	3620.095427
904.169041	4064.309301
904.476101	4352.975852
904.783121	4289.290956
905.090100	4033.827964
905.397039	3752.672732
905.703938	3501.383815
906.010796	3311.584373
906.317614	3199.148998
906.624391	3100.584358
906.931129	3029.501568
907.237826	2965.289871
907.544483	2920.872265
907.851099	2887.429250
908.157675	2865.780015
908.464211	2846.979032
908.770707	2833.168791
909.077163	2817.803354
909.383578	2804.527475
909.689954	2790.666823
909.996289	2791.793521
910.302584	2794.130095
910.608839	2792.612708
910.915054	2787.047274
911.221229	2775.934051
911.527363	2780.859258
911.833458	2788.935186
912.139513	2795.100517
912.445527	2798.359623
912.751502	2808.444452
913.057436	2814.541727
913.363331	2830.418841
913.669186	2853.872810
913.975000	2890.784138
914.280775	2948.515432
914.586510	3025.032586
914.892205	3105.842282
915.197859	3241.224989
915.503475	3447.577060
915.809050	3668.256090
916.114585	3813.022905
916.420081	3826.810461
916.725536	3762.029113
917.030952	3639.690392
917.336328	3506.566122
917.641665	3372.413456
917.946961	3270.072992
918.252218	3197.601364
918.557435	3117.159672
918.862612	3056.925445
919.167750	3006.561798
919.472848	2969.073257
919.777906	2940.477312
920.082925	2912.327509
920.387904	2879.706203
920.692843	2861.802545
920.997743	2852.151256
921.302603	2838.146930
921.607423	2828.069664
921.912204	2814.713127
922.216946	2804.076292
922.521647	2793.336114
922.826310	2787.173303
923.130932	2778.278187
923.435516	2770.434152
923.740059	2758.103489
924.044564	2752.717017
924.349028	2746.239134
924.653454	2740.814852
924.957840	2735.751013
925.262186	2730.535940
925.566493	2726.324056
925.870761	2721.759291
926.174989	2716.554299
926.479178	2712.062631
926.783328	2707.996941
927.087438	2707.238247
927.391509	2707.344111
927.695541	2699.058975
927.999533	2699.305992
928.303486	2694.650486
928.607400	2698.688450
928.911275	2698.073429
929.215110	2695.005887
929.518906	2694.037986
929.822663	2691.792152
930.126381	2691.930783
930.430060	2692.588654
930.733699	2694.161494
931.037299	2694.675692
931.340861	2695.809951
931.644383	2694.479087
931.947866	2692.999508
932.251309	2695.331042
932.554714	2692.266020
932.858080	2689.115299
933.161407	2687.040864
933.464694	2688.880885
933.767943	2684.283353
934.071153	2688.270906
934.374323	2685.740247
934.677455	2685.057170
934.980548	2686.234280
935.283602	2683.761594
935.586617	2685.188240
935.889593	2682.970132
936.192530	2684.462314
936.495428	2686.491378
936.798287	2686.647654
937.101108	2691.388859
937.403890	2695.605785
937.706632	2698.975796
938.009336	2705.844368
938.312002	2715.533466
938.614628	2725.235166
938.917216	2728.852194
939.219765	2729.794890
939.522275	2730.079715
939.824747	2725.320866
940.127179	2724.302553
940.429573	2718.908518
940.731929	2720.125957
941.034246	2716.879454
941.336524	2711.276211
941.638763	2707.250850
941.940964	2708.433001
942.243126	2703.384285
942.545250	2704.702547
942.847335	2701.372865
943.149381	2697.140816
943.451389	2694.640404
943.753359	2692.399611
944.055290	2693.463294
944.357182	2689.074970
944.659036	2687.613035
944.960851	2687.797037
945.262628	2686.536749
945.564367	2689.717717
945.866067	2689.440453
946.167729	2690.100845
946.469352	2686.710669
946.770937	2688.535566
947.072484	2687.383663
947.373992	2684.588343
947.675462	2681.901408
947.976893	2680.018537
948.278286	2679.126253
948.579641	2678.836386
948.880958	2677.293793
949.182236	2678.654905
949.483476	2676.341015
949.784678	2677.384534
950.085841	2678.692713
950.386967	2676.877898
950.688054	2679.184226
950.989103	2679.756397
951.290114	2680.227745
951.591087	2684.948785
951.892021	2684.174968
952.192917	2689.639579
952.493776	2689.536235
952.794596	2690.993129
953.095378	2690.733509
953.396122	2689.705114
953.696828	2686.244362
953.997496	2683.265040
954.298126	2684.026254
954.598718	2680.860410
954.899272	2677.077024
955.199788	2677.170285
955.500266	2671.829182
955.800706	2670.291631
956.101108	2670.087464
956.401472	2668.489418
956.701798	2668.738955
957.002087	2661.278047
957.302337	2661.497338
957.602550	2659.536329
957.902724	2659.937101
958.202861	2658.389466
958.502960	2657.582882
958.803022	2657.333345
959.103045	2655.639517
959.403031	2657.477017
959.702979	2655.447953
960.002889	2655.626914
960.302762	2651.152890
960.602596	2652.597181
960.902393	2654.018786
961.202153	2652.387973
961.501875	2650.585760
961.801559	2652.781183
962.101205	2651.503250
962.400814	2651.909063
962.700385	2650.880668
962.999918	2645.302631
963.299414	2645.708444
963.598873	2649.970739
963.898293	2646.131901
964.197677	2652.486275
964.497022	2650.895791
964.796331	2649.184319
965.095601	2649.471665
965.394835	2648.740698
965.694030	2648.781027
965.993189	2649.428815
966.292309	2648.365132
966.591393	2648.281953
966.890439	2647.646768
967.189447	2648.806233
967.488419	2651.016779
967.787353	2647.861017
968.086249	2647.498053
968.385108	2647.929072
968.683930	2649.441418
968.982714	2648.836480
969.281462	2647.689617
969.580172	2647.840852
969.878844	2649.847231
970.177480	2649.310348
970.476078	2648.634834
970.774639	2647.455204
971.073162	2650.449649
971.371649	2650.127015
971.670098	2648.405461
971.968510	2649.194402
972.266885	2652.861841
972.565223	2649.416212
972.863524	2647.581232
973.161788	2649.247334
973.460014	2648.967550
973.758204	2649.688435
974.056356	2648.261788
974.354471	2651.513332
974.652550	2651.518374
974.950591	2649.829587
975.248595	2649.597694
975.546563	2647.268681
975.844493	2650.560554
976.142386	2645.131232
976.440243	2651.503250
976.738062	2647.364463
977.035845	2646.633496
977.333590	2648.770945
977.631299	2646.121818
977.928971	2645.395892
978.226606	2643.054276
978.524204	2647.301448
978.821765	2644.642240
979.119290	2644.410347
979.416777	2647.987045
979.714228	2646.807415
980.011642	2647.886222
980.309020	2644.211221
980.606360	2646.285656
980.903664	2647.881181
981.200931	2647.321613
981.498162	2647.760193
981.795356	2650.250523
982.092513	2651.102478
982.389633	2653.703714
982.686717	2655.387459
982.983764	2662.359375
983.280775	2664.612771
983.577749	2665.419355
983.874686	2665.903306
984.171587	2661.767039
984.468451	2657.981133
984.765279	2656.062974
985.062070	2657.983653
985.358824	2651.810761
985.655543	2651.687252
985.952224	2651.294042
986.248869	2646.663742
986.545478	2649.527118
986.842050	2646.399082
987.138586	2646.784730
987.435086	2646.363794
987.731549	2644.619555
988.027975	2644.420429
988.324366	2643.989410
988.620719	2644.644760
988.917037	2643.898670
989.213318	2647.019144
989.509563	2642.305665
989.805772	2645.763897
990.101944	2643.268525
990.398080	2643.853299
990.694180	2645.206849
990.990244	2644.561581
991.286271	2643.218114
991.582262	2642.958494
991.878217	2643.732312
992.174136	2644.574184
992.470019	2644.029740
992.765865	2640.596714
993.061676	2639.318781
993.357450	2640.445479
993.653188	2638.494553
993.948890	2643.376910
994.244556	2645.421098
994.540186	2642.532517
994.835780	2645.532003
995.131337	2644.478402
995.426859	2645.912611
995.722345	2644.538896
996.017795	2644.816160
996.313208	2647.276243
996.608586	2648.052580
996.903928	2649.070893
997.199234	2647.712302
997.494504	2650.827736
997.789738	2649.716161
998.084936	2648.803712
998.380099	2646.204998
998.675225	2647.578712
998.970316	2644.516211
999.265371	2644.241468
999.560390	2644.133083
999.855373	2642.784575
1000.150320	2644.281797
1000.445232	2641.816673
1000.740108	2642.981180
1001.034948	2643.702065
1001.329752	2642.489667
1001.624521	2642.114101
1001.919254	2642.550161
1002.213951	2641.942702
1002.508613	2640.909265
1002.803239	2641.400778
1003.097829	2641.730973
1003.392384	2641.962867
1003.686903	2640.553864
1003.981386	2642.973618
1004.275834	2642.340953
1004.570246	2641.546971
1004.864623	2641.867085
1005.158964	2642.134266
1005.453270	2641.748617
1005.747540	2642.494708
1006.041775	2644.475882
1006.335974	2642.852630
1006.630138	2639.754841
1006.924266	2642.716519
1007.218359	2641.418422
1007.512416	2637.309882
1007.806438	2637.141003
1008.100425	2636.679737
1008.394376	2635.784932
1008.688292	2640.473206
1008.982172	2639.961528
1009.276017	2639.028915
1009.569827	2640.430356
1009.863602	2641.705768
1010.157341	2640.929430
1010.451045	2643.054276
1010.744714	2644.498567
1011.038347	2643.313896
1011.331945	2640.150572
1011.625508	2642.840027
1011.919036	2643.293731
1012.212528	2641.834317
1012.505986	2643.124852
1012.799408	2642.330871
1013.092795	2640.816004
1013.386147	2639.895993
1013.679464	2638.860036
1013.972745	2641.010088
1014.265992	2641.272228
1014.559204	2639.225520
1014.852380	2640.110242
1015.145521	2640.248874
1015.438628	2639.321302
1015.731699	2642.499749
1016.024736	2639.822897
1016.317737	2638.514717
1016.610703	2640.193422
1016.903635	2641.103350
1017.196531	2639.165026
1017.489393	2639.981693
1017.782219	2640.405150
1018.075011	2640.929430
1018.367768	2639.674183
1018.660490	2639.684265
1018.953177	2639.684265
1019.245829	2639.684265
