Dividing Wavelength (nm)	Counts (n)	Blue Motor Position (mm): 48.800000	Red Motor Position (mm): 0.000000	
326.493990	2129.703498
326.888308	2129.703498
327.282561	2129.703498
327.676750	2097.833323
328.070874	2096.419280
328.464933	2098.728128
328.858929	2106.274735
329.252859	2114.010386
329.646726	2124.685029
330.040528	2140.436114
330.434265	2154.894144
330.827938	2173.783347
331.221547	2190.744309
331.615091	2211.178626
332.008571	2229.457850
332.401986	2249.834194
332.795338	2269.744231
333.188625	2288.877931
333.581847	2305.894345
333.975006	2323.717345
334.368100	2342.243585
334.761129	2358.917202
335.154095	2378.693648
335.546996	2399.427914
335.939833	2426.032603
336.332606	2439.535334
336.725315	2451.361881
337.117960	2459.097531
337.510540	2469.779736
337.903056	2479.262147
338.295508	2489.609115
338.687896	2494.849394
339.080220	2505.690396
339.472480	2509.917403
339.864676	2514.973681
340.256807	2518.676408
340.648875	2525.340813
341.040879	2524.410721
341.432818	2526.704446
341.824694	2529.635877
342.216506	2528.443644
342.608253	2531.770805
342.999937	2530.255938
343.391557	2530.417255
343.783113	2531.690147
344.174605	2526.084384
344.566033	2527.122861
344.957397	2523.697397
345.348697	2524.619928
345.739934	2523.238652
346.131106	2521.391069
346.522215	2518.709176
346.913260	2515.724813
347.304241	2516.307066
347.695159	2514.565347
348.086012	2513.844462
348.476802	2508.251302
348.867528	2510.338340
349.258191	2505.682834
349.648789	2507.212824
350.039324	2500.394664
350.429796	2502.690909
350.820203	2500.639160
351.210548	2502.590086
351.600828	2501.062617
351.991045	2500.440034
352.381198	2498.466422
352.771288	2500.934067
353.161314	2498.847029
353.551276	2498.332832
353.941175	2497.954745
354.331010	2495.872749
354.720782	2499.683861
355.110490	2497.974910
355.500135	2497.359889
355.889717	2499.946001
356.279235	2501.440703
356.668689	2497.432986
357.058080	2497.896772
357.447408	2495.721514
357.836672	2496.535660
358.225873	2497.080105
358.615010	2495.928201
359.004084	2502.658142
359.393095	2503.764675
359.782043	2502.779129
360.170927	2506.018071
360.559748	2502.718636
360.948505	2506.028153
361.337199	2505.899604
361.725830	2506.406240
362.114398	2509.130983
362.502903	2505.544202
362.891344	2507.656446
363.279722	2504.823317
363.668037	2509.042763
364.056289	2510.096364
364.444478	2512.183402
364.832603	2510.330778
365.220665	2508.939419
365.608665	2512.942096
365.996601	2513.461334
366.384474	2514.099040
366.772284	2514.830008
367.160031	2512.042250
367.547715	2515.452590
367.935336	2515.319000
368.322893	2517.259844
368.710388	2517.050636
369.097820	2522.011131
369.485189	2521.386028
369.872495	2529.940866
370.259738	2532.315250
370.646918	2538.183153
371.034035	2541.626261
371.421090	2551.222097
371.808081	2559.885320
372.195010	2564.692060
372.581875	2578.368711
372.968678	2586.399269
373.355418	2594.981833
373.742096	2610.080089
374.128710	2623.469394
374.515262	2638.252577
374.901751	2655.984836
375.288177	2666.183090
375.674540	2687.527336
376.060841	2702.333204
376.447079	2722.606205
376.833254	2741.913824
377.219367	2753.715165
377.605417	2789.988787
377.991404	2801.452371
378.377329	2824.003973
378.763191	2841.960563
379.148991	2881.800802
379.534727	2907.490522
379.920402	2935.415994
380.306013	2949.160700
380.691563	3001.515603
381.077049	3020.755167
381.462474	3041.209648
381.847835	3080.208014
382.233134	3107.415122
382.618371	3111.291769
383.003545	3178.712161
383.388657	3186.639375
383.773706	3224.493399
384.158693	3240.925040
384.543618	3272.157509
384.928480	3306.979279
385.313280	3356.654809
385.698017	3357.335365
386.082692	3411.996596
386.467305	3414.597831
386.851856	3453.634006
387.236344	3475.353817
387.620770	3508.423787
388.005133	3537.906975
388.389435	3563.044689
388.773674	3577.525403
389.157851	3616.334726
389.541965	3634.835761
389.926018	3601.352417
390.310008	3674.330680
390.693936	3689.154193
391.077802	3733.468456
391.461606	3723.209708
391.845348	3784.225314
392.229027	3782.788585
392.612645	3801.408087
392.996200	3877.267370
393.379694	3914.765993
393.763125	3980.106908
394.146494	3949.645736
394.529801	4006.492307
394.913047	4058.547262
395.296230	4022.692055
395.679351	4078.086774
396.062410	4100.403962
396.445408	4085.416612
396.828343	4118.935244
397.211217	4139.767812
397.594028	4060.006676
397.976778	4124.465390
398.359466	4154.109895
398.742092	4182.400850
399.124656	4105.797997
399.507158	4186.832024
399.889598	4210.815314
400.271977	4270.437040
400.654294	4239.224736
401.036549	4252.934154
401.418742	4222.115060
401.800874	4323.374197
402.182944	4347.788505
402.564952	4410.618926
402.946898	4400.294643
403.328783	4394.348602
403.710606	4305.775529
404.092367	4497.848532
404.474067	4462.646154
404.855705	4473.376250
405.237282	4399.470414
405.618797	4509.319677
406.000250	4545.283269
406.381642	4624.653715
406.762972	4582.892797
407.144240	4594.653809
407.525447	4599.412658
407.906593	4659.629241
408.287677	4693.694838
408.668700	4628.147235
409.049661	4677.837888
409.430560	4716.059917
409.811399	4645.072909
410.192176	4806.072239
410.572891	4744.991099
410.953545	4852.392882
411.334138	4731.533739
411.714669	4797.615704
412.095139	4694.249365
412.475547	4834.615252
412.855894	4815.657993
413.236180	4826.504036
413.616405	4778.171973
413.996568	4863.470817
414.376670	4807.183814
414.756711	4763.698821
415.136691	4795.153100
415.516609	4872.610429
415.896466	4911.525616
416.276262	4944.565338
416.655997	4924.241927
417.035670	5103.941417
417.415283	5195.665212
417.794834	5142.806193
418.174324	5092.747535
418.553753	4999.319831
418.933121	5187.105332
419.312428	5252.637812
419.691674	5195.100602
420.070859	5320.736238
420.449983	5229.972784
420.829045	5349.803532
421.208047	5256.315333
421.586988	5325.651363
421.965867	5334.793496
422.344686	5470.214012
422.723444	5324.433925
423.102141	5142.723014
423.480777	5442.112100
423.859352	5210.004774
424.237866	5469.167972
424.616319	5459.516683
424.994712	5573.681174
425.373044	5447.117965
425.751314	5590.574080
426.129524	5393.217948
426.507673	5588.877732
426.885762	5667.519732
427.263789	5601.157983
427.641756	5483.217668
428.019662	5608.472697
428.397508	5611.736844
428.775292	5558.658535
429.153016	5658.559081
429.530679	5584.333132
429.908282	5670.226832
430.285824	5539.101379
430.663305	5813.819058
431.040726	5546.879879
431.418086	5548.417431
431.795385	5656.277959
432.172624	5669.316903
432.549802	5661.982025
432.926920	5673.080125
433.303977	5684.241239
433.680974	5722.284307
434.057910	5737.354836
434.434786	5747.177525
434.811601	5717.003698
435.188355	5948.130520
435.565050	5822.822559
435.941683	5805.995187
436.318257	6019.006622
436.694770	6003.865517
437.071222	6038.495723
437.447614	5967.917049
437.823946	5882.582917
438.200218	6038.094951
438.576429	5901.424229
438.952580	5997.296893
439.328670	6043.420930
439.704700	5953.375840
440.080670	5944.644562
440.456580	6210.835129
440.832429	6092.226861
441.208218	5937.899498
441.583947	6098.664415
441.959616	6097.880515
442.335224	6025.514752
442.710773	6162.278735
443.086261	6187.580286
443.461689	5980.885417
443.837057	6129.208766
444.212365	6289.318333
444.587612	6179.826992
444.962800	6333.070507
445.337927	6309.677032
445.712995	5922.158495
446.088002	6501.432443
446.462949	6334.005641
446.837837	6264.082317
447.212664	6437.767711
447.587431	6578.768784
447.962139	7122.013604
448.336786	8045.285808
448.711374	7787.697970
449.085901	6867.677311
449.460369	6782.338138
449.834776	6715.996553
450.209124	7111.427181
450.583412	7259.075016
450.957640	7406.105309
451.331808	7168.971952
451.705917	6721.561987
452.079965	6646.015255
452.453954	6854.464446
452.827883	6738.613690
453.201752	6830.468554
453.575562	6625.041535
453.949311	6834.483833
454.323001	6720.778088
454.696632	6796.886908
455.070202	6937.593073
455.443713	7088.018583
455.817164	7191.311826
456.190556	7274.569002
456.563888	7347.022986
456.937160	7395.539050
457.310373	7043.147273
457.683526	7072.126346
458.056619	6966.599873
458.429653	6950.198478
458.802628	6879.728189
459.175542	6994.520303
459.548398	7344.900660
459.921194	7508.183633
460.293930	7510.336206
460.666607	8042.707258
461.039224	8350.240328
461.411782	8474.403947
461.784280	8490.215526
462.156719	8382.891881
462.529099	8262.743541
462.901419	7855.894699
463.273680	7746.496619
463.645882	7761.806604
464.018024	7627.038917
464.390106	7791.214175
464.762130	8179.952671
465.134094	8652.283581
465.505999	9675.141258
465.877845	10898.770449
466.249631	11545.041331
466.621358	11158.397433
466.993026	10532.480210
467.364634	10275.956056
467.736184	9918.112270
468.107674	9586.530376
468.479105	9617.866188
468.850477	9373.748313
469.221790	9153.225559
469.593043	8818.114857
469.964238	8678.779885
470.335373	8690.732461
470.706449	8752.126153
471.077467	8732.732834
471.448425	10041.136589
471.819324	11118.544592
472.190164	11139.742644
472.560945	9885.427949
472.931667	9104.840564
473.302330	8961.412176
473.672934	8614.800081
474.043479	8971.789391
474.413965	8904.394205
474.784393	8795.318759
475.154761	8950.145197
475.525070	9041.173312
475.895321	8864.768215
476.265513	9041.916882
476.635645	9209.686482
477.005719	9209.895690
477.375734	9322.391559
477.745691	9564.911388
478.115588	9694.874855
478.485427	9944.480026
478.855207	10477.216561
479.224928	11291.088164
479.594591	11926.397057
479.964194	11729.650905
480.333739	11677.333810
480.703226	11588.178484
481.072653	11685.908813
481.442022	11917.426324
481.811333	12101.214190
482.180584	11909.862073
482.549777	11626.118208
482.918912	11451.036414
483.287988	11470.205402
483.657005	11480.645631
484.025964	11165.321458
484.394864	11289.207814
484.763706	11264.773341
485.132489	11016.846875
485.501213	10984.845630
485.869879	11055.825076
486.238487	10898.541076
486.607036	11008.826399
486.975527	10788.328850
487.343959	10984.323871
487.712333	11032.240038
488.080648	10958.853441
488.448905	10999.573361
488.817104	10944.382809
489.185244	11210.074302
489.553326	11364.436953
489.921350	11906.234963
490.289315	12970.354484
490.657222	13310.350064
491.025070	13213.055795
491.392861	13091.445520
491.760593	12708.128784
492.128267	12353.773478
492.495883	12034.802030
492.863440	11692.220338
493.230939	11353.411949
493.598380	11288.481888
493.965763	11162.836169
494.333088	11056.737525
494.700354	10978.760957
495.067563	11039.826974
495.434713	10869.869514
495.801805	10998.847435
496.168839	10924.923955
496.535815	10852.832934
496.902733	10856.891063
497.269593	10790.756166
497.636395	10889.603110
498.003139	10882.091791
498.369825	10741.614998
498.736453	10908.222612
499.103023	10830.901394
499.469535	10857.034736
499.835989	10854.078099
500.202385	10811.825668
500.568723	10663.802268
500.935003	10885.272759
501.301226	10695.241424
501.667390	10944.972624
502.033497	11046.632532
502.399546	10909.820658
502.765537	10811.649228
503.131470	10884.919878
503.497345	11057.763400
503.863163	10673.582106
504.228923	10976.315998
504.594625	11046.582121
504.960269	10796.525766
505.325856	11014.641370
505.691385	10809.040431
506.056856	10958.167844
506.422270	10984.326391
506.787625	10872.425379
507.152924	10992.767803
507.518164	10967.098248
507.883347	10889.403985
508.248472	10812.841461
508.613540	11053.284335
508.978550	10930.340675
509.343503	10901.427137
509.708398	11026.762824
510.073236	11143.639456
510.438016	11146.432255
510.802738	11087.493605
511.167403	11150.692030
511.532010	11038.811182
511.896561	11270.361460
512.261053	11345.746875
512.625488	11224.315561
512.989866	11205.910308
513.354186	11190.204594
513.718449	11088.176681
514.082655	11276.433530
514.446803	11181.246463
514.810894	11297.031685
515.174927	11162.231231
515.538904	11187.109325
515.902822	11341.577841
516.266684	11219.740714
516.630488	11165.850779
516.994235	11225.296066
517.357925	11285.981476
517.721558	11373.069929
518.085133	11386.623071
518.448651	11396.617158
518.812112	11281.981320
519.175516	11296.388938
519.538863	11419.168760
519.902152	11333.532159
520.265385	11499.978456
520.628560	11403.826008
520.991678	11380.561083
521.354739	11448.951897
521.717743	11380.190559
522.080690	11358.679955
522.443580	11500.706903
522.806413	11450.058430
523.169189	11486.238792
523.531908	11533.983560
523.894569	11364.628517
524.257174	11364.641120
524.619722	11482.679737
524.982213	11431.030595
525.344647	11480.078502
525.707025	11437.266503
526.069345	11522.525017
526.431608	11437.135433
526.793815	11555.650439
527.155964	11336.730771
527.518057	11394.724205
527.880093	11340.741009
528.242072	11408.904971
528.603995	11311.046092
528.965860	11238.138405
529.327669	11283.841506
529.689421	11235.907694
530.051117	11203.911491
530.412755	11308.752367
530.774337	11199.238341
531.135862	11181.745538
531.497331	11207.316790
531.858743	11058.554861
532.220098	11223.947557
532.581396	11098.483320
532.942638	11078.903478
533.303824	11038.725482
533.664953	11057.944881
534.026025	10967.698145
534.387040	11069.196737
534.747999	11072.599516
535.108902	11127.200253
535.469748	10887.606813
535.830537	10996.808288
536.191270	10969.883485
536.551947	10990.244706
536.912567	10989.438121
537.273131	10914.680330
537.633638	10897.371528
537.994089	10883.873839
538.354483	10829.081538
538.714821	10978.171142
539.075103	10987.744293
539.435328	10951.203490
539.795497	10779.453899
540.155609	10934.794534
540.515665	11022.467761
540.875665	10755.304251
541.235609	10827.758235
541.595496	10820.188943
541.955328	10979.469239
542.315102	10856.621361
542.674821	10812.433127
543.034483	10806.439195
543.394090	10814.885649
543.753640	10746.073899
544.113134	10965.233021
544.472571	10816.138375
544.831953	10963.924842
545.191278	10767.488720
545.550548	10793.574171
545.909761	10940.319639
546.268918	10906.228836
546.628019	10994.217135
546.987064	10852.679179
547.346053	10772.698753
547.704986	10871.434792
548.063863	10864.167969
548.422684	10851.741524
548.781449	10774.874011
549.140158	10879.372089
549.498811	10750.288303
549.857408	10614.567839
550.215949	10834.329379
550.574434	10689.880157
550.932864	10795.260437
551.291237	10846.667603
551.649555	10795.194902
552.007817	10811.578652
552.366022	10769.147260
552.724173	10765.442012
553.082267	10750.356359
553.440305	10885.812163
553.798288	10685.015443
554.156215	10840.711480
554.514086	10813.406070
554.871902	10665.181023
555.229661	10697.641013
555.587365	10677.410863
555.945014	10578.326984
556.302606	10698.445077
556.660143	10590.856772
557.017625	10742.658517
557.375050	10642.440378
557.732421	10776.174628
558.089735	10688.027533
558.446994	10694.364263
558.804197	10727.139325
559.161345	10732.598894
559.518437	10580.963507
559.875474	10668.568679
560.232455	10694.134891
560.589381	10645.611264
560.946251	10645.235698
561.303065	10746.961142
561.659825	10685.572491
562.016528	10622.651329
562.373177	10497.033337
562.729770	10603.232804
563.086307	10524.363952
563.442789	10625.093768
563.799216	10501.635910
564.155587	10549.720956
564.511904	10498.875879
564.868164	10485.978087
565.224370	10503.372588
565.580520	10428.826525
565.936615	10433.151835
566.292654	10309.260438
566.648638	10436.216857
567.004567	10397.654551
567.360441	10380.925482
567.716260	10285.836717
568.072023	10381.500173
568.427732	10334.309932
568.783385	10246.152754
569.138982	10312.834617
569.494525	10325.417337
569.850013	10203.224808
570.205445	10281.460996
570.560823	10177.799749
570.916145	10105.149160
571.271412	10169.020580
571.626625	10116.282549
571.981782	10082.852137
572.336884	10063.390762
572.691931	10067.748840
573.046923	10014.715902
573.401860	9974.469850
573.756743	9905.327904
574.111570	9948.699471
574.466342	9934.662378
574.821059	9963.187748
575.175722	9848.257002
575.530330	9862.036996
575.884882	9850.185243
576.239380	9775.709757
576.593823	9764.357078
576.948211	9774.575497
577.302544	9654.958998
577.656823	9672.030866
578.011047	9668.854939
578.365216	9646.220158
578.719330	9566.451460
579.073389	9581.708512
579.427394	9532.307725
579.781344	9507.787553
580.135239	9454.883164
580.489080	9466.704670
580.842866	9356.920942
581.196597	9375.447182
581.550273	9411.067975
581.903895	9378.494560
582.257463	9452.831414
582.610975	9321.252258
582.964434	9355.295170
583.317837	9270.971789
583.671186	9252.286753
584.024481	9251.086958
584.377721	9169.241305
584.730906	9142.341708
585.084037	9180.031895
585.437113	9109.604455
585.790135	9131.266293
586.143103	9024.398872
586.496016	9007.702571
586.848874	9062.225170
587.201679	9051.041371
587.554428	8942.336450
587.907124	8974.539340
588.259765	8946.508004
588.612352	8954.152914
588.964884	8830.490890
589.317362	8843.174433
589.669786	8837.992127
590.022155	8896.807269
590.374470	8908.154906
590.726731	8841.765430
591.078937	8697.704377
591.431090	8813.981111
591.783188	8683.137963
592.135232	8676.042539
592.487222	8675.561109
592.839157	8731.802742
593.191038	8666.474429
593.542866	8607.563505
593.894639	8501.510231
594.246358	8558.175321
594.598022	8572.499759
594.949633	8469.819017
595.301190	8452.439639
595.652692	8475.565933
596.004141	8584.948889
596.355535	8365.567956
596.706876	8342.129111
597.058162	8280.513608
597.409395	8348.682611
597.760573	8411.649143
598.111698	8328.843150
598.462768	8310.374883
598.813785	8277.062938
599.164748	8246.621931
599.515657	8230.533088
599.866511	8145.456055
600.217312	8274.912886
600.568060	8130.763612
600.918753	8231.957214
601.269392	8204.893780
601.619978	8110.286446
601.970510	8180.038371
602.320988	8173.482350
602.671412	8234.127431
603.021783	8169.005806
603.372100	8136.823079
603.722363	8145.299780
604.072572	8120.378836
604.422728	8128.358982
604.772830	8059.040596
605.122878	8063.378509
605.472872	8054.838794
605.822813	8089.650482
606.172701	8029.050772
606.522534	8108.753935
606.872314	8112.088658
607.222041	8076.856034
607.571714	8134.499108
607.921333	8092.705422
608.270899	8097.872604
608.620411	8185.230759
608.969870	8091.266172
609.319276	8088.198630
609.668627	8100.453675
610.017926	8133.695043
610.367171	8183.562137
610.716362	8163.460536
611.065500	8148.294225
611.414585	8178.488216
611.763616	8163.573962
612.112594	8147.165007
612.461518	8165.151843
612.810389	8223.896409
613.159207	8167.238881
613.507971	8109.578163
613.856682	8228.940084
614.205340	8185.936521
614.553945	8265.969879
614.902496	8163.689909
615.250994	8225.696101
615.599439	8199.688788
615.947830	8217.201757
616.296169	8183.998197
616.644454	8200.618881
616.992686	8200.560908
617.340864	8258.902182
617.688990	8156.624732
618.037063	8251.859690
618.385082	8199.585445
618.733048	8284.642313
619.080961	8222.905822
619.428821	8242.919203
619.776628	8247.317610
620.124382	8193.016821
620.472083	8175.854213
620.819731	8206.464099
621.167326	8098.946370
621.514868	8109.817618
621.862357	7996.011050
622.209793	8006.456320
622.557176	7946.842156
622.904506	7910.709685
623.251783	7846.409768
623.599007	7807.159344
623.946179	7806.370404
624.293297	7763.258456
624.640363	7685.118051
624.987376	7665.228178
625.334336	7612.953933
625.681243	7559.815131
626.028097	7548.565796
626.374899	7524.736262
626.721647	7521.701487
627.068343	7451.813451
627.414987	7420.865807
627.761577	7380.052626
628.108115	7420.686846
628.454600	7308.553941
628.801032	7358.186621
629.147412	7322.500293
629.493739	7311.860938
629.840014	7244.314517
630.186236	7302.368445
630.532405	7189.139088
630.878521	7239.379228
631.224585	7192.680499
631.570597	7116.952286
631.916556	7150.566700
632.262462	7146.067470
632.608316	7104.074658
632.954117	7086.382729
633.299866	7068.574853
633.645562	7064.990593
633.991206	6985.554611
634.336797	6929.996054
634.682336	6885.356637
635.027823	6857.146340
635.373257	6843.852818
635.718639	6781.145905
636.063968	6788.362317
636.409245	6684.819537
636.754470	6676.438619
637.099642	6636.729450
637.444762	6582.675678
637.789829	6590.101298
638.134845	6529.937647
638.479808	6519.603282
638.824719	6517.604464
639.169577	6446.645182
639.514383	6470.701569
639.859137	6402.998872
640.203839	6410.061529
640.548489	6390.383385
640.893086	6372.527618
641.237632	6336.997566
641.582125	6361.321133
641.926566	6333.919941
642.270955	6344.067784
642.615292	6338.751887
642.959576	6352.998188
643.303809	6346.943762
643.647990	6345.685994
643.992118	6343.248597
644.336195	6289.764475
644.680219	6310.017310
645.024192	6304.507329
645.368112	6398.895373
645.711981	6426.084837
646.055797	6498.004458
646.399562	6455.832685
646.743274	6581.768270
647.086935	6634.155941
647.430544	6625.744776
647.774101	6651.348796
648.117606	6655.671586
648.461059	6650.161604
648.804460	6614.349248
649.147810	6518.106059
649.491108	6491.652604
649.834354	6463.134797
650.177548	6380.628752
650.520690	6294.387213
650.863781	6276.884327
651.206820	6294.014167
651.549807	6214.144647
651.892742	6155.679865
652.235626	6160.922665
652.578458	6146.820037
652.921238	6057.042128
653.263967	6103.279591
653.606644	6033.089086
653.949269	6038.982194
654.291843	5981.639069
654.634365	6026.281007
654.976836	5984.913299
655.319255	5980.530016
655.661622	5955.089833
656.003938	5955.425069
656.346203	5914.011991
656.688416	5945.549449
657.030577	5901.346092
657.372687	5869.344847
657.714746	5858.319843
658.056753	5899.929527
658.398708	5839.183623
658.740612	5832.098282
659.082465	5882.918154
659.424266	5869.682604
659.766016	5868.936513
660.107715	5844.985992
660.449362	5860.641295
660.790958	5854.455799
661.132503	5841.101783
661.473996	5874.776690
661.815438	5869.559096
662.156829	5860.984093
662.498168	5859.723805
662.839456	5831.939485
663.180693	5864.434763
663.521879	5870.617738
663.863013	5858.813877
664.204097	5874.766608
664.545129	5918.458288
664.886110	5912.086270
665.227040	5945.085663
665.567918	5911.665333
665.908746	5939.986536
666.249522	5942.933090
666.590248	5931.000679
666.930922	5957.741480
667.271545	5968.673222
667.612118	5975.191434
667.952639	5949.920129
668.293109	5964.882274
668.633528	5923.126397
668.973896	5927.146717
669.314213	5917.971817
669.654480	5902.984467
669.994695	5893.330657
670.334859	5887.969390
670.674973	5874.161669
671.015035	5882.381271
671.355047	5877.209047
671.695008	5862.778744
672.034918	5841.053892
672.374777	5850.705181
672.714585	5833.028375
673.054342	5841.510116
673.394049	5833.398899
673.733705	5863.376121
674.073310	5854.788515
674.412864	5811.986598
674.752368	5802.352953
675.091820	5806.234642
675.431223	5742.733748
675.770574	5741.687708
676.109875	5691.815573
676.449125	5701.804619
676.788324	5663.466644
677.127473	5610.882369
677.466571	5601.689825
677.805619	5592.562816
678.144616	5578.538326
678.483562	5558.648453
678.822458	5524.663514
679.161303	5520.249984
679.500098	5506.643910
679.838842	5491.739739
680.177535	5497.274926
680.516179	5514.505589
680.854771	5524.298031
681.193314	5605.057315
681.531805	5713.825251
681.870247	5872.089755
682.208638	5965.837573
682.546978	5981.568493
682.885268	5954.699143
683.223508	5870.857193
683.561697	5819.094625
683.899836	5786.453154
684.237925	5739.330969
684.575963	5704.809147
684.913951	5663.038146
685.251889	5727.017950
685.589776	5692.113001
685.927614	5669.211039
686.265401	5734.317541
686.603137	5725.477878
686.940824	5802.171472
687.278460	5816.725283
687.616046	5830.621224
687.953582	5899.881636
688.291068	5879.253235
688.628504	5948.196055
688.965889	5904.867338
689.303224	5848.850036
689.640510	5801.324558
689.977745	5729.757817
690.314930	5629.456500
690.652065	5573.131688
690.989150	5478.426051
691.326185	5407.300412
691.663170	5355.013564
692.000105	5272.469711
692.336990	5194.573802
692.673825	5169.554555
693.010610	5107.538281
693.347345	5034.960789
693.684030	5021.740363
694.020665	4977.814269
694.357251	4888.210280
694.693786	4895.378800
695.030272	4864.678173
695.366707	4830.219366
695.703093	4798.087052
696.039429	4820.925999
696.375716	4799.707783
696.711952	4772.142753
697.048139	4760.227986
697.384276	4740.786777
697.720363	4752.968725
698.056400	4759.343264
698.392388	4712.672262
698.728326	4694.259447
699.064214	4668.998225
699.400053	4662.936238
699.735842	4631.050940
700.071581	4605.068833
700.407270	4579.676541
700.742910	4561.029313
701.078501	4507.071322
701.414042	4505.516127
701.749533	4477.278103
702.084974	4409.416611
702.420366	4467.387359
702.755709	4409.267897
703.091002	4355.483826
703.426246	4403.195827
703.761440	4360.968602
704.096584	4321.506449
704.431679	4345.013350
704.766725	4327.891071
705.101721	4316.419925
705.436668	4343.596786
705.771565	4289.784989
706.106413	4321.075431
706.441212	4353.432077
706.775961	4360.305690
707.110661	4341.141744
707.445311	4367.814489
707.779913	4390.255185
708.114465	4405.529881
708.448967	4429.170372
708.783421	4489.449969
709.117825	4527.866082
709.452180	4534.379253
709.786485	4582.502108
710.120742	4664.594777
710.454949	4652.039784
710.789107	4716.158219
711.123216	4791.536072
711.457275	4779.906130
711.791286	4857.537379
712.125247	4876.043455
712.459159	4775.888331
712.793023	4851.707285
713.126837	4810.647087
713.460602	4801.318431
713.794318	4719.351790
714.127985	4730.643975
714.461602	4644.402436
714.795171	4619.204228
715.128691	4552.298034
715.462162	4492.981298
715.795584	4441.775777
716.128957	4429.490485
716.462281	4374.771281
716.795556	4352.940564
717.128782	4308.021363
717.461960	4241.311774
717.795088	4252.293928
718.128167	4210.291034
718.461198	4149.202332
718.794180	4145.297958
719.127113	4129.516626
719.459997	4105.422431
719.792833	4065.383067
720.125619	4051.477044
720.458357	4020.630223
720.791046	4023.538969
721.123686	3992.563599
721.456278	3953.847538
721.788821	3970.967296
722.121315	3945.418728
722.453761	3919.799585
722.786158	3931.328703
723.118506	3956.902477
723.450805	3908.416659
723.783056	3930.396090
724.115259	3939.697019
724.447412	3947.639357
724.779518	3941.889921
725.111574	3946.341260
725.443582	3976.368892
725.775542	3959.370122
726.107453	4013.043287
726.439315	4011.805683
726.771129	4025.469731
727.102895	4061.236717
727.434612	4108.573152
727.766281	4120.472796
728.097901	4120.929020
728.429473	4127.739619
728.760996	4133.209271
729.092471	4133.128613
729.423897	4111.595324
729.755276	4120.689565
730.086606	4119.565388
730.417887	4158.291532
730.749120	4224.975915
731.080305	4287.723157
731.411442	4316.563598
731.742530	4286.974546
732.073570	4288.106285
732.404562	4343.881611
732.735506	4336.909695
733.066401	4296.124240
733.397249	4231.526894
733.728048	4153.928413
734.058798	4070.797266
734.389501	3999.217922
734.720156	3936.110238
735.050762	3890.936458
735.381320	3886.633833
735.711831	3838.243798
736.042293	3803.905978
736.372707	3827.798527
736.703073	3799.782314
737.033391	3789.916776
737.363661	3809.799087
737.693883	3833.626101
738.024056	3843.380733
738.354182	3839.730938
738.684260	3903.299888
739.014290	3921.344698
739.344272	3918.453597
739.674207	3958.636634
740.004093	3964.683498
740.333931	3961.215184
740.663722	3960.872386
740.993464	3959.627221
741.323159	3935.263324
741.652806	3904.653438
741.982405	3874.313253
742.311956	3844.925847
742.641460	3840.235053
742.970915	3815.404850
743.300323	3771.624950
743.629683	3739.134713
743.958996	3727.577868
744.288260	3705.217830
744.617477	3668.813137
744.946647	3658.695542
745.275768	3630.334010
745.604842	3628.867034
745.933869	3580.666042
746.262847	3569.588106
746.591778	3606.431379
746.920662	3578.271494
747.249498	3550.777041
747.578286	3594.410748
747.907027	3614.560240
748.235720	3612.939509
748.564365	3633.109165
748.892963	3632.559680
749.221514	3618.512504
749.550017	3595.038372
749.878473	3594.062908
750.206881	3562.590985
750.535242	3557.393555
750.863555	3561.615522
751.191821	3555.137639
751.520039	3536.525699
751.848210	3514.195908
752.176334	3548.710168
752.504411	3551.384500
752.832440	3512.071062
753.160421	3497.701253
753.488356	3504.675689
753.816243	3519.166486
754.144082	3475.971359
754.471875	3463.078608
754.799620	3479.820280
755.127318	3471.451964
755.454969	3469.362406
755.782572	3476.775423
756.110129	3453.465128
756.437638	3443.876853
756.765100	3455.025365
757.092515	3465.256386
757.419882	3471.983806
757.747203	3447.299796
758.074477	3446.044549
758.401703	3461.672126
758.728882	3485.103409
759.056014	3492.004749
759.383099	3495.722600
759.710138	3493.370901
760.037129	3511.256915
760.364073	3538.705998
760.690970	3524.000952
761.017820	3502.853312
761.344623	3520.482227
761.671379	3567.919484
761.998088	3615.656691
762.324751	3748.841455
762.651366	3994.557376
762.977935	4469.562617
763.304456	4919.162964
763.630931	5009.810472
763.957359	4651.334022
764.283740	4306.955159
764.610074	4114.269656
764.936362	3913.314140
765.262602	3752.433277
765.588796	3642.896566
765.914943	3553.695869
766.241044	3460.414358
766.567097	3433.729010
766.893104	3386.274108
767.219064	3357.882330
767.544978	3329.351920
767.870845	3271.542488
768.196665	3254.170672
768.522438	3264.802465
768.848165	3257.391969
769.173846	3217.367728
769.499479	3204.742158
769.825066	3187.032585
770.150607	3171.470543
770.476101	3184.569981
770.801548	3182.666946
771.126949	3136.981489
771.452303	3117.862913
771.777611	3124.723923
772.102872	3131.952938
772.428087	3108.138527
772.753256	3094.330807
773.078378	3085.763366
773.403453	3051.864127
773.728482	3041.423897
774.053465	3061.618760
774.378401	3051.213818
774.703291	3018.733664
775.028135	3020.266175
775.352932	3015.093951
775.677683	3001.192969
776.002388	2997.994357
776.327046	3001.934019
776.651658	2991.481186
776.976224	2977.925523
777.300743	2980.156234
777.625216	2970.850264
777.949643	2965.488997
778.274024	2968.395222
778.598359	2956.664457
778.922647	2961.486321
779.246889	2960.465487
779.571086	2946.801440
779.895236	2940.888166
780.219339	2949.576595
780.543397	2962.595375
780.867409	2966.900520
781.191374	2955.414251
781.515294	2957.246710
781.839167	2955.003397
782.162995	2947.567695
782.486776	2955.900722
782.810511	2951.925773
783.134201	2937.510593
783.457844	2947.116512
783.781441	2936.676282
784.104993	2919.049888
784.428498	2918.465114
784.751958	2933.707043
785.075372	2924.847215
785.398739	2911.846079
785.722061	2927.423244
786.045337	2938.181067
786.368568	2924.181782
786.691752	2914.747263
787.014891	2963.638893
787.337983	2993.119561
787.661030	3021.097965
787.984031	3089.884509
788.306987	3133.374543
788.629897	3128.524953
788.952760	3110.956532
789.275579	3096.526229
789.598351	3036.523896
789.921078	2992.355826
790.243759	2981.655977
790.566395	2965.118472
790.888984	2943.307920
791.211529	2923.859148
791.534027	2916.476379
791.856480	2902.837537
792.178888	2889.972512
792.501249	2878.619834
792.823566	2876.293341
793.145836	2875.060779
793.468062	2871.058103
793.790241	2869.250849
794.112375	2877.243599
794.434464	2888.601318
794.756507	2893.493758
795.078505	2899.928791
795.400457	2914.492685
795.722364	2948.777572
796.044226	2973.086016
796.366042	2978.558188
796.687812	2968.110397
797.009538	2981.749239
797.331218	2970.779688
797.652852	2960.873821
797.974442	2940.507559
798.295986	2936.361210
798.617484	2931.556990
798.938938	2917.003179
799.260346	2900.604306
799.581709	2894.224726
799.903026	2889.420506
800.224299	2884.477655
800.545526	2871.632795
800.866708	2857.784745
801.187845	2847.586491
801.508936	2848.191429
801.829983	2857.255424
802.150984	2841.108608
802.471940	2830.330621
802.792851	2831.225426
803.113717	2831.248111
803.434538	2833.907320
803.755314	2829.488748
804.076045	2821.944662
804.396731	2822.027841
804.717372	2823.220074
805.037967	2815.640699
805.358518	2820.281081
805.679024	2833.801456
805.999485	2829.813903
806.319901	2832.770540
806.640272	2828.987154
806.960598	2829.208964
807.280879	2840.992662
807.601115	2847.336954
807.921306	2833.836744
808.241453	2830.466732
808.561554	2838.164574
808.881611	2839.344204
809.201623	2834.116528
809.521590	2832.578976
809.841513	2827.016062
810.161390	2831.671568
810.481223	2825.196206
810.801011	2816.444763
811.120755	2811.827066
811.440453	2815.209680
811.760107	2815.764207
812.079716	2815.194557
812.399281	2803.962866
812.718801	2796.741413
813.038276	2794.369550
813.357707	2796.436423
813.677093	2806.168371
813.996434	2801.505303
814.315731	2796.943059
814.634983	2790.510547
814.954191	2789.275464
815.273354	2808.759524
815.592473	2813.072231
815.911547	2815.441573
816.230577	2822.743685
816.549562	2831.873214
816.868502	2832.450426
817.187399	2841.824452
817.506250	2862.646938
817.825058	2853.867768
818.143821	2866.594161
818.462539	2885.556462
818.781213	2911.044535
819.099843	2946.030143
819.418429	3003.700943
819.736970	3068.210068
820.055466	3141.959628
820.373919	3248.327975
820.692327	3388.986249
821.010691	3561.834812
821.329011	4013.093698
821.647286	4917.796812
821.965517	6321.576676
822.283704	7082.009528
822.601847	7062.477577
822.919945	6422.926554
823.237999	5906.472945
823.556010	5314.074354
823.873976	4756.787399
824.191897	4335.009180
824.509775	4036.459446
824.827609	3763.803599
825.145398	3641.777429
825.463144	3625.837301
825.780845	3716.348698
826.098502	3822.593536
826.416116	4110.829068
826.733685	4430.082821
827.051210	4497.228470
827.368692	4383.096747
827.686129	4112.701857
828.003522	3779.098460
828.320872	3518.909387
828.638177	3321.621310
828.955439	3178.807942
829.272656	3096.364912
829.589830	3023.994108
829.906960	2974.706747
830.224046	2928.975920
830.541088	2892.987122
830.858086	2880.003631
831.175041	2863.582072
831.491952	2865.719521
831.808819	2878.471120
832.125642	2900.758061
832.442421	2947.633230
832.759157	3033.068185
833.075849	3210.680638
833.392497	3490.870489
833.709101	3701.363868
834.025662	3651.506856
834.342179	3492.476097
834.658653	3309.996410
834.975083	3156.576454
835.291469	3061.041548
835.607811	2973.965697
835.924110	2915.359763
836.240366	2864.847402
836.556578	2818.567089
836.872746	2795.823923
837.188871	2773.574791
837.504952	2756.485279
837.820990	2749.430184
838.136984	2735.965262
838.452935	2726.003942
838.768842	2726.195506
839.084706	2741.971797
839.400526	2825.743171
839.716303	2960.427678
840.032037	3040.972714
840.347727	3026.181969
840.663373	2963.961527
840.978977	2886.542007
841.294537	2813.107519
841.610054	2764.450302
841.925527	2742.695203
842.240957	2718.777448
842.556344	2697.423121
842.871687	2682.733198
843.186987	2670.644511
843.502244	2667.123265
843.817458	2662.717297
844.132629	2648.992756
844.447756	2643.545789
844.762840	2635.157309
845.077881	2638.844913
845.392879	2635.996661
845.707833	2632.329222
846.022745	2621.377315
846.337613	2628.306381
846.652438	2624.908643
846.967221	2627.615743
847.281960	2625.642131
847.596656	2622.569548
847.911309	2621.319342
848.225919	2619.559979
848.540485	2616.336161
848.855009	2614.637292
849.169490	2615.763990
849.483928	2615.975718
849.798323	2614.652416
850.112675	2616.076542
850.426984	2617.077211
850.741251	2611.728546
851.055474	2613.142590
851.369654	2616.429422
851.683792	2616.777262
851.997887	2614.039915
852.311938	2612.232662
852.625947	2614.609566
852.939914	2615.164093
853.253837	2615.756428
853.567718	2614.982611
853.881555	2612.288114
854.195350	2614.395317
854.509103	2615.784155
854.822812	2613.969339
855.136479	2612.293156
855.450103	2615.206942
855.763685	2617.026799
856.077224	2613.883640
856.390720	2610.110336
856.704173	2615.295163
857.017584	2617.740122
857.330953	2617.193157
857.644278	2622.851852
857.957561	2620.926132
858.270802	2616.759618
858.584000	2620.056532
858.897155	2620.059053
859.210268	2623.222377
859.523339	2614.942282
859.836367	2611.443721
860.149352	2610.737960
860.462295	2612.043618
860.775195	2608.875253
861.088054	2611.680655
861.400869	2608.555140
861.713642	2607.070520
862.026373	2608.560181
862.339062	2611.017744
862.651708	2617.394803
862.964312	2619.199536
863.276873	2614.745677
863.589392	2618.171141
863.901869	2623.850001
864.214303	2626.899899
864.526696	2629.717904
864.839045	2631.431896
865.151353	2636.457927
865.463619	2634.811990
865.775842	2637.274593
866.088023	2633.327370
866.400162	2635.447175
866.712258	2632.908954
867.024313	2633.092956
867.336325	2629.586834
867.648296	2631.888121
867.960224	2639.669142
868.272110	2636.609161
868.583954	2628.261010
868.895755	2631.205044
869.207515	2635.472381
869.519233	2642.527476
869.830909	2641.284831
870.142542	2633.193779
870.454134	2635.202679
870.765684	2641.955305
871.077191	2639.195273
871.388657	2645.600059
871.700081	2643.465130
872.011463	2644.034781
872.322803	2645.000162
872.634101	2649.796820
872.945357	2655.619352
873.256571	2662.208140
873.567744	2659.309477
873.878874	2661.555311
874.189963	2659.317039
874.501010	2662.558501
874.812015	2665.936074
875.122979	2666.115035
875.433900	2659.705207
875.744780	2660.342913
876.055618	2665.053872
876.366415	2670.198369
876.677169	2669.112001
876.987882	2664.562359
877.298554	2663.846515
877.609183	2674.503515
877.919771	2679.264884
878.230317	2688.081862
878.540822	2699.202648
878.851285	2714.172354
879.161707	2736.439131
879.472087	2777.559823
879.782425	2830.381033
880.092722	2943.451593
880.402977	3137.891417
880.713191	3403.910585
881.023363	3708.159343
881.333494	3903.035227
881.643583	4074.119386
881.953631	4076.435796
882.263637	3894.704721
882.573602	3671.500072
882.883526	3537.304557
883.193408	3417.970363
883.503248	3314.379693
883.813048	3195.010211
884.122806	3080.271029
884.432522	2991.700476
884.742197	2926.483069
885.051831	2884.328941
885.361424	2848.743436
885.670975	2814.191367
885.980485	2782.805143
886.289954	2762.242277
886.599382	2746.818867
886.908768	2737.817886
887.218113	2715.246120
887.527417	2699.958821
887.836680	2694.673171
888.145901	2688.923735
888.455082	2680.600790
888.764221	2669.396826
889.073319	2660.778973
889.382376	2658.127326
889.691392	2661.840136
890.000366	2663.400373
890.309300	2661.799807
890.618193	2662.404745
890.927044	2663.062616
891.235855	2664.204437
891.544625	2664.940446
891.853353	2662.941628
892.162041	2671.171312
892.470687	2691.320804
892.779293	2705.557022
893.087858	2714.237889
893.396381	2738.448031
893.704864	2778.810029
894.013306	2851.410206
894.321707	2947.640792
894.630068	3001.903772
894.938387	3022.275074
895.246665	3016.833149
895.554903	2971.114925
895.863100	2921.197419
896.171256	2865.911085
896.479371	2801.117135
896.787446	2763.610950
897.095480	2742.012126
897.403473	2735.047772
897.711425	2720.398179
898.019336	2701.216589
898.327207	2687.852490
898.635038	2685.079855
898.942827	2682.342509
899.250576	2672.119049
899.558284	2661.953562
899.865952	2656.027686
900.173579	2656.342758
900.481165	2651.939310
900.788711	2643.543268
901.096216	2636.004223
901.403681	2633.274438
901.711105	2633.972638
902.018489	2631.268059
902.325832	2634.932977
902.633135	2636.031949
902.940397	2655.195895
903.247619	2693.251566
903.554800	2765.622370
903.861941	2895.847977
904.169041	3027.832947
904.476101	3091.049016
904.783121	3085.612131
905.090100	3028.226157
905.397039	2948.873354
905.703938	2871.763865
906.010796	2807.302630
906.317614	2752.094434
906.624391	2716.425750
906.931129	2687.698735
907.237826	2660.950372
907.544483	2643.583597
907.851099	2628.485342
908.157675	2619.829681
908.464211	2615.302724
908.770707	2603.375354
909.077163	2599.627257
909.383578	2593.983685
909.689954	2589.865062
909.996289	2591.458067
910.302584	2588.957654
910.608839	2587.551172
910.915054	2586.424475
911.221229	2590.371698
911.527363	2594.344127
911.833458	2592.856987
912.139513	2593.451843
912.445527	2592.456215
912.751502	2599.813779
913.057436	2604.993565
913.363331	2611.075717
913.669186	2620.580812
913.975000	2637.093112
914.280775	2655.510967
914.586510	2674.049811
914.892205	2711.329143
915.197859	2780.453445
915.503475	2869.323946
915.809050	2937.064451
916.114585	2952.997018
916.420081	2968.095273
916.725536	2978.507777
917.030952	2950.884774
917.336328	2902.051117
917.641665	2850.739732
917.946961	2799.541774
918.252218	2762.484252
918.557435	2734.568863
918.862612	2712.730584
919.167750	2694.075794
919.472848	2680.416788
919.777906	2662.361896
920.082925	2647.606438
920.387904	2640.342136
920.692843	2634.554891
920.997743	2630.406021
921.302603	2620.202726
921.607423	2610.949688
921.912204	2607.695623
922.216946	2603.806373
922.521647	2603.067844
922.826310	2596.678182
923.130932	2594.727255
923.435516	2589.111410
923.740059	2587.508323
924.044564	2584.387848
924.349028	2583.813157
924.653454	2572.150447
924.957840	2571.036352
925.262186	2569.413101
925.566493	2568.273800
925.870761	2564.717266
926.174989	2568.422514
926.479178	2565.511248
926.783328	2564.429920
927.087438	2562.390774
927.391509	2562.630228
927.695541	2557.941955
927.999533	2557.473128
928.303486	2556.588406
928.607400	2557.805844
928.911275	2555.071018
929.215110	2556.739640
929.518906	2554.647561
929.822663	2557.452963
930.126381	2555.877603
930.430060	2557.392470
930.733699	2554.992880
931.037299	2555.683518
931.340861	2559.330793
931.644383	2559.698797
931.947866	2556.764846
932.251309	2557.634445
932.554714	2552.116902
932.858080	2556.185113
933.161407	2554.760987
933.464694	2557.316852
933.767943	2553.120092
934.071153	2554.158569
934.374323	2554.861810
934.677455	2554.208981
934.980548	2551.748898
935.283602	2555.774259
935.586617	2551.365770
935.889593	2557.407593
936.192530	2551.612787
936.495428	2554.163611
936.798287	2554.221584
937.101108	2554.450956
937.403890	2557.377346
937.706632	2561.266596
938.009336	2562.431103
938.312002	2570.128945
938.614628	2573.299831
938.917216	2576.168247
939.219765	2579.044225
939.522275	2580.047415
939.824747	2573.322516
940.127179	2572.079871
940.429573	2569.098029
940.731929	2571.041394
941.034246	2566.537123
941.336524	2568.488049
941.638763	2568.452761
941.940964	2568.735066
942.243126	2564.177863
942.545250	2563.555280
942.847335	2563.918243
943.149381	2559.933211
943.451389	2560.482697
943.753359	2558.390618
944.055290	2558.201575
944.357182	2557.384908
944.659036	2558.098231
944.960851	2556.785011
945.262628	2555.819630
945.564367	2557.185782
945.866067	2559.673592
946.167729	2557.989846
946.469352	2559.698797
946.770937	2556.941286
947.072484	2554.599670
947.373992	2557.863818
947.675462	2554.692932
947.976893	2555.239897
948.278286	2553.861141
948.579641	2553.903991
948.880958	2552.810061
949.182236	2552.757129
949.483476	2552.021120
949.784678	2554.967675
950.085841	2553.311656
950.386967	2553.790565
950.688054	2553.205791
950.989103	2555.086142
951.290114	2556.913560
951.591087	2555.159238
951.892021	2556.008673
952.192917	2558.536812
952.493776	2560.049158
952.794596	2560.026472
953.095378	2565.102914
953.396122	2562.352965
953.696828	2560.480176
953.997496	2556.918601
954.298126	2556.343910
954.598718	2556.132181
954.899272	2555.164280
955.199788	2552.822664
955.500266	2549.729916
955.800706	2547.663043
956.101108	2543.698175
956.401472	2543.806560
956.701798	2541.543082
957.002087	2543.730943
957.302337	2544.101468
957.602550	2546.261602
957.902724	2543.678011
958.202861	2543.269677
958.502960	2541.084337
958.803022	2543.640202
959.103045	2541.653987
959.403031	2540.232382
959.702979	2539.267001
960.002889	2541.099460
960.302762	2537.837834
960.602596	2542.594162
960.902393	2539.803884
961.202153	2535.778523
961.501875	2541.507794
961.801559	2540.860006
962.101205	2536.643080
962.400814	2538.740200
962.700385	2537.066537
962.999918	2538.513348
963.299414	2535.413039
963.598873	2537.290869
963.898293	2537.865560
964.197677	2538.503266
964.497022	2538.934285
964.796331	2537.021167
965.095601	2537.046373
965.394835	2536.806918
965.694030	2535.788605
965.993189	2535.407998
966.292309	2532.315250
966.591393	2538.725077
966.890439	2535.307175
967.189447	2538.387320
967.488419	2535.483615
967.787353	2537.558050
968.086249	2536.741383
968.385108	2536.973276
968.683930	2537.064017
968.982714	2538.473019
969.281462	2538.047042
969.580172	2536.890097
969.878844	2532.489170
970.177480	2536.882535
970.476078	2537.673996
970.774639	2539.203987
971.073162	2539.113246
971.371649	2533.646114
971.670098	2535.468492
971.968510	2535.891948
972.266885	2532.370703
972.565223	2540.302958
972.863524	2539.571991
973.161788	2540.018133
973.460014	2538.629295
973.758204	2538.888914
974.056356	2538.750283
974.354471	2538.248688
974.652550	2537.815149
974.950591	2539.801363
975.248595	2535.902031
975.546563	2538.258770
975.844493	2537.384130
976.142386	2537.966383
976.440243	2537.837834
976.738062	2537.968904
977.035845	2535.128214
977.333590	2535.125693
977.631299	2534.765251
977.928971	2536.774150
978.226606	2532.968079
978.524204	2535.705426
978.821765	2535.629808
979.119290	2537.414377
979.416777	2535.725590
979.714228	2535.876825
980.011642	2533.436907
980.309020	2535.899510
980.606360	2536.010416
980.903664	2533.404139
981.200931	2536.895138
981.498162	2535.677699
981.795356	2540.849923
982.092513	2542.924358
982.389633	2543.173895
982.686717	2549.233362
982.983764	2547.877292
983.280775	2552.119423
983.577749	2553.909032
983.874686	2550.324772
984.171587	2546.858979
984.468451	2547.005172
984.765279	2541.371683
985.062070	2543.103319
985.358824	2540.620551
985.655543	2538.639377
985.952224	2538.372196
986.248869	2539.072917
986.545478	2531.541433
986.842050	2533.555374
987.138586	2532.143851
987.435086	2530.505476
987.731549	2527.863911
988.027975	2533.638553
988.324366	2533.850281
988.620719	2536.396064
988.917037	2532.005219
989.213318	2535.236598
989.509563	2532.617719
989.805772	2534.467823
990.101944	2531.357431
990.398080	2532.572349
990.694180	2532.935312
990.990244	2532.582431
991.286271	2531.576721
991.582262	2532.227030
991.878217	2531.256608
992.174136	2533.230219
992.470019	2529.865249
992.765865	2533.814993
993.061676	2533.930940
993.357450	2533.101670
993.653188	2532.002698
993.948890	2532.809283
994.244556	2530.628984
994.540186	2535.203831
994.835780	2534.709798
995.131337	2535.657535
995.426859	2534.682072
995.722345	2535.881866
996.017795	2538.273894
996.313208	2536.534696
996.608586	2536.217103
996.903928	2534.404808
997.199234	2534.803059
997.494504	2536.859850
997.789738	2537.910931
998.084936	2535.944881
998.380099	2534.858512
998.675225	2534.046886
998.970316	2534.598892
999.265371	2533.021011
999.560390	2532.156453
999.855373	2531.591844
1000.150320	2534.014119
1000.445232	2533.681402
1000.740108	2531.453212
1001.034948	2534.752648
1001.329752	2530.598737
1001.624521	2533.454551
1001.919254	2526.291071
1002.213951	2528.544467
1002.508613	2526.772501
1002.803239	2529.159487
1003.097829	2526.044054
1003.392384	2530.949097
1003.686903	2530.646628
1003.981386	2532.784077
1004.275834	2531.548994
1004.570246	2533.636032
1004.864623	2531.496062
1005.158964	2532.910106
1005.453270	2530.926412
1005.747540	2533.232740
1006.041775	2527.997502
1006.335974	2532.501773
1006.630138	2530.795342
1006.924266	2528.730989
1007.218359	2531.695188
1007.512416	2530.576052
1007.806438	2531.695188
1008.100425	2532.620240
1008.394376	2529.552698
1008.688292	2528.342821
1008.982172	2531.498583
1009.276017	2531.319622
1009.569827	2531.032276
1009.863602	2530.858356
1010.157341	2529.651000
1010.451045	2532.156453
1010.744714	2529.136802
1011.038347	2531.173428
1011.331945	2529.275434
1011.625508	2529.882893
1011.919036	2531.695188
1012.212528	2529.749302
1012.505986	2530.213089
1012.799408	2531.312060
1013.092795	2531.473377
1013.386147	2529.940866
1013.679464	2531.062523
1013.972745	2529.572862
1014.265992	2528.698222
1014.559204	2530.243336
1014.852380	2531.097811
1015.145521	2532.035466
1015.438628	2526.593540
1015.731699	2531.054961
1016.024736	2530.374406
1016.317737	2530.210568
1016.610703	2530.518078
1016.903635	2529.041020
1017.196531	2523.962058
1017.489393	2527.377440
1017.782219	2524.244363
1018.075011	2527.327028
1018.367768	2529.119158
1018.660490	2527.589168
1018.953177	2527.589168
1019.245829	2527.589168
