Dividing Wavelength (nm)	Counts (n)	Blue Motor Position (mm): 36.900000	Red Motor Position (mm): 0.000000	
326.493990	2129.451440
326.888308	2129.451440
327.282561	2129.451440
327.676750	2096.593199
328.070874	2093.709659
328.464933	2096.699064
328.858929	2103.701226
329.252859	2115.396703
329.646726	2124.833743
330.040528	2140.909983
330.434265	2153.306180
330.827938	2172.449962
331.221547	2191.437468
331.615091	2209.051259
332.008571	2230.939949
332.401986	2248.551220
332.795338	2267.687440
333.188625	2287.370626
333.581847	2305.977524
333.975006	2326.668940
334.368100	2343.834069
334.761129	2359.953159
335.154095	2377.327495
335.546996	2396.766185
335.939833	2423.824578
336.332606	2440.241095
336.725315	2452.881789
337.117960	2459.896554
337.510540	2468.093470
337.903056	2479.940182
338.295508	2488.162304
338.687896	2495.618170
339.080220	2503.961280
339.472480	2509.740963
339.864676	2515.908815
340.256807	2518.207581
340.648875	2523.205885
341.040879	2524.088087
341.432818	2527.435413
341.824694	2527.261493
342.216506	2528.635208
342.608253	2531.067564
342.999937	2529.376257
343.391557	2528.315094
343.783113	2524.806451
344.174605	2524.982892
344.566033	2522.185051
344.957397	2523.238652
345.348697	2521.038189
345.739934	2518.557941
346.131106	2519.694721
346.522215	2517.090965
346.913260	2515.994514
347.304241	2516.034843
347.695159	2509.940088
348.086012	2509.125942
348.476802	2506.819614
348.867528	2505.821466
349.258191	2502.700992
349.648789	2506.353308
350.039324	2501.362565
350.429796	2501.039931
350.820203	2499.146978
351.210548	2498.998264
351.600828	2497.173366
351.991045	2498.776453
352.381198	2496.651607
352.771288	2494.365444
353.161314	2496.475167
353.551276	2496.671772
353.941175	2495.056082
354.331010	2494.526761
354.720782	2492.875783
355.110490	2496.086998
355.500135	2493.150526
355.889717	2492.386791
356.279235	2494.652789
356.668689	2495.172028
357.058080	2496.767553
357.447408	2495.300578
357.836672	2493.730258
358.225873	2494.557008
358.615010	2492.903509
359.004084	2496.326453
359.393095	2497.611947
359.782043	2498.945332
360.170927	2502.287617
360.559748	2501.972545
360.948505	2501.715446
361.337199	2499.777122
361.725830	2502.330467
362.114398	2503.205107
362.502903	2501.213851
362.891344	2501.760816
363.279722	2502.312823
363.668037	2504.634274
364.056289	2505.251815
364.444478	2503.583193
364.832603	2504.215858
365.220665	2509.173833
365.608665	2506.743997
365.996601	2507.921106
366.384474	2510.368587
366.772284	2508.238699
367.160031	2507.553102
367.547715	2505.624861
367.935336	2508.261384
368.322893	2508.989831
368.710388	2510.789523
369.097820	2509.803977
369.485189	2507.169974
369.872495	2510.630727
370.259738	2510.020747
370.646918	2510.971004
371.034035	2508.820952
371.421090	2511.694410
371.808081	2511.109636
372.195010	2513.042919
372.581875	2510.290449
372.968678	2513.151303
373.355418	2513.025275
373.742096	2512.264060
374.128710	2514.396468
374.515262	2515.354288
374.901751	2514.431757
375.288177	2514.716582
375.674540	2515.066942
376.060841	2512.894205
376.447079	2516.506191
376.833254	2515.666839
377.219367	2512.775737
377.605417	2516.745646
377.991404	2510.318175
378.377329	2512.725326
378.763191	2513.736077
379.148991	2517.950482
379.534727	2518.429392
379.920402	2517.017868
380.306013	2517.227076
380.691563	2518.215142
381.077049	2517.237159
381.462474	2519.790503
381.847835	2518.583147
382.233134	2520.372756
382.618371	2519.724968
383.003545	2522.971471
383.388657	2519.306552
383.773706	2521.355781
384.158693	2520.808816
384.543618	2521.791841
384.928480	2522.754702
385.313280	2521.131450
385.698017	2523.498272
386.082692	2525.963396
386.467305	2522.789990
386.851856	2524.196472
387.236344	2526.172604
387.620770	2528.330218
388.005133	2526.447347
388.389435	2526.162522
388.773674	2525.212264
389.157851	2526.885927
389.541965	2527.642100
389.926018	2526.855680
390.310008	2525.386184
390.693936	2529.726617
391.077802	2532.791639
391.461606	2527.082532
391.845348	2528.095804
392.229027	2530.697039
392.612645	2533.381454
392.996200	2529.338448
393.379694	2531.574200
393.763125	2532.680733
394.146494	2531.659900
394.529801	2533.323481
394.913047	2532.423635
395.296230	2536.075951
395.679351	2534.573687
396.062410	2538.210879
396.445408	2538.924202
396.828343	2540.660880
397.211217	2542.241282
397.594028	2545.172713
397.976778	2553.230997
398.359466	2552.522715
398.742092	2557.818447
399.124656	2568.309088
399.507158	2578.638412
399.889598	2587.188209
400.271977	2598.682040
400.654294	2611.809205
401.036549	2623.096348
401.418742	2637.100674
401.800874	2656.153715
402.182944	2672.345901
402.564952	2693.032276
402.946898	2712.332333
403.328783	2732.940570
403.710606	2742.307034
404.092367	2786.815381
404.474067	2802.503452
404.855705	2829.191320
405.237282	2840.884277
405.618797	2886.521842
406.000250	2920.342944
406.381642	2967.820531
406.762972	2991.418172
407.144240	3023.056453
407.525447	3055.191288
407.906593	3103.130141
408.287677	3147.237717
408.668700	3161.504182
409.049661	3214.542162
409.430560	3263.763988
409.811399	3281.992800
410.192176	3375.105432
410.572891	3391.539594
410.953545	3477.216524
411.334138	3466.004998
411.714669	3535.532592
412.095139	3527.902805
412.475547	3637.898262
412.855894	3672.147861
413.236180	3718.828945
413.616405	3737.544229
413.996568	3825.966067
414.376670	3834.692305
414.756711	3847.610262
415.136691	3907.327770
415.516609	3992.588805
415.896466	4056.588774
416.276262	4123.799957
416.655997	4150.550840
417.035670	4312.056807
417.415283	4414.868619
417.794834	4414.629164
418.174324	4416.055810
418.553753	4391.129825
418.933121	4567.943255
419.312428	4661.106299
419.691674	4650.960977
420.070859	4784.763282
420.449983	4749.087036
420.829045	4869.467270
421.208047	4830.650385
421.586988	4918.888221
421.965867	4960.452535
422.344686	5106.792190
422.723444	4997.888143
423.102141	4860.431001
423.480777	5147.071009
423.859352	4965.166014
424.237866	5222.451382
424.616319	5230.963371
424.994712	5347.991237
425.373044	5253.020939
425.751314	5410.456174
426.129524	5238.331017
426.507673	5437.207057
426.885762	5532.928486
427.263789	5476.293643
427.641756	5371.732551
428.019662	5500.977653
428.397508	5517.215210
428.775292	5472.880782
429.153016	5580.267441
429.530679	5516.466598
429.908282	5602.577068
430.285824	5480.669365
430.663305	5756.213793
431.040726	5503.231049
431.418086	5505.292881
431.795385	5614.630467
432.172624	5631.120081
432.549802	5625.781499
432.926920	5642.036699
433.303977	5650.427700
433.680974	5690.741807
434.057910	5707.566658
434.434786	5716.794490
434.811601	5688.944636
435.188355	5921.205717
435.565050	5795.728877
435.941683	5777.656341
436.318257	5992.036449
436.694770	5978.140509
437.071222	6012.581672
437.447614	5944.984840
437.823946	5858.508887
438.200218	6016.649883
438.576429	5877.370364
438.952580	5981.021528
439.328670	6028.892325
439.704700	5938.002842
440.080670	5919.673206
440.456580	6192.039187
440.832429	6074.666002
441.208218	5921.488022
441.583947	6073.793882
441.959616	6079.818061
442.335224	6008.153018
442.710773	6146.658720
443.086261	6174.574109
443.461689	5967.057532
443.837057	6110.790910
444.212365	6271.676815
444.587612	6160.786554
444.962800	6319.623229
445.337927	6297.840403
445.712995	5912.252628
446.088002	6477.318083
446.462949	6311.509492
446.837837	6243.920222
447.212664	6418.369351
447.587431	6561.911165
447.962139	7098.501663
448.336786	8030.893314
448.711374	7761.007581
449.085901	6840.011458
449.460369	6760.459530
449.834776	6698.443255
450.209124	7086.964982
450.583412	7243.727223
450.957640	7388.753657
451.331808	7149.790362
451.705917	6705.188319
452.079965	6628.431711
452.453954	6838.506674
452.827883	6718.444033
453.201752	6808.988198
453.575562	6603.493123
453.949311	6815.670247
454.323001	6699.771599
454.696632	6770.060408
455.070202	6913.327479
455.443713	7068.950419
455.817164	7170.776686
456.190556	7250.862976
456.563888	7324.650345
456.937160	7369.569546
457.310373	7027.338215
457.683526	7047.787655
458.056619	6937.736746
458.429653	6925.338028
458.802628	6865.126487
459.175542	6972.687066
459.548398	7327.304512
459.921194	7483.736558
460.293930	7492.737538
460.666607	8020.180862
461.039224	8328.840629
461.411782	8452.338816
461.784280	8467.399263
462.156719	8355.180658
462.529099	8234.578614
462.901419	7822.325656
463.273680	7715.606949
463.645882	7729.439875
464.018024	7598.264011
464.390106	7766.477233
464.762130	8157.446440
465.134094	8621.532542
465.505999	9642.910641
465.877845	10857.644716
466.249631	11508.089673
466.621358	11123.666404
466.993026	10496.004942
467.364634	10234.207740
467.736184	9876.184994
468.107674	9544.199807
468.479105	9579.039222
468.850477	9337.497376
469.221790	9109.203683
469.593043	8785.049929
469.964238	8645.314186
470.335373	8662.582658
470.706449	8718.511739
471.077467	8700.066157
471.448425	10005.523358
471.819324	11077.804507
472.190164	11093.056518
472.560945	9842.152164
472.931667	9063.770284
473.302330	8934.240357
473.672934	8574.211231
474.043479	8932.007125
474.413965	8874.782467
474.784393	8756.103624
475.154761	8914.214373
475.525070	9000.115634
475.895321	8828.408893
476.265513	9007.357252
476.635645	9172.611316
477.005719	9174.370679
477.375734	9288.502402
477.745691	9521.638123
478.115588	9654.558227
478.485427	9901.673068
478.855207	10438.833216
479.224928	11250.101063
479.594591	11874.576516
479.964194	11680.703822
480.333739	11626.483692
480.703226	11532.887109
481.072653	11632.283539
481.442022	11869.943696
481.811333	12057.830020
482.180584	11865.527645
482.549777	11575.399159
482.918912	11394.028526
483.287988	11420.373596
483.657005	11430.231572
484.025964	11116.323963
484.394864	11241.276523
484.763706	11219.861702
485.132489	10975.784156
485.501213	10939.268558
485.869879	11014.606082
486.238487	10861.607062
486.607036	10969.031530
486.975527	10747.913920
487.343959	10939.331573
487.712333	10983.406381
488.080648	10921.017061
488.448905	10958.031733
488.817104	10895.707948
489.185244	11162.732826
489.553326	11326.729122
489.921350	11862.790299
490.289315	12920.124427
490.657222	13257.271755
491.025070	13166.508301
491.392861	13037.815205
491.760593	12658.904437
492.128267	12309.557517
492.495883	11979.873617
492.863440	11646.605457
493.230939	11309.533746
493.598380	11246.383212
493.965763	11113.445465
494.333088	11009.451502
494.700354	10928.853534
495.067563	11001.526808
495.434713	10830.762763
495.801805	10959.687752
496.168839	10880.403005
496.535815	10813.942953
496.902733	10808.901799
497.269593	10755.158058
497.636395	10849.664569
498.003139	10841.044196
498.369825	10705.101921
498.736453	10864.893895
499.103023	10786.088057
499.469535	10822.893522
499.835989	10808.175873
500.202385	10767.072825
500.568723	10625.335743
500.935003	10848.250525
501.301226	10647.567232
501.667390	10906.811089
502.033497	10999.654019
502.399546	10864.898936
502.765537	10772.877714
503.131470	10845.538385
503.497345	11011.523416
503.863163	10624.461103
504.228923	10942.515061
504.594625	11001.962868
504.960269	10754.474982
505.325856	10969.941459
505.691385	10769.174986
506.056856	10917.455485
506.422270	10949.509662
506.787625	10833.757208
507.152924	10943.379619
507.518164	10931.616087
507.883347	10849.223468
508.248472	10768.232290
508.613540	11001.819195
508.978550	10893.038657
509.343503	10862.133863
509.708398	10986.259674
510.073236	11096.524832
510.438016	11104.797365
510.802738	11051.746783
511.167403	11101.248393
511.532010	11001.776345
511.896561	11234.377704
512.261053	11301.440174
512.625488	11175.055926
512.989866	11158.601600
513.354186	11136.793569
513.718449	11042.776049
514.082655	11232.094062
514.446803	11133.206788
514.810894	11250.348080
515.174927	11117.833789
515.538904	11148.857050
515.902822	11293.828032
516.266684	11182.763851
516.630488	11123.275715
516.994235	11182.910044
517.357925	11238.360216
517.721558	11332.279432
518.085133	11347.022287
518.448651	11356.164419
518.812112	11244.160063
519.175516	11255.187587
519.538863	11373.402645
519.902152	11284.396033
520.265385	11451.563215
520.628560	11356.378668
520.991678	11343.707728
521.354739	11405.376163
521.717743	11338.185144
522.080690	11317.004736
522.443580	11448.956938
522.806413	11401.176882
523.169189	11437.805906
523.531908	11489.734832
523.894569	11311.633387
524.257174	11326.313227
524.619722	11438.960330
524.982213	11387.112063
525.344647	11428.298290
525.707025	11386.401260
526.069345	11479.985240
526.431608	11402.331306
526.793815	11517.251970
527.155964	11295.708382
527.518057	11345.724190
527.880093	11297.344236
528.242072	11367.592715
528.603995	11271.863724
528.965860	11192.770541
529.327669	11246.652914
529.689421	11194.789523
530.051117	11167.829432
530.412755	11267.896336
530.774337	11166.188537
531.135862	11138.051337
531.497331	11165.071921
531.858743	11014.757316
532.220098	11186.267453
532.581396	11052.235775
532.942638	11041.016687
533.303824	11003.661737
533.664953	11014.422080
534.026025	10932.856210
534.387040	11028.602845
534.747999	11025.817608
535.108902	11082.581000
535.469748	10839.393218
535.830537	10952.211721
536.191270	10925.947309
536.551947	10953.532503
536.912567	10950.515372
537.273131	10881.373427
537.633638	10854.793943
537.994089	10849.684734
538.354483	10789.732812
538.714821	10938.706469
539.075103	10945.403642
539.435328	10910.644887
539.795497	10734.668288
540.155609	10896.965716
540.515665	10985.359828
540.875665	10725.800898
541.235609	10784.661411
541.595496	10790.463779
541.955328	10938.338465
542.315102	10815.672069
542.674821	10773.840574
543.034483	10770.856211
543.394090	10773.147415
543.753640	10703.337517
544.113134	10919.623182
544.472571	10780.383992
544.831953	10923.275498
545.191278	10729.294418
545.550548	10760.652916
545.909761	10886.757379
546.268918	10871.734741
546.628019	10952.564601
546.987064	10816.841616
547.346053	10743.480225
547.704986	10844.280617
548.063863	10824.922586
548.422684	10822.757410
548.781449	10734.259955
549.140158	10833.427012
549.498811	10714.443179
549.857408	10572.693494
550.215949	10795.633482
550.574434	10649.369444
550.932864	10755.861299
551.291237	10812.228961
551.649555	10754.709395
552.007817	10772.136664
552.366022	10730.113606
552.724173	10727.245189
553.082267	10706.957065
553.440305	10846.728097
553.798288	10649.503035
554.156215	10799.610953
554.514086	10780.759558
554.871902	10627.926897
555.229661	10665.208750
555.587365	10646.412808
555.945014	10534.005159
556.302606	10667.777218
556.660143	10555.679600
557.017625	10709.104597
557.375050	10604.717424
557.732421	10737.967723
558.089735	10654.801288
558.446994	10659.174489
558.804197	10690.908552
559.161345	10695.402741
559.518437	10540.427589
559.875474	10628.025199
560.232455	10656.404375
560.589381	10605.987795
560.946251	10607.517785
561.303065	10709.182735
561.659825	10644.761830
562.016528	10577.739689
562.373177	10452.938364
562.729770	10577.243136
563.086307	10487.656791
563.442789	10580.348487
563.799216	10464.089397
564.155587	10516.348518
564.511904	10464.112082
564.868164	10455.428694
565.224370	10470.481580
565.580520	10385.351615
565.936615	10401.468183
566.292654	10272.502865
566.648638	10399.915508
567.004567	10356.133087
567.360441	10340.699594
567.716260	10248.852292
568.072023	10350.315595
568.427732	10298.966402
568.783385	10199.443943
569.138982	10270.783832
569.494525	10288.705134
569.850013	10161.665536
570.205445	10246.177960
570.560823	10144.376899
570.916145	10062.468231
571.271412	10130.803592
571.626625	10080.003885
571.981782	10055.904649
572.336884	10026.590339
572.691931	10031.603767
573.046923	9978.165016
573.401860	9935.219426
573.756743	9875.887566
574.111570	9915.770654
574.466342	9900.316997
574.821059	9927.609804
575.175722	9816.795160
575.530330	9825.718003
575.884882	9820.959153
576.239380	9750.985417
576.593823	9726.689577
576.948211	9741.482842
577.302544	9621.861303
577.656823	9634.975865
578.011047	9640.233788
578.365216	9611.705898
578.719330	9534.377119
579.073389	9546.037308
579.427394	9499.774639
579.781344	9469.575607
580.135239	9423.249924
580.489080	9432.397097
580.842866	9329.290378
581.196597	9330.964041
581.550273	9374.101194
581.903895	9346.379889
582.257463	9411.529241
582.610975	9290.559193
582.964434	9315.943923
583.317837	9239.114218
583.671186	9218.455569
584.024481	9217.419612
584.377721	9140.055545
584.730906	9117.675342
585.084037	9137.020770
585.437113	9077.746883
585.790135	9095.590047
586.143103	8995.805448
586.496016	8977.692582
586.848874	9025.886013
587.201679	9011.483436
587.554428	8903.421263
587.907124	8952.877502
588.259765	8923.575796
588.612352	8923.099407
588.964884	8800.768247
589.317362	8815.954723
589.669786	8812.330133
590.022155	8860.531126
590.374470	8875.374803
590.726731	8814.712078
591.078937	8670.076333
591.431090	8777.576418
591.783188	8650.887181
592.135232	8646.844176
592.487222	8646.347622
592.839157	8702.465747
593.191038	8634.271538
593.542866	8575.370697
593.894639	8485.736461
594.246358	8528.036782
594.598022	8542.063793
594.949633	8439.985469
595.301190	8421.479393
595.652692	8445.840769
596.004141	8558.069457
596.355535	8336.593924
596.706876	8318.002149
597.058162	8250.889267
597.409395	8321.881317
597.760573	8389.498313
598.111698	8297.265362
598.462768	8280.914380
598.813785	8242.226045
599.164748	8218.426757
599.515657	8203.547792
599.866511	8119.768856
600.217312	8244.159327
600.568060	8098.152388
600.918753	8209.619862
601.269392	8173.961260
601.619978	8085.945234
601.970510	8153.605081
602.320988	8144.956981
602.671412	8200.190383
603.021783	8140.659397
603.372100	8109.399202
603.722363	8111.589584
604.072572	8089.703414
604.422728	8101.608099
604.772830	8027.571193
605.122878	8040.910086
605.472872	8034.396916
605.822813	8061.286430
606.172701	8007.320878
606.522534	8080.173113
606.872314	8079.437105
607.222041	8049.457363
607.571714	8102.906196
607.921333	8067.658449
608.270899	8067.913027
608.620411	8158.253024
608.969870	8061.959424
609.319276	8060.011018
609.668627	8076.414933
610.017926	8108.869881
610.367171	8159.775453
610.716362	8135.197307
611.065500	8124.542829
611.414585	8154.789752
611.763616	8140.147720
612.112594	8121.755071
612.461518	8136.475240
612.810389	8200.303809
613.159207	8135.845096
613.507971	8084.276612
613.856682	8202.884880
614.205340	8159.851070
614.553945	8235.236485
614.902496	8139.363821
615.250994	8186.785955
615.599439	8169.419180
615.947830	8180.895367
616.296169	8156.223960
616.644454	8170.160230
616.992686	8165.497163
617.340864	8227.163077
617.688990	8124.981409
618.037063	8222.555462
618.385082	8166.268459
618.733048	8258.579548
619.080961	8191.501955
619.428821	8215.679328
619.776628	8210.139100
620.124382	8167.385075
620.472083	8149.645254
620.819731	8183.047940
621.167326	8068.429745
621.514868	8077.758400
621.862357	7964.745813
622.209793	7986.334555
622.557176	7915.844101
622.904506	7891.366778
623.251783	7829.002664
623.599007	7772.917307
623.946179	7777.807226
624.293297	7740.101916
624.640363	7656.144019
624.987376	7638.547872
625.334336	7578.805157
625.681243	7535.045421
626.028097	7516.887185
626.374899	7502.056111
626.721647	7499.296079
627.068343	7423.696415
627.414987	7398.316726
627.761577	7349.674633
628.108115	7392.191724
628.454600	7279.290043
628.801032	7335.793816
629.147412	7298.113711
629.493739	7281.775332
629.840014	7222.622432
630.186236	7278.158304
630.532405	7162.330232
630.878521	7211.347892
631.224585	7166.337950
631.570597	7092.119562
631.916556	7124.617360
632.262462	7118.215095
632.608316	7080.227480
632.954117	7060.166208
633.299866	7046.454270
633.645562	7042.625514
633.991206	6961.427649
634.336797	6902.884729
634.682336	6859.745055
635.027823	6824.242729
635.373257	6816.033210
635.718639	6753.142295
636.063968	6761.634119
636.409245	6654.597820
636.754470	6658.875239
637.099642	6612.093331
637.444762	6558.397481
637.789829	6567.249747
638.134845	6511.169431
638.479808	6489.847871
638.824719	6501.563512
639.169577	6426.788077
639.514383	6448.959072
639.859137	6373.011569
640.203839	6383.850050
640.548489	6372.814964
640.893086	6347.266396
641.237632	6316.036448
641.582125	6342.424368
641.926566	6309.470345
642.270955	6321.574156
642.615292	6318.930070
642.959576	6332.710064
643.303809	6321.034752
643.647990	6325.440721
643.992118	6320.591131
644.336195	6265.945023
644.680219	6292.721112
645.024192	6280.970182
645.368112	6380.106993
645.711981	6399.996865
646.055797	6472.287012
646.399562	6428.590290
646.743274	6560.388737
647.086935	6616.489217
647.430544	6608.793896
647.774101	6629.805425
648.117606	6636.510160
648.461059	6627.564632
648.804460	6589.327480
649.147810	6496.482029
649.491108	6464.183357
649.834354	6441.800634
650.177548	6356.474064
650.520690	6273.458863
650.863781	6254.836840
651.206820	6268.107678
651.549807	6195.053797
651.892742	6135.663963
652.235626	6140.390045
652.578458	6130.534589
652.921238	6037.482451
653.263967	6075.457463
653.606644	6010.134192
653.949269	6017.612743
654.291843	5955.823321
654.634365	6007.860631
654.976836	5963.299352
655.319255	5960.246933
655.661622	5936.455208
656.003938	5936.223314
656.346203	5893.827211
656.688416	5923.421304
657.030577	5877.367843
657.372687	5850.286765
657.714746	5836.637841
658.056753	5877.917329
658.398708	5818.683771
658.740612	5812.379808
659.082465	5854.866653
659.424266	5849.447413
659.766016	5847.209140
660.107715	5826.477395
660.449362	5837.686401
660.790958	5830.096944
661.132503	5820.221323
661.473996	5858.634916
661.815438	5844.736454
662.156829	5840.867369
662.498168	5834.273540
662.839456	5812.281506
663.180693	5846.707546
663.521879	5846.997412
663.863013	5834.225649
664.204097	5855.534606
664.545129	5894.691768
664.886110	5888.889400
665.227040	5927.580256
665.567918	5890.235388
665.908746	5920.951139
666.249522	5924.414412
666.590248	5907.846659
666.930922	5933.864054
667.271545	5948.748061
667.612118	5949.471467
667.952639	5924.011119
668.293109	5944.586589
668.633528	5901.835083
668.973896	5909.757257
669.314213	5897.182098
669.654480	5883.195417
669.994695	5872.634200
670.334859	5864.167582
670.674973	5857.667014
671.015035	5863.028281
671.355047	5857.876222
671.695008	5846.452967
672.034918	5817.204193
672.374777	5830.590977
672.714585	5816.924409
673.054342	5819.296272
673.394049	5811.588347
673.733705	5841.583213
674.073310	5831.891594
674.412864	5793.750224
674.752368	5778.397390
675.091820	5786.569101
675.431223	5723.355552
675.770574	5724.676334
676.109875	5675.852759
676.449125	5680.581362
676.788324	5645.116844
677.127473	5592.497281
677.466571	5581.873049
677.805619	5573.081277
678.144616	5555.316250
678.483562	5540.860742
678.822458	5506.618704
679.161303	5495.283670
679.500098	5491.202856
679.838842	5475.829857
680.177535	5477.624508
680.516179	5490.965922
680.854771	5505.885216
681.193314	5586.160550
681.531805	5693.431263
681.870247	5843.496331
682.208638	5947.719666
682.546978	5955.762827
682.885268	5936.034271
683.223508	5850.180901
683.561697	5795.408764
683.899836	5765.159320
684.237925	5725.596345
684.575963	5685.982958
684.913951	5645.363861
685.251889	5705.731678
685.589776	5678.605229
685.927614	5650.268904
686.265401	5719.420932
686.603137	5706.286205
686.940824	5777.285816
687.278460	5804.442512
687.616046	5812.490714
687.953582	5879.165015
688.291068	5863.749166
688.628504	5924.243012
688.965889	5886.225151
689.303224	5830.860678
689.640510	5784.610613
689.977745	5711.032452
690.314930	5610.106031
690.652065	5553.171239
690.989150	5463.481551
691.326185	5386.982041
691.663170	5333.518084
692.000105	5257.976394
692.336990	5179.001677
692.673825	5150.977903
693.010610	5087.030867
693.347345	5019.829765
693.684030	5003.226725
694.020665	4963.232731
694.357251	4875.415831
694.693786	4883.287593
695.030272	4849.355586
695.366707	4816.119259
695.703093	4780.316984
696.039429	4802.117454
696.375716	4786.497439
696.711952	4758.400568
697.048139	4743.360286
697.384276	4727.299169
697.720363	4737.477259
698.056400	4745.747272
698.392388	4697.649623
698.728326	4674.019214
699.064214	4654.149507
699.400053	4651.586080
699.735842	4618.500987
700.071581	4589.980659
700.407270	4564.054005
700.742910	4549.417015
701.078501	4491.128673
701.414042	4491.847038
701.749533	4461.340495
702.084974	4395.881113
702.420366	4451.245585
702.755709	4396.821288
703.091002	4341.023277
703.426246	4389.677973
703.761440	4347.743135
704.096584	4304.069098
704.431679	4330.449456
704.766725	4317.077796
705.101721	4303.469201
705.436668	4329.748736
705.771565	4279.438021
706.106413	4309.062361
706.441212	4337.983461
706.775961	4346.954194
707.110661	4329.665557
707.445311	4357.901060
707.779913	4377.674986
708.114465	4389.050349
708.448967	4413.525151
708.783421	4475.750634
709.117825	4514.486860
709.452180	4523.104712
709.786485	4568.026434
710.120742	4653.214372
710.454949	4634.988081
710.789107	4699.393862
711.123216	4776.173156
711.457275	4768.913894
711.791286	4839.391746
712.125247	4862.117267
712.459159	4764.258389
712.793023	4836.225901
713.126837	4795.662257
713.460602	4787.450217
713.794318	4708.646900
714.127985	4715.223085
714.461602	4630.819047
714.795171	4604.932722
715.128691	4535.924367
715.462162	4476.947908
715.795584	4431.557358
716.128957	4411.170932
716.462281	4359.884754
716.795556	4334.797452
717.128782	4298.720434
717.461960	4228.655957
717.795088	4238.652565
718.128167	4197.390721
718.461198	4139.598933
718.794180	4132.236328
719.127113	4117.432980
719.459997	4092.406172
719.792833	4050.609965
720.125619	4042.103018
720.458357	4008.138244
720.791046	4010.689068
721.123686	3982.297289
721.456278	3942.487297
721.788821	3955.987507
722.121315	3934.265176
722.453761	3907.327770
722.786158	3919.325716
723.118506	3942.676341
723.450805	3894.019124
723.783056	3915.723812
724.115259	3934.257614
724.447412	3936.054785
724.779518	3930.267541
725.111574	3934.892799
725.443582	3963.902119
725.775542	3948.962660
726.107453	4001.730937
726.439315	4000.498375
726.771129	4018.961601
727.102895	4052.497877
727.434612	4096.920525
727.766281	4112.442238
728.097901	4111.645735
728.429473	4118.166468
728.760996	4123.815081
729.092471	4116.636478
729.423897	4102.410342
729.755276	4109.031897
730.086606	4112.041466
730.417887	4144.894666
730.749120	4212.796487
731.080305	4277.325777
731.411442	4302.886948
731.742530	4272.939973
732.073570	4277.630767
732.404562	4328.858972
732.735506	4322.371007
733.066401	4286.404895
733.397249	4218.898804
733.728048	4140.982730
734.058798	4057.581881
734.389501	3988.018999
734.720156	3927.749484
735.050762	3882.542937
735.381320	3875.669324
735.711831	3827.332220
736.042293	3796.704690
736.372707	3819.062207
736.703073	3789.876447
737.033391	3780.666259
737.363661	3797.014721
737.693883	3823.314421
738.024056	3835.246832
738.354182	3829.467149
738.684260	3891.178434
739.014290	3910.501176
739.344272	3909.467740
739.674207	3953.756797
740.004093	3957.973722
740.333931	3949.928041
740.663722	3950.396868
740.993464	3949.907876
741.323159	3926.952982
741.652806	3895.133219
741.982405	3867.676574
742.311956	3838.294209
742.641460	3828.118640
742.970915	3804.863797
743.300323	3761.867796
743.629683	3726.441088
743.958996	3716.651167
744.288260	3692.506561
744.617477	3658.806447
744.946647	3647.042915
745.275768	3618.832618
745.604842	3618.003348
745.933869	3567.906882
746.262847	3559.972105
746.591778	3598.579782
746.920662	3567.546439
747.249498	3541.587017
747.578286	3585.298862
747.907027	3605.339969
748.235720	3600.644135
748.564365	3627.642034
748.892963	3626.381746
749.221514	3610.741566
749.550017	3584.819953
749.878473	3584.953543
750.206881	3554.482289
750.535242	3551.702092
750.863555	3552.826270
751.191821	3544.568860
751.520039	3528.086807
751.848210	3505.182325
752.176334	3539.626008
752.504411	3547.971639
752.832440	3509.046369
753.160421	3490.469717
753.488356	3497.204699
753.816243	3513.790095
754.144082	3468.170173
754.471875	3450.619396
754.799620	3469.158239
755.127318	3463.066005
755.454969	3461.553659
755.782572	3469.460709
756.110129	3441.444496
756.437638	3436.680606
756.765100	3448.696196
757.092515	3458.347485
757.419882	3467.688743
757.747203	3438.114814
758.074477	3441.958694
758.401703	3454.901856
758.728882	3477.723160
759.056014	3486.577947
759.383099	3487.266064
759.710138	3482.290445
760.037129	3502.853312
760.364073	3535.623332
760.690970	3518.238913
761.017820	3495.813340
761.344623	3514.468130
761.671379	3555.949265
761.998088	3609.377934
762.324751	3739.681678
762.651366	3985.843741
762.977935	4460.579281
763.304456	4900.132608
763.630931	4999.176158
763.957359	4635.184686
764.283740	4294.271616
764.610074	4100.872790
764.936362	3900.633118
765.262602	3745.133686
765.588796	3632.582365
765.914943	3543.462327
766.241044	3458.846559
766.567097	3426.532763
766.893104	3379.710526
767.219064	3349.834128
767.544978	3320.862617
767.870845	3264.469749
768.196665	3247.024836
768.522438	3254.687390
768.848165	3251.042636
769.173846	3214.358159
769.499479	3199.091025
769.825066	3180.423632
770.150607	3163.497958
770.476101	3179.448169
770.801548	3175.100174
771.126949	3130.889255
771.452303	3113.930813
771.777611	3116.189250
772.102872	3124.315590
772.428087	3100.269286
772.753256	3090.219746
773.078378	3083.134404
773.403453	3051.158365
773.728482	3038.532796
774.053465	3058.054664
774.378401	3045.333312
774.703291	3013.669825
775.028135	3017.165865
775.352932	3009.785616
775.677683	2997.747340
776.002388	2992.975888
776.327046	2997.056702
776.651658	2985.913232
776.976224	2973.708598
777.300743	2973.801860
777.625216	2962.804583
777.949643	2958.779221
778.274024	2962.058492
778.598359	2952.293777
778.922647	2956.455249
779.246889	2954.393417
779.571086	2939.557302
779.895236	2935.496652
780.219339	2942.944957
780.543397	2958.396093
780.867409	2961.057823
781.191374	2953.632203
781.515294	2952.490382
781.839167	2949.468210
782.162995	2942.753393
782.486776	2949.193467
782.810511	2948.321348
783.134201	2934.276693
783.457844	2941.719957
783.781441	2933.253339
784.104993	2911.856161
784.428498	2916.206677
784.751958	2927.750919
785.075372	2923.100455
785.398739	2903.515572
785.722061	2922.341761
786.045337	2933.059254
786.368568	2918.074424
786.691752	2912.458579
787.014891	2957.602112
787.337983	2989.696618
787.661030	3013.642098
787.984031	3084.492995
788.306987	3129.235756
788.629897	3122.004221
788.952760	3106.147272
789.275579	3089.370312
789.598351	3031.386960
789.921078	2988.574961
790.243759	2976.556850
790.566395	2959.981536
790.888984	2936.351128
791.211529	2918.921338
791.534027	2911.704927
791.856480	2903.182856
792.178888	2884.354146
792.501249	2879.963301
792.823566	2876.437014
793.145836	2869.583566
793.468062	2868.507279
793.790241	2864.718852
794.112375	2871.741179
794.434464	2884.928838
794.756507	2886.531925
795.078505	2893.546690
795.400457	2910.933630
795.722364	2947.111471
796.044226	2970.376396
796.366042	2969.824389
796.687812	2959.311063
797.009538	2979.258909
797.331218	2967.911271
797.652852	2952.782769
797.974442	2935.113524
798.295986	2929.873245
798.617484	2927.329983
798.938938	2915.296749
799.260346	2897.050292
799.581709	2892.979561
799.903026	2886.063098
800.224299	2878.216542
800.545526	2870.460726
800.866708	2854.243334
801.187845	2844.052642
801.508936	2847.740246
801.829983	2852.068077
802.150984	2838.388906
802.471940	2823.951041
802.792851	2825.450784
803.113717	2825.266782
803.434538	2831.606033
803.755314	2823.066318
804.076045	2817.611790
804.396731	2816.404434
804.717372	2818.897284
805.037967	2816.714465
805.358518	2821.274188
805.679024	2831.086794
805.999485	2827.240394
806.319901	2831.177535
806.640272	2822.491627
806.960598	2827.331135
807.280879	2836.536282
807.601115	2846.346367
807.921306	2832.311795
808.241453	2825.733089
808.561554	2833.466219
808.881611	2835.878411
809.201623	2831.457319
809.521590	2826.761484
809.841513	2827.174859
810.161390	2831.217864
810.481223	2824.278716
810.801011	2810.977632
811.120755	2810.425625
811.440453	2812.210194
811.760107	2813.039463
812.079716	2812.303455
812.399281	2800.325673
812.718801	2796.766619
813.038276	2789.280505
813.357707	2795.256793
813.677093	2804.474543
813.996434	2795.818882
814.315731	2794.089766
814.634983	2785.963426
814.954191	2789.991308
815.273354	2803.602423
815.592473	2814.093065
815.911547	2814.488795
816.230577	2822.297542
816.549562	2831.812720
816.868502	2828.966989
817.187399	2836.977382
817.506250	2856.380784
817.825058	2845.887622
818.143821	2863.715662
818.462539	2877.505739
818.781213	2904.859040
819.099843	2943.194494
819.418429	3000.673730
819.736970	3059.118347
820.055466	3131.993267
820.373919	3239.226171
820.692327	3383.435939
821.010691	3549.834345
821.329011	3993.564268
821.647286	4898.085900
821.965517	6280.289626
822.283704	7027.237392
822.601847	7011.473703
822.919945	6373.397217
823.237999	5867.441811
823.556010	5278.698057
823.873976	4726.732040
824.191897	4313.639729
824.509775	4017.474461
824.827609	3748.861619
825.145398	3622.931076
825.463144	3611.817852
825.780845	3702.414948
826.098502	3809.010147
826.416116	4089.401644
826.733685	4413.126900
827.051210	4480.156602
827.368692	4359.932645
827.686129	4093.159824
828.003522	3765.036162
828.320872	3508.254908
828.638177	3306.230668
828.955439	3173.184535
829.272656	3087.028696
829.589830	3017.518746
829.906960	2969.468988
830.224046	2927.496341
830.541088	2891.938562
830.858086	2874.402909
831.175041	2857.338603
831.491952	2856.829446
831.808819	2870.067516
832.125642	2894.272617
832.442421	2940.928495
832.759157	3022.824560
833.075849	3201.576314
833.392497	3483.664160
833.709101	3687.800643
834.025662	3642.689878
834.342179	3479.311123
834.658653	3300.685398
834.975083	3149.468427
835.291469	3051.692728
835.607811	2966.356075
835.924110	2909.118815
836.240366	2857.096627
836.556578	2815.756645
836.872746	2790.568520
837.188871	2769.655293
837.504952	2751.577716
837.820990	2744.736870
838.136984	2730.082236
838.452935	2725.945969
838.768842	2722.207953
839.084706	2741.140007
839.400526	2817.836121
839.716303	2951.373766
840.032037	3035.016591
840.347727	3017.987573
840.663373	2957.027420
840.978977	2883.673591
841.294537	2806.659883
841.610054	2761.453336
841.925527	2734.750344
842.240957	2715.183106
842.556344	2694.375743
842.871687	2679.900070
843.186987	2669.152330
843.502244	2665.908347
843.817458	2661.575476
844.132629	2645.756335
844.447756	2641.095788
844.762840	2633.037504
845.077881	2634.295272
845.392879	2633.133286
845.707833	2630.947945
846.022745	2623.333282
846.337613	2625.291771
846.652438	2625.518623
846.967221	2623.822274
847.281960	2622.173817
847.596656	2621.528549
847.911309	2621.286574
848.225919	2618.055194
848.540485	2613.487909
848.855009	2613.825666
849.169490	2613.999586
849.483928	2614.488578
849.798323	2613.855913
850.112675	2614.044957
850.426984	2612.860285
850.741251	2611.544544
851.055474	2611.045470
851.369654	2617.558641
851.683792	2614.836418
851.997887	2612.414143
852.311938	2612.278032
852.625947	2612.293156
852.939914	2614.697786
853.253837	2615.010337
853.567718	2609.230655
853.881555	2611.317692
854.195350	2614.617127
854.509103	2613.245934
854.822812	2609.623865
855.136479	2611.710902
855.450103	2612.890532
855.763685	2614.634772
856.077224	2610.054883
856.390720	2610.836262
856.704173	2612.905656
857.017584	2616.550410
857.330953	2618.224073
857.644278	2618.544186
857.957561	2618.461007
858.270802	2614.498660
858.584000	2613.918928
858.897155	2616.477313
859.210268	2620.676594
859.523339	2614.743156
859.836367	2609.664194
860.149352	2610.163268
860.462295	2611.007661
860.775195	2608.658484
861.088054	2606.891559
861.400869	2606.485746
861.713642	2603.655138
862.026373	2607.715788
862.339062	2610.019595
862.651708	2615.537138
862.964312	2615.963116
863.276873	2612.126797
863.589392	2617.442694
863.901869	2622.239352
864.214303	2626.549539
864.526696	2627.865280
864.839045	2627.676237
865.151353	2631.663789
865.463619	2631.197482
865.775842	2630.153964
866.088023	2632.493059
866.400162	2633.092956
866.712258	2628.782770
867.024313	2630.360651
867.336325	2626.617594
867.648296	2626.736061
867.960224	2633.418111
868.272110	2634.128913
868.583954	2623.156842
868.895755	2629.503655
869.207515	2634.043214
869.519233	2639.079327
869.830909	2635.333749
870.142542	2631.270579
870.454134	2634.018008
870.765684	2638.318112
871.077191	2639.901035
871.388657	2643.986890
871.700081	2641.425984
872.011463	2641.935140
872.322803	2642.976138
872.634101	2647.500574
872.945357	2654.109527
873.256571	2660.000115
873.567744	2656.713283
873.878874	2654.873262
874.189963	2656.302429
874.501010	2660.131185
874.812015	2666.722494
875.122979	2666.054541
875.433900	2656.879641
875.744780	2655.894095
876.055618	2660.413490
876.366415	2665.925991
876.677169	2665.507576
876.987882	2662.041782
877.298554	2660.005156
877.609183	2669.694254
877.919771	2677.316478
878.230317	2684.124557
878.540822	2695.104190
878.851285	2710.666232
879.161707	2730.634242
879.472087	2772.054883
879.782425	2821.160762
880.092722	2936.038576
880.402977	3123.355250
880.713191	3388.182185
881.023363	3685.252340
881.333494	3879.188049
881.643583	4050.559554
881.953631	4049.203483
882.263637	3867.008622
882.573602	3650.027278
882.883526	3515.962832
883.193408	3398.299781
883.503248	3298.255562
883.813048	3180.337933
884.122806	3066.803586
884.432522	2983.216214
884.742197	2914.412026
885.051831	2876.883156
885.361424	2844.644977
885.670975	2803.488997
885.980485	2772.740480
886.289954	2757.327152
886.599382	2743.544637
886.908768	2730.719942
887.218113	2710.394009
887.527417	2699.857998
887.836680	2689.034641
888.145901	2684.926100
888.455082	2676.469565
888.764221	2664.043120
889.073319	2659.576658
889.382376	2657.093890
889.691392	2655.314362
890.000366	2658.843170
890.309300	2654.021307
890.618193	2658.518016
890.927044	2660.504230
891.235855	2659.987512
891.544625	2659.344765
891.853353	2659.138078
892.162041	2667.763492
892.470687	2691.237625
892.779293	2701.062834
893.087858	2709.559698
893.396381	2730.868656
893.704864	2777.385903
894.013306	2844.793692
894.321707	2940.000923
894.630068	2991.672750
894.938387	3010.536748
895.246665	3007.171778
895.554903	2959.336269
895.863100	2913.623086
896.171256	2857.499920
896.479371	2794.571196
896.787446	2755.482089
897.095480	2735.569532
897.403473	2729.681464
897.711425	2713.378372
898.019336	2696.147709
898.327207	2682.907118
898.635038	2680.008455
898.942827	2680.620955
899.250576	2670.533606
899.558284	2658.928870
899.865952	2653.280257
900.173579	2650.868065
900.481165	2650.739515
900.788711	2640.238792
901.096216	2635.444655
901.403681	2631.424334
901.711105	2631.668830
902.018489	2628.182872
902.325832	2631.812503
902.633135	2633.420631
902.940397	2651.218425
903.247619	2688.139836
903.554800	2756.881010
903.861941	2886.710886
904.169041	3014.519259
904.476101	3081.334712
904.783121	3069.775347
905.090100	3014.143693
905.397039	2938.148299
905.703938	2862.871269
906.010796	2797.570683
906.317614	2748.913466
906.624391	2708.301931
906.931129	2681.233455
907.237826	2658.727224
907.544483	2645.451345
907.851099	2627.330917
908.157675	2615.877416
908.464211	2612.598145
908.770707	2599.327308
909.077163	2596.632811
909.383578	2591.911771
909.689954	2591.135433
909.996289	2589.275247
910.302584	2587.364650
910.608839	2582.058835
910.915054	2587.820874
911.221229	2589.071080
911.527363	2593.512337
911.833458	2587.974629
912.139513	2587.969588
912.445527	2592.312542
912.751502	2596.416042
913.057436	2599.481063
913.363331	2609.449945
913.669186	2619.381018
913.975000	2635.338790
914.280775	2649.668270
914.586510	2669.822803
914.892205	2706.908052
915.197859	2773.007661
915.503475	2859.876824
915.809050	2926.367123
916.114585	2944.742128
916.420081	2955.396607
916.725536	2966.000674
917.030952	2938.165943
917.336328	2888.966802
917.641665	2842.739421
917.946961	2792.610187
918.252218	2757.743047
918.557435	2730.064592
918.862612	2707.253371
919.167750	2691.850125
919.472848	2672.262722
919.777906	2656.373005
920.082925	2640.720222
920.387904	2631.051289
920.692843	2630.141361
920.997743	2625.649693
921.302603	2617.039402
921.607423	2611.166458
921.912204	2604.655807
922.216946	2600.078440
922.521647	2598.727411
922.826310	2592.920001
923.130932	2591.349682
923.435516	2583.556058
923.740059	2581.537076
924.044564	2585.191912
924.349028	2583.263671
924.653454	2573.143555
924.957840	2570.562484
925.262186	2565.927143
925.566493	2568.009140
925.870761	2562.710887
926.174989	2568.104922
926.479178	2564.167780
926.783328	2563.278017
927.087438	2559.862635
927.391509	2560.434806
927.695541	2556.593447
927.999533	2558.100752
928.303486	2555.033210
928.607400	2554.158569
928.911275	2555.580175
929.215110	2555.292829
929.518906	2553.636810
929.822663	2553.558672
930.126381	2551.577499
930.430060	2556.096893
930.733699	2553.553631
931.037299	2557.029507
931.340861	2555.522202
931.644383	2556.742161
931.947866	2558.133519
932.251309	2558.952707
932.554714	2551.794268
932.858080	2558.188972
933.161407	2555.416337
933.464694	2554.531615
933.767943	2554.387942
934.071153	2553.306614
934.374323	2552.608415
934.677455	2550.009700
934.980548	2548.426777
935.283602	2552.971378
935.586617	2550.501212
935.889593	2551.431305
936.192530	2553.397355
936.495428	2550.959957
936.798287	2552.547921
937.101108	2554.302242
937.403890	2556.848025
937.706632	2560.354148
938.009336	2563.462019
938.312002	2569.261866
938.614628	2569.067782
938.917216	2573.849316
939.219765	2576.052301
939.522275	2576.987435
939.824747	2574.045921
940.127179	2570.776733
940.429573	2567.026115
940.731929	2567.331104
941.034246	2563.056206
941.336524	2566.222051
941.638763	2566.355641
941.940964	2565.609550
942.243126	2560.817934
942.545250	2564.051834
942.847335	2563.908161
943.149381	2559.051009
943.451389	2559.729044
943.753359	2560.530588
944.055290	2556.621173
944.357182	2555.580175
944.659036	2556.369115
944.960851	2555.544887
945.262628	2556.895916
945.564367	2558.201575
945.866067	2557.407593
946.167729	2553.218394
946.469352	2555.905329
946.770937	2554.642520
947.072484	2553.016748
947.373992	2555.239897
947.675462	2554.708055
947.976893	2552.621018
948.278286	2552.973898
948.579641	2551.093548
948.880958	2553.495658
949.182236	2552.588250
949.483476	2553.160421
949.784678	2551.698486
950.085841	2549.334185
950.386967	2552.542880
950.688054	2550.712941
950.989103	2553.500699
951.290114	2552.237890
951.591087	2555.554969
951.892021	2557.074877
952.192917	2559.396328
952.493776	2561.896741
952.794596	2559.597974
953.095378	2558.625032
953.396122	2561.760629
953.696828	2559.575289
953.997496	2556.006152
954.298126	2554.145967
954.598718	2556.008673
954.899272	2552.121943
955.199788	2550.566747
955.500266	2553.825853
955.800706	2548.083979
956.101108	2543.327650
956.401472	2545.407126
956.701798	2540.597866
957.002087	2544.398896
957.302337	2544.035933
957.602550	2542.453010
957.902724	2542.997455
958.202861	2541.807742
958.502960	2541.437218
958.803022	2540.192053
959.103045	2539.834131
959.403031	2541.505273
959.702979	2538.936805
960.002889	2539.889583
960.302762	2542.785726
960.602596	2541.293545
960.902393	2536.892617
961.202153	2538.092412
961.501875	2538.904038
961.801559	2539.773637
962.101205	2540.494522
962.400814	2540.812115
962.700385	2536.985879
962.999918	2536.859850
963.299414	2536.890097
963.598873	2534.785415
963.898293	2538.019315
964.197677	2536.350693
964.497022	2537.066537
964.796331	2533.694005
965.095601	2534.472864
965.394835	2536.711136
965.694030	2538.969573
965.993189	2536.650642
966.292309	2536.809438
966.591393	2535.266845
966.890439	2537.651311
967.189447	2533.489839
967.488419	2535.970086
967.787353	2536.743903
968.086249	2532.645445
968.385108	2534.447658
968.683930	2537.386651
968.982714	2537.517721
969.281462	2535.886907
969.580172	2537.464788
969.878844	2536.189377
970.177480	2534.659386
970.476078	2537.031249
970.774639	2536.824562
971.073162	2535.990251
971.371649	2535.705426
971.670098	2532.421114
971.968510	2532.093439
972.266885	2532.189221
972.565223	2537.464788
972.863524	2536.711136
973.161788	2537.900848
973.460014	2537.018646
973.758204	2538.883873
974.056356	2537.174922
974.354471	2535.125693
974.652550	2537.300951
974.950591	2538.044521
975.248595	2535.864222
975.546563	2536.191897
975.844493	2538.893956
976.142386	2539.322454
976.440243	2535.415559
976.738062	2538.636857
977.035845	2536.335570
977.333590	2536.209541
977.631299	2534.460261
977.928971	2535.695343
978.226606	2537.668955
978.524204	2533.749458
978.821765	2537.326157
979.119290	2533.933460
979.416777	2533.073943
979.714228	2536.234747
980.011642	2537.553009
980.309020	2538.720036
980.606360	2537.182484
980.903664	2535.581918
981.200931	2536.970755
981.498162	2537.643749
981.795356	2540.325643
982.092513	2542.178267
982.389633	2544.953422
982.686717	2546.987528
982.983764	2550.889381
983.280775	2553.046995
983.577749	2551.219577
983.874686	2551.491799
984.171587	2544.595501
984.468451	2544.078782
984.765279	2544.358566
985.062070	2540.761703
985.358824	2538.057124
985.655543	2537.106867
985.952224	2539.178781
986.248869	2536.867412
986.545478	2529.126720
986.842050	2534.591331
987.138586	2529.666123
987.435086	2528.426000
987.731549	2529.923222
988.027975	2532.617719
988.324366	2533.789787
988.620719	2533.033614
988.917037	2532.847092
989.213318	2533.550333
989.509563	2534.374561
989.805772	2533.494880
990.101944	2532.441279
990.398080	2532.688295
990.694180	2529.688809
990.990244	2532.900024
991.286271	2532.045548
991.582262	2532.158974
991.878217	2533.288193
992.174136	2535.062679
992.470019	2531.123017
992.765865	2532.630322
993.061676	2532.443799
993.357450	2530.492873
993.653188	2533.353727
993.948890	2533.240302
994.244556	2533.915816
994.540186	2534.175436
994.835780	2532.227030
995.131337	2533.315919
995.426859	2534.135106
995.722345	2534.881197
996.017795	2533.941022
996.313208	2537.018646
996.608586	2536.406146
996.903928	2536.650642
997.199234	2536.264994
997.494504	2537.616023
997.789738	2536.635519
998.084936	2537.646270
998.380099	2535.564273
998.675225	2534.155271
998.970316	2535.506300
999.265371	2537.416898
999.560390	2533.399098
999.855373	2533.179808
1000.150320	2533.131917
1000.445232	2532.811803
1000.740108	2531.344828
1001.034948	2532.499252
1001.329752	2531.642256
1001.624521	2532.171577
1001.919254	2527.080012
1002.213951	2531.559077
1002.508613	2525.537418
1002.803239	2530.765095
1003.097829	2527.289219
1003.392384	2530.848274
1003.686903	2534.906403
1003.981386	2530.296268
1004.275834	2530.094622
1004.570246	2532.600075
1004.864623	2531.884231
1005.158964	2530.442461
1005.453270	2531.569159
1005.747540	2530.883562
1006.041775	2530.019004
1006.335974	2529.986237
1006.630138	2529.958510
1006.924266	2531.105373
1007.218359	2530.139992
1007.512416	2531.125538
1007.806438	2529.151926
1008.100425	2531.869108
1008.394376	2530.371885
1008.688292	2531.034797
1008.982172	2526.192768
1009.276017	2528.899868
1009.569827	2532.191742
1009.863602	2530.702081
1010.157341	2528.574714
1010.451045	2531.317101
1010.744714	2529.789632
1011.038347	2527.894158
1011.331945	2528.476411
1011.625508	2531.173428
1011.919036	2530.162677
1012.212528	2531.796011
1012.505986	2529.484642
1012.799408	2532.227030
1013.092795	2529.194776
1013.386147	2532.350538
1013.679464	2529.991278
1013.972745	2529.295599
1014.265992	2527.863911
1014.559204	2529.197296
1014.852380	2531.095291
1015.145521	2529.804755
1015.438628	2527.790814
1015.731699	2530.598737
1016.024736	2527.707635
1016.317737	2533.257946
1016.610703	2532.965559
1016.903635	2526.638911
1017.196531	2525.214785
1017.489393	2529.696370
1017.782219	2525.096317
1018.075011	2528.206709
1018.367768	2530.467667
1018.660490	2529.971113
1018.953177	2529.971113
1019.245829	2529.971113
