Dividing Wavelength (nm)	Counts (n)	Blue Motor Position (mm): 8.200000	Red Motor Position (mm): 0.000000	
326.493990	2062.741851
326.888308	2062.741851
327.282561	2062.741851
327.676750	2037.662111
328.070874	2041.148069
328.464933	2044.913811
328.858929	2056.284133
329.252859	2063.616492
329.646726	2076.652915
330.040528	2096.315936
330.434265	2111.693976
330.827938	2134.648870
331.221547	2156.129226
331.615091	2173.450631
332.008571	2194.222705
332.401986	2216.539893
332.795338	2236.102091
333.188625	2255.107241
333.581847	2272.826897
333.975006	2291.267438
334.368100	2307.106743
334.761129	2328.047696
335.154095	2340.552278
335.546996	2366.519262
335.939833	2406.263718
336.332606	2420.026068
336.725315	2429.962183
337.117960	2442.980962
337.510540	2449.229473
337.903056	2459.755402
338.295508	2465.582976
338.687896	2469.394088
339.080220	2476.628144
339.472480	2483.950420
339.864676	2483.695842
340.256807	2491.698673
340.648875	2489.687253
341.040879	2492.243118
341.432818	2490.531646
341.824694	2495.792090
342.216506	2493.246308
342.608253	2493.717655
342.999937	2492.956441
343.391557	2488.379073
343.783113	2490.866883
344.174605	2488.018631
344.566033	2485.472848
344.957397	2487.007880
345.348697	2481.376911
345.739934	2483.446304
346.131106	2480.756849
346.522215	2478.140490
346.913260	2474.402474
347.304241	2474.263843
347.695159	2471.148410
348.086012	2472.572536
348.476802	2470.936681
348.867528	2465.187245
349.258191	2462.064250
349.648789	2467.022225
350.039324	2457.504527
350.429796	2466.213120
350.820203	2462.407049
351.210548	2465.547688
351.600828	2462.298664
351.991045	2462.515434
352.381198	2461.870166
352.771288	2460.745989
353.161314	2460.776236
353.551276	2461.643314
353.941175	2458.779939
354.331010	2461.963427
354.720782	2462.628860
355.110490	2463.763119
355.500135	2461.978551
355.889717	2463.067440
356.279235	2464.211782
356.668689	2461.252625
357.058080	2463.516103
357.447408	2460.589713
357.836672	2461.729014
358.225873	2465.010805
358.615010	2466.142544
359.004084	2466.107256
359.393095	2463.322018
359.782043	2465.777060
360.170927	2464.158850
360.559748	2467.884263
360.948505	2465.545167
361.337199	2468.642956
361.725830	2469.157154
362.114398	2470.437607
362.502903	2472.625468
362.891344	2469.895683
363.279722	2467.072637
363.668037	2469.487349
364.056289	2469.580611
364.444478	2471.879377
364.832603	2471.103039
365.220665	2471.733183
365.608665	2469.772175
365.996601	2469.830148
366.384474	2472.310396
366.772284	2470.510704
367.160031	2471.796198
367.547715	2472.738894
367.935336	2472.091105
368.322893	2470.435086
368.710388	2469.910806
369.097820	2471.758389
369.485189	2470.785447
369.872495	2474.709985
370.259738	2472.990951
370.646918	2473.439614
371.034035	2476.360963
371.421090	2475.077989
371.808081	2477.054121
372.195010	2475.476240
372.581875	2476.378607
372.968678	2476.912969
373.355418	2478.621920
373.742096	2476.144193
374.128710	2477.409523
374.515262	2476.676035
374.901751	2481.213073
375.288177	2476.323154
375.674540	2478.775675
376.060841	2474.783082
376.447079	2476.918010
376.833254	2478.735346
377.219367	2478.145531
377.605417	2478.100161
377.991404	2480.305666
378.377329	2481.497898
378.763191	2480.174596
379.148991	2481.243320
379.534727	2481.339102
379.920402	2482.123002
380.306013	2481.351705
380.691563	2481.444966
381.077049	2478.800881
381.462474	2478.024543
381.847835	2480.212404
382.233134	2483.259782
382.618371	2480.179637
383.003545	2480.378762
383.388657	2483.002683
383.773706	2482.740543
384.158693	2484.459576
384.543618	2482.130563
384.928480	2482.591829
385.313280	2480.706437
385.698017	2482.798516
386.082692	2482.201139
386.467305	2485.351861
386.851856	2486.241624
387.236344	2485.205667
387.620770	2482.622076
388.005133	2482.206181
388.389435	2480.189719
388.773674	2478.405151
389.157851	2486.594505
389.541965	2486.876810
389.926018	2483.196767
390.310008	2486.738178
390.693936	2489.349496
391.077802	2485.321614
391.461606	2484.910760
391.845348	2485.964361
392.229027	2488.197592
392.612645	2486.400421
392.996200	2486.528970
393.379694	2488.885709
393.763125	2486.728096
394.146494	2489.152891
394.529801	2489.561224
394.913047	2490.594661
395.296230	2488.328662
395.679351	2489.286481
396.062410	2488.492499
396.445408	2488.931080
396.828343	2490.072901
397.211217	2491.310504
397.594028	2488.890751
397.976778	2487.791779
398.359466	2489.132726
398.742092	2487.106182
399.124656	2489.077273
399.507158	2491.053406
399.889598	2490.282109
400.271977	2489.268837
400.654294	2489.248672
401.036549	2491.749085
401.418742	2489.800679
401.800874	2492.550628
402.182944	2493.309322
402.564952	2490.115751
402.946898	2493.369816
403.328783	2492.769918
403.710606	2492.878303
404.092367	2492.863180
404.474067	2493.889055
404.855705	2492.107007
405.237282	2493.601709
405.618797	2493.682367
406.000250	2496.162615
406.381642	2492.621204
406.762972	2495.713952
407.144240	2490.975268
407.525447	2490.052737
407.906593	2488.394197
408.287677	2495.713952
408.668700	2488.903353
409.049661	2495.598006
409.430560	2493.606750
409.811399	2495.363592
410.192176	2495.643376
410.572891	2495.040958
410.953545	2496.316370
411.334138	2494.415855
411.714669	2495.214878
412.095139	2496.021463
412.475547	2493.947028
412.855894	2495.870228
413.236180	2494.912409
413.616405	2496.911226
413.996568	2493.344610
414.376670	2494.834271
414.756711	2494.854436
415.136691	2494.947697
415.516609	2497.367451
415.896466	2497.369971
416.276262	2496.278562
416.655997	2497.982472
417.035670	2497.649755
417.415283	2496.943994
417.794834	2496.828047
418.174324	2495.787049
418.553753	2498.310147
418.933121	2497.092708
419.312428	2497.795949
419.691674	2498.453819
420.070859	2500.177894
420.449983	2497.919457
420.829045	2497.836278
421.208047	2494.806545
421.586988	2498.063130
421.965867	2500.578666
422.344686	2499.751917
422.723444	2499.850219
423.102141	2501.133193
423.480777	2499.777122
423.859352	2500.117400
424.237866	2499.308295
424.616319	2499.081443
424.994712	2502.610251
425.373044	2500.530775
425.751314	2497.427945
426.129524	2496.515496
426.507673	2498.393326
426.885762	2495.643376
427.263789	2499.346104
427.641756	2500.051865
428.019662	2501.231495
428.397508	2498.022801
428.775292	2498.841988
429.153016	2499.462050
429.530679	2500.888697
429.908282	2498.630260
430.285824	2500.417349
430.663305	2501.591938
431.040726	2502.789212
431.418086	2499.867863
431.795385	2502.045642
432.172624	2499.847698
432.549802	2500.130003
432.926920	2499.827534
433.303977	2500.248470
433.680974	2502.784171
434.057910	2501.062617
434.434786	2501.012205
434.811601	2501.707884
435.188355	2500.306443
435.565050	2500.954232
435.941683	2497.533809
436.318257	2502.451454
436.694770	2499.089005
437.071222	2501.445744
437.447614	2502.327946
437.823946	2502.673265
438.200218	2501.430621
438.576429	2501.377689
438.952580	2500.893738
439.328670	2501.097905
439.704700	2498.834427
440.080670	2502.650580
440.456580	2498.700836
440.832429	2503.956239
441.208218	2500.624036
441.583947	2502.320384
441.959616	2502.864829
442.335224	2502.645539
442.710773	2503.560508
443.086261	2499.653614
443.461689	2498.763850
443.837057	2503.036228
444.212365	2503.200066
444.587612	2500.384581
444.962800	2498.214365
445.337927	2500.397184
445.712995	2495.973572
446.088002	2504.208297
446.462949	2500.891217
446.837837	2503.031187
447.212664	2501.143275
447.587431	2500.271155
447.962139	2502.738800
448.336786	2501.770899
448.711374	2503.963801
449.085901	2505.186280
449.460369	2503.068996
449.834776	2501.672596
450.209124	2504.483039
450.583412	2505.887001
450.957640	2501.536485
451.331808	2504.314161
451.705917	2504.112515
452.079965	2503.573111
452.453954	2502.340549
452.827883	2503.268121
453.201752	2503.101763
453.575562	2505.453462
453.949311	2503.759634
454.323001	2501.843995
454.696632	2502.973214
455.070202	2503.704181
455.443713	2504.243585
455.817164	2501.475991
456.190556	2503.794922
456.563888	2506.146620
456.937160	2504.644356
457.310373	2504.583863
457.683526	2504.966990
458.056619	2503.802484
458.429653	2502.436331
458.802628	2503.472288
459.175542	2503.946157
459.548398	2503.076557
459.921194	2502.897597
460.293930	2507.424553
460.666607	2504.714933
461.039224	2504.553616
461.411782	2501.907010
461.784280	2506.484378
462.156719	2508.793226
462.529099	2504.588904
462.901419	2504.041938
463.273680	2504.344408
463.645882	2501.460868
464.018024	2500.150168
464.390106	2499.913233
464.762130	2504.851044
465.134094	2504.205776
465.505999	2502.864829
465.877845	2506.890190
466.249631	2503.179901
466.621358	2503.996568
466.993026	2503.540344
467.364634	2510.900428
467.736184	2507.202742
468.107674	2507.671569
468.479105	2504.989675
468.850477	2504.132679
469.221790	2504.200735
469.593043	2504.286434
469.964238	2505.821466
470.335373	2504.490601
470.706449	2506.128976
471.077467	2504.034377
471.448425	2506.358349
471.819324	2508.768020
472.190164	2509.415808
472.560945	2503.779798
472.931667	2505.284583
473.302330	2506.484377
473.672934	2503.963801
474.043479	2506.297855
474.413965	2507.250633
474.784393	2506.388596
475.154761	2506.428925
475.525070	2508.808349
475.895321	2504.858605
476.265513	2508.959584
476.635645	2507.951353
477.005719	2506.305417
477.375734	2506.181908
477.745691	2507.043946
478.115588	2507.348935
478.485427	2509.110819
478.855207	2507.089316
479.224928	2509.872033
479.594591	2507.558143
479.964194	2509.786333
480.333739	2508.258864
480.703226	2507.734584
481.072653	2510.580315
481.442022	2509.604852
481.811333	2507.124604
482.180584	2506.381034
482.549777	2505.675272
482.918912	2503.658811
483.287988	2508.684841
483.657005	2511.155007
484.025964	2509.262053
484.394864	2510.454286
484.763706	2507.661487
485.132489	2506.416322
485.501213	2511.719616
485.869879	2509.360356
486.238487	2508.377331
486.607036	2509.204080
486.975527	2510.378669
487.343959	2506.343225
487.712333	2511.936385
488.080648	2508.755417
488.448905	2511.270953
488.817104	2509.435973
489.185244	2509.771210
489.553326	2509.138545
489.921350	2510.696262
490.289315	2510.676097
490.657222	2511.228103
491.025070	2511.051663
491.392861	2512.198525
491.760593	2511.492764
492.128267	2510.401354
492.495883	2509.360356
492.863440	2511.507887
493.230939	2509.095695
493.598380	2509.360356
493.965763	2509.400685
494.333088	2510.040912
494.700354	2509.355315
495.067563	2510.247599
495.434713	2510.497136
495.801805	2508.679800
496.168839	2508.412619
496.535815	2510.517301
496.902733	2509.733401
497.269593	2513.113495
497.636395	2509.995541
498.003139	2512.042250
498.369825	2508.828514
498.736453	2512.261540
499.103023	2509.856909
499.469535	2511.195336
499.835989	2509.564522
500.202385	2508.629388
500.568723	2505.771054
500.935003	2509.960253
501.301226	2508.321878
501.667390	2510.973525
502.033497	2510.630727
502.399546	2510.582836
502.765537	2510.590397
503.131470	2510.907990
503.497345	2511.636437
503.863163	2513.725995
504.228923	2508.523524
504.594625	2511.613752
504.960269	2511.094513
505.325856	2513.889832
505.691385	2511.540655
506.056856	2510.025788
506.422270	2508.246261
506.787625	2511.712054
507.152924	2511.102074
507.518164	2512.987466
507.883347	2509.763648
508.248472	2512.311951
508.613540	2510.726508
508.978550	2510.794564
509.343503	2512.022085
509.708398	2510.071158
510.073236	2510.313134
510.438016	2512.720285
510.802738	2510.968484
511.167403	2510.212311
511.532010	2514.134328
511.896561	2514.220028
512.261053	2513.857065
512.625488	2512.579133
512.989866	2512.556447
513.354186	2513.204236
513.718449	2512.115346
514.082655	2517.360667
514.446803	2511.868330
514.810894	2513.816736
515.174927	2511.954029
515.538904	2512.831190
515.902822	2512.100223
516.266684	2512.899246
516.630488	2510.527383
516.994235	2512.150634
517.357925	2512.337157
517.721558	2512.475789
518.085133	2512.543844
518.448651	2510.169461
518.812112	2509.264574
519.175516	2510.121570
519.538863	2510.628206
519.902152	2512.808505
520.265385	2514.325892
520.628560	2514.353619
520.991678	2515.203053
521.354739	2512.322034
521.717743	2516.811181
522.080690	2515.722292
522.443580	2515.192971
522.806413	2517.166583
523.169189	2513.219359
523.531908	2515.560975
523.894569	2517.458969
524.257174	2516.133146
524.619722	2516.135667
524.982213	2517.612725
525.344647	2514.847652
525.707025	2516.445697
526.069345	2517.799247
526.431608	2517.486696
526.793815	2520.193795
527.155964	2521.759074
527.518057	2520.380318
527.880093	2519.765297
528.242072	2519.205729
528.603995	2518.232787
528.965860	2521.474248
529.327669	2522.227901
529.689421	2521.754032
530.051117	2522.023734
530.412755	2518.961233
530.774337	2523.740247
531.135862	2521.885103
531.497331	2522.825278
531.858743	2525.043385
532.220098	2525.300484
532.581396	2526.046575
532.942638	2527.188396
533.303824	2524.932480
533.664953	2526.603623
534.026025	2527.180835
534.387040	2527.420289
534.747999	2526.563293
535.108902	2530.117307
535.469748	2530.558408
535.830537	2530.089580
536.191270	2532.869777
536.551947	2528.995650
536.912567	2528.970444
537.273131	2530.268541
537.633638	2529.603109
537.994089	2532.579910
538.354483	2534.989582
538.714821	2535.468492
539.075103	2535.803728
539.435328	2536.297761
539.795497	2534.210724
540.155609	2537.119469
540.515665	2540.529810
540.875665	2539.685417
541.235609	2539.234233
541.595496	2537.275745
541.955328	2540.532331
542.315102	2540.466796
542.674821	2539.148534
543.034483	2541.011240
543.394090	2542.841179
543.753640	2541.550644
544.113134	2544.043494
544.472571	2542.889070
544.831953	2545.414688
545.191278	2544.466951
545.550548	2544.842517
545.909761	2546.059956
546.268918	2546.657333
546.628019	2545.971736
546.987064	2549.641696
547.346053	2546.803526
547.704986	2547.080789
548.063863	2549.185471
548.422684	2553.467931
548.781449	2550.904505
549.140158	2550.528939
549.498811	2551.451470
549.857408	2553.389793
550.215949	2553.543549
550.574434	2552.066491
550.932864	2555.239897
551.291237	2553.288970
551.649555	2552.399207
552.007817	2554.844166
552.366022	2553.639331
552.724173	2555.010524
553.082267	2555.769218
553.440305	2553.916594
553.798288	2555.960782
554.156215	2555.136553
554.514086	2555.542366
554.871902	2553.321738
555.229661	2556.963972
555.587365	2556.661502
555.945014	2559.260217
556.302606	2558.269630
556.660143	2559.018242
557.017625	2559.345917
557.375050	2561.848850
557.732421	2560.896072
558.089735	2563.835064
558.446994	2562.332800
558.804197	2564.883624
559.161345	2559.824826
559.518437	2562.458829
559.875474	2560.893551
560.232455	2562.597461
560.589381	2562.045455
560.946251	2564.392112
561.303065	2566.532082
561.659825	2562.269786
562.016528	2561.836247
562.373177	2563.308264
562.729770	2564.739951
563.086307	2566.857236
563.442789	2567.142061
563.799216	2564.969324
564.155587	2565.906978
564.511904	2566.408573
564.868164	2565.372616
565.224370	2567.101732
565.580520	2565.244067
565.936615	2569.750858
566.292654	2568.609037
566.648638	2568.977041
567.004567	2568.263718
567.360441	2568.856053
567.716260	2567.058882
568.072023	2566.421176
568.427732	2569.657597
568.783385	2569.682803
569.138982	2570.048286
569.494525	2570.002916
569.850013	2570.600293
570.205445	2568.712381
570.560823	2571.532906
570.916145	2571.568194
571.271412	2569.367731
571.626625	2570.759089
571.981782	2571.580797
572.336884	2564.487894
572.691931	2567.923440
573.046923	2565.841443
573.401860	2566.335477
573.756743	2570.517114
574.111570	2568.750189
574.466342	2571.071641
574.821059	2570.076013
575.175722	2570.575087
575.530330	2572.921744
575.884882	2571.732032
576.239380	2570.907803
576.593823	2572.125242
576.948211	2570.527196
577.302544	2572.599110
577.656823	2570.499470
578.011047	2571.053997
578.365216	2568.626681
578.719330	2569.042576
579.073389	2567.676423
579.427394	2571.278328
579.781344	2570.002916
580.135239	2572.198338
580.489080	2569.831517
580.842866	2569.760941
581.196597	2570.985941
581.550273	2570.144068
581.903895	2569.975190
582.257463	2573.012485
582.610975	2571.580797
582.964434	2571.855540
583.317837	2569.138358
583.671186	2569.987792
584.024481	2572.420149
584.377721	2567.968810
584.730906	2569.334963
585.084037	2570.955694
585.437113	2569.604665
585.790135	2569.508883
586.143103	2569.334963
586.496016	2571.422001
586.848874	2569.949984
587.201679	2572.198338
587.554428	2569.080385
587.907124	2570.222206
588.259765	2569.723132
588.612352	2573.645150
588.964884	2567.341187
589.317362	2571.704305
589.669786	2569.907134
590.022155	2569.400498
590.374470	2567.086608
590.726731	2566.753892
591.078937	2566.378326
591.431090	2571.190108
591.783188	2570.716239
592.135232	2570.403688
592.487222	2569.508883
592.839157	2569.413101
593.191038	2569.529047
593.542866	2571.318657
593.894639	2569.755899
594.246358	2570.693554
594.598022	2569.730694
594.949633	2568.684654
595.301190	2571.439645
595.652692	2568.523337
596.004141	2568.326732
596.355535	2569.639953
596.706876	2569.206414
597.058162	2565.498645
597.409395	2572.160530
597.760573	2569.261866
598.111698	2569.455951
598.462768	2568.500652
598.813785	2567.290775
599.164748	2568.573749
599.515657	2569.743297
599.866511	2569.186249
600.217312	2569.730694
600.568060	2567.709191
600.918753	2572.110118
601.269392	2570.801939
601.619978	2570.126424
601.970510	2571.371589
602.320988	2573.806467
602.671412	2573.314954
603.021783	2573.514080
603.372100	2572.387382
603.722363	2572.853688
604.072572	2572.329408
604.422728	2574.998699
604.772830	2571.941240
605.122878	2576.619430
605.472872	2573.630026
605.822813	2575.485171
606.172701	2576.165727
606.522534	2577.874678
606.872314	2579.719740
607.222041	2578.073803
607.571714	2581.332909
607.921333	2576.344687
608.270899	2577.569688
608.620411	2572.914182
608.969870	2581.426171
609.319276	2582.837694
609.668627	2582.615883
610.017926	2583.263671
610.367171	2585.958168
610.716362	2587.352047
611.065500	2588.438416
611.414585	2588.977819
611.763616	2593.275403
612.112594	2592.998139
612.461518	2593.472008
612.810389	2596.471494
613.159207	2597.930908
613.507971	2596.375712
613.856682	2597.545260
614.205340	2600.640528
614.553945	2601.986517
614.902496	2603.531630
615.250994	2604.023143
615.599439	2609.550768
615.947830	2608.812239
616.296169	2611.710902
616.644454	2615.794237
616.992686	2616.626027
617.340864	2619.643158
617.688990	2622.415792
618.037063	2627.882924
618.385082	2628.833181
618.733048	2633.491207
619.080961	2635.646301
619.428821	2637.148565
619.776628	2643.049235
620.124382	2642.414050
620.472083	2645.163999
620.819731	2650.000986
621.167326	2649.186840
621.514868	2652.085503
621.862357	2651.392345
622.209793	2654.469969
622.557176	2653.817140
622.904506	2655.090031
623.251783	2656.221770
623.599007	2660.098417
623.946179	2659.869045
624.293297	2662.558501
624.640363	2662.203099
624.987376	2662.175373
625.334336	2662.649241
625.681243	2667.803821
626.028097	2664.375837
626.374899	2676.136848
626.721647	2677.825635
627.068343	2683.166737
627.414987	2684.389217
627.761577	2687.471883
628.108115	2691.915660
628.454600	2693.775846
628.801032	2700.956969
629.147412	2702.824717
629.493739	2706.529965
629.840014	2711.848382
630.186236	2720.763663
630.532405	2723.601832
630.878521	2727.508727
631.224585	2733.777402
631.570597	2740.280490
631.916556	2748.563106
632.262462	2751.691142
632.608316	2760.392173
632.954117	2765.324942
633.299866	2770.502207
633.645562	2774.572939
633.991206	2777.693413
634.336797	2779.011675
634.682336	2780.546706
635.027823	2784.607356
635.373257	2786.293622
635.718639	2789.081380
636.063968	2796.504479
636.409245	2795.002215
636.754470	2799.877011
637.099642	2802.120324
637.444762	2805.737352
637.789829	2813.515852
638.134845	2816.621203
638.479808	2820.316369
638.824719	2827.247956
639.169577	2828.931701
639.514383	2838.131807
639.859137	2838.091478
640.203839	2847.483147
640.548489	2854.225690
640.893086	2859.168542
641.237632	2863.869418
641.582125	2874.801160
641.926566	2878.312323
642.270955	2883.913045
642.615292	2891.618449
642.959576	2901.307547
643.303809	2908.503794
643.647990	2923.067687
643.992118	2930.445416
644.336195	2936.635953
644.680219	2949.160700
645.024192	2962.476908
645.368112	2983.034733
645.711981	2996.227433
646.055797	3020.482944
646.399562	3034.961138
646.743274	3064.356106
647.086935	3086.799323
647.430544	3103.057044
647.774101	3118.619086
648.117606	3136.063999
648.461059	3151.759632
648.804460	3156.979746
649.147810	3152.508243
649.491108	3154.902791
649.834354	3160.556445
650.177548	3156.468069
650.520690	3154.096206
650.863781	3165.244718
651.206820	3173.892818
651.549807	3176.148734
651.892742	3175.016995
652.235626	3188.928059
652.578458	3193.076928
652.921238	3190.389993
653.263967	3211.656101
653.606644	3218.229766
653.949269	3231.719893
654.291843	3235.752816
654.634365	3256.827360
654.976836	3257.240735
655.319255	3273.780760
655.661622	3283.311062
656.003938	3290.598050
656.346203	3299.467960
656.688416	3317.265753
657.030577	3325.666836
657.372687	3333.904082
657.714746	3349.597194
658.056753	3367.531098
658.398708	3365.333155
658.740612	3381.719426
659.082465	3400.250708
659.424266	3412.969539
659.766016	3425.148966
660.107715	3438.329063
660.449362	3457.755149
660.790958	3475.424394
661.132503	3487.986949
661.473996	3507.471009
661.815438	3524.018596
662.156829	3543.202707
662.498168	3550.396434
662.839456	3565.913105
663.180693	3584.404058
663.521879	3606.164198
663.863013	3618.799850
664.204097	3633.676295
664.545129	3669.493693
664.886110	3683.913914
665.227040	3707.171277
665.567918	3728.903691
665.908746	3750.157196
666.249522	3775.088222
666.590248	3794.655461
666.930922	3817.602793
667.271545	3836.731452
667.612118	3857.402703
667.952639	3868.132799
668.293109	3884.027557
668.633528	3892.781521
668.973896	3905.810383
669.314213	3922.604987
669.654480	3929.221501
669.994695	3943.472843
670.334859	3959.370122
670.674973	3970.821103
671.015035	3992.883713
671.355047	4011.069675
671.695008	4026.450235
672.034918	4040.809962
672.374777	4070.406576
672.714585	4080.924944
673.054342	4114.161271
673.394049	4125.158548
673.733705	4159.362777
674.073310	4162.334537
674.412864	4181.042259
674.752368	4180.462527
675.091820	4214.162640
675.431223	4205.070919
675.770574	4208.894634
676.109875	4217.298238
676.449125	4213.598031
676.788324	4218.848393
677.127473	4210.081826
677.466571	4217.671283
677.805619	4220.877457
678.144616	4233.434971
678.483562	4245.858895
678.822458	4242.758585
679.161303	4257.239300
679.500098	4271.626753
679.838842	4279.322074
680.177535	4301.848470
680.516179	4345.885469
680.854771	4375.035942
681.193314	4456.932006
681.531805	4565.475610
681.870247	4654.394002
682.208638	4731.614397
682.546978	4777.743475
682.885268	4808.497034
683.223508	4794.641423
683.561697	4796.335251
683.899836	4804.499399
684.237925	4797.900529
684.575963	4809.439730
684.913951	4803.796158
685.251889	4846.033466
685.589776	4872.786869
685.927614	4899.378956
686.265401	4947.179177
686.603137	4985.035722
686.940824	5059.082710
687.278460	5122.739880
687.616046	5174.320966
687.953582	5265.094503
688.291068	5292.926713
688.628504	5352.069530
688.965889	5376.942583
689.303224	5372.738261
689.640510	5360.783165
689.977745	5321.058872
690.314930	5261.190129
690.652065	5225.954984
690.989150	5180.002347
691.326185	5110.429382
691.663170	5058.956681
692.000105	5001.477445
692.336990	4949.850988
692.673825	4920.004837
693.010610	4894.224376
693.347345	4855.309189
693.684030	4799.662412
694.020665	4795.541269
694.357251	4744.703753
694.693786	4758.977780
695.030272	4755.587604
695.366707	4721.297676
695.703093	4705.344944
696.039429	4731.483327
696.375716	4723.546030
696.711952	4740.943052
697.048139	4743.672837
697.384276	4747.060492
697.720363	4777.191469
698.056400	4782.404022
698.392388	4780.748003
698.728326	4798.507988
699.064214	4793.381135
699.400053	4810.074916
699.735842	4775.966469
700.071581	4763.782000
700.407270	4749.102160
700.742910	4740.640583
701.078501	4727.982246
701.414042	4712.256366
701.749533	4688.169733
702.084974	4668.171476
702.420366	4704.185479
702.755709	4669.640972
703.091002	4642.035614
703.426246	4666.674253
703.761440	4671.133154
704.096584	4654.187315
704.431679	4656.357532
704.766725	4671.211292
705.101721	4673.494934
705.436668	4703.119275
705.771565	4682.100184
706.106413	4739.529009
706.441212	4759.859982
706.775961	4792.743429
707.110661	4821.115042
707.445311	4886.730701
707.779913	4888.255650
708.114465	4946.911996
708.448967	5006.745451
708.783421	5117.199652
709.117825	5188.650446
709.452180	5246.664044
709.786485	5332.532538
710.120742	5460.524914
710.454949	5506.555690
710.789107	5605.677377
711.123216	5734.897274
711.457275	5798.922448
711.791286	5905.371453
712.125247	5953.141427
712.459159	5931.976142
712.793023	6066.257357
713.126837	5929.833652
713.460602	5981.026569
713.794318	5947.384429
714.127985	5921.551036
714.461602	5793.979597
714.795171	5801.390093
715.128691	5658.516231
715.462162	5590.337146
715.795584	5531.758938
716.128957	5501.214587
716.462281	5450.369510
716.795556	5421.014871
717.128782	5352.077092
717.461960	5272.981388
717.795088	5279.086225
718.128167	5237.259772
718.461198	5178.119476
718.794180	5166.144215
719.127113	5119.122852
719.459997	5101.907312
719.792833	5057.010796
720.125619	5072.083846
720.458357	5029.576836
720.791046	5018.135938
721.123686	5002.531046
721.456278	4976.294361
721.788821	4990.197863
722.121315	4952.492553
722.453761	4980.849043
722.786158	4975.699505
723.118506	5004.297970
723.450805	4995.609542
723.783056	5041.168970
724.115259	5037.504051
724.447412	5045.902613
724.779518	5105.226912
725.111574	5127.075272
725.443582	5192.892577
725.775542	5203.174010
726.107453	5310.679137
726.439315	5314.472605
726.771129	5410.620012
727.102895	5503.299104
727.434612	5571.120268
727.766281	5619.510303
728.097901	5696.778589
728.429473	5729.578857
728.760996	5742.925311
729.092471	5783.988030
729.423897	5779.486280
729.755276	5770.152583
730.086606	5805.367563
730.417887	5935.517553
730.749120	6068.788017
731.080305	6127.653570
731.411442	6229.192491
731.742530	6270.774448
732.073570	6323.880483
732.404562	6399.916207
732.735506	6395.701802
733.066401	6364.650815
733.397249	6270.635817
733.728048	6156.521738
734.058798	5985.898844
734.389501	5837.270506
734.720156	5744.367081
735.050762	5629.315348
735.381320	5560.952260
735.711831	5511.483418
736.042293	5446.455054
736.372707	5461.608762
736.703073	5433.592550
737.033391	5487.180015
737.363661	5500.604608
737.693883	5539.297984
738.024056	5598.788641
738.354182	5662.450852
738.684260	5754.958546
739.014290	5831.548796
739.344272	5897.998765
739.674207	5991.890256
740.004093	6048.439399
740.333931	6071.240538
740.663722	6107.705724
740.993464	6129.208766
741.323159	6108.275375
741.652806	6053.198248
741.982405	6025.303023
742.311956	5954.542868
742.641460	5944.712618
742.970915	5878.517226
743.300323	5812.599099
743.629683	5769.925731
743.958996	5705.648499
744.288260	5639.616946
744.617477	5579.617132
744.946647	5578.568572
745.275768	5518.357031
745.604842	5475.292974
745.933869	5441.366009
746.262847	5447.717863
746.591778	5436.314773
746.920662	5418.123769
747.249498	5430.351088
747.578286	5480.210620
747.907027	5538.040216
748.235720	5613.944870
748.564365	5645.550384
748.892963	5635.311800
749.221514	5676.593809
749.550017	5651.564480
749.878473	5655.912475
750.206881	5601.747798
750.535242	5598.448363
750.863555	5588.955870
751.191821	5572.322583
751.520039	5582.977062
751.848210	5579.549077
752.176334	5603.018169
752.504411	5592.827476
752.832440	5553.398091
753.160421	5594.080203
753.488356	5572.559517
753.816243	5555.906065
754.144082	5522.147979
754.471875	5515.768398
754.799620	5519.133369
755.127318	5520.242423
755.454969	5524.877763
755.782572	5532.172313
756.110129	5544.036669
756.437638	5530.465882
756.765100	5538.050298
757.092515	5554.754162
757.419882	5574.487758
757.747203	5586.155509
758.074477	5616.278924
758.401703	5622.172033
758.728882	5683.527916
759.056014	5704.090783
759.383099	5764.972798
759.710138	5809.098017
760.037129	5852.772054
760.364073	5879.084356
760.690970	5898.449949
761.017820	5919.920223
761.344623	6000.671946
761.671379	6124.838086
761.998088	6347.258834
762.324751	6887.420990
762.651366	7885.050212
762.977935	9188.942134
763.304456	10088.846069
763.630931	10426.590774
763.957359	10117.157189
764.283740	9474.158016
764.610074	8818.356832
764.936362	8052.696304
765.262602	7496.551171
765.588796	6939.496109
765.914943	6556.471760
766.241044	6228.355659
766.567097	5990.287169
766.893104	5780.000477
767.219064	5647.803779
767.544978	5506.689280
767.870845	5394.218618
768.196665	5333.162683
768.522438	5267.103403
768.848165	5207.456470
769.173846	5149.906658
769.499479	5120.269715
769.825066	5070.546294
770.150607	5000.854862
770.476101	4981.305268
770.801548	4949.639260
771.126949	4906.708794
771.452303	4877.593610
771.777611	4820.643695
772.102872	4821.175536
772.428087	4779.212972
772.753256	4736.035489
773.078378	4712.757961
773.403453	4656.541534
773.728482	4624.179847
774.053465	4607.788535
774.378401	4579.260646
774.703291	4543.818813
775.028135	4505.795911
775.352932	4499.071011
775.677683	4467.631855
776.002388	4433.924180
776.327046	4444.215696
776.651658	4415.002209
776.976224	4383.200090
777.300743	4389.539341
777.625216	4367.131412
777.949643	4354.861244
778.274024	4363.423644
778.598359	4335.674612
778.922647	4348.935368
779.246889	4332.448274
779.571086	4344.272300
779.895236	4347.291951
780.219339	4353.578270
780.543397	4356.398796
780.867409	4388.498343
781.191374	4398.051329
781.515294	4391.046646
781.839167	4432.978964
782.162995	4426.843880
782.486776	4410.379471
782.810511	4398.215167
783.134201	4376.608782
783.457844	4375.255232
783.781441	4363.723592
784.104993	4344.688195
784.428498	4339.394984
784.751958	4338.946321
785.075372	4339.009336
785.398739	4322.403775
785.722061	4342.843133
786.045337	4349.343701
786.368568	4410.261004
786.691752	4420.660904
787.014891	4549.842992
787.337983	4682.362324
787.661030	4896.828132
787.984031	5132.338237
788.306987	5289.642402
788.629897	5376.990474
788.952760	5373.262541
789.275579	5306.018590
789.598351	5167.636396
789.921078	5042.741810
790.243759	4889.536103
790.566395	4788.564312
790.888984	4697.357236
791.211529	4623.373262
791.534027	4545.565573
791.856480	4472.305005
792.178888	4443.663689
792.501249	4411.596910
792.823566	4352.542313
793.145836	4355.002396
793.468062	4347.556612
793.790241	4335.999767
794.112375	4365.792986
794.434464	4431.839663
794.756507	4450.214669
795.078505	4510.012836
795.400457	4628.502636
795.722364	4766.892392
796.044226	4885.067120
796.366042	4991.606866
796.687812	4979.868539
797.009538	5019.040825
797.331218	4985.839786
797.652852	4959.973625
797.974442	4906.111417
798.295986	4879.473960
798.617484	4808.262621
798.938938	4754.110546
799.260346	4720.004620
799.581709	4644.379750
799.903026	4620.766986
800.224299	4581.130914
800.545526	4513.327394
800.866708	4477.081498
801.187845	4449.728197
801.508936	4408.247063
801.829983	4398.409251
802.150984	4338.071681
802.471940	4315.956139
802.792851	4318.955626
803.113717	4306.075478
803.434538	4295.909991
803.755314	4271.644397
804.076045	4272.493831
804.396731	4254.592694
804.717372	4269.350672
805.037967	4266.457049
805.358518	4283.964977
805.679024	4325.559537
805.999485	4325.189012
806.319901	4344.312629
806.640272	4358.258982
806.960598	4398.502513
807.280879	4395.714755
807.601115	4439.489614
807.921306	4416.829628
808.241453	4426.929579
808.561554	4441.233853
808.881611	4429.409827
809.201623	4437.692443
809.521590	4415.957508
809.841513	4417.951284
810.161390	4441.327115
810.481223	4388.755442
810.801011	4382.799318
811.120755	4379.721694
811.440453	4351.443342
811.760107	4340.100745
812.079716	4333.932894
812.399281	4307.935663
812.718801	4307.151764
813.038276	4293.507881
813.357707	4269.983337
813.677093	4294.259013
813.996434	4253.649998
814.315731	4279.417856
814.634983	4281.010861
814.954191	4288.683497
815.273354	4342.364223
815.592473	4371.910426
815.911547	4432.225311
816.230577	4471.795848
816.549562	4536.357906
816.868502	4588.372531
817.187399	4640.261128
817.506250	4719.931523
817.825058	4736.612701
818.143821	4868.874934
818.462539	4998.306559
818.781213	5167.722096
819.099843	5415.424231
819.418429	5869.458273
819.736970	6302.979860
820.055466	6847.953796
820.373919	7553.077629
820.692327	8630.488152
821.010691	10375.397856
821.329011	13924.410493
821.647286	18847.820630
821.965517	24437.318424
822.283704	27802.949007
822.601847	29831.791619
822.919945	28129.396486
823.237999	25811.267260
823.556010	22984.178101
823.873976	20153.608025
824.191897	17375.723048
824.509775	15365.018507
824.827609	13514.547042
825.145398	12428.392637
825.463144	11885.349462
825.780845	12032.089889
826.098502	12793.704891
826.416116	14364.838461
826.733685	15932.274344
827.051210	16481.563508
827.368692	15796.505988
827.686129	14145.873423
828.003522	12360.397554
828.320872	10725.997503
828.638177	9479.483995
828.955439	8512.431891
829.272656	7680.419695
829.589830	7017.883531
829.906960	6440.893226
830.224046	6001.632286
830.541088	5660.567981
830.858086	5451.304644
831.175041	5278.899703
831.491952	5228.488164
831.808819	5267.892343
832.125642	5474.685515
832.442421	5908.870014
832.759157	6753.013746
833.075849	8082.905418
833.392497	9520.715592
833.709101	10500.446198
834.025662	10467.126692
834.342179	9761.604608
834.658653	8782.247048
834.975083	7884.568782
835.291469	7126.149871
835.607811	6498.395147
835.924110	6057.200924
836.240366	5638.323890
836.556578	5247.034569
836.872746	4937.913536
837.188871	4694.052760
837.504952	4490.952233
837.820990	4337.978420
838.136984	4229.575968
838.452935	4187.668856
838.768842	4207.704922
839.084706	4414.964401
839.400526	4990.517976
839.716303	5754.973669
840.032037	6293.076513
840.347727	6278.989008
840.663373	5822.920861
840.978977	5314.901103
841.294537	4920.168674
841.610054	4618.526193
841.925527	4396.037388
842.240957	4216.607600
842.556344	4051.840007
842.871687	3909.409767
843.186987	3765.031120
843.502244	3654.851662
843.817458	3573.195052
844.132629	3503.735514
844.447756	3455.993266
844.762840	3416.251330
845.077881	3378.112480
845.392879	3345.786081
845.707833	3320.093841
846.022745	3301.320584
846.337613	3285.566978
846.652438	3261.986981
846.967221	3255.027668
847.281960	3237.693661
847.596656	3230.303329
847.911309	3219.306052
848.225919	3207.965976
848.540485	3198.196220
848.855009	3190.977288
849.169490	3181.620906
849.483928	3177.812315
849.798323	3173.965914
850.112675	3167.054492
850.426984	3168.171108
850.741251	3162.119203
851.055474	3159.580982
851.369654	3161.252124
851.683792	3162.267917
851.997887	3163.276147
852.311938	3166.532733
852.625947	3166.815037
852.939914	3161.579799
853.253837	3168.529030
853.567718	3170.001047
853.881555	3163.621467
854.195350	3173.010616
854.509103	3170.406860
854.822812	3172.665297
855.136479	3169.106242
855.450103	3176.284845
855.763685	3166.457116
856.077224	3169.151612
856.390720	3178.833148
856.704173	3189.081814
857.017584	3200.126982
857.330953	3205.762992
857.644278	3215.691545
857.957561	3221.193964
858.270802	3220.372256
858.584000	3227.056826
858.897155	3223.036506
859.210268	3214.141390
859.523339	3201.278886
859.836367	3204.185111
860.149352	3199.348124
860.462295	3197.261086
860.775195	3191.897298
861.088054	3189.608615
861.400869	3192.333358
861.713642	3190.773121
862.026373	3202.602189
862.339062	3201.692260
862.651708	3213.007130
862.964312	3230.986405
863.276873	3238.706932
863.589392	3267.035697
863.901869	3296.357568
864.214303	3318.773058
864.526696	3336.359124
864.839045	3365.161756
865.151353	3377.850340
865.463619	3387.178996
865.775842	3391.862228
866.088023	3403.207344
866.400162	3401.263979
866.712258	3404.323960
867.024313	3408.089702
867.336325	3405.919485
867.648296	3411.220258
867.960224	3413.667738
868.272110	3424.604522
868.583954	3427.006632
868.895755	3435.589196
869.207515	3433.098866
869.519233	3457.190540
869.830909	3468.104638
870.142542	3477.062769
870.454134	3490.613390
870.765684	3506.487984
871.077191	3527.050850
871.388657	3539.749517
871.700081	3562.832960
872.011463	3584.688883
872.322803	3604.107407
872.634101	3618.769603
872.945357	3643.241885
873.256571	3667.878003
873.567744	3689.418854
873.878874	3698.666851
874.189963	3721.281467
874.501010	3731.517530
874.812015	3731.257910
875.122979	3752.808843
875.433900	3757.179523
875.744780	3772.257614
876.055618	3788.038947
876.366415	3793.248979
876.677169	3806.353458
876.987882	3835.486287
877.298554	3869.645145
877.609183	3917.707506
877.919771	3985.642095
878.230317	4075.127617
878.540822	4202.094118
878.851285	4387.727046
879.161707	4662.651412
879.472087	5101.788845
879.782425	5775.155928
880.092722	6905.624596
880.402977	8443.945295
880.713191	9977.418925
881.023363	11405.517316
881.333494	12257.545412
881.643583	12915.042944
881.953631	13140.523673
882.263637	12973.306079
882.573602	12426.701330
882.883526	11801.862913
883.193408	11069.174052
883.503248	10286.950812
883.813048	9544.577894
884.122806	8844.565791
884.432522	8112.088658
884.742197	7487.953483
885.051831	6943.473579
885.361424	6432.396361
885.670975	6009.783831
885.980485	5640.907481
886.289954	5336.918342
886.599382	5079.811934
886.908768	4871.995408
887.218113	4670.717259
887.527417	4509.370089
887.836680	4362.546483
888.145901	4236.179879
888.455082	4146.013802
888.764221	4060.762849
889.073319	3987.973629
889.382376	3945.418728
889.691392	3911.413625
890.000366	3896.280081
890.309300	3883.026888
890.618193	3886.268350
890.927044	3877.829458
891.235855	3895.644896
891.544625	3912.278183
891.853353	3951.324440
892.162041	4019.755583
892.470687	4124.044453
892.779293	4271.599026
893.087858	4485.638857
893.396381	4810.364782
893.704864	5251.667390
894.013306	5875.185024
894.321707	6511.305542
894.630068	6956.257945
894.938387	7090.846671
895.246665	6987.261042
895.554903	6677.653537
895.863100	6296.330578
896.171256	5988.868084
896.479371	5705.598088
896.787446	5428.798412
897.095480	5185.797153
897.403473	5005.664123
897.711425	4816.872912
898.019336	4665.149304
898.327207	4510.242208
898.635038	4383.323598
898.942827	4241.755396
899.250576	4130.890340
899.558284	4020.083258
899.865952	3947.102474
900.173579	3861.475955
900.481165	3793.122950
900.788711	3745.660487
901.096216	3700.413610
901.403681	3663.073784
901.711105	3649.566012
902.018489	3641.164929
902.325832	3686.525232
902.633135	3755.891508
902.940397	3962.475472
903.247619	4408.005088
903.554800	5183.148027
903.861941	6188.076840
904.169041	6997.797053
904.476101	7355.870211
904.783121	7208.066101
905.090100	6849.645103
905.397039	6404.070118
905.703938	5991.549978
906.010796	5600.484989
906.317614	5295.439728
906.624391	4989.514787
906.931129	4746.790791
907.237826	4511.159698
907.544483	4297.550886
907.851099	4086.230758
908.157675	3887.367321
908.464211	3700.988302
908.770707	3568.915112
909.077163	3450.064869
909.383578	3364.675285
909.689954	3298.227836
909.996289	3253.409458
910.302584	3214.617779
910.608839	3197.041796
910.915054	3178.739887
911.221229	3168.047600
911.527363	3176.942716
911.833458	3189.414530
912.139513	3204.263249
912.445527	3223.591033
912.751502	3274.680606
913.057436	3337.243846
913.363331	3421.778955
913.669186	3546.476937
913.975000	3703.440823
914.280775	3953.862661
914.586510	4293.795227
914.892205	4738.850973
915.197859	5311.044620
915.503475	5963.768179
915.809050	6526.355907
916.114585	6874.457663
916.420081	7039.414299
916.725536	7048.279168
917.030952	6830.483678
917.336328	6614.750019
917.641665	6397.158696
917.946961	6136.546165
918.252218	5898.281070
918.557435	5602.821564
918.862612	5365.642837
919.167750	5154.910003
919.472848	4912.669958
919.777906	4698.062998
920.082925	4490.765710
920.387904	4281.625881
920.692843	4131.732213
920.997743	3989.135615
921.302603	3851.252495
921.607423	3754.270778
921.912204	3656.749656
922.216946	3582.042277
922.521647	3509.280783
922.826310	3445.089250
923.130932	3394.163514
923.435516	3330.087928
923.740059	3285.783748
924.044564	3237.365986
924.349028	3204.943805
924.653454	3160.493431
924.957840	3119.425671
925.262186	3091.953903
925.566493	3055.397976
925.870761	3018.716020
926.174989	2994.387411
926.479178	2971.074595
926.783328	2943.068465
927.087438	2928.766712
927.391509	2906.051273
927.695541	2887.396483
927.999533	2870.871580
928.303486	2858.949252
928.607400	2848.309896
928.911275	2841.050635
929.215110	2829.564366
929.518906	2826.764005
929.822663	2822.108499
930.126381	2820.339054
930.430060	2828.041937
930.733699	2825.876762
931.037299	2834.749192
931.340861	2831.643842
931.644383	2836.216168
931.947866	2835.429748
932.251309	2835.006291
932.554714	2832.687361
932.858080	2829.524037
933.161407	2823.520022
933.464694	2819.638334
933.767943	2814.425781
934.071153	2814.282108
934.374323	2807.194246
934.677455	2804.789615
934.980548	2799.582103
935.283602	2795.468522
935.586617	2795.095476
935.889593	2802.221147
936.192530	2804.837506
936.495428	2813.697334
936.798287	2827.628563
937.101108	2848.335102
937.403890	2880.613610
937.706632	2919.138108
938.009336	2971.228351
938.312002	3017.433046
938.614628	3055.892009
938.917216	3089.103130
939.219765	3108.955194
939.522275	3132.111734
939.824747	3136.472333
940.127179	3137.031901
940.429573	3134.453350
940.731929	3130.291878
941.034246	3121.187554
941.336524	3112.693210
941.638763	3103.435131
941.940964	3094.527412
942.243126	3066.846436
942.545250	3056.933007
942.847335	3031.989378
943.149381	3008.742097
943.451389	2989.600836
943.753359	2968.506128
944.055290	2951.867799
944.357182	2936.424224
944.659036	2927.574479
944.960851	2918.820515
945.262628	2910.638723
945.564367	2913.698703
945.866067	2905.695871
946.167729	2907.064544
946.469352	2906.550347
946.770937	2901.242012
947.072484	2892.324211
947.373992	2896.132802
947.675462	2888.545866
947.976893	2881.329454
948.278286	2873.041797
948.579641	2869.059286
948.880958	2864.955786
949.182236	2868.812269
949.483476	2864.960827
949.784678	2865.971579
950.085841	2866.503421
950.386967	2870.886704
950.688054	2883.141749
950.989103	2893.589540
951.290114	2908.077816
951.591087	2927.728234
951.892021	2943.005451
952.192917	2962.260138
952.493776	2975.588949
952.794596	2983.526245
953.095378	2984.030361
953.396122	2980.231851
953.696828	2977.572643
953.997496	2968.485963
954.298126	2953.594394
954.598718	2940.046293
954.899272	2924.436361
955.199788	2906.812487
955.500266	2885.349774
955.800706	2864.131558
956.101108	2838.164574
956.401472	2816.964002
956.701798	2797.038841
957.002087	2771.739811
957.302337	2757.717841
957.602550	2738.929461
957.902724	2718.051522
958.202861	2704.269007
958.502960	2688.404496
958.803022	2673.555778
959.103045	2661.174704
959.403031	2653.839825
959.702979	2644.027219
960.002889	2634.779222
960.302762	2626.678088
960.602596	2615.842128
960.902393	2611.786520
961.202153	2608.166971
961.501875	2600.171701
961.801559	2595.695157
962.101205	2591.148036
962.400814	2588.650144
962.700385	2583.361974
962.999918	2579.636561
963.299414	2572.253791
963.598873	2572.256312
963.898293	2568.566187
964.197677	2569.370251
964.497022	2568.805642
964.796331	2564.921433
965.095601	2566.065775
965.394835	2563.298181
965.694030	2565.455795
965.993189	2560.918757
966.292309	2563.086453
966.591393	2561.692574
966.890439	2560.497820
967.189447	2557.407593
967.488419	2561.606874
967.787353	2561.521175
968.086249	2560.268448
968.385108	2563.356155
968.683930	2566.355641
968.982714	2568.450241
969.281462	2570.950653
969.580172	2574.605489
969.878844	2576.521128
970.177480	2588.088055
970.476078	2588.335072
970.774639	2596.456371
971.073162	2601.575662
971.371649	2605.540530
971.670098	2609.893566
971.968510	2610.846344
972.266885	2612.285594
972.565223	2618.823970
972.863524	2617.488065
973.161788	2619.335647
973.460014	2624.170114
973.758204	2627.981226
974.056356	2625.942080
974.354471	2630.595065
974.652550	2628.964251
974.950591	2627.091463
975.248595	2627.933335
975.546563	2625.362347
975.844493	2625.359826
976.142386	2620.026286
976.440243	2617.286418
976.738062	2613.457662
977.035845	2607.418360
977.333590	2607.065479
977.631299	2602.674634
977.928971	2598.613985
978.226606	2593.414034
978.524204	2592.357913
978.821765	2585.895153
979.119290	2589.572675
979.416777	2586.326172
979.714228	2591.568972
980.011642	2593.308170
980.309020	2603.713112
980.606360	2610.921962
980.903664	2627.537605
981.200931	2651.798158
981.498162	2682.639937
981.795356	2726.170300
982.092513	2778.681479
982.389633	2840.370079
982.686717	2895.207751
982.983764	2936.739297
983.280775	2966.351034
983.577749	2970.061323
983.874686	2966.978658
984.171587	2946.635082
984.468451	2922.218253
984.765279	2894.993502
985.062070	2867.088194
985.358824	2838.724142
985.655543	2803.834317
985.952224	2775.808022
986.248869	2735.816548
986.545478	2701.413194
986.842050	2663.775939
987.138586	2639.417084
987.435086	2614.730553
987.731549	2593.313211
988.027975	2579.510532
988.324366	2566.343038
988.620719	2555.534804
988.917037	2550.750749
989.213318	2544.242620
989.509563	2541.727084
989.805772	2536.101156
990.101944	2533.968748
990.398080	2532.990764
990.694180	2529.746782
990.990244	2532.365661
991.286271	2535.007226
991.582262	2533.666279
991.878217	2535.022349
992.174136	2539.229192
992.470019	2539.808925
992.765865	2540.552495
993.061676	2543.599873
993.357450	2553.997252
993.653188	2553.709907
993.948890	2567.308419
994.244556	2578.880388
994.540186	2596.302616
994.835780	2616.991511
995.131337	2640.546302
995.426859	2664.824499
995.722345	2695.121834
996.017795	2724.536967
996.313208	2749.687283
996.608586	2766.867535
996.903928	2775.170316
997.199234	2774.880449
997.494504	2775.739966
997.789738	2766.030704
998.084936	2747.365832
998.380099	2730.667010
998.675225	2712.208825
998.970316	2695.230219
999.265371	2669.558143
999.560390	2648.899494
999.855373	2630.496762
1000.150320	2613.036726
1000.445232	2592.700711
1000.740108	2582.794844
1001.034948	2566.879921
1001.329752	2551.668239
1001.624521	2551.537169
1001.919254	2542.316899
1002.213951	2537.492515
1002.508613	2531.097811
1002.803239	2531.682585
1003.097829	2523.243693
1003.392384	2520.460977
1003.686903	2519.888806
1003.981386	2513.998217
1004.275834	2512.339678
1004.570246	2512.722805
1004.864623	2511.961591
1005.158964	2510.527383
1005.453270	2508.019409
1005.747540	2504.591424
1006.041775	2503.202586
1006.335974	2502.746362
1006.630138	2505.302227
1006.924266	2505.105622
1007.218359	2503.368944
1007.512416	2501.057575
1007.806438	2497.153202
1008.100425	2499.557832
1008.394376	2494.733448
1008.688292	2501.486073
1008.982172	2497.143119
1009.276017	2500.576145
1009.569827	2497.410301
1009.863602	2500.387102
1010.157341	2499.154540
1010.451045	2496.434837
1010.744714	2497.145640
1011.038347	2495.812255
1011.331945	2495.960969
1011.625508	2497.430465
1011.919036	2492.921153
1012.212528	2494.509117
1012.505986	2496.051710
1012.799408	2494.584734
1013.092795	2494.110865
1013.386147	2495.182111
1013.679464	2496.265959
1013.972745	2492.694301
1014.265992	2493.861328
1014.559204	2496.283603
1014.852380	2493.498365
1015.145521	2493.710094
1015.438628	2492.744713
1015.731699	2491.353354
1016.024736	2494.279744
1016.317737	2496.129848
1016.610703	2492.291009
1016.903635	2497.732934
1017.196531	2499.570435
1017.489393	2497.649755
1017.782219	2498.179077
1018.075011	2499.940960
1018.367768	2500.243429
1018.660490	2499.943480
1018.953177	2499.943480
1019.245829	2499.943480
