Dividing Wavelength (nm)	Counts (n)	Blue Motor Position (mm): 8.200000	Red Motor Position (mm): 0.000000	
326.493990	2157.334062
326.888308	2157.334062
327.282561	2157.334062
327.676750	2117.844183
328.070874	2115.689090
328.464933	2116.389811
328.858929	2118.292846
329.252859	2122.431633
329.646726	2129.486728
330.040528	2145.928452
330.434265	2157.828095
330.827938	2178.184274
331.221547	2190.078877
331.615091	2209.394058
332.008571	2226.899465
332.401986	2245.156003
332.795338	2268.075609
333.188625	2283.191509
333.581847	2301.947122
333.975006	2321.693322
334.368100	2340.317864
334.761129	2357.919053
335.154095	2374.958153
335.546996	2392.229146
335.939833	2412.056004
336.332606	2426.324990
336.725315	2439.880653
337.117960	2450.809874
337.510540	2463.667337
337.903056	2475.002372
338.295508	2483.549648
338.687896	2491.973416
339.080220	2498.186638
339.472480	2505.685355
339.864676	2513.121057
340.256807	2517.239679
340.648875	2519.893847
341.040879	2522.837881
341.432818	2526.593540
341.824694	2531.685106
342.216506	2532.602596
342.608253	2531.032276
342.999937	2533.855322
343.391557	2530.321473
343.783113	2531.889272
344.174605	2529.129241
344.566033	2529.822399
344.957397	2528.468849
345.348697	2527.143026
345.739934	2526.265865
346.131106	2522.545494
346.522215	2523.989784
346.913260	2520.166069
347.304241	2519.336799
347.695159	2514.739267
348.086012	2515.122395
348.476802	2514.739267
348.867528	2511.167609
349.258191	2504.059583
349.648789	2503.419356
350.039324	2499.386433
350.429796	2506.935561
350.820203	2501.652432
351.210548	2502.174191
351.600828	2502.426249
351.991045	2498.070692
352.381198	2496.213027
352.771288	2497.233860
353.161314	2497.831237
353.551276	2499.169663
353.941175	2497.125475
354.331010	2495.635814
354.720782	2497.659838
355.110490	2497.904334
355.500135	2496.288644
355.889717	2497.864004
356.279235	2494.408293
356.668689	2498.937770
357.058080	2495.814775
357.447408	2496.971720
357.836672	2498.514313
358.225873	2498.554643
358.615010	2496.954076
359.004084	2497.692605
359.393095	2496.008860
359.782043	2500.261073
360.170927	2499.028511
360.559748	2498.660507
360.948505	2502.169150
361.337199	2500.649242
361.725830	2502.738800
362.114398	2503.373986
362.502903	2500.772750
362.891344	2503.837772
363.279722	2500.808038
363.668037	2503.621002
364.056289	2503.192504
364.444478	2503.923471
364.832603	2505.067813
365.220665	2503.202586
365.608665	2507.028822
365.996601	2505.445900
366.384474	2506.300375
366.772284	2509.251971
367.160031	2508.092506
367.547715	2506.386075
367.935336	2507.727022
368.322893	2508.725170
368.710388	2504.853564
369.097820	2507.409429
369.485189	2506.055879
369.872495	2510.028309
370.259738	2506.764162
370.646918	2512.314472
371.034035	2510.552589
371.421090	2512.213649
371.808081	2511.311282
372.195010	2511.785151
372.581875	2512.153155
372.968678	2510.015706
373.355418	2510.509739
373.742096	2513.978053
374.128710	2512.072497
374.515262	2513.705830
374.901751	2515.145080
375.288177	2512.425377
375.674540	2512.127949
376.060841	2514.875378
376.447079	2516.329751
376.833254	2516.163393
377.219367	2513.297497
377.605417	2514.729185
377.991404	2516.843949
378.377329	2514.832528
378.763191	2513.428567
379.148991	2515.064421
379.534727	2513.292456
379.920402	2516.518794
380.306013	2515.460152
380.691563	2515.966788
381.077049	2516.901922
381.462474	2513.917559
381.847835	2516.937210
382.233134	2515.450070
382.618371	2515.112312
383.003545	2516.544000
383.388657	2517.141377
383.773706	2522.421985
384.158693	2517.567354
384.543618	2517.479134
384.928480	2517.413599
385.313280	2519.445184
385.698017	2518.389062
386.082692	2517.242200
386.467305	2517.804288
386.851856	2519.319155
387.236344	2518.459638
387.620770	2518.827643
388.005133	2515.966788
388.389435	2517.552231
388.773674	2517.065759
389.157851	2520.019876
389.541965	2519.649351
389.926018	2521.882582
390.310008	2522.232942
390.693936	2520.612211
391.077802	2522.961389
391.461606	2521.938035
391.845348	2518.260513
392.229027	2523.173117
392.612645	2524.685463
392.996200	2523.284023
393.379694	2524.355268
393.763125	2522.374094
394.146494	2522.943745
394.529801	2522.290915
394.913047	2523.100021
395.296230	2525.151770
395.679351	2521.930473
396.062410	2521.237314
396.445408	2525.239990
396.828343	2524.856863
397.211217	2525.660927
397.594028	2525.628159
397.976778	2523.551204
398.359466	2524.219157
398.742092	2526.666637
399.124656	2527.185876
399.507158	2524.962727
399.889598	2527.420289
400.271977	2528.373068
400.654294	2525.219826
401.036549	2525.567665
401.418742	2528.151257
401.800874	2530.727286
402.182944	2527.354754
402.564952	2527.062367
402.946898	2529.461957
403.328783	2523.798220
403.710606	2527.659744
404.092367	2528.317615
404.474067	2526.170083
404.855705	2526.633869
405.237282	2528.030269
405.618797	2528.665454
406.000250	2530.079498
406.381642	2528.184024
406.762972	2526.081863
407.144240	2524.650175
407.525447	2527.906761
407.906593	2525.348375
408.287677	2527.314425
408.668700	2528.993129
409.049661	2530.341638
409.430560	2529.794673
409.811399	2530.069416
410.192176	2530.087060
410.572891	2530.238294
410.953545	2528.239477
411.334138	2530.805424
411.714669	2528.131092
412.095139	2530.313912
412.475547	2531.359951
412.855894	2530.450023
413.236180	2531.831299
413.616405	2533.356248
413.996568	2534.011598
414.376670	2529.129241
414.756711	2533.782226
415.136691	2533.797349
415.516609	2533.356248
415.896466	2532.741227
416.276262	2530.223171
416.655997	2533.671320
417.035670	2532.839530
417.415283	2532.884900
417.794834	2533.235260
418.174324	2532.269879
418.553753	2533.898172
418.933121	2533.542771
419.312428	2533.779705
419.691674	2531.422966
420.070859	2532.917668
420.449983	2533.535209
420.829045	2532.821886
421.208047	2536.406146
421.586988	2536.804397
421.965867	2534.273738
422.344686	2533.923378
422.723444	2534.823224
423.102141	2531.528830
423.480777	2535.244160
423.859352	2535.652494
424.237866	2532.809283
424.616319	2535.332380
424.994712	2535.667617
425.373044	2535.047555
425.751314	2532.564787
426.129524	2530.888603
426.507673	2531.153264
426.885762	2532.796680
427.263789	2534.646783
427.641756	2537.134593
428.019662	2537.505118
428.397508	2536.612833
428.775292	2536.302802
429.153016	2538.132741
429.530679	2538.064686
429.908282	2534.795498
430.285824	2536.436393
430.663305	2535.314736
431.040726	2535.362627
431.418086	2538.263811
431.795385	2537.878163
432.172624	2537.426980
432.549802	2536.365817
432.926920	2538.047042
433.303977	2535.851619
433.680974	2537.923533
434.057910	2538.190715
434.434786	2538.573842
434.811601	2538.263811
435.188355	2538.740200
435.565050	2540.098791
435.941683	2538.445293
436.318257	2537.963863
436.694770	2537.701723
437.071222	2539.072917
437.447614	2540.492001
437.823946	2540.297917
438.200218	2535.332380
438.576429	2539.473688
438.952580	2538.294058
439.328670	2538.248688
439.704700	2537.442103
440.080670	2537.754655
440.456580	2540.456713
440.832429	2538.047042
441.208218	2541.399409
441.583947	2539.211548
441.959616	2540.529810
442.335224	2537.694161
442.710773	2539.577032
443.086261	2540.582742
443.461689	2540.025695
443.837057	2542.972249
444.212365	2536.985879
444.587612	2541.119625
444.962800	2538.319264
445.337927	2538.157947
445.712995	2537.603420
446.088002	2537.968904
446.462949	2542.934440
446.837837	2541.205325
447.212664	2539.357742
447.587431	2542.170706
447.962139	2537.742052
448.336786	2540.615510
448.711374	2543.120963
449.085901	2543.357897
449.460369	2540.645757
449.834776	2543.463762
450.209124	2540.265149
450.583412	2539.763555
450.957640	2541.535520
451.331808	2541.958977
451.705917	2541.207845
452.079965	2542.629451
452.453954	2543.430994
452.827883	2541.593493
453.201752	2543.146169
453.575562	2539.720705
453.949311	2542.815973
454.323001	2542.659697
454.696632	2541.545602
455.070202	2543.042825
455.443713	2543.224307
455.817164	2541.172557
456.190556	2543.418391
456.563888	2544.489636
456.937160	2546.133053
457.310373	2542.909235
457.683526	2543.362938
458.056619	2541.885880
458.429653	2541.076775
458.802628	2543.473844
459.175542	2543.415871
459.548398	2544.522404
459.921194	2543.980480
460.293930	2540.701209
460.666607	2546.080120
461.039224	2542.412681
461.411782	2544.983669
461.784280	2542.142979
462.156719	2543.310006
462.529099	2544.081303
462.901419	2543.655325
463.273680	2544.703885
463.645882	2537.227854
464.018024	2544.275387
464.390106	2538.415046
464.762130	2545.762528
465.134094	2544.668597
465.505999	2547.148845
465.877845	2544.141797
466.249631	2545.185316
466.621358	2542.730274
466.993026	2546.836293
467.364634	2547.857127
467.736184	2545.497867
468.107674	2544.887888
468.479105	2546.732950
468.850477	2544.930737
469.221790	2545.616334
469.593043	2546.173382
469.964238	2548.278063
470.335373	2545.681869
470.706449	2546.780841
471.077467	2546.770758
471.448425	2548.613300
471.819324	2546.072559
472.190164	2546.533824
472.560945	2549.873589
472.931667	2543.231868
473.302330	2546.498536
473.672934	2546.128011
474.043479	2548.522559
474.413965	2548.809905
474.784393	2548.139432
475.154761	2548.063814
475.525070	2547.612631
475.895321	2547.743701
476.265513	2546.218752
476.635645	2550.062632
477.005719	2546.879143
477.375734	2546.485933
477.745691	2545.807898
478.115588	2549.341747
478.485427	2550.082797
478.855207	2547.615152
479.224928	2546.876623
479.594591	2547.226983
479.964194	2548.976263
480.333739	2547.315203
480.703226	2549.417364
481.072653	2547.887374
481.442022	2547.088351
481.811333	2546.191026
482.180584	2547.105995
482.549777	2546.269164
482.918912	2545.460058
483.287988	2546.735470
483.657005	2550.982643
484.025964	2550.730585
484.394864	2546.453166
484.763706	2549.931562
485.132489	2547.080789
485.501213	2548.772097
485.869879	2551.529608
486.238487	2548.315872
486.607036	2551.315359
486.975527	2549.288815
487.343959	2549.639175
487.712333	2550.433157
488.080648	2551.111192
488.448905	2550.092879
488.817104	2550.715461
489.185244	2549.114895
489.553326	2548.227652
489.921350	2552.235369
490.289315	2548.459545
490.657222	2549.687066
491.025070	2551.887530
491.392861	2553.624207
491.760593	2551.075904
492.128267	2549.243444
492.495883	2551.973229
492.863440	2549.949206
493.230939	2551.096068
493.598380	2552.648744
493.965763	2551.181768
494.333088	2550.536500
494.700354	2550.614638
495.067563	2554.304763
495.434713	2548.769576
495.801805	2552.094217
496.168839	2550.241593
496.535815	2550.929710
496.902733	2551.711089
497.269593	2552.174875
497.636395	2547.995759
498.003139	2551.990873
498.369825	2553.097407
498.736453	2549.061963
499.103023	2552.139587
499.469535	2550.428116
499.835989	2553.609084
500.202385	2548.174720
500.568723	2546.813608
500.935003	2549.339226
501.301226	2545.074410
501.667390	2554.473642
502.033497	2552.792417
502.399546	2550.738147
502.765537	2550.327293
503.131470	2553.120092
503.497345	2550.770914
503.863163	2553.336861
504.228923	2552.507592
504.594625	2553.604042
504.960269	2550.929710
505.325856	2553.089845
505.691385	2552.532797
506.056856	2551.879968
506.422270	2553.354505
506.787625	2551.713610
507.152924	2553.528425
507.518164	2552.484906
507.883347	2553.707386
508.248472	2553.110009
508.613540	2553.465411
508.978550	2554.231666
509.343503	2550.929710
509.708398	2552.258054
510.073236	2551.484237
510.438016	2552.121943
510.802738	2552.525236
511.167403	2554.871893
511.532010	2553.513302
511.896561	2552.638662
512.261053	2552.197561
512.625488	2553.001625
512.989866	2553.089845
513.354186	2555.272664
513.718449	2551.365770
514.082655	2553.750236
514.446803	2551.637992
514.810894	2553.104968
515.174927	2555.315514
515.538904	2552.066491
515.902822	2554.345092
516.266684	2555.708724
516.630488	2554.375339
516.994235	2554.589588
517.357925	2549.908877
517.721558	2552.646223
518.085133	2553.127653
518.448651	2550.539021
518.812112	2551.096068
519.175516	2551.806871
519.538863	2549.230842
519.902152	2552.928528
520.265385	2551.174206
520.628560	2552.086655
520.991678	2553.382232
521.354739	2552.038764
521.717743	2553.215874
522.080690	2556.112017
522.443580	2554.408107
522.806413	2553.198230
523.169189	2552.873075
523.531908	2551.338044
523.894569	2553.243600
524.257174	2554.680329
524.619722	2554.271995
524.982213	2553.150339
525.344647	2553.840977
525.707025	2551.247303
526.069345	2553.591440
526.431608	2556.439692
526.793815	2552.862993
527.155964	2555.754095
527.518057	2555.595298
527.880093	2552.520194
528.242072	2555.287788
528.603995	2554.798796
528.965860	2555.451625
529.327669	2554.239228
529.689421	2552.305945
530.051117	2556.815258
530.412755	2556.711914
530.774337	2556.684188
531.135862	2555.217212
531.497331	2557.120247
531.858743	2556.293498
532.220098	2556.900957
532.581396	2555.567572
532.942638	2559.955896
533.303824	2556.638817
533.664953	2560.870866
534.026025	2558.594785
534.387040	2558.302398
534.747999	2563.116700
535.108902	2558.859445
535.469748	2559.950855
535.830537	2562.237018
536.191270	2564.664334
536.551947	2557.936914
536.912567	2556.043961
537.273131	2558.637635
537.633638	2557.460525
537.994089	2561.806000
538.354483	2561.780794
538.714821	2563.489745
539.075103	2564.747513
539.435328	2566.395970
539.795497	2565.370096
540.155609	2565.533933
540.515665	2567.505024
540.875665	2566.479149
541.235609	2565.453275
541.595496	2567.883111
541.955328	2568.412432
542.315102	2571.195149
542.674821	2571.611044
543.034483	2573.627506
543.394090	2570.408729
543.753640	2569.503842
544.113134	2572.442834
544.472571	2573.088102
544.831953	2574.877712
545.191278	2571.797567
545.550548	2574.292938
545.909761	2571.326219
546.268918	2574.318144
546.628019	2577.279822
546.987064	2576.269070
547.346053	2576.475757
547.704986	2575.666652
548.063863	2576.437949
548.422684	2575.747311
548.781449	2575.772517
549.140158	2576.498443
549.498811	2577.909966
549.857408	2575.749831
550.215949	2579.755028
550.574434	2578.567836
550.932864	2580.196129
551.291237	2581.015317
551.649555	2580.284349
552.007817	2581.882395
552.366022	2579.540779
552.724173	2581.045563
553.082267	2580.949782
553.440305	2584.085379
553.798288	2584.854155
554.156215	2583.787951
554.514086	2582.777200
554.871902	2577.710840
555.229661	2578.424163
555.587365	2577.839390
555.945014	2582.726788
556.302606	2584.017324
556.660143	2582.038671
557.017625	2585.486820
557.375050	2584.251737
557.732421	2582.338619
558.089735	2583.273753
558.446994	2587.843559
558.804197	2582.537745
559.161345	2590.412027
559.518437	2584.662591
559.875474	2586.341296
560.232455	2584.985225
560.589381	2584.912128
560.946251	2586.908425
561.303065	2586.679053
561.659825	2585.948086
562.016528	2586.636203
562.373177	2585.065884
562.729770	2585.607808
563.086307	2586.772314
563.442789	2585.882551
563.799216	2585.718713
564.155587	2583.079669
564.511904	2585.431367
564.868164	2584.360122
565.224370	2586.840370
565.580520	2585.413723
565.936615	2584.745770
566.292654	2584.748291
566.648638	2585.620411
567.004567	2585.522108
567.360441	2585.199474
567.716260	2582.686459
568.072023	2584.390369
568.427732	2586.109402
568.783385	2582.852817
569.138982	2585.708631
569.494525	2584.642427
569.850013	2585.754001
570.205445	2580.904411
570.560823	2585.227201
570.916145	2580.919535
571.271412	2582.406675
571.626625	2586.505133
571.981782	2582.822570
572.336884	2580.261664
572.691931	2578.860223
573.046923	2578.005748
573.401860	2575.810325
573.756743	2584.002200
574.111570	2579.245872
574.466342	2581.655543
574.821059	2580.017168
575.175722	2581.158989
575.530330	2581.922724
575.884882	2580.226376
576.239380	2580.604463
576.593823	2583.697210
576.948211	2581.768969
577.302544	2581.963053
577.656823	2579.197981
578.011047	2581.947930
578.365216	2578.116653
578.719330	2578.933320
579.073389	2581.186716
579.427394	2578.401478
579.781344	2579.334092
580.135239	2579.364339
580.489080	2576.889132
580.842866	2579.359298
581.196597	2578.101530
581.550273	2576.009451
581.903895	2579.124884
582.257463	2577.816704
582.610975	2577.887281
582.964434	2579.944071
583.317837	2578.540110
583.671186	2578.971129
584.024481	2577.834348
584.377721	2577.380645
584.730906	2576.614389
585.084037	2574.388720
585.437113	2577.191601
585.790135	2576.248906
586.143103	2576.276632
586.496016	2579.061869
586.848874	2578.535069
587.201679	2577.846951
587.554428	2576.687486
587.907124	2571.530386
588.259765	2576.337126
588.612352	2577.224369
588.964884	2577.206725
589.317362	2573.662794
589.669786	2576.727815
590.022155	2569.322360
590.374470	2569.987792
590.726731	2570.723801
591.078937	2569.105591
591.431090	2573.398133
591.783188	2572.165571
592.135232	2573.730849
592.487222	2576.485840
592.839157	2575.215469
593.191038	2572.957032
593.542866	2573.975345
593.894639	2571.565674
594.246358	2573.539285
594.598022	2571.127093
594.949633	2574.217321
595.301190	2570.317988
595.652692	2573.551888
596.004141	2570.098698
596.355535	2574.560119
596.706876	2569.324881
597.058162	2572.281517
597.409395	2572.710016
597.760573	2571.648853
598.111698	2571.583318
598.462768	2575.923751
598.813785	2571.769840
599.164748	2573.733370
599.515657	2568.457802
599.866511	2571.273287
600.217312	2572.861250
600.568060	2572.536096
600.918753	2575.482650
601.269392	2573.312433
601.619978	2572.702454
601.970510	2572.861250
602.320988	2572.203380
602.671412	2574.870150
603.021783	2573.866960
603.372100	2572.606672
603.722363	2574.350911
604.072572	2572.629357
604.422728	2573.042732
604.772830	2574.159347
605.122878	2573.559450
605.472872	2574.063565
605.822813	2574.610531
606.172701	2575.598597
606.522534	2573.614903
606.872314	2573.340160
607.222041	2574.683627
607.571714	2574.136662
607.921333	2572.258832
608.270899	2571.825293
608.620411	2572.248750
608.969870	2576.425346
609.319276	2581.721078
609.668627	2580.037333
610.017926	2587.967068
610.367171	2589.499578
610.716362	2589.900350
611.065500	2586.948755
611.414585	2585.607808
611.763616	2585.403641
612.112594	2583.356932
612.461518	2581.025399
612.810389	2579.727302
613.159207	2582.414237
613.507971	2582.908270
613.856682	2583.946748
614.205340	2582.053794
614.553945	2583.480441
614.902496	2581.320306
615.250994	2582.968764
615.599439	2583.099834
615.947830	2586.681573
616.296169	2582.746953
616.644454	2581.844586
616.992686	2582.356263
617.340864	2585.002869
617.688990	2584.612180
618.037063	2584.655030
618.385082	2585.050760
618.733048	2586.953796
619.080961	2586.656368
619.428821	2586.106882
619.776628	2588.418251
620.124382	2585.416244
620.472083	2589.277768
620.819731	2587.130236
621.167326	2588.776173
621.514868	2590.981678
621.862357	2588.841708
622.209793	2589.098807
622.557176	2588.652665
622.904506	2587.939341
623.251783	2586.048909
623.599007	2588.438416
623.946179	2587.478076
624.293297	2588.249372
624.640363	2587.251224
624.987376	2586.321131
625.334336	2583.470358
625.681243	2588.319948
626.028097	2586.089238
626.374899	2587.354567
626.721647	2589.338262
627.068343	2588.130905
627.414987	2587.107551
627.761577	2589.368508
628.108115	2593.527460
628.454600	2588.700556
628.801032	2592.158787
629.147412	2591.637028
629.493739	2592.990577
629.840014	2593.406473
630.186236	2593.996288
630.532405	2595.296905
630.878521	2593.754312
631.224585	2595.959817
631.570597	2593.615681
631.916556	2593.615681
632.262462	2593.882862
632.608316	2595.012080
632.954117	2598.004005
633.299866	2596.985692
633.645562	2598.498038
633.991206	2596.862184
634.336797	2597.121803
634.682336	2600.771598
635.027823	2595.826227
635.373257	2598.518203
635.718639	2596.327821
636.063968	2597.656165
636.409245	2596.781525
636.754470	2598.629108
637.099642	2597.842688
637.444762	2598.717328
637.789829	2598.160281
638.134845	2599.786053
638.479808	2598.629108
638.824719	2600.365786
639.169577	2601.308481
639.514383	2597.588110
639.859137	2603.811414
640.203839	2601.820158
640.548489	2599.463419
640.893086	2603.597165
641.237632	2599.811259
641.582125	2608.053545
641.926566	2606.286621
642.270955	2603.987855
642.615292	2604.660849
642.959576	2604.718822
643.303809	2604.655807
643.647990	2611.060593
643.992118	2609.107146
644.336195	2611.461365
644.680219	2611.675614
645.024192	2615.471603
645.368112	2615.456480
645.711981	2617.747684
646.055797	2620.369084
646.399562	2621.236162
646.743274	2625.407717
647.086935	2632.326701
647.430544	2631.681433
647.774101	2632.871146
648.117606	2638.000520
648.461059	2637.705612
648.804460	2642.167033
649.147810	2641.216776
649.491108	2637.715694
649.834354	2641.819194
650.177548	2641.937661
650.520690	2642.154430
650.863781	2644.203659
651.206820	2641.688124
651.549807	2643.044194
651.892742	2646.273053
652.235626	2644.327168
652.578458	2645.882364
652.921238	2645.736170
653.263967	2649.259937
653.606644	2649.582571
653.949269	2650.989052
654.291843	2653.827222
654.634365	2656.274702
654.976836	2657.313180
655.319255	2656.191523
655.661622	2658.903664
656.003938	2660.741165
656.346203	2663.236536
656.688416	2666.291475
657.030577	2670.571415
657.372687	2669.094357
657.714746	2668.141578
658.056753	2671.753565
658.398708	2674.170798
658.740612	2675.468896
659.082465	2679.441325
659.424266	2676.184739
659.766016	2682.455935
660.107715	2685.190761
660.449362	2687.774352
660.790958	2693.732996
661.132503	2696.644262
661.473996	2697.970086
661.815438	2705.955273
662.156829	2706.749255
662.498168	2706.204811
662.839456	2711.460213
663.180693	2713.464072
663.521879	2716.682849
663.863013	2723.742985
664.204097	2728.567369
664.545129	2730.520816
664.886110	2729.719273
665.227040	2737.240674
665.567918	2745.964391
665.908746	2753.387490
666.249522	2750.566964
666.590248	2755.565268
666.930922	2766.789397
667.271545	2771.243257
667.612118	2778.812549
667.952639	2778.799947
668.293109	2781.159207
668.633528	2783.765483
668.973896	2787.901750
669.314213	2797.147226
669.654480	2787.664816
669.994695	2793.285702
670.334859	2797.502627
670.674973	2804.303144
671.015035	2811.126346
671.355047	2811.045687
671.695008	2814.329999
672.034918	2818.751091
672.374777	2828.094869
672.714585	2827.580672
673.054342	2839.366889
673.394049	2839.137517
673.733705	2844.781089
674.073310	2853.058663
674.412864	2865.525437
674.752368	2861.749612
675.091820	2857.807430
675.431223	2873.873588
675.770574	2868.482073
676.109875	2871.806714
676.449125	2874.786036
676.788324	2871.368134
677.127473	2871.368134
677.466571	2876.033722
677.805619	2884.056718
678.144616	2879.983466
678.483562	2892.356978
678.822458	2883.129146
679.161303	2883.030843
679.500098	2899.281003
679.838842	2902.388874
680.177535	2903.298803
680.516179	2910.023702
680.854771	2920.675660
681.193314	2934.465736
681.531805	2940.252981
681.870247	2982.681852
682.208638	3000.192300
682.546978	3030.933256
682.885268	3047.402706
683.223508	3029.453678
683.561697	3026.849922
683.899836	3032.359903
684.237925	3027.825385
684.575963	3029.007535
684.913951	3055.052657
685.251889	3043.289124
685.589776	3069.341807
685.927614	3073.667117
686.265401	3064.104048
686.603137	3090.723861
686.940824	3109.340843
687.278460	3129.349182
687.616046	3153.934889
687.953582	3173.476922
688.291068	3166.946107
688.628504	3186.082327
688.965889	3208.016388
689.303224	3227.709655
689.640510	3227.790314
689.977745	3200.396684
690.314930	3198.735624
690.652065	3200.041282
690.989150	3169.101201
691.326185	3165.007784
691.663170	3152.535969
692.000105	3135.280100
692.336990	3149.836431
692.673825	3127.821712
693.010610	3123.050260
693.347345	3105.922940
693.684030	3091.477514
694.020665	3101.038062
694.357251	3093.471290
694.693786	3112.773868
695.030272	3079.343457
695.366707	3084.729929
695.703093	3086.471648
696.039429	3092.279057
696.375716	3104.682816
696.711952	3086.025506
697.048139	3103.069647
697.384276	3115.017182
697.720363	3113.172119
698.056400	3111.185905
698.392388	3123.035137
698.728326	3123.940024
699.064214	3119.680249
699.400053	3149.113026
699.735842	3128.053606
700.071581	3122.689818
700.407270	3118.861062
700.742910	3118.901391
701.078501	3124.973461
701.414042	3108.151130
701.749533	3108.012498
702.084974	3097.973041
702.420366	3110.480143
702.755709	3113.270422
703.091002	3100.912033
703.426246	3108.360338
703.761440	3113.235134
704.096584	3114.109774
704.431679	3105.186932
704.766725	3115.745628
705.101721	3111.082561
705.436668	3119.692852
705.771565	3115.959877
706.106413	3132.053761
706.441212	3151.583191
706.775961	3140.502735
707.110661	3144.797798
707.445311	3182.172913
707.779913	3169.060872
708.114465	3192.640869
708.448967	3211.678786
708.783421	3214.574929
709.117825	3258.274171
709.452180	3270.302364
709.786485	3274.032818
710.120742	3330.549194
710.454949	3337.062365
710.789107	3349.430836
711.123216	3382.957029
711.457275	3428.639965
711.791286	3461.152887
712.125247	3452.509829
712.459159	3486.056187
712.793023	3519.302597
713.126837	3464.122127
713.460602	3490.197495
713.794318	3445.361473
714.127985	3491.324193
714.461602	3460.550469
714.795171	3428.937393
715.128691	3419.349119
715.462162	3377.701626
715.795584	3396.588309
716.128957	3372.826831
716.462281	3322.279181
716.795556	3374.719784
717.128782	3334.040193
717.461960	3283.515228
717.795088	3315.027481
718.128167	3304.544402
718.461198	3283.500105
718.794180	3273.770678
719.127113	3300.720687
719.459997	3283.147224
719.792833	3233.877507
720.125619	3258.884151
720.458357	3225.983060
720.791046	3236.075450
721.123686	3266.776077
721.456278	3232.710480
721.788821	3236.027559
722.121315	3212.530741
722.453761	3243.773292
722.786158	3251.536669
723.118506	3252.572626
723.450805	3253.850559
723.783056	3264.202568
724.115259	3244.416039
724.447412	3259.458842
724.779518	3262.430602
725.111574	3263.486724
725.443582	3293.779018
725.775542	3288.742905
726.107453	3334.319977
726.439315	3321.714572
726.771129	3329.838391
727.102895	3362.724358
727.434612	3394.592012
727.766281	3403.587951
728.097901	3427.435130
728.429473	3416.735281
728.760996	3425.950510
729.092471	3431.112651
729.423897	3438.881069
729.755276	3457.225828
730.086606	3445.152265
730.417887	3446.929272
730.749120	3480.483192
731.080305	3558.593350
731.411442	3581.230651
731.742530	3561.355902
732.073570	3623.745222
732.404562	3647.456289
732.735506	3584.325920
733.066401	3640.260042
733.397249	3635.639825
733.728048	3588.694079
734.058798	3524.406765
734.389501	3504.552181
734.720156	3472.465236
735.050762	3406.799166
735.381320	3389.205539
735.711831	3399.686098
736.042293	3379.997872
736.372707	3400.538053
736.703073	3369.396325
737.033391	3366.684185
737.363661	3373.923282
737.693883	3388.383831
738.024056	3430.507713
738.354182	3435.344700
738.684260	3437.134310
739.014290	3468.840647
739.344272	3494.149760
739.674207	3493.943072
740.004093	3515.350332
740.333931	3529.810882
740.663722	3526.448432
740.993464	3571.216399
741.323159	3594.627517
741.652806	3488.904439
741.982405	3492.612208
742.311956	3569.734300
742.641460	3524.568082
742.970915	3454.133080
743.300323	3480.561329
743.629683	3467.194710
743.958996	3435.231274
744.288260	3420.115374
744.617477	3429.388577
744.946647	3443.544137
745.275768	3385.278481
745.604842	3393.049419
745.933869	3390.163359
746.262847	3365.111345
746.591778	3382.135321
746.920662	3378.278838
747.249498	3374.195504
747.578286	3389.586147
747.907027	3426.719286
748.235720	3445.689148
748.564365	3414.870054
748.892963	3418.403903
749.221514	3506.296420
749.550017	3461.876293
749.878473	3401.601737
750.206881	3442.951801
750.535242	3432.158691
750.863555	3407.421749
751.191821	3426.399173
751.520039	3443.095474
751.848210	3405.488466
752.176334	3402.486459
752.504411	3456.802371
752.832440	3427.488062
753.160421	3375.289434
753.488356	3418.474479
753.816243	3460.651292
754.144082	3391.887433
754.471875	3373.787170
754.799620	3409.216400
755.127318	3417.352822
755.454969	3398.569483
755.782572	3385.918707
756.110129	3418.661001
756.437638	3435.765636
756.765100	3393.324162
757.092515	3392.192423
757.419882	3415.994231
757.747203	3409.786050
758.074477	3448.761731
758.401703	3457.306487
758.728882	3405.569125
759.056014	3419.946496
759.383099	3505.928416
759.710138	3500.683095
760.037129	3471.348621
760.364073	3472.906337
760.690970	3531.010677
761.017820	3538.000236
761.344623	3490.336127
761.671379	3532.737272
761.998088	3579.466247
762.324751	3645.981752
762.651366	3824.945234
762.977935	4185.682641
763.304456	4634.128564
763.630931	4887.189446
763.957359	4797.000683
764.283740	4609.285758
764.610074	4441.231333
764.936362	4123.898260
765.262602	3929.808796
765.588796	3754.727002
765.914943	3634.644197
766.241044	3621.847228
766.567097	3578.498346
766.893104	3475.379023
767.219064	3404.258425
767.544978	3403.895462
767.870845	3394.501272
768.196665	3346.698530
768.522438	3317.666525
768.848165	3321.094510
769.173846	3313.210145
769.499479	3301.421407
769.825066	3274.236985
770.150607	3261.508071
770.476101	3249.457193
770.801548	3267.063423
771.126949	3249.878129
771.452303	3226.106568
771.777611	3209.856409
772.102872	3222.353429
772.428087	3212.097202
772.753256	3211.164588
773.078378	3201.737631
773.403453	3171.074812
773.728482	3173.144206
774.053465	3156.982267
774.378401	3152.704848
774.703291	3172.330060
775.028135	3140.636326
775.352932	3112.433590
775.677683	3106.913527
776.002388	3132.373874
776.327046	3141.984834
776.651658	3097.942794
776.976224	3065.893658
777.300743	3077.483271
777.625216	3102.578135
777.949643	3106.646346
778.274024	3077.730287
778.598359	3055.670198
778.922647	3068.373906
779.246889	3075.164340
779.571086	3076.555698
779.895236	3075.060996
780.219339	3056.559962
780.543397	3050.586194
780.867409	3078.234403
781.191374	3096.710232
781.515294	3069.694688
781.839167	3061.560786
782.162995	3073.382292
782.486776	3068.300809
782.810511	3082.330340
783.134201	3093.347782
783.457844	3072.195100
783.781441	3037.559853
784.104993	3046.820453
784.428498	3059.325035
784.751958	3071.718711
785.075372	3058.165569
785.398739	3030.318235
785.722061	3041.126469
786.045337	3073.394895
786.368568	3094.456836
786.691752	3042.734597
787.014891	3058.026937
787.337983	3106.371603
787.661030	3164.884276
787.984031	3224.788307
788.306987	3291.356743
788.629897	3314.833397
788.952760	3298.696663
789.275579	3291.901188
789.598351	3294.457053
789.921078	3248.786720
790.243759	3147.668735
790.566395	3145.067500
790.888984	3160.763132
791.211529	3113.328395
791.534027	3092.016917
791.856480	3101.020418
792.178888	3062.059861
792.501249	3031.210520
792.823566	3043.326933
793.145836	3069.835840
793.468062	3051.480999
793.790241	3013.258971
794.112375	3029.373019
794.434464	3066.617064
794.756507	3085.481061
795.078505	3067.698391
795.400457	3063.005077
795.722364	3121.280815
796.044226	3165.688340
796.366042	3192.986188
796.687812	3197.790407
797.009538	3201.321736
797.331218	3176.945236
797.652852	3170.643794
797.974442	3178.069413
798.295986	3191.252031
798.617484	3153.607214
798.938938	3107.936881
799.260346	3135.577528
799.581709	3146.536996
799.903026	3108.398147
800.224299	3090.008018
800.545526	3094.114037
800.866708	3078.095771
801.187845	3041.784340
801.508936	3069.167887
801.829983	3081.185998
802.150984	3030.305633
802.471940	3022.385980
802.792851	3032.790921
803.113717	3034.789739
803.434538	3045.083775
803.755314	3012.401975
804.076045	2986.714775
804.396731	3006.055162
804.717372	3024.057122
805.037967	3018.529497
805.358518	3008.122035
805.679024	3017.808612
805.999485	3023.376567
806.319901	3023.250538
806.640272	3036.264276
806.960598	3045.096378
807.280879	3023.510157
807.601115	3026.174407
807.921306	3043.944474
808.241453	3069.024215
808.561554	3061.298646
808.881611	3018.874816
809.201623	3037.219575
809.521590	3054.858572
809.841513	3041.549926
810.161390	3062.508523
810.481223	3061.661609
810.801011	3027.079294
811.120755	3016.855834
811.440453	3046.228117
811.760107	3056.002914
812.079716	3037.214534
812.399281	3010.844258
812.718801	3026.781866
813.038276	3013.538755
813.357707	3019.504960
813.677093	3032.702701
813.996434	3006.733197
814.315731	3009.510873
814.634983	3007.287724
814.954191	3015.721574
815.273354	3043.972201
815.592473	3042.449772
815.911547	3030.237577
816.230577	3049.585525
816.549562	3081.569126
816.868502	3115.821246
817.187399	3131.789101
817.506250	3118.727471
817.825058	3106.663990
818.143821	3156.911691
818.462539	3227.429871
818.781213	3249.731936
819.099843	3267.471756
819.418429	3381.207749
819.736970	3494.399297
820.055466	3606.796863
820.373919	3811.540806
820.692327	4038.763254
821.010691	4215.821180
821.329011	4815.342921
821.647286	5899.231328
821.965517	7438.661080
822.283704	8681.739043
822.601847	9484.300817
822.919945	9194.971354
823.237999	8615.934341
823.556010	7854.399997
823.873976	7129.356045
824.191897	6164.471637
824.509775	5506.260782
824.827609	4961.138132
825.145398	4682.059855
825.463144	4650.782016
825.780845	4705.181107
826.098502	4712.256366
826.416116	5034.184451
826.733685	5601.624290
827.051210	6161.278066
827.368692	6315.895296
827.686129	5807.822605
828.003522	5078.259259
828.320872	4611.423207
828.638177	4277.040952
828.955439	3997.841687
829.272656	3724.931262
829.589830	3556.748288
829.906960	3469.309474
830.224046	3369.434134
830.541088	3303.654638
830.858086	3283.033798
831.175041	3241.774475
831.491952	3229.121178
831.808819	3243.949732
832.125642	3284.720064
832.442421	3358.749408
832.759157	3500.680574
833.075849	3766.780401
833.392497	4166.279240
833.709101	4494.460876
834.025662	4699.804716
834.342179	4615.083085
834.658653	4318.953105
834.975083	4005.027852
835.291469	3696.766336
835.607811	3456.084007
835.924110	3389.250910
836.240366	3279.900721
836.556578	3152.357008
836.872746	3090.612956
837.188871	3077.463106
837.504952	3044.052859
837.820990	2991.350116
838.136984	2956.674539
838.452935	2977.164309
838.768842	2977.436532
839.084706	2989.842811
839.400526	3067.295099
839.716303	3210.640308
840.032037	3464.936273
840.347727	3643.824138
840.663373	3546.166906
840.978977	3357.375694
841.294537	3189.714479
841.610054	3051.365053
841.925527	2986.918942
842.240957	2944.719443
842.556344	2918.339085
842.871687	2886.065618
843.186987	2854.016482
843.502244	2832.490756
843.817458	2810.216417
844.132629	2785.111471
844.447756	2794.911474
844.762840	2790.245886
845.077881	2767.858122
845.392879	2757.427975
845.707833	2752.101996
846.022745	2751.494537
846.337613	2756.074425
846.652438	2749.430184
846.967221	2748.961357
847.281960	2740.812332
847.596656	2736.134141
847.911309	2735.105746
848.225919	2731.345045
848.540485	2731.123234
848.855009	2732.171794
849.169490	2726.276165
849.483928	2720.050340
849.798323	2715.992211
850.112675	2716.060266
850.426984	2724.559652
850.741251	2724.526884
851.055474	2716.720657
851.369654	2714.265616
851.683792	2715.541027
851.997887	2718.197716
852.311938	2719.760473
852.625947	2716.942468
852.939914	2719.475648
853.253837	2722.296174
853.567718	2713.688403
853.881555	2709.622713
854.195350	2721.862634
854.509103	2719.831049
854.822812	2715.581357
855.136479	2715.377190
855.450103	2712.629761
855.763685	2709.363093
856.077224	2703.381764
856.390720	2714.885677
856.704173	2720.441029
857.017584	2715.924155
857.330953	2710.026005
857.644278	2718.991697
857.957561	2724.753736
858.270802	2730.152812
858.584000	2730.921588
858.897155	2723.165773
859.210268	2722.772563
859.523339	2722.807851
859.836367	2719.634444
860.149352	2716.652602
860.462295	2714.986501
860.775195	2720.864486
861.088054	2727.213819
861.400869	2711.109853
861.713642	2705.844368
862.026373	2715.656974
862.339062	2719.402551
862.651708	2725.633417
862.964312	2725.623335
863.276873	2718.832901
863.589392	2724.620146
863.901869	2728.892523
864.214303	2741.308885
864.526696	2756.923859
864.839045	2755.875299
865.151353	2753.117788
865.463619	2751.368508
865.775842	2752.722058
866.088023	2766.071033
866.400162	2775.833227
866.712258	2755.532501
867.024313	2746.692838
867.336325	2751.645771
867.648296	2768.425252
867.960224	2761.392842
868.272110	2753.856317
868.583954	2761.017276
868.895755	2772.793412
869.207515	2757.748088
869.519233	2760.639190
869.830909	2771.071858
870.142542	2777.080913
870.454134	2777.726181
870.765684	2780.340019
871.077191	2780.133332
871.388657	2782.580812
871.700081	2790.906277
872.011463	2796.764098
872.322803	2800.093780
872.634101	2797.016156
872.945357	2807.889925
873.256571	2821.115392
873.567744	2817.841162
873.878874	2807.736170
874.189963	2827.709221
874.501010	2830.696105
874.812015	2825.420537
875.122979	2828.115034
875.433900	2827.454643
875.744780	2828.704849
876.055618	2836.148113
876.366415	2835.124758
876.677169	2848.042715
876.987882	2848.519104
877.298554	2842.361335
877.609183	2851.047243
877.919771	2871.902496
878.230317	2892.523336
878.540822	2932.862649
878.851285	2963.759881
879.161707	2986.213180
879.472087	3048.168961
879.782425	3193.102134
880.092722	3483.028974
880.402977	3794.375677
880.713191	4062.678487
881.023363	4516.596583
881.333494	5043.966810
881.643583	5293.685407
881.953631	5257.910859
882.263637	5112.773519
882.573602	4938.674750
882.883526	4674.145243
883.193408	4344.342876
883.503248	4063.724527
883.813048	3910.589397
884.122806	3749.864809
884.432522	3554.930952
884.742197	3403.058630
885.051831	3270.385543
885.361424	3171.856191
885.670975	3130.528812
885.980485	3076.006213
886.289954	3024.168028
886.599382	2994.405055
886.908768	2966.593010
887.218113	2938.065120
887.527417	2899.149933
887.836680	2867.478884
888.145901	2866.294213
888.455082	2865.414531
888.764221	2829.360199
889.073319	2809.137610
889.382376	2809.815646
889.691392	2810.145841
890.000366	2808.676345
890.309300	2799.385498
890.618193	2811.282621
890.927044	2823.061277
891.235855	2823.676298
891.544625	2807.713484
891.853353	2814.461069
892.162041	2825.982626
892.470687	2853.585464
892.779293	2888.437481
893.087858	2918.447470
893.396381	2961.342648
893.704864	3032.677495
894.013306	3179.571677
894.321707	3365.068495
894.630068	3505.638549
894.938387	3514.637009
895.246665	3498.117148
895.554903	3438.346707
895.863100	3309.174702
896.171256	3201.818289
896.479371	3115.102881
896.787446	3031.949049
897.095480	2960.911629
897.403473	2908.350039
897.711425	2880.779968
898.019336	2874.342415
898.327207	2856.660568
898.635038	2831.747185
898.942827	2819.696307
899.250576	2811.494350
899.558284	2786.535597
899.865952	2773.078237
900.173579	2765.831578
900.481165	2761.012235
900.788711	2753.022006
901.096216	2732.517113
901.403681	2725.020917
901.711105	2728.050651
902.018489	2730.356979
902.325832	2728.058212
902.633135	2735.708163
902.940397	2754.471338
903.247619	2810.342446
903.554800	2926.301588
903.861941	3131.751292
904.169041	3394.571848
904.476101	3599.131788
904.783121	3606.328036
905.090100	3475.066472
905.397039	3303.218578
905.703938	3131.065695
906.010796	3000.976199
906.317614	2927.597164
906.624391	2862.571321
906.931129	2813.024340
907.237826	2769.131013
907.544483	2734.047103
907.851099	2711.124977
908.157675	2698.970755
908.464211	2683.766635
908.770707	2674.148113
909.077163	2666.984634
909.383578	2656.617501
909.689954	2645.695841
909.996289	2646.280615
910.302584	2645.877322
910.608839	2646.041160
910.915054	2644.059987
911.221229	2637.030097
911.527363	2636.278966
911.833458	2642.691313
912.139513	2646.472179
912.445527	2647.278763
912.751502	2658.079435
913.057436	2663.639828
913.363331	2672.177022
913.669186	2683.191943
913.975000	2707.636498
914.280775	2748.295925
914.586510	2796.108748
914.892205	2848.229238
915.197859	2924.201947
915.503475	3043.536141
915.809050	3177.766944
916.114585	3275.356121
916.420081	3304.683033
916.725536	3280.319137
917.030952	3209.256512
917.336328	3125.956486
917.641665	3035.150181
917.946961	2967.031590
918.252218	2922.223294
918.557435	2872.835110
918.862612	2828.626711
919.167750	2792.834519
919.472848	2763.311001
919.777906	2746.019844
920.082925	2732.794377
920.387904	2707.636498
920.692843	2696.919005
920.997743	2685.465504
921.302603	2678.067610
921.607423	2671.241888
921.912204	2664.244767
922.216946	2655.304280
922.521647	2647.606438
922.826310	2641.098309
923.130932	2637.456075
923.435516	2630.040538
923.740059	2627.656072
924.044564	2619.839763
924.349028	2618.942437
924.653454	2609.071858
924.957840	2605.953905
925.262186	2602.102463
925.566493	2601.573142
925.870761	2596.448809
926.174989	2593.628283
926.479178	2590.389342
926.783328	2583.399782
927.087438	2583.510688
927.391509	2583.787951
927.695541	2582.328537
927.999533	2579.747466
928.303486	2579.676890
928.607400	2578.467013
928.911275	2574.499625
929.215110	2577.509194
929.518906	2576.879050
929.822663	2575.094481
930.126381	2571.676579
930.430060	2573.375448
930.733699	2572.261353
931.037299	2574.948288
931.340861	2576.863926
931.644383	2576.511046
931.947866	2576.349729
932.251309	2576.591704
932.554714	2575.880901
932.858080	2572.561302
933.161407	2569.665159
933.464694	2568.969479
933.767943	2564.137533
934.071153	2568.898903
934.374323	2570.285221
934.677455	2569.680282
934.980548	2568.072154
935.283602	2568.805642
935.586617	2568.770354
935.889593	2568.649366
936.192530	2568.276321
936.495428	2567.525189
936.798287	2570.096177
937.101108	2572.616754
937.403890	2576.155644
937.706632	2580.637230
938.009336	2582.492375
938.312002	2589.121492
938.614628	2596.678182
938.917216	2602.167998
939.219765	2602.687237
939.522275	2603.153544
939.824747	2597.525095
940.127179	2600.060796
940.429573	2597.958635
940.731929	2597.953593
941.034246	2591.425299
941.336524	2590.333889
941.638763	2587.523446
941.940964	2587.470514
942.243126	2586.588312
942.545250	2586.154773
942.847335	2582.855338
943.149381	2581.252251
943.451389	2575.233113
943.753359	2573.514080
944.055290	2572.954512
944.357182	2572.571384
944.659036	2570.791857
944.960851	2574.502146
945.262628	2572.934347
945.564367	2570.393605
945.866067	2569.773543
946.167729	2572.236147
946.469352	2571.285890
946.770937	2574.189594
947.072484	2571.974007
947.373992	2569.082905
947.675462	2567.394119
947.976893	2562.582337
948.278286	2564.797925
948.579641	2566.055692
948.880958	2562.126113
949.182236	2564.941597
949.483476	2563.504869
949.784678	2562.184086
950.085841	2564.135013
950.386967	2566.733728
950.688054	2564.167780
950.989103	2566.315312
951.290114	2565.927143
951.591087	2567.192473
951.892021	2568.568708
952.192917	2571.311095
952.493776	2573.025088
952.794596	2572.236147
953.095378	2574.471899
953.396122	2576.715212
953.696828	2569.420663
953.997496	2570.020560
954.298126	2569.536609
954.598718	2569.007288
954.899272	2568.538461
955.199788	2564.578634
955.500266	2559.320711
955.800706	2559.189641
956.101108	2561.536298
956.401472	2556.422047
956.701798	2555.416337
957.002087	2551.743857
957.302337	2553.654454
957.602550	2555.171841
957.902724	2552.386604
958.202861	2552.734443
958.502960	2551.378373
958.803022	2549.679504
959.103045	2552.310987
959.403031	2545.084493
959.702979	2546.816129
960.002889	2547.385779
960.302762	2549.520708
960.602596	2547.073228
960.902393	2549.981973
961.202153	2544.819832
961.501875	2546.211190
961.801559	2547.857127
962.101205	2544.958464
962.400814	2544.756818
962.700385	2544.136756
962.999918	2542.566436
963.299414	2542.866385
963.598873	2543.032743
963.898293	2538.422608
964.197677	2544.676159
964.497022	2546.279246
964.796331	2544.903011
965.095601	2543.521735
965.394835	2542.505942
965.694030	2544.915614
965.993189	2545.079451
966.292309	2544.431663
966.591393	2544.255223
966.890439	2544.351005
967.189447	2543.297403
967.488419	2542.279090
967.787353	2543.017619
968.086249	2542.934440
968.385108	2543.985521
968.683930	2543.526776
968.982714	2544.938299
969.281462	2541.245654
969.580172	2543.536858
969.878844	2544.598021
970.177480	2543.524255
970.476078	2545.717157
970.774639	2542.863864
971.073162	2543.141128
971.371649	2541.807743
971.670098	2545.838145
971.968510	2545.906201
972.266885	2543.133566
972.565223	2546.659853
972.863524	2542.122815
973.161788	2544.744215
973.460014	2544.862682
973.758204	2546.165820
974.056356	2544.028371
974.354471	2544.545089
974.652550	2545.696993
974.950591	2542.785726
975.248595	2544.199770
975.546563	2547.111036
975.844493	2546.727909
976.142386	2541.790098
976.440243	2545.558361
976.738062	2542.909235
977.035845	2545.402085
977.333590	2544.577857
977.631299	2543.927548
977.928971	2541.535520
978.226606	2542.430325
978.524204	2539.907227
978.821765	2539.430838
979.119290	2543.710778
979.416777	2542.543751
979.714228	2542.377393
980.011642	2543.970398
980.309020	2543.635161
980.606360	2541.205325
980.903664	2543.312527
981.200931	2543.483926
981.498162	2544.887888
981.795356	2546.248999
982.092513	2546.768238
982.389633	2546.579195
982.686717	2549.235883
982.983764	2554.075390
983.280775	2556.472459
983.577749	2557.636966
983.874686	2555.862479
984.171587	2553.450287
984.468451	2553.581357
984.765279	2546.382590
985.062070	2550.004659
985.358824	2547.574822
985.655543	2546.543907
985.952224	2546.523742
986.248869	2544.787064
986.545478	2541.893442
986.842050	2544.293031
987.138586	2541.984183
987.435086	2542.579039
987.731549	2545.848227
988.027975	2543.531817
988.324366	2542.518545
988.620719	2541.207845
988.917037	2541.318751
989.213318	2544.444266
989.509563	2540.885211
989.805772	2540.769265
990.101944	2540.602907
990.398080	2543.466282
990.694180	2539.322454
990.990244	2539.922351
991.286271	2539.740869
991.582262	2543.607434
991.878217	2541.676673
992.174136	2543.126004
992.470019	2541.893442
992.765865	2541.240613
993.061676	2537.048893
993.357450	2538.934285
993.653188	2537.389171
993.948890	2543.115922
994.244556	2539.382948
994.540186	2542.828576
994.835780	2542.652136
995.131337	2541.429656
995.426859	2541.850592
995.722345	2543.428473
996.017795	2544.582898
996.313208	2544.023330
996.608586	2546.775800
996.903928	2544.804708
997.199234	2544.809750
997.494504	2546.387631
997.789738	2545.313865
998.084936	2542.279090
998.380099	2542.032074
998.675225	2541.560726
998.970316	2543.831766
999.265371	2544.282949
999.560390	2542.740356
999.855373	2544.935778
1000.150320	2542.117773
1000.445232	2540.512166
1000.740108	2541.422094
1001.034948	2541.916127
1001.329752	2541.598535
1001.624521	2538.735159
1001.919254	2540.716333
1002.213951	2540.630633
1002.508613	2541.903524
1002.803239	2543.302445
1003.097829	2541.482588
1003.392384	2542.611807
1003.686903	2542.228679
1003.981386	2541.593493
1004.275834	2539.627443
1004.570246	2543.599873
1004.864623	2540.066024
1005.158964	2538.964532
1005.453270	2544.280428
1005.747540	2538.788091
1006.041775	2539.577032
1006.335974	2541.366642
1006.630138	2539.146013
1006.924266	2540.318082
1007.218359	2539.324974
1007.512416	2538.130221
1007.806438	2535.864222
1008.100425	2539.597197
1008.394376	2534.646783
1008.688292	2540.802032
1008.982172	2541.036446
1009.276017	2541.270860
1009.569827	2538.886394
1009.863602	2539.907228
1010.157341	2536.627957
1010.451045	2541.180119
1010.744714	2540.560057
1011.038347	2543.257074
1011.331945	2540.832279
1011.625508	2537.517721
1011.919036	2541.825387
1012.212528	2541.530479
1012.505986	2537.936136
1012.799408	2539.783719
1013.092795	2538.357073
1013.386147	2538.301620
1013.679464	2538.785571
1013.972745	2539.317413
1014.265992	2540.194573
1014.559204	2540.272711
1014.852380	2542.586601
1015.145521	2538.762886
1015.438628	2540.466796
1015.731699	2537.797505
1016.024736	2539.425797
1016.317737	2537.429500
1016.610703	2538.140303
1016.903635	2543.342774
1017.196531	2539.267001
1017.489393	2539.244316
1017.782219	2538.679707
1018.075011	2540.638195
1018.367768	2541.890922
1018.660490	2539.730787
1018.953177	2539.730787
1019.245829	2539.730787
