Dividing Wavelength (nm)	Counts (n)	Blue Motor Position (mm): 0.400000	Red Motor Position (mm): 0.000000	
326.493990	2167.277738
326.888308	2167.277738
327.282561	2167.277738
327.676750	2126.787190
328.070874	2123.366768
328.464933	2124.291819
328.858929	2127.069495
329.252859	2133.436472
329.646726	2141.484674
330.040528	2149.984060
330.434265	2166.206493
330.827938	2184.619307
331.221547	2202.260825
331.615091	2219.194061
332.008571	2237.153172
332.401986	2254.872827
332.795338	2274.140117
333.188625	2292.096707
333.581847	2310.975828
333.975006	2329.817141
334.368100	2344.572598
334.761129	2366.814169
335.154095	2383.926366
335.546996	2399.170815
335.939833	2415.040367
336.332606	2426.277099
336.725315	2445.093206
337.117960	2458.094342
337.510540	2470.397278
337.903056	2478.823566
338.295508	2487.575009
338.687896	2495.323263
339.080220	2502.748883
339.472480	2508.420181
339.864676	2515.288753
340.256807	2520.823940
340.648875	2524.135978
341.040879	2526.558252
341.432818	2529.789632
341.824694	2535.201310
342.216506	2534.198121
342.608253	2536.811959
342.999937	2536.680889
343.391557	2536.408667
343.783113	2534.891279
344.174605	2531.906916
344.566033	2531.659900
344.957397	2532.292565
345.348697	2528.524302
345.739934	2527.495907
346.131106	2527.750485
346.522215	2524.942562
346.913260	2524.882068
347.304241	2521.527181
347.695159	2521.302849
348.086012	2519.094824
348.476802	2514.651047
348.867528	2510.693741
349.258191	2507.885818
349.648789	2509.262053
350.039324	2504.861126
350.429796	2510.933196
350.820203	2508.889008
351.210548	2505.357680
351.600828	2505.087978
351.991045	2505.375324
352.381198	2505.024963
352.771288	2504.929182
353.161314	2500.437513
353.551276	2502.965652
353.941175	2502.343070
354.331010	2500.397184
354.720782	2499.464571
355.110490	2499.275527
355.500135	2500.586228
355.889717	2499.290651
356.279235	2499.807369
356.668689	2500.089674
357.058080	2503.028667
357.447408	2500.046824
357.836672	2503.560508
358.225873	2499.938439
358.615010	2503.089160
359.004084	2501.922133
359.393095	2500.513131
359.782043	2506.887670
360.170927	2504.609068
360.559748	2506.386075
360.948505	2505.387927
361.337199	2504.760303
361.725830	2507.583349
362.114398	2507.860613
362.502903	2504.117556
362.891344	2508.100067
363.279722	2508.999913
363.668037	2510.557630
364.056289	2509.539317
364.444478	2512.821108
364.832603	2509.332629
365.220665	2512.468227
365.608665	2510.229955
365.996601	2512.382528
366.384474	2512.498474
366.772284	2512.032167
367.160031	2510.441683
367.547715	2512.848834
367.935336	2514.073835
368.322893	2508.783144
368.710388	2510.751714
369.097820	2512.425377
369.485189	2511.248268
369.872495	2515.268588
370.259738	2516.516274
370.646918	2514.454442
371.034035	2514.469565
371.421090	2515.785306
371.808081	2519.518281
372.195010	2515.729854
372.581875	2516.470903
372.968678	2517.143897
373.355418	2518.394103
373.742096	2516.105420
374.128710	2519.351923
374.515262	2517.285050
374.901751	2518.983918
375.288177	2518.532735
375.674540	2518.505009
376.060841	2517.801768
376.447079	2515.752539
376.833254	2519.735050
377.219367	2518.197498
377.605417	2520.294618
377.991404	2520.108096
378.377329	2525.325690
378.763191	2518.951151
379.148991	2519.750174
379.534727	2520.791172
379.920402	2519.286388
380.306013	2520.372756
380.691563	2522.442150
381.077049	2519.417458
381.462474	2522.079187
381.847835	2522.343848
382.233134	2521.658251
382.618371	2519.966943
383.003545	2521.842253
383.388657	2523.485669
383.773706	2522.419465
384.158693	2523.909126
384.543618	2523.407531
384.928480	2521.375946
385.313280	2524.821575
385.698017	2523.760412
386.082692	2521.045750
386.467305	2524.181348
386.851856	2523.173117
387.236344	2523.568848
387.620770	2523.092459
388.005133	2522.389218
388.389435	2522.580782
388.773674	2520.221522
389.157851	2525.408869
389.541965	2527.422810
389.926018	2526.628828
390.310008	2526.906092
390.693936	2526.795186
391.077802	2526.021369
391.461606	2527.485824
391.845348	2524.355268
392.229027	2529.658562
392.612645	2526.943900
392.996200	2528.826771
393.379694	2527.654703
393.763125	2528.093283
394.146494	2529.494724
394.529801	2528.221833
394.913047	2527.664785
395.296230	2528.489014
395.679351	2526.850639
396.062410	2527.054806
396.445408	2527.919364
396.828343	2528.370547
397.211217	2527.742923
397.594028	2529.645959
397.976778	2529.638397
398.359466	2530.936494
398.742092	2528.925074
399.124656	2532.098480
399.507158	2529.663603
399.889598	2532.106042
400.271977	2531.128058
400.654294	2528.483973
401.036549	2531.085208
401.418742	2530.729807
401.800874	2533.076464
402.182944	2532.675692
402.564952	2532.073274
402.946898	2533.676361
403.328783	2530.679395
403.710606	2532.814324
404.092367	2534.067051
404.474067	2532.484128
404.855705	2533.512524
405.237282	2533.414221
405.618797	2530.913809
406.000250	2532.673172
406.381642	2533.358769
406.762972	2531.286854
407.144240	2528.335259
407.525447	2529.308202
407.906593	2529.104035
408.287677	2533.477236
408.668700	2532.758871
409.049661	2536.688451
409.430560	2534.140147
409.811399	2535.518903
410.192176	2535.271887
410.572891	2534.835827
410.953545	2538.717515
411.334138	2538.261291
411.714669	2534.641742
412.095139	2536.280117
412.475547	2535.249201
412.855894	2536.038142
413.236180	2538.193235
413.616405	2535.435724
413.996568	2534.719880
414.376670	2537.442103
414.756711	2538.548637
415.136691	2538.296579
415.516609	2538.898997
415.896466	2539.700540
416.276262	2538.150385
416.655997	2540.136600
417.035670	2536.585107
417.415283	2538.157947
417.794834	2539.735828
418.174324	2537.311033
418.553753	2539.773637
418.933121	2542.037115
419.312428	2536.222144
419.691674	2537.893287
420.070859	2537.074099
420.449983	2539.413194
420.829045	2538.601569
421.208047	2539.698020
421.586988	2538.036959
421.965867	2539.834131
422.344686	2538.228523
422.723444	2540.756662
423.102141	2539.191384
423.480777	2538.904038
423.859352	2542.410160
424.237866	2539.488812
424.616319	2540.857485
424.994712	2541.999306
425.373044	2541.215407
425.751314	2537.089222
426.129524	2535.087884
426.507673	2539.824048
426.885762	2535.118131
427.263789	2541.938813
427.641756	2541.699358
428.019662	2540.469316
428.397508	2543.798998
428.775292	2541.139790
429.153016	2541.348998
429.530679	2540.980993
429.908282	2542.546272
430.285824	2541.107022
430.663305	2542.644574
431.040726	2542.931920
431.418086	2542.866385
431.795385	2543.146169
432.172624	2543.327650
432.549802	2543.080634
432.926920	2543.899821
433.303977	2541.207845
433.680974	2541.757331
434.057910	2544.867723
434.434786	2543.856972
434.811601	2542.505942
435.188355	2544.078782
435.565050	2547.093392
435.941683	2542.319420
436.318257	2545.291180
436.694770	2541.583411
437.071222	2544.265305
437.447614	2544.172044
437.823946	2544.441745
438.200218	2541.830428
438.576429	2542.153062
438.952580	2544.507280
439.328670	2546.430481
439.704700	2541.699358
440.080670	2545.598690
440.456580	2545.991900
440.832429	2544.630789
441.208218	2545.558361
441.583947	2547.811757
441.959616	2545.260933
442.335224	2542.914276
442.710773	2546.763197
443.086261	2542.790767
443.461689	2544.277908
443.837057	2547.582384
444.212365	2546.448125
444.587612	2544.126673
444.962800	2542.984852
445.337927	2543.468803
445.712995	2541.543082
446.088002	2546.206149
446.462949	2543.110881
446.837837	2546.596839
447.212664	2544.920655
447.587431	2545.644061
447.962139	2545.737322
448.336786	2547.569781
448.711374	2543.947712
449.085901	2545.815460
449.460369	2548.217570
449.834776	2548.288146
450.209124	2544.088865
450.583412	2547.116077
450.957640	2548.872920
451.331808	2546.105326
451.705917	2548.225131
452.079965	2547.327806
452.453954	2546.853938
452.827883	2547.789072
453.201752	2548.086500
453.575562	2547.557178
453.949311	2548.043650
454.323001	2548.716644
454.696632	2547.355532
455.070202	2551.229659
455.443713	2549.009031
455.817164	2548.900646
456.190556	2545.845707
456.563888	2548.920811
456.937160	2549.450132
457.310373	2547.085831
457.683526	2548.976263
458.056619	2549.800492
458.429653	2550.362581
458.802628	2548.825029
459.175542	2546.790923
459.548398	2548.071376
459.921194	2552.658826
460.293930	2550.458362
460.666607	2548.351160
461.039224	2550.720502
461.411782	2550.065153
461.784280	2549.051881
462.156719	2549.394679
462.529099	2551.635472
462.901419	2549.150183
463.273680	2547.058104
463.645882	2544.507280
464.018024	2547.675646
464.390106	2545.576005
464.762130	2548.275543
465.134094	2551.953065
465.505999	2548.141952
465.877845	2552.467262
466.249631	2550.181099
466.621358	2549.326623
466.993026	2551.146480
467.364634	2555.471790
467.736184	2550.145811
468.107674	2553.115051
468.479105	2550.155893
468.850477	2550.266799
469.221790	2548.618341
469.593043	2550.833928
469.964238	2551.781665
470.335373	2549.684545
470.706449	2550.231511
471.077467	2549.868548
471.448425	2550.725544
471.819324	2552.038764
472.190164	2554.208981
472.560945	2553.636810
472.931667	2548.678835
473.302330	2552.202602
473.672934	2551.973229
474.043479	2549.157745
474.413965	2555.686039
474.784393	2551.993394
475.154761	2549.543393
475.525070	2551.143959
475.895321	2552.484906
476.265513	2551.320400
476.635645	2552.802499
477.005719	2553.304094
477.375734	2552.043805
477.745691	2551.179247
478.115588	2551.834598
478.485427	2552.363919
478.855207	2551.527087
479.224928	2553.099927
479.594591	2552.298384
479.964194	2555.312994
480.333739	2551.242262
480.703226	2553.004145
481.072653	2552.772252
481.442022	2552.633620
481.811333	2554.589588
482.180584	2548.625903
482.549777	2549.992056
482.918912	2545.757487
483.287988	2554.022458
483.657005	2554.191337
484.025964	2552.318548
484.394864	2554.980277
484.763706	2554.226625
485.132489	2554.123281
485.501213	2553.321738
485.869879	2553.838456
486.238487	2552.011038
486.607036	2554.551779
486.975527	2552.805020
487.343959	2554.191337
487.712333	2553.591440
488.080648	2551.690925
488.448905	2554.592109
488.817104	2556.026317
489.185244	2554.181255
489.553326	2552.724361
489.921350	2556.331307
490.289315	2552.278219
490.657222	2555.345761
491.025070	2552.507592
491.392861	2552.333672
491.760593	2552.179917
492.128267	2554.239228
492.495883	2554.589588
492.863440	2553.611604
493.230939	2555.013045
493.598380	2555.718807
493.965763	2556.969013
494.333088	2557.906667
494.700354	2553.082283
495.067563	2556.767367
495.434713	2554.904660
495.801805	2554.884496
496.168839	2552.870555
496.535815	2554.335010
496.902733	2554.105637
497.269593	2555.018086
497.636395	2552.948693
498.003139	2555.378529
498.369825	2552.278219
498.736453	2554.156049
499.103023	2555.696121
499.469535	2553.117571
499.835989	2554.589588
500.202385	2552.852911
500.568723	2551.143959
500.935003	2550.778476
501.301226	2549.480379
501.667390	2554.347613
502.033497	2557.024465
502.399546	2555.149156
502.765537	2554.629917
503.131470	2556.938766
503.497345	2555.983467
503.863163	2554.289639
504.228923	2556.782490
504.594625	2555.108827
504.960269	2556.956410
505.325856	2559.524878
505.691385	2554.665205
506.056856	2555.922973
506.422270	2553.306614
506.787625	2553.770401
507.152924	2555.597819
507.518164	2556.593447
507.883347	2551.408620
508.248472	2554.428271
508.613540	2556.699311
508.978550	2554.418189
509.343503	2554.745864
509.708398	2556.296019
510.073236	2556.696790
510.438016	2558.836760
510.802738	2556.878272
511.167403	2553.742674
511.532010	2556.260731
511.896561	2557.258879
512.261053	2555.602860
512.625488	2556.311142
512.989866	2557.402552
513.354186	2555.829712
513.718449	2555.930535
514.082655	2556.343910
514.446803	2557.082439
514.810894	2556.018755
515.174927	2557.102603
515.538904	2558.521688
515.902822	2556.744681
516.266684	2557.432799
516.630488	2558.113355
516.994235	2556.323745
517.357925	2554.876934
517.721558	2557.770556
518.085133	2556.046482
518.448651	2555.292829
518.812112	2553.664536
519.175516	2554.826522
519.538863	2551.196892
519.902152	2556.840463
520.265385	2557.946997
520.628560	2557.205947
520.991678	2555.640669
521.354739	2555.260062
521.717743	2556.563200
522.080690	2556.404403
522.443580	2560.303736
522.806413	2556.492624
523.169189	2556.497665
523.531908	2555.887685
523.894569	2556.913560
524.257174	2557.853735
524.619722	2558.602347
524.982213	2556.588406
525.344647	2556.006152
525.707025	2561.390105
526.069345	2558.511606
526.431608	2560.122254
526.793815	2556.840463
527.155964	2557.886503
527.518057	2558.050340
527.880093	2556.056564
528.242072	2556.328786
528.603995	2556.958930
528.965860	2557.795762
529.327669	2557.160577
529.689421	2556.759805
530.051117	2556.527912
530.412755	2557.742830
530.774337	2558.930022
531.135862	2557.026986
531.497331	2556.147305
531.858743	2559.093859
532.220098	2557.286605
532.581396	2557.924311
532.942638	2556.749722
533.303824	2558.347768
533.664953	2556.933725
534.026025	2556.200237
534.387040	2558.509085
534.747999	2557.571431
535.108902	2557.271482
535.469748	2556.202757
535.830537	2558.554456
536.191270	2557.463046
536.551947	2554.007335
536.912567	2554.917263
537.273131	2553.535987
537.633638	2551.658157
537.994089	2559.199723
538.354483	2556.699311
538.714821	2558.493962
539.075103	2556.248128
539.435328	2556.976574
539.795497	2558.347768
540.155609	2558.932542
540.515665	2557.813406
540.875665	2560.865825
541.235609	2559.668551
541.595496	2556.759805
541.955328	2560.276010
542.315102	2558.496482
542.674821	2556.527912
543.034483	2559.305587
543.394090	2557.773077
543.753640	2559.766853
544.113134	2559.202244
544.472571	2557.536143
544.831953	2560.722152
545.191278	2560.754919
545.550548	2560.462532
545.909761	2559.023283
546.268918	2560.439847
546.628019	2559.524878
546.987064	2558.488921
547.346053	2558.683005
547.704986	2557.039589
548.063863	2559.673592
548.422684	2558.526729
548.781449	2555.630586
549.140158	2560.139898
549.498811	2557.387428
549.857408	2560.482697
550.215949	2556.553117
550.574434	2557.125288
550.932864	2559.310629
551.291237	2560.500341
551.649555	2557.677295
552.007817	2561.811041
552.366022	2558.269630
552.724173	2560.263407
553.082267	2554.957592
553.440305	2556.094373
553.798288	2559.232491
554.156215	2559.703839
554.514086	2553.752757
554.871902	2556.364074
555.229661	2557.021945
555.587365	2550.465924
555.945014	2556.984136
556.302606	2556.490103
556.660143	2558.307439
557.017625	2556.618653
557.375050	2558.526729
557.732421	2558.806513
558.089735	2556.704352
558.446994	2559.066133
558.804197	2559.310629
559.161345	2557.911708
559.518437	2559.315670
559.875474	2557.624363
560.232455	2558.872048
560.589381	2560.165104
560.946251	2555.040771
561.303065	2558.151163
561.659825	2561.594271
562.016528	2557.223591
562.373177	2558.831719
562.729770	2557.679815
563.086307	2560.452450
563.442789	2556.888354
563.799216	2558.284754
564.155587	2558.499003
564.511904	2559.124106
564.868164	2557.480690
565.224370	2560.064281
565.580520	2558.672923
565.936615	2557.523540
566.292654	2558.516647
566.648638	2556.359033
567.004567	2558.665361
567.360441	2558.327604
567.716260	2558.942624
568.072023	2558.786349
568.427732	2559.411452
568.783385	2558.887172
569.138982	2557.689898
569.494525	2556.306101
569.850013	2556.197716
570.205445	2558.919939
570.560823	2555.922973
570.916145	2559.547563
571.271412	2556.452294
571.626625	2560.160063
571.981782	2558.776266
572.336884	2553.593960
572.691931	2553.130174
573.046923	2559.179559
573.401860	2554.405586
573.756743	2558.443550
574.111570	2560.023952
574.466342	2559.479507
574.821059	2561.427913
575.175722	2557.873900
575.530330	2557.510937
575.884882	2558.935063
576.239380	2559.726524
576.593823	2557.609239
576.948211	2560.757440
577.302544	2561.506051
577.656823	2559.769374
578.011047	2560.054199
578.365216	2560.946483
578.719330	2557.253838
579.073389	2559.280382
579.427394	2561.760629
579.781344	2558.481359
580.135239	2556.424568
580.489080	2558.115875
580.842866	2560.069322
581.196597	2563.194838
581.550273	2557.291647
581.903895	2558.216698
582.257463	2560.490259
582.610975	2558.425906
582.964434	2556.956410
583.317837	2558.604867
583.671186	2561.135526
584.024481	2557.899106
584.377721	2559.708880
584.730906	2556.018755
585.084037	2559.101421
585.437113	2558.614949
585.790135	2558.493962
586.143103	2558.299877
586.496016	2559.857594
586.848874	2560.550753
587.201679	2561.901782
587.554428	2560.903633
587.907124	2558.060423
588.259765	2559.580330
588.612352	2557.427758
588.964884	2557.009342
589.317362	2558.050340
589.669786	2560.142419
590.022155	2556.916081
590.374470	2556.752243
590.726731	2554.055226
591.078937	2552.225287
591.431090	2559.078736
591.783188	2558.335165
592.135232	2560.825495
592.487222	2560.462532
592.839157	2559.340876
593.191038	2558.234342
593.542866	2559.958417
593.894639	2558.657799
594.246358	2558.690567
594.598022	2558.889692
594.949633	2560.767522
595.301190	2558.504044
595.652692	2561.238870
596.004141	2557.137891
596.355535	2559.340876
596.706876	2558.877089
597.058162	2558.231822
597.409395	2560.001267
597.760573	2560.933880
598.111698	2560.092008
598.462768	2557.546225
598.813785	2558.650238
599.164748	2561.740465
599.515657	2558.683005
599.866511	2559.701318
600.217312	2558.599826
600.568060	2559.149312
600.918753	2559.968499
601.269392	2561.944632
601.619978	2558.952707
601.970510	2558.655279
602.320988	2561.521175
602.671412	2559.325752
603.021783	2558.859445
603.372100	2558.607388
603.722363	2557.896585
604.072572	2560.573438
604.422728	2560.454971
604.772830	2560.124775
605.122878	2556.943807
605.472872	2560.749878
605.822813	2559.298026
606.172701	2556.822819
606.522534	2560.044117
606.872314	2563.411607
607.222041	2558.695608
607.571714	2559.023283
607.921333	2556.278375
608.270899	2557.541184
608.620411	2556.197716
608.969870	2561.090156
609.319276	2562.201730
609.668627	2567.855384
610.017926	2572.102557
610.367171	2572.838565
610.716362	2573.582135
611.065500	2571.583318
611.414585	2569.609706
611.763616	2564.717266
612.112594	2566.307750
612.461518	2564.339180
612.810389	2563.275496
613.159207	2563.298181
613.507971	2561.329611
613.856682	2564.465208
614.205340	2563.179714
614.553945	2562.947821
614.902496	2563.761967
615.250994	2563.872873
615.599439	2561.077553
615.947830	2558.446071
616.296169	2561.740465
616.644454	2559.108983
616.992686	2559.532439
617.340864	2556.890875
617.688990	2560.767522
618.037063	2561.526216
618.385082	2563.048644
618.733048	2561.062430
619.080961	2560.218036
619.428821	2561.942111
619.776628	2558.383056
620.124382	2560.893551
620.472083	2558.844322
620.819731	2563.129303
621.167326	2558.965310
621.514868	2559.585372
621.862357	2559.668551
622.209793	2558.425906
622.557176	2562.012687
622.904506	2559.355999
623.251783	2558.415824
623.599007	2560.737275
623.946179	2557.473128
624.293297	2558.544373
624.640363	2558.917419
624.987376	2557.664692
625.334336	2555.870041
625.681243	2558.236863
626.028097	2556.966492
626.374899	2559.628221
626.721647	2557.768036
627.068343	2559.688715
627.414987	2559.315670
627.761577	2559.555125
628.108115	2560.152501
628.454600	2558.519168
628.801032	2557.757953
629.147412	2561.773232
629.493739	2560.933880
629.840014	2558.965310
630.186236	2559.325752
630.532405	2556.772408
630.878521	2560.825495
631.224585	2560.825495
631.570597	2559.794579
631.916556	2559.108983
632.262462	2558.067984
632.608316	2559.645865
632.954117	2558.352809
633.299866	2558.501523
633.645562	2559.824826
633.991206	2556.502706
634.336797	2558.723334
634.682336	2555.285267
635.027823	2556.767367
635.373257	2558.826678
635.718639	2560.512944
636.063968	2561.017059
636.409245	2560.777604
636.754470	2559.880279
637.099642	2561.621998
637.444762	2559.855073
637.789829	2561.211144
638.134845	2560.253324
638.479808	2555.738971
638.824719	2560.238201
639.169577	2561.710218
639.514383	2559.134188
639.859137	2559.020762
640.203839	2559.154353
640.548489	2559.076215
640.893086	2559.101421
641.237632	2559.487069
641.582125	2560.739796
641.926566	2558.824157
642.270955	2557.147974
642.615292	2552.479865
642.959576	2557.586554
643.303809	2552.310987
643.647990	2558.617470
643.992118	2557.624363
644.336195	2557.773077
644.680219	2558.350289
645.024192	2559.529919
645.368112	2559.953376
645.711981	2560.056719
646.055797	2555.736451
646.399562	2559.146791
646.743274	2559.000598
647.086935	2557.808365
647.430544	2556.437171
647.774101	2555.008004
648.117606	2559.971020
648.461059	2559.262738
648.804460	2563.290620
649.147810	2559.151832
649.491108	2558.839281
649.834354	2561.551422
650.177548	2557.515978
650.520690	2557.223591
650.863781	2557.566389
651.206820	2558.735937
651.549807	2556.366595
651.892742	2559.799621
652.235626	2559.756771
652.578458	2558.521688
652.921238	2560.182748
653.263967	2560.041596
653.606644	2557.944476
653.949269	2559.499672
654.291843	2559.663509
654.634365	2557.427758
654.976836	2557.677295
655.319255	2557.281564
655.661622	2557.326935
656.003938	2558.372974
656.346203	2557.100083
656.688416	2558.443550
657.030577	2558.370453
657.372687	2558.476318
657.714746	2556.472459
658.056753	2555.771739
658.398708	2559.875238
658.740612	2557.175700
659.082465	2556.051523
659.424266	2555.607901
659.766016	2553.014227
660.107715	2555.963302
660.449362	2553.561193
660.790958	2561.745506
661.132503	2557.566389
661.473996	2559.008159
661.815438	2554.781152
662.156829	2558.221739
662.498168	2558.892213
662.839456	2557.465566
663.180693	2557.442881
663.521879	2558.441030
663.863013	2557.926832
664.204097	2558.927501
664.545129	2558.947666
664.886110	2560.200392
665.227040	2558.269630
665.567918	2559.971020
665.908746	2558.811554
666.249522	2560.086966
666.590248	2554.435833
666.930922	2559.663509
667.271545	2557.944476
667.612118	2558.584703
667.952639	2555.900288
668.293109	2557.997408
668.633528	2558.320042
668.973896	2555.822150
669.314213	2556.079249
669.654480	2557.896585
669.994695	2557.765515
670.334859	2557.647048
670.674973	2555.091183
671.015035	2555.590257
671.355047	2556.074208
671.695008	2561.170814
672.034918	2557.092521
672.374777	2557.856256
672.714585	2555.978426
673.054342	2559.640824
673.394049	2556.517829
673.733705	2559.925649
674.073310	2560.654096
674.412864	2559.282902
674.752368	2558.435988
675.091820	2558.138560
675.431223	2559.562686
675.770574	2557.440361
676.109875	2559.446740
676.449125	2555.277706
676.788324	2555.645710
677.127473	2558.345248
677.466571	2551.789227
677.805619	2556.550597
678.144616	2557.672254
678.483562	2558.524209
678.822458	2557.311811
679.161303	2560.477656
679.500098	2558.496482
679.838842	2557.531101
680.177535	2558.622511
680.516179	2559.960937
680.854771	2561.352296
681.193314	2557.488252
681.531805	2556.853066
681.870247	2558.458674
682.208638	2559.729044
682.546978	2556.646379
682.885268	2558.569579
683.223508	2560.152501
683.561697	2560.651576
683.899836	2558.274672
684.237925	2556.212840
684.575963	2558.670402
684.913951	2557.447922
685.251889	2558.352809
685.589776	2557.556307
685.927614	2555.522202
686.265401	2558.914898
686.603137	2559.260217
686.940824	2560.772563
687.278460	2559.134188
687.616046	2557.967161
687.953582	2558.115875
688.291068	2556.353992
688.628504	2557.881462
688.965889	2556.800134
689.303224	2555.073539
689.640510	2556.381718
689.977745	2556.953889
690.314930	2556.338868
690.652065	2557.432799
690.989150	2558.675443
691.326185	2556.759805
691.663170	2557.183262
692.000105	2556.263251
692.336990	2555.532284
692.673825	2559.194682
693.010610	2554.987839
693.347345	2557.150494
693.684030	2550.402910
694.020665	2555.885165
694.357251	2551.007848
694.693786	2557.697459
695.030272	2556.729558
695.366707	2558.083108
695.703093	2557.818447
696.039429	2558.400700
696.375716	2557.982285
696.711952	2555.653272
697.048139	2557.243756
697.384276	2556.391801
697.720363	2557.674774
698.056400	2557.400031
698.392388	2558.821637
698.728326	2557.742830
699.064214	2557.389949
699.400053	2559.078736
699.735842	2555.186965
700.071581	2557.992367
700.407270	2556.127140
700.742910	2559.630742
701.078501	2556.641338
701.414042	2558.375495
701.749533	2558.156204
702.084974	2555.118909
702.420366	2557.218550
702.755709	2558.660320
703.091002	2557.044630
703.426246	2558.090669
703.761440	2558.723334
704.096584	2558.625032
704.431679	2556.537994
704.766725	2555.328117
705.101721	2556.469938
705.436668	2558.556976
705.771565	2557.740309
706.106413	2557.263920
706.441212	2557.654610
706.775961	2557.810885
707.110661	2558.758622
707.445311	2554.697973
707.779913	2557.243756
708.114465	2557.682336
708.448967	2557.609239
708.783421	2559.771894
709.117825	2556.623694
709.452180	2555.980947
709.786485	2556.220401
710.120742	2554.972716
710.454949	2554.458518
710.789107	2553.793086
711.123216	2553.321738
711.457275	2560.218036
711.791286	2556.212840
712.125247	2558.282233
712.459159	2558.095711
712.793023	2557.541184
713.126837	2557.112686
713.460602	2556.870710
713.794318	2555.355843
714.127985	2556.969013
714.461602	2557.208467
714.795171	2555.554969
715.128691	2556.074208
715.462162	2554.849207
715.795584	2558.141081
716.128957	2555.000442
716.462281	2554.554300
716.795556	2557.780638
717.128782	2557.465566
717.461960	2557.853735
717.795088	2555.149156
718.128167	2554.445915
718.461198	2555.111348
718.794180	2555.615463
719.127113	2556.177552
719.459997	2557.589075
719.792833	2553.016748
720.125619	2554.924825
720.458357	2558.758622
720.791046	2559.393808
721.123686	2554.632438
721.456278	2556.144784
721.788821	2554.609753
722.121315	2557.813406
722.453761	2557.304249
722.786158	2557.044630
723.118506	2555.370967
723.450805	2558.219219
723.783056	2555.665874
724.115259	2557.435319
724.447412	2555.522202
724.779518	2556.301060
725.111574	2558.506565
725.443582	2558.551935
725.775542	2557.503375
726.107453	2556.598488
726.439315	2558.322562
726.771129	2557.334496
727.102895	2556.532953
727.434612	2555.595298
727.766281	2552.739485
728.097901	2555.330638
728.429473	2555.139074
728.760996	2558.730896
729.092471	2552.618497
729.423897	2558.869528
729.755276	2554.932387
730.086606	2554.705535
730.417887	2555.570093
730.749120	2559.018242
731.080305	2556.658982
731.411442	2556.522871
731.742530	2557.498334
732.073570	2558.783828
732.404562	2557.087480
732.735506	2557.120247
733.066401	2558.423386
733.397249	2557.329455
733.728048	2555.363405
734.058798	2557.314332
734.389501	2556.636297
734.720156	2559.650907
735.050762	2559.603016
735.381320	2555.025648
735.711831	2557.934394
736.042293	2557.531101
736.372707	2553.692263
736.703073	2557.165618
737.033391	2556.608570
737.363661	2556.943807
737.693883	2555.277706
738.024056	2555.368446
738.354182	2556.875751
738.684260	2554.952551
739.014290	2558.211657
739.344272	2556.956410
739.674207	2556.807696
740.004093	2556.666543
740.333931	2554.869372
740.663722	2556.217881
740.993464	2556.069167
741.323159	2555.980947
741.652806	2557.097562
741.982405	2554.027499
742.311956	2557.972202
742.641460	2555.852397
742.970915	2556.568241
743.300323	2551.161603
743.629683	2552.237890
743.958996	2551.668239
744.288260	2550.057591
744.617477	2555.184444
744.946647	2556.038920
745.275768	2556.061605
745.604842	2556.653941
745.933869	2557.536143
746.262847	2554.705535
746.591778	2557.241235
746.920662	2557.054712
747.249498	2555.998591
747.578286	2552.966337
747.907027	2556.328786
748.235720	2556.976574
748.564365	2556.764846
748.892963	2556.134702
749.221514	2554.766028
749.550017	2557.906667
749.878473	2559.071174
750.206881	2556.903478
750.535242	2556.752243
750.863555	2556.177552
751.191821	2555.451625
751.520039	2555.895247
751.848210	2555.746533
752.176334	2556.832902
752.504411	2557.276523
752.832440	2555.307952
753.160421	2556.540515
753.488356	2555.683518
753.816243	2555.801986
754.144082	2556.467418
754.471875	2554.072870
754.799620	2554.549259
755.127318	2555.507078
755.454969	2555.597819
755.782572	2556.689229
756.110129	2553.719989
756.437638	2556.618652
756.765100	2555.227294
757.092515	2557.243756
757.419882	2555.643189
757.747203	2556.454815
758.074477	2554.690411
758.401703	2556.202757
758.728882	2554.655123
759.056014	2558.519168
759.383099	2557.427758
759.710138	2554.730740
760.037129	2553.873744
760.364073	2553.394835
760.690970	2550.380225
761.017820	2553.218394
761.344623	2554.405586
761.671379	2555.232335
761.998088	2555.560010
762.324751	2557.924311
762.651366	2555.907850
762.977935	2557.193344
763.304456	2557.808365
763.630931	2554.990360
763.957359	2556.616132
764.283740	2555.164280
764.610074	2554.929866
764.936362	2556.916081
765.262602	2555.549928
765.588796	2554.186296
765.914943	2552.668908
766.241044	2556.159908
766.567097	2554.347613
766.893104	2556.086811
767.219064	2556.759805
767.544978	2557.992367
767.870845	2553.858621
768.196665	2557.326935
768.522438	2551.925338
768.848165	2556.341389
769.173846	2554.264434
769.499479	2555.058415
769.825066	2558.108313
770.150607	2557.674774
770.476101	2553.294012
770.801548	2556.737120
771.126949	2552.258054
771.452303	2555.832232
771.777611	2555.865000
772.102872	2554.587068
772.428087	2553.735113
772.753256	2555.186965
773.078378	2556.180072
773.403453	2555.769218
773.728482	2553.505740
774.053465	2553.006666
774.378401	2555.053374
774.703291	2557.236194
775.028135	2552.336192
775.352932	2553.725030
775.677683	2552.681511
776.002388	2555.852397
776.327046	2549.656819
776.651658	2553.659495
776.976224	2550.977601
777.300743	2555.312994
777.625216	2554.614794
777.949643	2557.226112
778.274024	2552.938610
778.598359	2555.761656
778.922647	2555.421378
779.246889	2556.792572
779.571086	2554.206460
779.895236	2557.672254
780.219339	2555.648230
780.543397	2555.338199
780.867409	2556.457336
781.191374	2558.342727
781.515294	2557.216029
781.839167	2554.226625
782.162995	2555.764177
782.486776	2555.509599
782.810511	2555.328117
783.134201	2555.650751
783.457844	2553.062118
783.781441	2552.462221
784.104993	2553.999773
784.428498	2557.538663
784.751958	2556.563200
785.075372	2553.346944
785.398739	2556.540515
785.722061	2552.671429
786.045337	2555.789383
786.368568	2557.117727
786.691752	2556.109496
787.014891	2554.289639
787.337983	2553.601522
787.661030	2553.624207
787.984031	2553.102448
788.306987	2554.985319
788.629897	2556.180072
788.952760	2554.188816
789.275579	2553.236038
789.598351	2555.227294
789.921078	2554.340051
790.243759	2557.319373
790.566395	2556.648899
790.888984	2552.147149
791.211529	2554.723179
791.534027	2554.881975
791.856480	2555.358364
792.178888	2552.368960
792.501249	2549.800492
792.823566	2552.956254
793.145836	2547.257230
793.468062	2553.543549
793.790241	2554.498847
794.112375	2557.067315
794.434464	2554.380380
794.756507	2553.294012
795.078505	2553.266285
795.400457	2553.775442
795.722364	2557.392470
796.044226	2552.636141
796.366042	2552.920966
796.687812	2553.556152
797.009538	2554.302242
797.331218	2554.060267
797.652852	2556.802655
797.974442	2554.271995
798.295986	2551.942982
798.617484	2553.634289
798.938938	2551.953065
799.260346	2556.510268
799.581709	2552.270657
799.903026	2556.210319
800.224299	2555.043292
800.545526	2551.295194
800.866708	2552.275698
801.187845	2554.645041
801.508936	2552.351316
801.829983	2554.367777
802.150984	2555.915412
802.471940	2553.677139
802.792851	2555.214691
803.113717	2552.784855
803.434538	2553.810730
803.755314	2554.171172
804.076045	2554.345092
804.396731	2551.469114
804.717372	2552.608415
805.037967	2554.297201
805.358518	2554.206460
805.679024	2552.409289
805.999485	2555.446584
806.319901	2553.984650
806.640272	2555.590257
806.960598	2553.649413
807.280879	2554.831563
807.601115	2554.284598
807.921306	2555.791903
808.241453	2550.506253
808.561554	2551.839639
808.881611	2550.481048
809.201623	2550.123126
809.521590	2554.317366
809.841513	2552.946172
810.161390	2554.599670
810.481223	2553.256203
810.801011	2554.745864
811.120755	2553.271326
811.440453	2552.903322
811.760107	2553.243600
812.079716	2556.971533
812.399281	2554.866852
812.718801	2555.116389
813.038276	2554.705535
813.357707	2555.360885
813.677093	2554.503888
813.996434	2552.474824
814.315731	2553.702345
814.634983	2554.337530
814.954191	2553.813250
815.273354	2553.213353
815.592473	2553.273847
815.911547	2554.319886
816.230577	2555.295350
816.549562	2555.025648
816.868502	2553.218394
817.187399	2553.944320
817.506250	2555.993549
817.825058	2552.936090
818.143821	2552.368960
818.462539	2554.080432
818.781213	2555.028168
819.099843	2551.811912
819.418429	2552.933569
819.736970	2554.687891
820.055466	2552.374001
820.373919	2552.048847
820.692327	2552.590771
821.010691	2557.274002
821.329011	2552.769732
821.647286	2552.386604
821.965517	2555.040771
822.283704	2553.369629
822.601847	2555.300391
822.919945	2553.079762
823.237999	2553.576316
823.556010	2556.109496
823.873976	2552.827705
824.191897	2549.266130
824.509775	2550.975081
824.827609	2550.879299
825.145398	2552.510112
825.463144	2552.721841
825.780845	2554.317366
826.098502	2552.414330
826.416116	2551.814433
826.733685	2554.042623
827.051210	2552.298384
827.368692	2550.095399
827.686129	2554.892057
828.003522	2555.431461
828.320872	2551.897612
828.638177	2551.663198
828.955439	2554.201419
829.272656	2555.315514
829.589830	2551.580019
829.906960	2554.317366
830.224046	2554.871893
830.541088	2552.782334
830.858086	2554.347613
831.175041	2556.283416
831.491952	2553.674619
831.808819	2555.151677
832.125642	2552.404248
832.442421	2553.719989
832.759157	2553.238559
833.075849	2555.260062
833.392497	2552.996583
833.709101	2552.036244
834.025662	2551.998435
834.342179	2553.021789
834.658653	2554.093034
834.975083	2553.674619
835.291469	2558.786349
835.607811	2554.113199
835.924110	2554.569423
836.240366	2553.324258
836.556578	2552.641182
836.872746	2552.779814
837.188871	2553.435164
837.504952	2553.099927
837.820990	2549.417364
838.136984	2552.089176
838.452935	2553.430123
838.768842	2550.367622
839.084706	2552.595812
839.400526	2552.744526
839.716303	2554.319886
840.032037	2550.080276
840.347727	2549.213198
840.663373	2550.085317
840.978977	2548.580533
841.294537	2553.299053
841.610054	2553.425082
841.925527	2551.839639
842.240957	2554.839125
842.556344	2551.156562
842.871687	2554.587067
843.186987	2550.478527
843.502244	2553.384752
843.817458	2553.727551
844.132629	2551.988353
844.447756	2553.142777
844.762840	2550.612118
845.077881	2552.512633
845.392879	2551.043136
845.707833	2552.444577
846.022745	2553.699824
846.337613	2554.519012
846.652438	2553.021789
846.967221	2553.344423
847.281960	2553.563713
847.596656	2555.118909
847.911309	2550.922149
848.225919	2551.159083
848.540485	2554.440874
848.855009	2553.518343
849.169490	2552.011038
849.483928	2552.699155
849.798323	2553.520863
850.112675	2553.828374
850.426984	2554.887016
850.741251	2553.251162
851.055474	2552.510112
851.369654	2552.573127
851.683792	2551.781665
851.997887	2551.978270
852.311938	2553.104968
852.625947	2554.234187
852.939914	2553.866182
853.253837	2552.051367
853.567718	2552.303425
853.881555	2552.500030
854.195350	2550.438198
854.509103	2553.525905
854.822812	2552.530277
855.136479	2552.865513
855.450103	2551.769062
855.763685	2548.872920
856.077224	2549.679504
856.390720	2550.649926
856.704173	2547.463917
857.017584	2556.371636
857.330953	2553.541028
857.644278	2552.071532
857.957561	2555.933056
858.270802	2555.214691
858.584000	2551.355688
858.897155	2551.905174
859.210268	2550.397869
859.523339	2552.071532
859.836367	2553.094886
860.149352	2552.240410
860.462295	2551.821995
860.775195	2551.247303
861.088054	2551.307797
861.400869	2553.442726
861.713642	2553.041954
862.026373	2552.777293
862.339062	2550.599515
862.651708	2554.385421
862.964312	2551.564896
863.276873	2550.208825
863.589392	2552.323589
863.901869	2552.832746
864.214303	2553.236038
864.526696	2552.694114
864.839045	2550.949875
865.151353	2552.109340
865.463619	2551.585060
865.775842	2554.352654
866.088023	2551.653116
866.400162	2553.021789
866.712258	2553.929197
867.024313	2551.511964
867.336325	2550.750749
867.648296	2552.222766
867.960224	2550.087838
868.272110	2550.917108
868.583954	2548.383928
868.895755	2553.014227
869.207515	2550.909546
869.519233	2554.294681
869.830909	2551.517005
870.142542	2551.597663
870.454134	2553.082283
870.765684	2550.115564
871.077191	2550.564227
871.388657	2552.560524
871.700081	2547.605069
872.011463	2549.782848
872.322803	2546.483413
872.634101	2553.631769
872.945357	2551.703527
873.256571	2553.203271
873.567744	2552.336192
873.878874	2553.319217
874.189963	2553.840977
874.501010	2553.397355
874.812015	2552.162272
875.122979	2550.964998
875.433900	2550.458362
875.744780	2551.058260
876.055618	2551.380894
876.366415	2550.286963
876.677169	2550.536500
876.987882	2553.220915
877.298554	2551.143959
877.609183	2552.749567
877.919771	2551.827036
878.230317	2550.110523
878.540822	2551.005328
878.851285	2552.386604
879.161707	2554.219063
879.472087	2552.157231
879.782425	2550.702858
880.092722	2551.080945
880.402977	2551.539690
880.713191	2552.454659
881.023363	2550.806202
881.333494	2554.602191
881.643583	2551.995914
881.953631	2550.549103
882.263637	2552.220246
882.573602	2553.041954
882.883526	2552.036244
883.193408	2551.751418
883.503248	2551.315359
883.813048	2551.655637
884.122806	2548.358722
884.432522	2550.803682
884.742197	2550.720502
885.051831	2549.820657
885.361424	2551.438867
885.670975	2549.009031
885.980485	2554.498847
886.289954	2553.246121
886.599382	2549.916438
886.908768	2549.339226
887.218113	2547.574823
887.527417	2550.639844
887.836680	2546.869061
888.145901	2551.446429
888.455082	2550.954916
888.764221	2552.048847
889.073319	2552.525236
889.382376	2552.883158
889.691392	2551.196892
890.000366	2552.986501
890.309300	2551.204453
890.618193	2552.928528
890.927044	2551.867365
891.235855	2553.906512
891.544625	2551.123795
891.853353	2551.141439
892.162041	2550.995245
892.470687	2553.311656
892.779293	2550.788558
893.087858	2552.268137
893.396381	2551.388455
893.704864	2551.219577
894.013306	2550.990204
894.321707	2551.138918
894.630068	2553.142777
894.938387	2550.844011
895.246665	2549.954247
895.554903	2552.005997
895.863100	2550.954916
896.171256	2550.922149
896.479371	2552.764690
896.787446	2554.476162
897.095480	2551.963147
897.403473	2549.954247
897.711425	2550.748229
898.019336	2553.001625
898.327207	2549.377035
898.635038	2550.299566
898.942827	2551.708569
899.250576	2550.536500
899.558284	2551.423743
899.865952	2551.587581
900.173579	2552.479865
900.481165	2549.631613
900.788711	2552.318548
901.096216	2550.947354
901.403681	2553.523384
901.711105	2550.481048
902.018489	2552.779814
902.325832	2549.369473
902.633135	2548.177240
902.940397	2551.443908
903.247619	2546.274205
903.554800	2552.449618
903.861941	2552.328631
904.169041	2551.154042
904.476101	2551.431305
904.783121	2552.129505
905.090100	2551.123795
905.397039	2552.709238
905.703938	2548.547765
906.010796	2551.887530
906.317614	2553.122612
906.624391	2549.729916
906.931129	2549.828218
907.237826	2553.498178
907.544483	2551.862324
907.851099	2553.551110
908.157675	2551.766542
908.464211	2555.393652
908.770707	2552.510112
909.077163	2551.161603
909.383578	2551.292673
909.689954	2550.455842
909.996289	2551.080945
910.302584	2549.964329
910.608839	2549.757642
910.915054	2551.307797
911.221229	2550.571788
911.527363	2551.184289
911.833458	2551.791748
912.139513	2550.196223
912.445527	2549.939124
912.751502	2551.834598
913.057436	2549.830739
913.363331	2553.130174
913.669186	2552.424412
913.975000	2551.819474
914.280775	2550.546583
914.586510	2548.819988
914.892205	2551.668239
915.197859	2552.883157
915.503475	2550.488609
915.809050	2551.751418
916.114585	2550.544062
916.420081	2549.777807
916.725536	2554.760987
917.030952	2551.431305
917.336328	2551.128836
917.641665	2549.145142
917.946961	2549.303938
918.252218	2550.576830
918.557435	2548.308310
918.862612	2549.198074
919.167750	2552.709238
919.472848	2553.125133
919.777906	2548.895605
920.082925	2552.250493
920.387904	2548.661191
920.692843	2552.409289
920.997743	2551.199412
921.302603	2554.423230
921.607423	2553.379711
921.912204	2552.454659
922.216946	2549.528270
922.521647	2549.747560
922.826310	2552.900802
923.130932	2551.600184
923.435516	2552.709238
923.740059	2550.254196
924.044564	2548.812426
924.349028	2552.799978
924.653454	2552.487427
924.957840	2550.896943
925.262186	2550.360060
925.566493	2550.581871
925.870761	2552.764690
926.174989	2551.885009
926.479178	2551.232180
926.783328	2549.523228
927.087438	2550.967519
927.391509	2551.176727
927.695541	2552.293342
927.999533	2549.603887
928.303486	2549.011551
928.607400	2550.894422
928.911275	2550.344937
929.215110	2549.792930
929.518906	2550.644885
929.822663	2551.983312
930.126381	2547.897456
930.430060	2547.683207
930.733699	2549.825698
931.037299	2552.366439
931.340861	2550.108002
931.644383	2550.660009
931.947866	2551.035575
932.251309	2551.544731
932.554714	2550.957437
932.858080	2546.924514
933.161407	2548.993907
933.464694	2548.943496
933.767943	2544.013247
934.071153	2549.170348
934.374323	2553.175544
934.677455	2551.637993
934.980548	2549.994576
935.283602	2550.090358
935.586617	2551.201933
935.889593	2553.838456
936.192530	2550.397869
936.495428	2550.723023
936.798287	2547.365615
937.101108	2547.257230
937.403890	2549.251006
937.706632	2551.859803
938.009336	2547.158927
938.312002	2549.303938
938.614628	2550.324772
938.917216	2553.435164
939.219765	2549.064483
939.522275	2549.485420
939.824747	2548.343598
940.127179	2549.258568
940.429573	2550.508774
940.731929	2550.607077
941.034246	2553.115051
941.336524	2551.068342
941.638763	2549.974412
941.940964	2549.296377
942.243126	2551.824515
942.545250	2548.502395
942.847335	2549.901315
943.149381	2548.666232
943.451389	2548.762014
943.753359	2549.230842
944.055290	2551.706048
944.357182	2550.105482
944.659036	2553.483055
944.960851	2549.918959
945.262628	2552.278219
945.564367	2547.925183
945.866067	2550.418033
946.167729	2550.730585
946.469352	2550.899463
946.770937	2549.006510
947.072484	2548.318393
947.373992	2551.378373
947.675462	2547.864689
947.976893	2547.048022
948.278286	2545.845707
948.579641	2548.260419
948.880958	2544.784544
949.182236	2550.334854
949.483476	2550.460883
949.784678	2550.932231
950.085841	2548.588094
950.386967	2553.818292
950.688054	2551.312838
950.989103	2550.125646
951.290114	2551.501881
951.591087	2549.571119
951.892021	2551.020451
952.192917	2549.278732
952.493776	2551.010369
952.794596	2549.321582
953.095378	2547.713454
953.396122	2548.540203
953.696828	2548.794782
953.997496	2548.590615
954.298126	2547.857127
954.598718	2552.149670
954.899272	2550.246634
955.199788	2551.375853
955.500266	2550.249155
955.800706	2548.270502
956.101108	2548.462066
956.401472	2548.845193
956.701798	2549.999618
957.002087	2548.918290
957.302337	2551.406099
957.602550	2550.077755
957.902724	2549.339226
958.202861	2550.634803
958.502960	2546.052394
958.803022	2550.818805
959.103045	2548.940975
959.403031	2548.837632
959.702979	2551.078424
960.002889	2551.126315
960.302762	2550.997766
960.602596	2551.237221
960.902393	2549.379556
961.202153	2548.855276
961.501875	2550.589432
961.801559	2548.212528
962.101205	2548.993907
962.400814	2549.140101
962.700385	2547.809236
962.999918	2547.468958
963.299414	2544.976108
963.598873	2543.783875
963.898293	2544.734132
964.197677	2547.232024
964.497022	2548.139432
964.796331	2548.535162
965.095601	2549.238403
965.394835	2549.747560
965.694030	2548.106664
965.993189	2549.848383
966.292309	2548.300749
966.591393	2548.477189
966.890439	2549.364432
967.189447	2551.355688
967.488419	2547.771428
967.787353	2548.338557
968.086249	2548.285625
968.385108	2549.288815
968.683930	2552.046326
968.982714	2550.337375
969.281462	2552.169834
969.580172	2548.104144
969.878844	2547.158927
970.177480	2548.971222
970.476078	2550.125646
970.774639	2550.342416
971.073162	2552.290822
971.371649	2549.447611
971.670098	2548.525080
971.968510	2548.237734
972.266885	2551.091027
972.565223	2548.686397
972.863524	2548.308310
973.161788	2547.736139
973.460014	2550.158414
973.758204	2548.777138
974.056356	2546.422919
974.354471	2548.149514
974.652550	2551.181768
974.950591	2547.945347
975.248595	2551.259906
975.546563	2549.583722
975.844493	2549.319062
976.142386	2549.588763
976.440243	2549.893753
976.738062	2548.678835
977.035845	2548.404092
977.333590	2550.997766
977.631299	2550.725544
977.928971	2547.126160
978.226606	2548.285625
978.524204	2547.219421
978.821765	2544.224976
979.119290	2550.450801
979.416777	2549.921480
979.714228	2549.999617
980.011642	2546.281767
980.309020	2544.960984
980.606360	2549.687066
980.903664	2545.805377
981.200931	2551.338044
981.498162	2546.513660
981.795356	2548.026006
982.092513	2549.709751
982.389633	2549.187992
982.686717	2548.830070
982.983764	2548.139432
983.280775	2546.493495
983.577749	2548.746891
983.874686	2549.155224
984.171587	2551.176727
984.468451	2547.942827
984.765279	2546.770758
985.062070	2549.949206
985.358824	2548.699000
985.655543	2550.352498
985.952224	2549.195553
986.248869	2549.419885
986.545478	2549.190512
986.842050	2550.163455
987.138586	2550.299566
987.435086	2550.039947
987.731549	2548.227652
988.027975	2549.152704
988.324366	2546.289328
988.620719	2547.748742
988.917037	2548.492312
989.213318	2549.193033
989.509563	2547.216901
989.805772	2549.671943
990.101944	2548.300749
990.398080	2550.140770
990.694180	2550.022303
990.990244	2548.320913
991.286271	2548.857796
991.582262	2547.594987
991.878217	2548.328475
992.174136	2551.955585
992.470019	2549.586243
992.765865	2547.552137
993.061676	2546.717826
993.357450	2546.886705
993.653188	2543.047866
993.948890	2547.942827
994.244556	2551.055739
994.540186	2549.248486
994.835780	2547.718495
995.131337	2547.965512
995.426859	2552.406768
995.722345	2547.607590
996.017795	2548.618341
996.313208	2551.111192
996.608586	2547.965512
996.903928	2547.471479
997.199234	2549.833259
997.494504	2548.842673
997.789738	2548.678835
998.084936	2549.097251
998.380099	2548.038609
998.675225	2549.954247
998.970316	2548.888043
999.265371	2548.762014
999.560390	2549.326623
999.855373	2549.127498
1000.150320	2548.083979
1000.445232	2547.985677
1000.740108	2549.417364
1001.034948	2548.852755
1001.329752	2547.353012
1001.624521	2548.414175
1001.919254	2547.564740
1002.213951	2547.859648
1002.508613	2549.147662
1002.803239	2548.041129
1003.097829	2547.688248
1003.392384	2548.467107
1003.686903	2548.391489
1003.981386	2549.699669
1004.275834	2545.533155
1004.570246	2549.366953
1004.864623	2547.514329
1005.158964	2547.980635
1005.453270	2546.828732
1005.747540	2548.900646
1006.041775	2547.857127
1006.335974	2547.070707
1006.630138	2550.110523
1006.924266	2548.252858
1007.218359	2551.890050
1007.512416	2545.734801
1007.806438	2546.364946
1008.100425	2544.219935
1008.394376	2543.985521
1008.688292	2550.539021
1008.982172	2546.949719
1009.276017	2548.905687
1009.569827	2550.455842
1009.863602	2549.306459
1010.157341	2548.376366
1010.451045	2549.674463
1010.744714	2547.668084
1011.038347	2550.700338
1011.331945	2545.190357
1011.625508	2547.080789
1011.919036	2547.358053
1012.212528	2549.966850
1012.505986	2548.804864
1012.799408	2547.970553
1013.092795	2547.859648
1013.386147	2550.236552
1013.679464	2547.688248
1013.972745	2547.602549
1014.265992	2545.830583
1014.559204	2548.003321
1014.852380	2548.267981
1015.145521	2548.741850
1015.438628	2547.932744
1015.731699	2546.654812
1016.024736	2548.956099
1016.317737	2546.596839
1016.610703	2549.608928
1016.903635	2548.923331
1017.196531	2548.358722
1017.489393	2546.458207
1017.782219	2547.761345
1018.075011	2544.625747
1018.367768	2549.745039
1018.660490	2549.934083
1018.953177	2549.934083
1019.245829	2549.934083
