Dividing Wavelength (nm)	Counts (n)	Blue Motor Position (mm): 4.500000	Red Motor Position (mm): 0.000000	
326.493990	2092.078846
326.888308	2092.078846
327.282561	2092.078846
327.676750	2054.270192
328.070874	2024.023269
328.464933	2074.434808
328.858929	2054.270192
329.252859	2097.120000
329.646726	2119.805192
330.040528	2099.640577
330.434265	2114.764038
330.827938	2049.229038
331.221547	2081.996538
331.615091	2092.078846
332.008571	2172.737308
332.401986	2185.340192
332.795338	2142.490385
333.188625	2276.080962
333.581847	2291.204423
333.975006	2346.657115
334.368100	2271.039808
334.761129	2306.327885
335.154095	2326.492500
335.546996	2323.971923
335.939833	2341.615962
336.332606	2384.465769
336.725315	2376.904038
337.117960	2392.027500
337.510540	2407.150962
337.903056	2409.671538
338.295508	2341.615962
338.687896	2392.027500
339.080220	2389.506923
339.472480	2417.233269
339.864676	2450.000769
340.256807	2465.124231
340.648875	2470.165385
341.040879	2414.712692
341.432818	2497.891731
341.824694	2525.618077
342.216506	2442.439038
342.608253	2505.453462
342.999937	2462.603654
343.391557	2583.591346
343.783113	2417.233269
344.174605	2389.506923
344.566033	2462.603654
344.957397	2485.288846
345.348697	2525.618077
345.739934	2427.315577
346.131106	2434.877308
346.522215	2510.494615
346.913260	2457.562500
347.304241	2392.027500
347.695159	2507.974038
348.086012	2381.945192
348.476802	2424.795000
348.867528	2381.945192
349.258191	2520.576923
349.648789	2422.274423
350.039324	2394.548077
350.429796	2412.192115
350.820203	2530.659231
351.210548	2475.206538
351.600828	2520.576923
351.991045	2457.562500
352.381198	2394.548077
352.771288	2465.124231
353.161314	2376.904038
353.551276	2525.618077
353.941175	2402.109808
354.331010	2462.603654
354.720782	2447.480192
355.110490	2462.603654
355.500135	2417.233269
355.889717	2409.671538
356.279235	2399.589231
356.668689	2452.521346
357.058080	2369.342308
357.447408	2412.192115
357.836672	2394.548077
358.225873	2409.671538
358.615010	2460.083077
359.004084	2475.206538
359.393095	2515.535769
359.782043	2457.562500
360.170927	2444.959615
360.559748	2399.589231
360.948505	2437.397885
361.337199	2492.850577
361.725830	2457.562500
362.114398	2497.891731
362.502903	2369.342308
362.891344	2492.850577
363.279722	2404.630385
363.668037	2437.397885
364.056289	2472.685962
364.444478	2369.342308
364.832603	2465.124231
365.220665	2462.603654
365.608665	2427.315577
365.996601	2455.041923
366.384474	2439.918462
366.772284	2467.644808
367.160031	2434.877308
367.547715	2457.562500
367.935336	2472.685962
368.322893	2439.918462
368.710388	2437.397885
369.097820	2422.274423
369.485189	2467.644808
369.872495	2429.836154
370.259738	2379.424615
370.646918	2507.974038
371.034035	2465.124231
371.421090	2513.015192
371.808081	2455.041923
372.195010	2399.589231
372.581875	2427.315577
372.968678	2472.685962
373.355418	2414.712692
373.742096	2507.974038
374.128710	2470.165385
374.515262	2447.480192
374.901751	2505.453462
375.288177	2417.233269
375.674540	2497.891731
376.060841	2439.918462
376.447079	2533.179808
376.833254	2482.768269
377.219367	2427.315577
377.605417	2417.233269
377.991404	2450.000769
378.377329	2439.918462
378.763191	2505.453462
379.148991	2457.562500
379.534727	2513.015192
379.920402	2404.630385
380.306013	2424.795000
380.691563	2392.027500
381.077049	2492.850577
381.462474	2450.000769
381.847835	2472.685962
382.233134	2477.727115
382.618371	2525.618077
383.003545	2455.041923
383.388657	2465.124231
383.773706	2480.247692
384.158693	2558.385577
384.543618	2432.356731
384.928480	2462.603654
385.313280	2452.521346
385.698017	2439.918462
386.082692	2472.685962
386.467305	2394.548077
386.851856	2399.589231
387.236344	2424.795000
387.620770	2460.083077
388.005133	2414.712692
388.389435	2417.233269
388.773674	2495.371154
389.157851	2457.562500
389.541965	2510.494615
389.926018	2462.603654
390.310008	2477.727115
390.693936	2502.932885
391.077802	2492.850577
391.461606	2429.836154
391.845348	2495.371154
392.229027	2371.862885
392.612645	2424.795000
392.996200	2450.000769
393.379694	2525.618077
393.763125	2381.945192
394.146494	2525.618077
394.529801	2447.480192
394.913047	2470.165385
395.296230	2427.315577
395.679351	2510.494615
396.062410	2462.603654
396.445408	2402.109808
396.828343	2434.877308
397.211217	2452.521346
397.594028	2525.618077
397.976778	2419.753846
398.359466	2500.412308
398.742092	2447.480192
399.124656	2495.371154
399.507158	2417.233269
399.889598	2470.165385
400.271977	2520.576923
400.654294	2407.150962
401.036549	2513.015192
401.418742	2452.521346
401.800874	2419.753846
402.182944	2500.412308
402.564952	2482.768269
402.946898	2404.630385
403.328783	2505.453462
403.710606	2535.700385
404.092367	2389.506923
404.474067	2424.795000
404.855705	2402.109808
405.237282	2442.439038
405.618797	2447.480192
406.000250	2540.741538
406.381642	2472.685962
406.762972	2455.041923
407.144240	2465.124231
407.525447	2583.591346
407.906593	2490.330000
408.287677	2389.506923
408.668700	2482.768269
409.049661	2397.068654
409.430560	2444.959615
409.811399	2475.206538
410.192176	2470.165385
410.572891	2485.288846
410.953545	2407.150962
411.334138	2462.603654
411.714669	2533.179808
412.095139	2470.165385
412.475547	2523.097500
412.855894	2477.727115
413.236180	2409.671538
413.616405	2475.206538
413.996568	2545.782692
414.376670	2424.795000
414.756711	2447.480192
415.136691	2455.041923
415.516609	2513.015192
415.896466	2487.809423
416.276262	2472.685962
416.655997	2482.768269
417.035670	2457.562500
417.415283	2439.918462
417.794834	2472.685962
418.174324	2480.247692
418.553753	2550.823846
418.933121	2477.727115
419.312428	2555.865000
419.691674	2384.465769
420.070859	2480.247692
420.449983	2439.918462
420.829045	2518.056346
421.208047	2452.521346
421.586988	2457.562500
421.965867	2581.070769
422.344686	2515.535769
422.723444	2482.768269
423.102141	2465.124231
423.480777	2437.397885
423.859352	2470.165385
424.237866	2518.056346
424.616319	2520.576923
424.994712	2528.138654
425.373044	2497.891731
425.751314	2485.288846
426.129524	2487.809423
426.507673	2480.247692
426.885762	2507.974038
427.263789	2482.768269
427.641756	2442.439038
428.019662	2472.685962
428.397508	2500.412308
428.775292	2452.521346
429.153016	2515.535769
429.530679	2455.041923
429.908282	2530.659231
430.285824	2450.000769
430.663305	2490.330000
431.040726	2442.439038
431.418086	2412.192115
431.795385	2404.630385
432.172624	2495.371154
432.549802	2465.124231
432.926920	2379.424615
433.303977	2450.000769
433.680974	2538.220962
434.057910	2513.015192
434.434786	2487.809423
434.811601	2500.412308
435.188355	2535.700385
435.565050	2482.768269
435.941683	2525.618077
436.318257	2452.521346
436.694770	2485.288846
437.071222	2417.233269
437.447614	2510.494615
437.823946	2502.932885
438.200218	2535.700385
438.576429	2482.768269
438.952580	2533.179808
439.328670	2495.371154
439.704700	2455.041923
440.080670	2513.015192
440.456580	2500.412308
440.832429	2480.247692
441.208218	2502.932885
441.583947	2442.439038
441.959616	2465.124231
442.335224	2525.618077
442.710773	2500.412308
443.086261	2490.330000
443.461689	2480.247692
443.837057	2543.262115
444.212365	2482.768269
444.587612	2470.165385
444.962800	2480.247692
445.337927	2515.535769
445.712995	2424.795000
446.088002	2510.494615
446.462949	2455.041923
446.837837	2414.712692
447.212664	2477.727115
447.587431	2447.480192
447.962139	2510.494615
448.336786	2588.632500
448.711374	2442.439038
449.085901	2472.685962
449.460369	2518.056346
449.834776	2394.548077
450.209124	2492.850577
450.583412	2520.576923
450.957640	2515.535769
451.331808	2402.109808
451.705917	2472.685962
452.079965	2465.124231
452.453954	2434.877308
452.827883	2548.303269
453.201752	2455.041923
453.575562	2490.330000
453.949311	2502.932885
454.323001	2487.809423
454.696632	2487.809423
455.070202	2487.809423
455.443713	2480.247692
455.817164	2444.959615
456.190556	2553.344423
456.563888	2437.397885
456.937160	2452.521346
457.310373	2475.206538
457.683526	2487.809423
458.056619	2540.741538
458.429653	2437.397885
458.802628	2510.494615
459.175542	2487.809423
459.548398	2437.397885
459.921194	2475.206538
460.293930	2558.385577
460.666607	2470.165385
461.039224	2402.109808
461.411782	2457.562500
461.784280	2502.932885
462.156719	2482.768269
462.529099	2444.959615
462.901419	2450.000769
463.273680	2502.932885
463.645882	2520.576923
464.018024	2434.877308
464.390106	2442.439038
464.762130	2490.330000
465.134094	2409.671538
465.505999	2389.506923
465.877845	2497.891731
466.249631	2555.865000
466.621358	2414.712692
466.993026	2470.165385
467.364634	2409.671538
467.736184	2528.138654
468.107674	2482.768269
468.479105	2386.986346
468.850477	2510.494615
469.221790	2409.671538
469.593043	2548.303269
469.964238	2525.618077
470.335373	2497.891731
470.706449	2455.041923
471.077467	2475.206538
471.448425	2497.891731
471.819324	2502.932885
472.190164	2543.262115
472.560945	2457.562500
472.931667	2568.467885
473.302330	2402.109808
473.672934	2404.630385
474.043479	2500.412308
474.413965	2392.027500
474.784393	2452.521346
475.154761	2550.823846
475.525070	2452.521346
475.895321	2535.700385
476.265513	2414.712692
476.635645	2530.659231
477.005719	2530.659231
477.375734	2434.877308
477.745691	2497.891731
478.115588	2442.439038
478.485427	2591.153077
478.855207	2465.124231
479.224928	2457.562500
479.594591	2548.303269
479.964194	2439.918462
480.333739	2480.247692
480.703226	2538.220962
481.072653	2513.015192
481.442022	2507.974038
481.811333	2434.877308
482.180584	2470.165385
482.549777	2578.550192
482.918912	2530.659231
483.287988	2528.138654
483.657005	2467.644808
484.025964	2460.083077
484.394864	2543.262115
484.763706	2424.795000
485.132489	2482.768269
485.501213	2538.220962
485.869879	2530.659231
486.238487	2434.877308
486.607036	2452.521346
486.975527	2555.865000
487.343959	2553.344423
487.712333	2450.000769
488.080648	2422.274423
488.448905	2439.918462
488.817104	2507.974038
489.185244	2424.795000
489.553326	2460.083077
489.921350	2455.041923
490.289315	2505.453462
490.657222	2457.562500
491.025070	2492.850577
491.392861	2490.330000
491.760593	2487.809423
492.128267	2467.644808
492.495883	2502.932885
492.863440	2515.535769
493.230939	2404.630385
493.598380	2583.591346
493.965763	2482.768269
494.333088	2550.823846
494.700354	2472.685962
495.067563	2442.439038
495.434713	2460.083077
495.801805	2555.865000
496.168839	2591.153077
496.535815	2555.865000
496.902733	2419.753846
497.269593	2510.494615
497.636395	2578.550192
498.003139	2495.371154
498.369825	2477.727115
498.736453	2570.988462
499.103023	2631.482308
499.469535	2533.179808
499.835989	2467.644808
500.202385	2523.097500
500.568723	2505.453462
500.935003	2525.618077
501.301226	2455.041923
501.667390	2447.480192
502.033497	2570.988462
502.399546	2492.850577
502.765537	2558.385577
503.131470	2588.632500
503.497345	2518.056346
503.863163	2540.741538
504.228923	2535.700385
504.594625	2482.768269
504.960269	2482.768269
505.325856	2467.644808
505.691385	2535.700385
506.056856	2533.179808
506.422270	2480.247692
506.787625	2530.659231
507.152924	2523.097500
507.518164	2472.685962
507.883347	2439.918462
508.248472	2525.618077
508.613540	2490.330000
508.978550	2515.535769
509.343503	2520.576923
509.708398	2485.288846
510.073236	2412.192115
510.438016	2500.412308
510.802738	2386.986346
511.167403	2621.400000
511.532010	2513.015192
511.896561	2460.083077
512.261053	2414.712692
512.625488	2492.850577
512.989866	2545.782692
513.354186	2515.535769
513.718449	2500.412308
514.082655	2598.714808
514.446803	2500.412308
514.810894	2533.179808
515.174927	2497.891731
515.538904	2505.453462
515.902822	2437.397885
516.266684	2550.823846
516.630488	2475.206538
516.994235	2543.262115
517.357925	2482.768269
517.721558	2553.344423
518.085133	2450.000769
518.448651	2457.562500
518.812112	2485.288846
519.175516	2555.865000
519.538863	2555.865000
519.902152	2470.165385
520.265385	2603.755962
520.628560	2477.727115
520.991678	2553.344423
521.354739	2457.562500
521.717743	2485.288846
522.080690	2495.371154
522.443580	2472.685962
522.806413	2485.288846
523.169189	2568.467885
523.531908	2432.356731
523.894569	2502.932885
524.257174	2470.165385
524.619722	2518.056346
524.982213	2442.439038
525.344647	2495.371154
525.707025	2500.412308
526.069345	2485.288846
526.431608	2553.344423
526.793815	2490.330000
527.155964	2543.262115
527.518057	2465.124231
527.880093	2513.015192
528.242072	2520.576923
528.603995	2576.029615
528.965860	2535.700385
529.327669	2482.768269
529.689421	2555.865000
530.051117	2490.330000
530.412755	2513.015192
530.774337	2598.714808
531.135862	2475.206538
531.497331	2497.891731
531.858743	2540.741538
532.220098	2450.000769
532.581396	2472.685962
532.942638	2497.891731
533.303824	2533.179808
533.664953	2500.412308
534.026025	2480.247692
534.387040	2470.165385
534.747999	2497.891731
535.108902	2439.918462
535.469748	2510.494615
535.830537	2495.371154
536.191270	2485.288846
536.551947	2386.986346
536.912567	2480.247692
537.273131	2555.865000
537.633638	2487.809423
537.994089	2492.850577
538.354483	2487.809423
538.714821	2515.535769
539.075103	2502.932885
539.435328	2492.850577
539.795497	2520.576923
540.155609	2442.439038
540.515665	2492.850577
540.875665	2500.412308
541.235609	2404.630385
541.595496	2384.465769
541.955328	2540.741538
542.315102	2515.535769
542.674821	2530.659231
543.034483	2528.138654
543.394090	2457.562500
543.753640	2424.795000
544.113134	2613.838269
544.472571	2439.918462
544.831953	2482.768269
545.191278	2487.809423
545.550548	2467.644808
545.909761	2535.700385
546.268918	2505.453462
546.628019	2495.371154
546.987064	2558.385577
547.346053	2563.426731
547.704986	2442.439038
548.063863	2558.385577
548.422684	2507.974038
548.781449	2437.397885
549.140158	2480.247692
549.498811	2460.083077
549.857408	2497.891731
550.215949	2467.644808
550.574434	2432.356731
550.932864	2550.823846
551.291237	2485.288846
551.649555	2533.179808
552.007817	2513.015192
552.366022	2470.165385
552.724173	2359.260000
553.082267	2523.097500
553.440305	2510.494615
553.798288	2560.906154
554.156215	2535.700385
554.514086	2495.371154
554.871902	2586.111923
555.229661	2470.165385
555.587365	2510.494615
555.945014	2538.220962
556.302606	2502.932885
556.660143	2553.344423
557.017625	2500.412308
557.375050	2470.165385
557.732421	2518.056346
558.089735	2490.330000
558.446994	2455.041923
558.804197	2480.247692
559.161345	2485.288846
559.518437	2467.644808
559.875474	2555.865000
560.232455	2533.179808
560.589381	2495.371154
560.946251	2447.480192
561.303065	2558.385577
561.659825	2467.644808
562.016528	2490.330000
562.373177	2472.685962
562.729770	2513.015192
563.086307	2462.603654
563.442789	2492.850577
563.799216	2525.618077
564.155587	2495.371154
564.511904	2565.947308
564.868164	2490.330000
565.224370	2515.535769
565.580520	2472.685962
565.936615	2518.056346
566.292654	2553.344423
566.648638	2570.988462
567.004567	2381.945192
567.360441	2404.630385
567.716260	2472.685962
568.072023	2419.753846
568.427732	2475.206538
568.783385	2586.111923
569.138982	2523.097500
569.494525	2444.959615
569.850013	2500.412308
570.205445	2533.179808
570.560823	2412.192115
570.916145	2525.618077
571.271412	2457.562500
571.626625	2570.988462
571.981782	2419.753846
572.336884	2470.165385
572.691931	2472.685962
573.046923	2457.562500
573.401860	2490.330000
573.756743	2591.153077
574.111570	2500.412308
574.466342	2555.865000
574.821059	2553.344423
575.175722	2470.165385
575.530330	2576.029615
575.884882	2424.795000
576.239380	2457.562500
576.593823	2560.906154
576.948211	2475.206538
577.302544	2487.809423
577.656823	2533.179808
578.011047	2467.644808
578.365216	2520.576923
578.719330	2533.179808
579.073389	2502.932885
579.427394	2394.548077
579.781344	2462.603654
580.135239	2510.494615
580.489080	2495.371154
580.842866	2510.494615
581.196597	2507.974038
581.550273	2485.288846
581.903895	2500.412308
582.257463	2502.932885
582.610975	2444.959615
582.964434	2497.891731
583.317837	2518.056346
583.671186	2540.741538
584.024481	2490.330000
584.377721	2543.262115
584.730906	2528.138654
585.084037	2528.138654
585.437113	2505.453462
585.790135	2515.535769
586.143103	2439.918462
586.496016	2477.727115
586.848874	2533.179808
587.201679	2543.262115
587.554428	2497.891731
587.907124	2424.795000
588.259765	2477.727115
588.612352	2475.206538
588.964884	2560.906154
589.317362	2507.974038
589.669786	2457.562500
590.022155	2543.262115
590.374470	2588.632500
590.726731	2480.247692
591.078937	2533.179808
591.431090	2553.344423
591.783188	2470.165385
592.135232	2472.685962
592.487222	2540.741538
592.839157	2530.659231
593.191038	2470.165385
593.542866	2555.865000
593.894639	2490.330000
594.246358	2515.535769
594.598022	2460.083077
594.949633	2455.041923
595.301190	2487.809423
595.652692	2550.823846
596.004141	2533.179808
596.355535	2525.618077
596.706876	2482.768269
597.058162	2518.056346
597.409395	2465.124231
597.760573	2465.124231
598.111698	2497.891731
598.462768	2500.412308
598.813785	2437.397885
599.164748	2482.768269
599.515657	2427.315577
599.866511	2507.974038
600.217312	2485.288846
600.568060	2538.220962
600.918753	2475.206538
601.269392	2563.426731
601.619978	2457.562500
601.970510	2513.015192
602.320988	2563.426731
602.671412	2472.685962
603.021783	2495.371154
603.372100	2497.891731
603.722363	2490.330000
604.072572	2444.959615
604.422728	2525.618077
604.772830	2502.932885
605.122878	2477.727115
605.472872	2510.494615
605.822813	2397.068654
606.172701	2523.097500
606.522534	2535.700385
606.872314	2502.932885
607.222041	2550.823846
607.571714	2548.303269
607.921333	2581.070769
608.270899	2568.467885
608.620411	2475.206538
608.969870	2520.576923
609.319276	2407.150962
609.668627	2510.494615
610.017926	2538.220962
610.367171	2533.179808
610.716362	2409.671538
611.065500	2482.768269
611.414585	2485.288846
611.763616	2417.233269
612.112594	2424.795000
612.461518	2515.535769
612.810389	2414.712692
613.159207	2523.097500
613.507971	2543.262115
613.856682	2583.591346
614.205340	2502.932885
614.553945	2502.932885
614.902496	2444.959615
615.250994	2525.618077
615.599439	2465.124231
615.947830	2550.823846
616.296169	2465.124231
616.644454	2457.562500
616.992686	2477.727115
617.340864	2543.262115
617.688990	2550.823846
618.037063	2472.685962
618.385082	2487.809423
618.733048	2563.426731
619.080961	2500.412308
619.428821	2570.988462
619.776628	2520.576923
620.124382	2447.480192
620.472083	2495.371154
620.819731	2470.165385
621.167326	2530.659231
621.514868	2550.823846
621.862357	2528.138654
622.209793	2487.809423
622.557176	2460.083077
622.904506	2520.576923
623.251783	2470.165385
623.599007	2563.426731
623.946179	2487.809423
624.293297	2576.029615
624.640363	2490.330000
624.987376	2500.412308
625.334336	2450.000769
625.681243	2502.932885
626.028097	2502.932885
626.374899	2525.618077
626.721647	2485.288846
627.068343	2500.412308
627.414987	2444.959615
627.761577	2460.083077
628.108115	2482.768269
628.454600	2507.974038
628.801032	2439.918462
629.147412	2502.932885
629.493739	2419.753846
629.840014	2429.836154
630.186236	2558.385577
630.532405	2530.659231
630.878521	2510.494615
631.224585	2434.877308
631.570597	2470.165385
631.916556	2472.685962
632.262462	2424.795000
632.608316	2520.576923
632.954117	2462.603654
633.299866	2505.453462
633.645562	2465.124231
633.991206	2513.015192
634.336797	2520.576923
634.682336	2455.041923
635.027823	2518.056346
635.373257	2462.603654
635.718639	2404.630385
636.063968	2515.535769
636.409245	2457.562500
636.754470	2558.385577
637.099642	2450.000769
637.444762	2528.138654
637.789829	2533.179808
638.134845	2558.385577
638.479808	2538.220962
638.824719	2495.371154
639.169577	2477.727115
639.514383	2505.453462
639.859137	2477.727115
640.203839	2558.385577
640.548489	2507.974038
640.893086	2457.562500
641.237632	2553.344423
641.582125	2457.562500
641.926566	2502.932885
642.270955	2497.891731
642.615292	2523.097500
642.959576	2444.959615
643.303809	2407.150962
643.647990	2535.700385
643.992118	2482.768269
644.336195	2485.288846
644.680219	2442.439038
645.024192	2477.727115
645.368112	2462.603654
645.711981	2389.506923
646.055797	2558.385577
646.399562	2409.671538
646.743274	2518.056346
647.086935	2565.947308
647.430544	2434.877308
647.774101	2497.891731
648.117606	2485.288846
648.461059	2467.644808
648.804460	2442.439038
649.147810	2548.303269
649.491108	2452.521346
649.834354	2573.509038
650.177548	2513.015192
650.520690	2540.741538
650.863781	2477.727115
651.206820	2520.576923
651.549807	2409.671538
651.892742	2475.206538
652.235626	2439.918462
652.578458	2462.603654
652.921238	2540.741538
653.263967	2576.029615
653.606644	2437.397885
653.949269	2465.124231
654.291843	2480.247692
654.634365	2545.782692
654.976836	2492.850577
655.319255	2558.385577
655.661622	2467.644808
656.003938	2444.959615
656.346203	2523.097500
656.688416	2414.712692
657.030577	2553.344423
657.372687	2528.138654
657.714746	2442.439038
658.056753	2515.535769
658.398708	2543.262115
658.740612	2485.288846
659.082465	2487.809423
659.424266	2455.041923
659.766016	2477.727115
660.107715	2455.041923
660.449362	2533.179808
660.790958	2462.603654
661.132503	2513.015192
661.473996	2563.426731
661.815438	2482.768269
662.156829	2495.371154
662.498168	2540.741538
662.839456	2510.494615
663.180693	2444.959615
663.521879	2439.918462
663.863013	2432.356731
664.204097	2515.535769
664.545129	2540.741538
664.886110	2502.932885
665.227040	2550.823846
665.567918	2480.247692
665.908746	2472.685962
666.249522	2460.083077
666.590248	2545.782692
666.930922	2500.412308
667.271545	2485.288846
667.612118	2485.288846
667.952639	2399.589231
668.293109	2523.097500
668.633528	2490.330000
668.973896	2417.233269
669.314213	2417.233269
669.654480	2460.083077
669.994695	2555.865000
670.334859	2495.371154
670.674973	2497.891731
671.015035	2568.467885
671.355047	2535.700385
671.695008	2538.220962
672.034918	2568.467885
672.374777	2558.385577
672.714585	2452.521346
673.054342	2518.056346
673.394049	2538.220962
673.733705	2427.315577
674.073310	2553.344423
674.412864	2455.041923
674.752368	2533.179808
675.091820	2507.974038
675.431223	2487.809423
675.770574	2500.412308
676.109875	2543.262115
676.449125	2500.412308
676.788324	2533.179808
677.127473	2548.303269
677.466571	2505.453462
677.805619	2545.782692
678.144616	2530.659231
678.483562	2475.206538
678.822458	2518.056346
679.161303	2447.480192
679.500098	2538.220962
679.838842	2394.548077
680.177535	2402.109808
680.516179	2558.385577
680.854771	2497.891731
681.193314	2492.850577
681.531805	2412.192115
681.870247	2465.124231
682.208638	2452.521346
682.546978	2502.932885
682.885268	2535.700385
683.223508	2495.371154
683.561697	2523.097500
683.899836	2470.165385
684.237925	2535.700385
684.575963	2492.850577
684.913951	2502.932885
685.251889	2530.659231
685.589776	2540.741538
685.927614	2588.632500
686.265401	2444.959615
686.603137	2490.330000
686.940824	2455.041923
687.278460	2475.206538
687.616046	2523.097500
687.953582	2437.397885
688.291068	2525.618077
688.628504	2447.480192
688.965889	2543.262115
689.303224	2515.535769
689.640510	2477.727115
689.977745	2457.562500
690.314930	2568.467885
690.652065	2530.659231
690.989150	2518.056346
691.326185	2462.603654
691.663170	2457.562500
692.000105	2578.550192
692.336990	2565.947308
692.673825	2452.521346
693.010610	2525.618077
693.347345	2452.521346
693.684030	2482.768269
694.020665	2477.727115
694.357251	2565.947308
694.693786	2528.138654
695.030272	2545.782692
695.366707	2616.358846
695.703093	2528.138654
696.039429	2452.521346
696.375716	2502.932885
696.711952	2558.385577
697.048139	2507.974038
697.384276	2553.344423
697.720363	2495.371154
698.056400	2450.000769
698.392388	2477.727115
698.728326	2523.097500
699.064214	2439.918462
699.400053	2507.974038
699.735842	2530.659231
700.071581	2482.768269
700.407270	2455.041923
700.742910	2560.906154
701.078501	2497.891731
701.414042	2455.041923
701.749533	2470.165385
702.084974	2553.344423
702.420366	2444.959615
702.755709	2588.632500
703.091002	2467.644808
703.426246	2450.000769
703.761440	2510.494615
704.096584	2507.974038
704.431679	2533.179808
704.766725	2548.303269
705.101721	2424.795000
705.436668	2450.000769
705.771565	2452.521346
706.106413	2530.659231
706.441212	2386.986346
706.775961	2467.644808
707.110661	2434.877308
707.445311	2465.124231
707.779913	2485.288846
708.114465	2507.974038
708.448967	2553.344423
708.783421	2467.644808
709.117825	2467.644808
709.452180	2543.262115
709.786485	2457.562500
710.120742	2490.330000
710.454949	2432.356731
710.789107	2482.768269
711.123216	2530.659231
711.457275	2507.974038
711.791286	2475.206538
712.125247	2490.330000
712.459159	2505.453462
712.793023	2475.206538
713.126837	2513.015192
713.460602	2492.850577
713.794318	2560.906154
714.127985	2492.850577
714.461602	2523.097500
714.795171	2535.700385
715.128691	2485.288846
715.462162	2485.288846
715.795584	2460.083077
716.128957	2555.865000
716.462281	2487.809423
716.795556	2497.891731
717.128782	2477.727115
717.461960	2510.494615
717.795088	2507.974038
718.128167	2502.932885
718.461198	2497.891731
718.794180	2472.685962
719.127113	2480.247692
719.459997	2538.220962
719.792833	2485.288846
720.125619	2497.891731
720.458357	2515.535769
720.791046	2591.153077
721.123686	2452.521346
721.456278	2457.562500
721.788821	2467.644808
722.121315	2593.673654
722.453761	2510.494615
722.786158	2550.823846
723.118506	2452.521346
723.450805	2507.974038
723.783056	2404.630385
724.115259	2540.741538
724.447412	2404.630385
724.779518	2429.836154
725.111574	2487.809423
725.443582	2523.097500
725.775542	2429.836154
726.107453	2543.262115
726.439315	2485.288846
726.771129	2558.385577
727.102895	2520.576923
727.434612	2510.494615
727.766281	2414.712692
728.097901	2502.932885
728.429473	2482.768269
728.760996	2455.041923
729.092471	2510.494615
729.423897	2487.809423
729.755276	2460.083077
730.086606	2490.330000
730.417887	2497.891731
730.749120	2470.165385
731.080305	2482.768269
731.411442	2555.865000
731.742530	2465.124231
732.073570	2472.685962
732.404562	2480.247692
732.735506	2520.576923
733.066401	2477.727115
733.397249	2553.344423
733.728048	2450.000769
734.058798	2570.988462
734.389501	2455.041923
734.720156	2452.521346
735.050762	2444.959615
735.381320	2414.712692
735.711831	2535.700385
736.042293	2507.974038
736.372707	2545.782692
736.703073	2482.768269
737.033391	2523.097500
737.363661	2447.480192
737.693883	2497.891731
738.024056	2507.974038
738.354182	2455.041923
738.684260	2485.288846
739.014290	2513.015192
739.344272	2417.233269
739.674207	2523.097500
740.004093	2502.932885
740.333931	2482.768269
740.663722	2545.782692
740.993464	2528.138654
741.323159	2591.153077
741.652806	2530.659231
741.982405	2505.453462
742.311956	2472.685962
742.641460	2558.385577
742.970915	2530.659231
743.300323	2535.700385
743.629683	2487.809423
743.958996	2591.153077
744.288260	2513.015192
744.617477	2475.206538
744.946647	2523.097500
745.275768	2442.439038
745.604842	2444.959615
745.933869	2525.618077
746.262847	2502.932885
746.591778	2515.535769
746.920662	2490.330000
747.249498	2507.974038
747.578286	2502.932885
747.907027	2429.836154
748.235720	2543.262115
748.564365	2465.124231
748.892963	2573.509038
749.221514	2545.782692
749.550017	2444.959615
749.878473	2490.330000
750.206881	2472.685962
750.535242	2500.412308
750.863555	2507.974038
751.191821	2417.233269
751.520039	2530.659231
751.848210	2475.206538
752.176334	2455.041923
752.504411	2467.644808
752.832440	2467.644808
753.160421	2470.165385
753.488356	2397.068654
753.816243	2558.385577
754.144082	2583.591346
754.471875	2462.603654
754.799620	2490.330000
755.127318	2497.891731
755.454969	2513.015192
755.782572	2591.153077
756.110129	2485.288846
756.437638	2530.659231
756.765100	2437.397885
757.092515	2515.535769
757.419882	2480.247692
757.747203	2482.768269
758.074477	2500.412308
758.401703	2502.932885
758.728882	2528.138654
759.056014	2485.288846
759.383099	2374.383462
759.710138	2470.165385
760.037129	2535.700385
760.364073	2482.768269
760.690970	2467.644808
761.017820	2487.809423
761.344623	2455.041923
761.671379	2482.768269
761.998088	2520.576923
762.324751	2533.179808
762.651366	2477.727115
762.977935	2507.974038
763.304456	2495.371154
763.630931	2515.535769
763.957359	2450.000769
764.283740	2497.891731
764.610074	2558.385577
764.936362	2442.439038
765.262602	2462.603654
765.588796	2505.453462
765.914943	2462.603654
766.241044	2432.356731
766.567097	2510.494615
766.893104	2439.918462
767.219064	2538.220962
767.544978	2389.506923
767.870845	2510.494615
768.196665	2455.041923
768.522438	2520.576923
768.848165	2452.521346
769.173846	2510.494615
769.499479	2500.412308
769.825066	2462.603654
770.150607	2480.247692
770.476101	2439.918462
770.801548	2465.124231
771.126949	2439.918462
771.452303	2505.453462
771.777611	2505.453462
772.102872	2455.041923
772.428087	2492.850577
772.753256	2475.206538
773.078378	2487.809423
773.403453	2518.056346
773.728482	2472.685962
774.053465	2505.453462
774.378401	2502.932885
774.703291	2548.303269
775.028135	2477.727115
775.352932	2475.206538
775.677683	2457.562500
776.002388	2565.947308
776.327046	2482.768269
776.651658	2397.068654
776.976224	2528.138654
777.300743	2487.809423
777.625216	2467.644808
777.949643	2520.576923
778.274024	2457.562500
778.598359	2573.509038
778.922647	2497.891731
779.246889	2583.591346
779.571086	2570.988462
779.895236	2417.233269
780.219339	2515.535769
780.543397	2513.015192
780.867409	2480.247692
781.191374	2434.877308
781.515294	2412.192115
781.839167	2502.932885
782.162995	2545.782692
782.486776	2530.659231
782.810511	2437.397885
783.134201	2465.124231
783.457844	2480.247692
783.781441	2568.467885
784.104993	2535.700385
784.428498	2492.850577
784.751958	2507.974038
785.075372	2460.083077
785.398739	2497.891731
785.722061	2482.768269
786.045337	2540.741538
786.368568	2593.673654
786.691752	2465.124231
787.014891	2598.714808
787.337983	2480.247692
787.661030	2465.124231
787.984031	2429.836154
788.306987	2507.974038
788.629897	2457.562500
788.952760	2565.947308
789.275579	2497.891731
789.598351	2505.453462
789.921078	2472.685962
790.243759	2467.644808
790.566395	2407.150962
790.888984	2578.550192
791.211529	2467.644808
791.534027	2515.535769
791.856480	2447.480192
792.178888	2563.426731
792.501249	2381.945192
792.823566	2452.521346
793.145836	2397.068654
793.468062	2513.015192
793.790241	2429.836154
794.112375	2490.330000
794.434464	2475.206538
794.756507	2477.727115
795.078505	2450.000769
795.400457	2530.659231
795.722364	2475.206538
796.044226	2392.027500
796.366042	2487.809423
796.687812	2444.959615
797.009538	2591.153077
797.331218	2507.974038
797.652852	2505.453462
797.974442	2492.850577
798.295986	2417.233269
798.617484	2565.947308
798.938938	2497.891731
799.260346	2462.603654
799.581709	2510.494615
799.903026	2533.179808
800.224299	2523.097500
800.545526	2447.480192
800.866708	2455.041923
801.187845	2510.494615
801.508936	2470.165385
801.829983	2490.330000
802.150984	2548.303269
802.471940	2482.768269
802.792851	2525.618077
803.113717	2465.124231
803.434538	2510.494615
803.755314	2507.974038
804.076045	2555.865000
804.396731	2457.562500
804.717372	2518.056346
805.037967	2475.206538
805.358518	2477.727115
805.679024	2548.303269
805.999485	2502.932885
806.319901	2502.932885
806.640272	2563.426731
806.960598	2492.850577
807.280879	2548.303269
807.601115	2490.330000
807.921306	2530.659231
808.241453	2505.453462
808.561554	2550.823846
808.881611	2603.755962
809.201623	2450.000769
809.521590	2485.288846
809.841513	2523.097500
810.161390	2565.947308
810.481223	2525.618077
810.801011	2495.371154
811.120755	2497.891731
811.440453	2510.494615
811.760107	2457.562500
812.079716	2437.397885
812.399281	2437.397885
812.718801	2447.480192
813.038276	2520.576923
813.357707	2543.262115
813.677093	2543.262115
813.996434	2568.467885
814.315731	2371.862885
814.634983	2455.041923
814.954191	2424.795000
815.273354	2475.206538
815.592473	2487.809423
815.911547	2404.630385
816.230577	2563.426731
816.549562	2432.356731
816.868502	2507.974038
817.187399	2442.439038
817.506250	2538.220962
817.825058	2480.247692
818.143821	2525.618077
818.462539	2452.521346
818.781213	2495.371154
819.099843	2467.644808
819.418429	2429.836154
819.736970	2457.562500
820.055466	2490.330000
820.373919	2502.932885
820.692327	2482.768269
821.010691	2560.906154
821.329011	2447.480192
821.647286	2429.836154
821.965517	2444.959615
822.283704	2450.000769
822.601847	2465.124231
822.919945	2568.467885
823.237999	2510.494615
823.556010	2472.685962
823.873976	2455.041923
824.191897	2518.056346
824.509775	2553.344423
824.827609	2500.412308
825.145398	2540.741538
825.463144	2492.850577
825.780845	2502.932885
826.098502	2475.206538
826.416116	2525.618077
826.733685	2545.782692
827.051210	2429.836154
827.368692	2565.947308
827.686129	2462.603654
828.003522	2366.821731
828.320872	2432.356731
828.638177	2515.535769
828.955439	2492.850577
829.272656	2439.918462
829.589830	2422.274423
829.906960	2495.371154
830.224046	2467.644808
830.541088	2540.741538
830.858086	2444.959615
831.175041	2510.494615
831.491952	2548.303269
831.808819	2482.768269
832.125642	2470.165385
832.442421	2477.727115
832.759157	2424.795000
833.075849	2623.920577
833.392497	2450.000769
833.709101	2460.083077
834.025662	2462.603654
834.342179	2477.727115
834.658653	2520.576923
834.975083	2530.659231
835.291469	2429.836154
835.607811	2510.494615
835.924110	2452.521346
836.240366	2424.795000
836.556578	2500.412308
836.872746	2540.741538
837.188871	2520.576923
837.504952	2545.782692
837.820990	2427.315577
838.136984	2439.918462
838.452935	2500.412308
838.768842	2520.576923
839.084706	2497.891731
839.400526	2487.809423
839.716303	2419.753846
840.032037	2565.947308
840.347727	2510.494615
840.663373	2492.850577
840.978977	2528.138654
841.294537	2560.906154
841.610054	2497.891731
841.925527	2485.288846
842.240957	2450.000769
842.556344	2447.480192
842.871687	2505.453462
843.186987	2472.685962
843.502244	2518.056346
843.817458	2555.865000
844.132629	2533.179808
844.447756	2492.850577
844.762840	2611.317692
845.077881	2568.467885
845.392879	2452.521346
845.707833	2490.330000
846.022745	2500.412308
846.337613	2500.412308
846.652438	2427.315577
846.967221	2414.712692
847.281960	2379.424615
847.596656	2455.041923
847.911309	2465.124231
848.225919	2437.397885
848.540485	2533.179808
848.855009	2505.453462
849.169490	2528.138654
849.483928	2558.385577
849.798323	2477.727115
850.112675	2475.206538
850.426984	2518.056346
850.741251	2497.891731
851.055474	2507.974038
851.369654	2422.274423
851.683792	2513.015192
851.997887	2482.768269
852.311938	2548.303269
852.625947	2477.727115
852.939914	2490.330000
853.253837	2455.041923
853.567718	2480.247692
853.881555	2412.192115
854.195350	2447.480192
854.509103	2505.453462
854.822812	2437.397885
855.136479	2510.494615
855.450103	2490.330000
855.763685	2407.150962
856.077224	2477.727115
856.390720	2533.179808
856.704173	2414.712692
857.017584	2475.206538
857.330953	2437.397885
857.644278	2497.891731
857.957561	2444.959615
858.270802	2472.685962
858.584000	2412.192115
858.897155	2543.262115
859.210268	2462.603654
859.523339	2442.439038
859.836367	2505.453462
860.149352	2565.947308
860.462295	2470.165385
860.775195	2475.206538
861.088054	2485.288846
861.400869	2442.439038
861.713642	2513.015192
862.026373	2490.330000
862.339062	2573.509038
862.651708	2467.644808
862.964312	2530.659231
863.276873	2576.029615
863.589392	2444.959615
863.901869	2515.535769
864.214303	2492.850577
864.526696	2434.877308
864.839045	2477.727115
865.151353	2523.097500
865.463619	2462.603654
865.775842	2581.070769
866.088023	2518.056346
866.400162	2477.727115
866.712258	2480.247692
867.024313	2520.576923
867.336325	2434.877308
867.648296	2528.138654
867.960224	2477.727115
868.272110	2495.371154
868.583954	2460.083077
868.895755	2523.097500
869.207515	2558.385577
869.519233	2513.015192
869.830909	2497.891731
870.142542	2510.494615
870.454134	2444.959615
870.765684	2513.015192
871.077191	2460.083077
871.388657	2447.480192
871.700081	2414.712692
872.011463	2407.150962
872.322803	2480.247692
872.634101	2500.412308
872.945357	2381.945192
873.256571	2432.356731
873.567744	2397.068654
873.878874	2480.247692
874.189963	2505.453462
874.501010	2520.576923
874.812015	2419.753846
875.122979	2427.315577
875.433900	2490.330000
875.744780	2613.838269
876.055618	2535.700385
876.366415	2465.124231
876.677169	2472.685962
876.987882	2530.659231
877.298554	2560.906154
877.609183	2492.850577
877.919771	2487.809423
878.230317	2495.371154
878.540822	2510.494615
878.851285	2460.083077
879.161707	2530.659231
879.472087	2502.932885
879.782425	2523.097500
880.092722	2505.453462
880.402977	2480.247692
880.713191	2495.371154
881.023363	2550.823846
881.333494	2500.412308
881.643583	2568.467885
881.953631	2616.358846
882.263637	2598.714808
882.573602	2434.877308
882.883526	2444.959615
883.193408	2502.932885
883.503248	2497.891731
883.813048	2553.344423
884.122806	2533.179808
884.432522	2477.727115
884.742197	2419.753846
885.051831	2472.685962
885.361424	2465.124231
885.670975	2409.671538
885.980485	2523.097500
886.289954	2495.371154
886.599382	2505.453462
886.908768	2462.603654
887.218113	2495.371154
887.527417	2450.000769
887.836680	2452.521346
888.145901	2507.974038
888.455082	2515.535769
888.764221	2523.097500
889.073319	2450.000769
889.382376	2495.371154
889.691392	2507.974038
890.000366	2472.685962
890.309300	2505.453462
890.618193	2530.659231
890.927044	2507.974038
891.235855	2487.809423
891.544625	2465.124231
891.853353	2497.891731
892.162041	2535.700385
892.470687	2568.467885
892.779293	2487.809423
893.087858	2437.397885
893.396381	2502.932885
893.704864	2407.150962
894.013306	2528.138654
894.321707	2502.932885
894.630068	2548.303269
894.938387	2404.630385
895.246665	2482.768269
895.554903	2528.138654
895.863100	2550.823846
896.171256	2447.480192
896.479371	2523.097500
896.787446	2455.041923
897.095480	2558.385577
897.403473	2470.165385
897.711425	2492.850577
898.019336	2475.206538
898.327207	2502.932885
898.635038	2528.138654
898.942827	2525.618077
899.250576	2475.206538
899.558284	2487.809423
899.865952	2505.453462
900.173579	2452.521346
900.481165	2528.138654
900.788711	2507.974038
901.096216	2427.315577
901.403681	2548.303269
901.711105	2465.124231
902.018489	2447.480192
902.325832	2447.480192
902.633135	2543.262115
902.940397	2543.262115
903.247619	2553.344423
903.554800	2452.521346
903.861941	2507.974038
904.169041	2616.358846
904.476101	2540.741538
904.783121	2525.618077
905.090100	2434.877308
905.397039	2462.603654
905.703938	2548.303269
906.010796	2409.671538
906.317614	2578.550192
906.624391	2467.644808
906.931129	2540.741538
907.237826	2558.385577
907.544483	2444.959615
907.851099	2422.274423
908.157675	2487.809423
908.464211	2515.535769
908.770707	2487.809423
909.077163	2477.727115
909.383578	2520.576923
909.689954	2482.768269
909.996289	2402.109808
910.302584	2558.385577
910.608839	2543.262115
910.915054	2500.412308
911.221229	2444.959615
911.527363	2495.371154
911.833458	2518.056346
912.139513	2555.865000
912.445527	2424.795000
912.751502	2472.685962
913.057436	2462.603654
913.363331	2528.138654
913.669186	2437.397885
913.975000	2417.233269
914.280775	2444.959615
914.586510	2495.371154
914.892205	2397.068654
915.197859	2437.397885
915.503475	2533.179808
915.809050	2538.220962
916.114585	2452.521346
916.420081	2462.603654
916.725536	2492.850577
917.030952	2490.330000
917.336328	2558.385577
917.641665	2444.959615
917.946961	2525.618077
918.252218	2560.906154
918.557435	2470.165385
918.862612	2467.644808
919.167750	2507.974038
919.472848	2502.932885
919.777906	2560.906154
920.082925	2495.371154
920.387904	2492.850577
920.692843	2442.439038
920.997743	2535.700385
921.302603	2444.959615
921.607423	2518.056346
921.912204	2455.041923
922.216946	2450.000769
922.521647	2487.809423
922.826310	2502.932885
923.130932	2497.891731
923.435516	2492.850577
923.740059	2495.371154
924.044564	2502.932885
924.349028	2409.671538
924.653454	2523.097500
924.957840	2450.000769
925.262186	2543.262115
925.566493	2535.700385
925.870761	2480.247692
926.174989	2485.288846
926.479178	2490.330000
926.783328	2525.618077
927.087438	2447.480192
927.391509	2434.877308
927.695541	2528.138654
927.999533	2429.836154
928.303486	2472.685962
928.607400	2507.974038
928.911275	2513.015192
929.215110	2518.056346
929.518906	2520.576923
929.822663	2500.412308
930.126381	2442.439038
930.430060	2490.330000
930.733699	2513.015192
931.037299	2515.535769
931.340861	2550.823846
931.644383	2434.877308
931.947866	2495.371154
932.251309	2480.247692
932.554714	2528.138654
932.858080	2460.083077
933.161407	2492.850577
933.464694	2412.192115
933.767943	2485.288846
934.071153	2472.685962
934.374323	2525.618077
934.677455	2550.823846
934.980548	2530.659231
935.283602	2487.809423
935.586617	2444.959615
935.889593	2412.192115
936.192530	2460.083077
936.495428	2525.618077
936.798287	2442.439038
937.101108	2397.068654
937.403890	2434.877308
937.706632	2510.494615
938.009336	2528.138654
938.312002	2520.576923
938.614628	2447.480192
938.917216	2518.056346
939.219765	2455.041923
939.522275	2513.015192
939.824747	2495.371154
940.127179	2452.521346
940.429573	2402.109808
940.731929	2477.727115
941.034246	2419.753846
941.336524	2543.262115
941.638763	2475.206538
941.940964	2505.453462
942.243126	2573.509038
942.545250	2586.111923
942.847335	2490.330000
943.149381	2427.315577
943.451389	2497.891731
943.753359	2490.330000
944.055290	2497.891731
944.357182	2535.700385
944.659036	2497.891731
944.960851	2523.097500
945.262628	2510.494615
945.564367	2497.891731
945.866067	2513.015192
946.167729	2452.521346
946.469352	2485.288846
946.770937	2510.494615
947.072484	2467.644808
947.373992	2444.959615
947.675462	2455.041923
947.976893	2497.891731
948.278286	2424.795000
948.579641	2472.685962
948.880958	2417.233269
949.182236	2407.150962
949.483476	2472.685962
949.784678	2553.344423
950.085841	2485.288846
950.386967	2548.303269
950.688054	2507.974038
950.989103	2505.453462
951.290114	2540.741538
951.591087	2462.603654
951.892021	2543.262115
952.192917	2467.644808
952.493776	2417.233269
952.794596	2545.782692
953.095378	2515.535769
953.396122	2495.371154
953.696828	2523.097500
953.997496	2487.809423
954.298126	2442.439038
954.598718	2528.138654
954.899272	2497.891731
955.199788	2490.330000
955.500266	2477.727115
955.800706	2485.288846
956.101108	2538.220962
956.401472	2513.015192
956.701798	2465.124231
957.002087	2513.015192
957.302337	2492.850577
957.602550	2457.562500
957.902724	2480.247692
958.202861	2502.932885
958.502960	2510.494615
958.803022	2480.247692
959.103045	2563.426731
959.403031	2450.000769
959.702979	2455.041923
960.002889	2545.782692
960.302762	2470.165385
960.602596	2364.301154
960.902393	2520.576923
961.202153	2533.179808
961.501875	2477.727115
961.801559	2495.371154
962.101205	2497.891731
962.400814	2475.206538
962.700385	2460.083077
962.999918	2553.344423
963.299414	2447.480192
963.598873	2533.179808
963.898293	2538.220962
964.197677	2475.206538
964.497022	2444.959615
964.796331	2598.714808
965.095601	2470.165385
965.394835	2397.068654
965.694030	2528.138654
965.993189	2457.562500
966.292309	2492.850577
966.591393	2450.000769
966.890439	2507.974038
967.189447	2497.891731
967.488419	2502.932885
967.787353	2424.795000
968.086249	2515.535769
968.385108	2462.603654
968.683930	2523.097500
968.982714	2455.041923
969.281462	2422.274423
969.580172	2462.603654
969.878844	2424.795000
970.177480	2576.029615
970.476078	2422.274423
970.774639	2465.124231
971.073162	2510.494615
971.371649	2507.974038
971.670098	2412.192115
971.968510	2515.535769
972.266885	2497.891731
972.565223	2500.412308
972.863524	2422.274423
973.161788	2480.247692
973.460014	2487.809423
973.758204	2523.097500
974.056356	2455.041923
974.354471	2555.865000
974.652550	2515.535769
974.950591	2467.644808
975.248595	2520.576923
975.546563	2518.056346
975.844493	2558.385577
976.142386	2477.727115
976.440243	2417.233269
976.738062	2490.330000
977.035845	2407.150962
977.333590	2477.727115
977.631299	2442.439038
977.928971	2492.850577
978.226606	2520.576923
978.524204	2513.015192
978.821765	2437.397885
979.119290	2576.029615
979.416777	2540.741538
979.714228	2490.330000
980.011642	2530.659231
980.309020	2467.644808
980.606360	2502.932885
980.903664	2434.877308
981.200931	2520.576923
981.498162	2485.288846
981.795356	2513.015192
982.092513	2505.453462
982.389633	2457.562500
982.686717	2460.083077
982.983764	2417.233269
983.280775	2480.247692
983.577749	2507.974038
983.874686	2487.809423
984.171587	2455.041923
984.468451	2452.521346
984.765279	2550.823846
985.062070	2447.480192
985.358824	2543.262115
985.655543	2412.192115
985.952224	2465.124231
986.248869	2450.000769
986.545478	2492.850577
986.842050	2480.247692
987.138586	2505.453462
987.435086	2412.192115
987.731549	2490.330000
988.027975	2460.083077
988.324366	2500.412308
988.620719	2513.015192
988.917037	2525.618077
989.213318	2465.124231
989.509563	2555.865000
989.805772	2490.330000
990.101944	2470.165385
990.398080	2598.714808
990.694180	2482.768269
990.990244	2472.685962
991.286271	2510.494615
991.582262	2525.618077
991.878217	2487.809423
992.174136	2475.206538
992.470019	2535.700385
992.765865	2515.535769
993.061676	2487.809423
993.357450	2462.603654
993.653188	2533.179808
993.948890	2417.233269
994.244556	2447.480192
994.540186	2432.356731
994.835780	2515.535769
995.131337	2535.700385
995.426859	2523.097500
995.722345	2623.920577
996.017795	2510.494615
996.313208	2553.344423
996.608586	2543.262115
996.903928	2444.959615
997.199234	2434.877308
997.494504	2455.041923
997.789738	2520.576923
998.084936	2409.671538
998.380099	2432.356731
998.675225	2523.097500
998.970316	2507.974038
999.265371	2475.206538
999.560390	2515.535769
999.855373	2450.000769
1000.150320	2520.576923
1000.445232	2518.056346
1000.740108	2462.603654
1001.034948	2507.974038
1001.329752	2414.712692
1001.624521	2565.947308
1001.919254	2447.480192
1002.213951	2490.330000
1002.508613	2482.768269
1002.803239	2477.727115
1003.097829	2447.480192
1003.392384	2462.603654
1003.686903	2470.165385
1003.981386	2540.741538
1004.275834	2543.262115
1004.570246	2442.439038
1004.864623	2490.330000
1005.158964	2475.206538
1005.453270	2480.247692
1005.747540	2470.165385
1006.041775	2480.247692
1006.335974	2570.988462
1006.630138	2553.344423
1006.924266	2444.959615
1007.218359	2475.206538
1007.512416	2490.330000
1007.806438	2424.795000
1008.100425	2570.988462
1008.394376	2497.891731
1008.688292	2442.439038
1008.982172	2510.494615
1009.276017	2487.809423
1009.569827	2490.330000
1009.863602	2507.974038
1010.157341	2480.247692
1010.451045	2520.576923
1010.744714	2518.056346
1011.038347	2414.712692
1011.331945	2518.056346
1011.625508	2439.918462
1011.919036	2364.301154
1012.212528	2407.150962
1012.505986	2462.603654
1012.799408	2487.809423
1013.092795	2505.453462
1013.386147	2502.932885
1013.679464	2452.521346
1013.972745	2505.453462
1014.265992	2386.986346
1014.559204	2462.603654
1014.852380	2500.412308
1015.145521	2470.165385
1015.438628	2548.303269
1015.731699	2507.974038
1016.024736	2424.795000
1016.317737	2500.412308
1016.610703	2439.918462
1016.903635	2568.467885
1017.196531	2518.056346
1017.489393	2583.591346
1017.782219	2490.330000
1018.075011	2490.330000
1018.367768	2528.138654
1018.660490	2518.056346
1018.953177	2518.056346
1019.245829	2518.056346
