Dividing Wavelength (nm)	Counts (n)	Blue Motor Position (mm): 3.800000	Red Motor Position (mm): 0.000000	
326.493990	2161.515699
326.888308	2161.515699
327.282561	2161.515699
327.676750	2118.902826
328.070874	2115.956271
328.464933	2116.893926
328.858929	2120.301746
329.252859	2123.926336
329.646726	2135.276493
330.040528	2145.295787
330.434265	2157.134937
330.827938	2175.315858
331.221547	2193.159022
331.615091	2210.724923
332.008571	2230.859291
332.401986	2247.416961
332.795338	2265.048396
333.188625	2288.305760
333.581847	2305.604479
333.975006	2319.802889
334.368100	2342.785509
334.761129	2360.421986
335.154095	2375.026209
335.546996	2391.616646
335.939833	2406.901424
336.332606	2422.284505
336.725315	2434.330342
337.117960	2447.142435
337.510540	2458.195165
337.903056	2471.909624
338.295508	2478.571509
338.687896	2488.207674
339.080220	2495.792090
339.472480	2502.935405
339.864676	2508.314316
340.256807	2514.893022
340.648875	2521.156656
341.040879	2520.193795
341.432818	2522.981553
341.824694	2526.548170
342.216506	2525.277799
342.608253	2528.867101
342.999937	2527.417769
343.391557	2527.478263
343.783113	2528.413397
344.174605	2527.269055
344.566033	2525.794517
344.957397	2525.429034
345.348697	2525.406348
345.739934	2522.364012
346.131106	2522.106913
346.522215	2518.018538
346.913260	2517.096006
347.304241	2511.883453
347.695159	2511.298679
348.086012	2509.642660
348.476802	2511.167609
348.867528	2503.502535
349.258191	2500.223264
349.648789	2501.196207
350.039324	2496.104642
350.429796	2500.692092
350.820203	2499.320898
351.210548	2498.126144
351.600828	2496.119765
351.991045	2497.803511
352.381198	2495.421565
352.771288	2496.795280
353.161314	2491.998622
353.551276	2493.021976
353.941175	2492.964003
354.331010	2494.773777
354.720782	2495.587923
355.110490	2493.931904
355.500135	2491.746564
355.889717	2492.870742
356.279235	2493.188334
356.668689	2492.908550
357.058080	2492.845536
357.447408	2492.122130
357.836672	2493.831081
358.225873	2493.425268
358.615010	2496.346617
359.004084	2491.166832
359.393095	2494.544405
359.782043	2494.337717
360.170927	2494.705722
360.559748	2496.888541
360.948505	2497.884169
361.337199	2498.531957
361.725830	2498.887359
362.114398	2498.103459
362.502903	2499.661176
362.891344	2499.729231
363.279722	2500.699653
363.668037	2497.992554
364.056289	2500.193018
364.444478	2501.964983
364.832603	2503.535303
365.220665	2501.256701
365.608665	2503.855416
365.996601	2501.750734
366.384474	2501.899448
366.772284	2503.336177
367.160031	2503.860457
367.547715	2505.818945
367.935336	2503.890704
368.322893	2504.049500
368.710388	2501.798625
369.097820	2502.620333
369.485189	2501.624705
369.872495	2506.416322
370.259738	2505.632423
370.646918	2507.406909
371.034035	2505.261898
371.421090	2508.110150
371.808081	2504.525889
372.195010	2509.017557
372.581875	2507.333812
372.968678	2506.139058
373.355418	2508.450428
373.742096	2505.841630
374.128710	2509.541837
374.515262	2508.946981
374.901751	2510.381189
375.288177	2509.859430
375.674540	2510.512259
376.060841	2507.139727
376.447079	2510.262722
376.833254	2511.137362
377.219367	2511.344050
377.605417	2513.383197
377.991404	2511.089472
378.377329	2510.978566
378.763191	2514.686335
379.148991	2512.556447
379.534727	2510.731550
379.920402	2511.853206
380.306013	2514.252796
380.691563	2515.117353
381.077049	2514.724143
381.462474	2515.268588
381.847835	2512.982425
382.233134	2513.831859
382.618371	2512.037208
383.003545	2512.811026
383.388657	2514.116684
383.773706	2514.567868
384.158693	2515.422343
384.543618	2513.998217
384.928480	2517.567354
385.313280	2514.688855
385.698017	2514.013341
386.082692	2515.278670
386.467305	2517.519463
386.851856	2517.479134
387.236344	2517.393434
387.620770	2514.920748
388.005133	2513.579802
388.389435	2515.571057
388.773674	2513.380676
389.157851	2518.429392
389.541965	2516.012158
389.926018	2519.339320
390.310008	2517.479134
390.693936	2518.736902
391.077802	2519.750174
391.461606	2519.225894
391.845348	2519.314114
392.229027	2518.484844
392.612645	2518.943589
392.996200	2521.229753
393.379694	2517.925276
393.763125	2518.371418
394.146494	2518.066428
394.529801	2520.546676
394.913047	2520.776049
395.296230	2523.165556
395.679351	2519.621624
396.062410	2522.212778
396.445408	2521.411234
396.828343	2524.123375
397.211217	2519.399814
397.594028	2521.635565
397.976778	2520.221522
398.359466	2523.510875
398.742092	2522.202695
399.124656	2521.920391
399.507158	2521.895185
399.889598	2521.769156
400.271977	2521.764115
400.654294	2521.121368
401.036549	2522.517767
401.418742	2522.205216
401.800874	2524.272089
402.182944	2523.094979
402.564952	2523.372243
402.946898	2521.494413
403.328783	2524.040196
403.710606	2525.736544
404.092367	2524.163704
404.474067	2522.835360
404.855705	2522.452232
405.237282	2524.957686
405.618797	2525.315608
406.000250	2526.467511
406.381642	2523.324352
406.762972	2523.568848
407.144240	2521.491892
407.525447	2523.858714
407.906593	2522.051461
408.287677	2526.258303
408.668700	2524.841739
409.049661	2527.107738
409.430560	2526.180166
409.811399	2526.548170
410.192176	2526.888448
410.572891	2528.090763
410.953545	2525.555062
411.334138	2526.959024
411.714669	2526.593540
412.095139	2527.069929
412.475547	2528.005063
412.855894	2527.629497
413.236180	2528.826771
413.616405	2523.926770
413.996568	2528.788963
414.376670	2529.754344
414.756711	2527.926925
415.136691	2528.756195
415.516609	2528.299971
415.896466	2530.341638
416.276262	2529.948428
416.655997	2527.687471
417.035670	2528.446164
417.415283	2530.896165
417.794834	2530.818027
418.174324	2531.251566
418.553753	2529.678726
418.933121	2529.837523
419.312428	2527.654703
419.691674	2532.579910
420.070859	2527.851308
420.449983	2531.438089
420.829045	2533.746938
421.208047	2531.100332
421.586988	2530.530681
421.965867	2531.193593
422.344686	2532.388347
422.723444	2530.397091
423.102141	2529.819879
423.480777	2533.726773
423.859352	2530.369364
424.237866	2530.331556
424.616319	2533.399098
424.994712	2533.530168
425.373044	2530.926412
425.751314	2529.474560
426.129524	2529.535053
426.507673	2530.525640
426.885762	2524.138498
427.263789	2534.699716
427.641756	2530.923891
428.019662	2533.701567
428.397508	2532.060672
428.775292	2532.582431
429.153016	2531.760723
429.530679	2532.980682
429.908282	2536.023018
430.285824	2534.331711
430.663305	2534.548481
431.040726	2534.014119
431.418086	2534.346835
431.795385	2533.378933
432.172624	2535.002185
432.549802	2536.842206
432.926920	2534.258615
433.303977	2539.410674
433.680974	2535.055117
434.057910	2533.721732
434.434786	2533.741896
434.811601	2535.889428
435.188355	2535.627288
435.565050	2536.201979
435.941683	2535.513862
436.318257	2535.559232
436.694770	2535.229037
437.071222	2536.607792
437.447614	2536.028060
437.823946	2537.432021
438.200218	2534.044366
438.576429	2535.624767
438.952580	2535.135775
439.328670	2537.472350
439.704700	2537.888245
440.080670	2536.471681
440.456580	2538.195756
440.832429	2537.515200
441.208218	2535.889428
441.583947	2536.569984
441.959616	2535.884387
442.335224	2537.769778
442.710773	2537.104346
443.086261	2538.636857
443.461689	2538.694830
443.837057	2539.012423
444.212365	2535.939839
444.587612	2535.415559
444.962800	2537.293389
445.337927	2535.604603
445.712995	2534.460261
446.088002	2538.982176
446.462949	2534.775333
446.837837	2538.130221
447.212664	2538.132741
447.587431	2536.310364
447.962139	2538.044521
448.336786	2536.007895
448.711374	2538.838503
449.085901	2539.859337
449.460369	2542.896632
449.834776	2538.430169
450.209124	2537.603420
450.583412	2537.590817
450.957640	2539.627443
451.331808	2536.567463
451.705917	2539.050231
452.079965	2536.474202
452.453954	2541.321271
452.827883	2539.962680
453.201752	2540.469316
453.575562	2539.377906
453.949311	2538.793133
454.323001	2541.558205
454.696632	2539.902186
455.070202	2540.469316
455.443713	2541.263298
455.817164	2538.798174
456.190556	2540.197094
456.563888	2540.814635
456.937160	2539.922351
457.310373	2539.209028
457.683526	2541.066693
458.056619	2540.126518
458.429653	2539.125849
458.802628	2539.826569
459.175542	2540.844882
459.548398	2540.986034
459.921194	2540.169367
460.293930	2541.812784
460.666607	2542.117773
461.039224	2544.870243
461.411782	2542.478216
461.784280	2542.100129
462.156719	2541.225489
462.529099	2544.789585
462.901419	2541.336395
463.273680	2540.103832
463.645882	2537.462268
464.018024	2540.096271
464.390106	2537.016126
464.762130	2542.561395
465.134094	2542.082485
465.505999	2542.329502
465.877845	2542.682383
466.249631	2542.337064
466.621358	2543.526776
466.993026	2542.329502
467.364634	2547.660522
467.736184	2543.236910
468.107674	2541.185160
468.479105	2542.198432
468.850477	2541.434697
469.221790	2542.493339
469.593043	2539.254398
469.964238	2542.901673
470.335373	2542.611807
470.706449	2541.772454
471.077467	2540.300437
471.448425	2543.955274
471.819324	2543.839327
472.190164	2543.488967
472.560945	2542.936961
472.931667	2543.012578
473.302330	2543.272198
473.672934	2543.710778
474.043479	2541.064172
474.413965	2543.909904
474.784393	2541.696837
475.154761	2546.871582
475.525070	2543.972918
475.895321	2544.852599
476.265513	2543.282280
476.635645	2546.884184
477.005719	2544.439225
477.375734	2544.822352
477.745691	2543.841848
478.115588	2545.404606
478.485427	2545.109698
478.855207	2545.754966
479.224928	2542.667259
479.594591	2545.896118
479.964194	2543.438556
480.333739	2542.447969
480.703226	2543.826725
481.072653	2543.332692
481.442022	2545.712116
481.811333	2542.034594
482.180584	2539.095602
482.549777	2540.355890
482.918912	2541.096940
483.287988	2547.083310
483.657005	2546.375028
484.025964	2546.569112
484.394864	2547.753783
484.763706	2546.985007
485.132489	2544.497198
485.501213	2546.642209
485.869879	2544.988711
486.238487	2547.484082
486.607036	2545.384441
486.975527	2545.094575
487.343959	2546.296890
487.712333	2547.375697
488.080648	2543.960315
488.448905	2546.102806
488.817104	2547.322765
489.185244	2545.283618
489.553326	2545.452497
489.921350	2546.329658
490.289315	2546.934596
490.657222	2545.185316
491.025070	2545.318906
491.392861	2547.438711
491.760593	2547.279915
492.128267	2544.847558
492.495883	2548.404092
492.863440	2545.036602
493.230939	2545.954092
493.598380	2547.307641
493.965763	2544.320758
494.333088	2547.670604
494.700354	2543.839328
495.067563	2547.042981
495.434713	2545.558361
495.801805	2546.226314
496.168839	2545.424770
496.535815	2546.874102
496.902733	2546.662374
497.269593	2544.454348
497.636395	2545.918803
498.003139	2545.253371
498.369825	2547.514329
498.736453	2547.199257
499.103023	2548.643547
499.469535	2550.153373
499.835989	2546.334699
500.202385	2544.862682
500.568723	2541.500232
500.935003	2546.962322
501.301226	2542.402599
501.667390	2548.023485
502.033497	2550.344937
502.399546	2548.300749
502.765537	2546.916952
503.131470	2544.174564
503.497345	2547.405944
503.863163	2543.536858
504.228923	2547.083310
504.594625	2546.760676
504.960269	2545.760007
505.325856	2548.089020
505.691385	2547.070707
506.056856	2548.124308
506.422270	2547.048022
506.787625	2544.461910
507.152924	2547.962991
507.518164	2547.373176
507.883347	2544.817311
508.248472	2545.369318
508.613540	2548.986346
508.978550	2547.968032
509.343503	2547.814277
509.708398	2546.644730
510.073236	2549.528270
510.438016	2547.310162
510.802738	2548.925852
511.167403	2546.155738
511.532010	2547.892415
511.896561	2549.873589
512.261053	2547.980635
512.625488	2547.617672
512.989866	2547.421067
513.354186	2547.962991
513.718449	2547.897456
514.082655	2546.054915
514.446803	2547.327806
514.810894	2546.455686
515.174927	2548.061294
515.538904	2547.045501
515.902822	2550.594474
516.266684	2546.395192
516.630488	2549.009031
516.994235	2544.905532
517.357925	2547.088351
517.721558	2547.166489
518.085133	2545.094575
518.448651	2548.615821
518.812112	2545.013916
519.175516	2545.228165
519.538863	2543.698175
519.902152	2550.077755
520.265385	2545.928886
520.628560	2549.757642
520.991678	2549.167827
521.354739	2547.973074
521.717743	2548.754452
522.080690	2548.288146
522.443580	2548.968702
522.806413	2549.906356
523.169189	2548.978784
523.531908	2549.215718
523.894569	2548.933413
524.257174	2548.310831
524.619722	2548.759494
524.982213	2547.544576
525.344647	2548.310831
525.707025	2549.288815
526.069345	2550.730585
526.431608	2549.951727
526.793815	2547.395862
527.155964	2550.453321
527.518057	2551.017931
527.880093	2548.270502
528.242072	2548.076417
528.603995	2548.368804
528.965860	2549.767724
529.327669	2549.944165
529.689421	2550.072714
530.051117	2549.929041
530.412755	2550.145811
530.774337	2548.542724
531.135862	2548.459545
531.497331	2550.496171
531.858743	2548.474668
532.220098	2549.303938
532.581396	2549.636654
532.942638	2550.796120
533.303824	2548.141952
533.664953	2550.022303
534.026025	2548.988866
534.387040	2547.937786
534.747999	2549.021634
535.108902	2550.410472
535.469748	2548.215049
535.830537	2551.300235
536.191270	2548.094061
536.551947	2548.215049
536.912567	2544.865202
537.273131	2546.833773
537.633638	2545.117260
537.994089	2548.449463
538.354483	2552.920966
538.714821	2548.986346
539.075103	2548.961140
539.435328	2550.206305
539.795497	2546.052394
540.155609	2551.194371
540.515665	2547.327806
540.875665	2549.918959
541.235609	2551.133877
541.595496	2546.748073
541.955328	2548.930893
542.315102	2551.315359
542.674821	2551.834598
543.034483	2550.082797
543.394090	2548.550286
543.753640	2549.533311
544.113134	2551.007848
544.472571	2550.213867
544.831953	2550.019782
545.191278	2548.918290
545.550548	2550.352498
545.909761	2550.465924
546.268918	2549.182951
546.628019	2550.186140
546.987064	2552.459701
547.346053	2550.720503
547.704986	2547.899977
548.063863	2549.876109
548.422684	2552.038764
548.781449	2552.240410
549.140158	2549.568599
549.498811	2553.677139
549.857408	2548.943496
550.215949	2549.921480
550.574434	2551.126315
550.932864	2552.958775
551.291237	2550.614638
551.649555	2548.976263
552.007817	2549.460214
552.366022	2549.825698
552.724173	2549.959288
553.082267	2551.693445
553.440305	2551.955585
553.798288	2551.517005
554.156215	2546.642209
554.514086	2547.068187
554.871902	2546.062476
555.229661	2547.249668
555.587365	2543.925027
555.945014	2549.253527
556.302606	2549.283774
556.660143	2552.618497
557.017625	2548.162117
557.375050	2551.761501
557.732421	2549.760163
558.089735	2550.022303
558.446994	2548.721685
558.804197	2550.518856
559.161345	2549.011551
559.518437	2551.562375
559.875474	2551.453990
560.232455	2549.505584
560.589381	2550.410472
560.946251	2550.168496
561.303065	2548.890564
561.659825	2548.273022
562.016528	2550.304607
562.373177	2551.194371
562.729770	2548.762014
563.086307	2550.791079
563.442789	2551.743857
563.799216	2548.273022
564.155587	2550.891902
564.511904	2549.409802
564.868164	2550.473486
565.224370	2548.280584
565.580520	2549.830739
565.936615	2552.442057
566.292654	2548.681356
566.648638	2551.935421
567.004567	2549.273691
567.360441	2553.104968
567.716260	2550.216387
568.072023	2551.378373
568.427732	2551.632951
568.783385	2550.995245
569.138982	2551.403579
569.494525	2551.368291
569.850013	2551.217056
570.205445	2550.380225
570.560823	2549.331665
570.916145	2545.901159
571.271412	2549.195553
571.626625	2548.383928
571.981782	2550.712941
572.336884	2549.276212
572.691931	2547.524411
573.046923	2548.419216
573.401860	2544.464431
573.756743	2550.332334
574.111570	2550.922149
574.466342	2550.690256
574.821059	2550.075235
575.175722	2552.434495
575.530330	2552.341233
575.884882	2551.653116
576.239380	2551.968188
576.593823	2551.678322
576.948211	2550.380225
577.302544	2550.614638
577.656823	2549.256047
578.011047	2550.934752
578.365216	2551.338044
578.719330	2552.258054
579.073389	2550.213867
579.427394	2551.085986
579.781344	2552.016079
580.135239	2552.250493
580.489080	2551.360729
580.842866	2548.585574
581.196597	2551.269988
581.550273	2548.741850
581.903895	2548.381407
582.257463	2549.427447
582.610975	2548.973743
582.964434	2551.776624
583.317837	2551.022972
583.671186	2552.714279
584.024481	2549.142621
584.377721	2551.557334
584.730906	2551.839639
585.084037	2551.582540
585.437113	2552.621017
585.790135	2551.746377
586.143103	2552.701676
586.496016	2552.293343
586.848874	2550.319731
587.201679	2551.806871
587.554428	2551.282591
587.907124	2552.618497
588.259765	2552.263096
588.612352	2551.839639
588.964884	2554.279557
589.317362	2553.452808
589.669786	2552.429454
590.022155	2550.034906
590.374470	2548.938455
590.726731	2545.386962
591.078937	2547.045501
591.431090	2552.431974
591.783188	2551.975750
592.135232	2554.483724
592.487222	2550.952396
592.839157	2551.378373
593.191038	2552.487427
593.542866	2552.479865
593.894639	2552.220246
594.246358	2551.892571
594.598022	2550.833928
594.949633	2552.283260
595.301190	2551.738816
595.652692	2553.294012
596.004141	2552.429454
596.355535	2548.699000
596.706876	2553.427602
597.058162	2551.116233
597.409395	2550.279402
597.760573	2551.842159
598.111698	2548.472148
598.462768	2553.021789
598.813785	2551.474155
599.164748	2552.668908
599.515657	2550.793599
599.866511	2549.404761
600.217312	2551.607746
600.568060	2550.302087
600.918753	2551.378373
601.269392	2551.232180
601.619978	2549.760163
601.970510	2550.470965
602.320988	2550.609597
602.671412	2549.913918
603.021783	2550.145811
603.372100	2550.360060
603.722363	2551.630431
604.072572	2552.164793
604.422728	2548.598177
604.772830	2551.022972
605.122878	2549.389638
605.472872	2549.863506
605.822813	2550.972560
606.172701	2550.178578
606.522534	2553.288970
606.872314	2552.948693
607.222041	2550.944834
607.571714	2550.957437
607.921333	2547.509287
608.270899	2551.028013
608.620411	2548.089020
608.969870	2553.876265
609.319276	2555.297870
609.668627	2559.953376
610.017926	2563.434292
610.367171	2564.190466
610.716362	2565.027297
611.065500	2562.728531
611.414585	2559.421534
611.763616	2560.984292
612.112594	2559.648386
612.461518	2554.113199
612.810389	2554.869372
613.159207	2556.288457
613.507971	2552.936090
613.856682	2556.603529
614.205340	2553.770401
614.553945	2555.164280
614.902496	2552.321069
615.250994	2554.133364
615.599439	2553.682180
615.947830	2554.713096
616.296169	2551.151521
616.644454	2553.566234
616.992686	2553.193188
617.340864	2553.518343
617.688990	2551.847200
618.037063	2553.944320
618.385082	2548.885522
618.733048	2552.396686
619.080961	2553.515822
619.428821	2553.621687
619.776628	2551.948023
620.124382	2552.169834
620.472083	2553.203271
620.819731	2550.090358
621.167326	2551.743857
621.514868	2551.927859
621.862357	2553.866182
622.209793	2552.608415
622.557176	2550.745708
622.904506	2554.070349
623.251783	2549.634134
623.599007	2549.848383
623.946179	2551.254865
624.293297	2553.737633
624.640363	2550.231511
624.987376	2548.013403
625.334336	2546.715306
625.681243	2549.734957
626.028097	2545.772610
626.374899	2551.529608
626.721647	2551.847200
627.068343	2552.298384
627.414987	2550.576830
627.761577	2550.254196
628.108115	2551.292673
628.454600	2553.760318
628.801032	2551.340564
629.147412	2551.322920
629.493739	2549.200595
629.840014	2552.913404
630.186236	2550.654967
630.532405	2551.436346
630.878521	2552.094217
631.224585	2554.090514
631.570597	2551.053219
631.916556	2552.416851
632.262462	2549.321582
632.608316	2552.744526
632.954117	2552.053888
633.299866	2553.891388
633.645562	2549.550955
633.991206	2551.786707
634.336797	2549.593805
634.682336	2555.181924
635.027823	2549.613969
635.373257	2552.573127
635.718639	2548.527601
636.063968	2553.987170
636.409245	2550.039947
636.754470	2551.922818
637.099642	2549.838301
637.444762	2551.232180
637.789829	2553.896429
638.134845	2551.945503
638.479808	2549.510626
638.824719	2550.579350
639.169577	2551.312838
639.514383	2548.741850
639.859137	2552.628579
640.203839	2548.396531
640.548489	2548.948537
640.893086	2551.164124
641.237632	2552.489948
641.582125	2551.726213
641.926566	2549.051881
642.270955	2549.568599
642.615292	2547.179092
642.959576	2547.773948
643.303809	2544.219935
643.647990	2548.653629
643.992118	2552.197561
644.336195	2550.816284
644.680219	2549.714792
645.024192	2550.216387
645.368112	2550.246634
645.711981	2553.228477
646.055797	2549.455173
646.399562	2550.465924
646.743274	2552.111861
647.086935	2548.830070
647.430544	2550.907025
647.774101	2551.723692
648.117606	2548.313352
648.461059	2551.491799
648.804460	2554.544218
649.147810	2550.717982
649.491108	2550.753270
649.834354	2550.483568
650.177548	2548.958619
650.520690	2550.922149
650.863781	2550.430636
651.206820	2551.990873
651.549807	2550.564227
651.892742	2551.547252
652.235626	2550.231511
652.578458	2549.417364
652.921238	2548.555327
653.263967	2550.581871
653.606644	2550.879299
653.949269	2551.864844
654.291843	2551.103630
654.634365	2549.104813
654.976836	2551.517005
655.319255	2549.281253
655.661622	2550.675132
656.003938	2551.937941
656.346203	2550.176058
656.688416	2549.003990
657.030577	2550.720503
657.372687	2551.542211
657.714746	2549.886192
658.056753	2548.099102
658.398708	2550.140770
658.740612	2548.915769
659.082465	2550.163455
659.424266	2548.351160
659.766016	2547.773948
660.107715	2550.387786
660.449362	2545.311344
660.790958	2553.825853
661.132503	2549.346788
661.473996	2549.545914
661.815438	2550.765873
662.156829	2548.081458
662.498168	2547.950388
662.839456	2552.721841
663.180693	2548.724206
663.521879	2551.824515
663.863013	2550.186140
664.204097	2549.016592
664.545129	2547.358053
664.886110	2551.428785
665.227040	2550.319731
665.567918	2551.514484
665.908746	2550.133208
666.249522	2552.142108
666.590248	2550.407951
666.930922	2551.075904
667.271545	2551.542211
667.612118	2553.034392
667.952639	2550.954916
668.293109	2552.873075
668.633528	2549.853424
668.973896	2549.331665
669.314213	2549.548434
669.654480	2549.739998
669.994695	2549.414844
670.334859	2551.312838
670.674973	2551.204453
671.015035	2548.517518
671.355047	2547.879812
671.695008	2547.960471
672.034918	2550.596994
672.374777	2551.743857
672.714585	2549.737477
673.054342	2547.463917
673.394049	2550.798640
673.733705	2547.640357
674.073310	2552.762170
674.412864	2550.748229
674.752368	2549.094730
675.091820	2549.568599
675.431223	2549.341747
675.770574	2550.143290
676.109875	2550.072714
676.449125	2547.718495
676.788324	2544.711447
677.127473	2548.653629
677.466571	2545.381921
677.805619	2552.684032
678.144616	2551.345606
678.483562	2551.005328
678.822458	2552.593291
679.161303	2550.019782
679.500098	2551.456511
679.838842	2549.636654
680.177535	2550.216387
680.516179	2550.760832
680.854771	2548.961140
681.193314	2550.239072
681.531805	2547.426108
681.870247	2550.944834
682.208638	2548.517518
682.546978	2550.927190
682.885268	2550.904505
683.223508	2549.704710
683.561697	2550.657488
683.899836	2550.062632
684.237925	2549.036757
684.575963	2549.530790
684.913951	2550.796120
685.251889	2548.482230
685.589776	2549.800492
685.927614	2547.297559
686.265401	2547.768907
686.603137	2548.202446
686.940824	2550.322251
687.278460	2550.357539
687.616046	2550.521377
687.953582	2552.653785
688.291068	2551.529608
688.628504	2549.319062
688.965889	2548.865358
689.303224	2548.275543
689.640510	2550.917107
689.977745	2549.021634
690.314930	2549.145142
690.652065	2549.253527
690.989150	2553.225956
691.326185	2550.481048
691.663170	2549.661860
692.000105	2548.119267
692.336990	2546.581715
692.673825	2547.511808
693.010610	2550.080276
693.347345	2546.664894
693.684030	2545.185316
694.020665	2548.278063
694.357251	2542.838658
694.693786	2547.665563
695.030272	2548.419216
695.366707	2551.179247
695.703093	2547.620193
696.039429	2552.767211
696.375716	2551.033054
696.711952	2551.547252
697.048139	2549.326623
697.384276	2550.753270
697.720363	2549.334185
698.056400	2550.602035
698.392388	2548.308310
698.728326	2547.295038
699.064214	2547.773948
699.400053	2548.363763
699.735842	2551.058260
700.071581	2551.058260
700.407270	2550.183620
700.742910	2550.604556
701.078501	2550.433157
701.414042	2549.631613
701.749533	2550.526418
702.084974	2549.266130
702.420366	2549.992056
702.755709	2550.851572
703.091002	2548.852755
703.426246	2550.080276
703.761440	2546.397713
704.096584	2551.620348
704.431679	2547.050542
704.766725	2551.365770
705.101721	2549.911397
705.436668	2549.346788
705.771565	2551.574978
706.106413	2549.934082
706.441212	2547.476520
706.775961	2551.585060
707.110661	2547.458876
707.445311	2550.866696
707.779913	2548.666232
708.114465	2551.010369
708.448967	2549.800492
708.783421	2550.644885
709.117825	2547.796633
709.452180	2548.653629
709.786485	2547.721016
710.120742	2546.869061
710.454949	2546.916952
710.789107	2547.206818
711.123216	2546.606921
711.457275	2548.283105
711.791286	2548.091541
712.125247	2549.782848
712.459159	2550.299566
712.793023	2552.873075
713.126837	2548.416695
713.460602	2549.339226
713.794318	2549.729916
714.127985	2548.787220
714.461602	2547.572302
714.795171	2549.601366
715.128691	2548.877961
715.462162	2549.601366
715.795584	2546.778320
716.128957	2549.697148
716.462281	2548.053732
716.795556	2549.021634
717.128782	2549.462735
717.461960	2549.356870
717.795088	2545.916283
718.128167	2551.322920
718.461198	2549.997097
718.794180	2549.306459
719.127113	2548.073897
719.459997	2549.230842
719.792833	2549.346788
720.125619	2549.712272
720.458357	2547.325285
720.791046	2549.782848
721.123686	2545.573484
721.456278	2549.530790
721.788821	2547.100954
722.121315	2548.371325
722.453761	2549.155224
722.786158	2549.676984
723.118506	2548.832590
723.450805	2548.487271
723.783056	2549.432488
724.115259	2548.610780
724.447412	2547.287477
724.779518	2547.564740
725.111574	2550.879299
725.443582	2548.696479
725.775542	2548.943496
726.107453	2546.702703
726.439315	2547.413506
726.771129	2549.825698
727.102895	2544.996272
727.434612	2546.412837
727.766281	2543.327650
728.097901	2546.944678
728.429473	2546.417878
728.760996	2547.201777
729.092471	2547.058104
729.423897	2548.157076
729.755276	2546.909390
730.086606	2547.229503
730.417887	2549.767724
730.749120	2552.454659
731.080305	2548.094061
731.411442	2550.138249
731.742530	2550.934752
732.073570	2549.198074
732.404562	2544.482075
732.735506	2549.969371
733.066401	2548.915769
733.397249	2548.900646
733.728048	2548.013403
734.058798	2549.684545
734.389501	2548.290666
734.720156	2549.399720
735.050762	2547.305121
735.381320	2548.129349
735.711831	2546.967363
736.042293	2548.018444
736.372707	2547.443753
736.703073	2546.609442
737.033391	2548.520039
737.363661	2549.210677
737.693883	2545.810419
738.024056	2548.086500
738.354182	2547.756304
738.684260	2547.751263
739.014290	2550.226469
739.344272	2548.550286
739.674207	2547.970553
740.004093	2547.988197
740.333931	2546.448125
740.663722	2550.473486
740.993464	2550.390307
741.323159	2548.880481
741.652806	2550.254196
741.982405	2549.770245
742.311956	2551.267468
742.641460	2548.036088
742.970915	2544.721529
743.300323	2545.744884
743.629683	2544.351005
743.958996	2544.729091
744.288260	2544.388813
744.617477	2549.455173
744.946647	2547.630275
745.275768	2544.880326
745.604842	2549.319062
745.933869	2547.325285
746.262847	2549.137580
746.591778	2548.744370
746.920662	2545.628937
747.249498	2550.203784
747.578286	2547.466438
747.907027	2550.256716
748.235720	2547.584905
748.564365	2549.490461
748.892963	2547.433670
749.221514	2543.862013
749.550017	2549.550955
749.878473	2545.908721
750.206881	2545.386962
750.535242	2544.489636
750.863555	2549.220759
751.191821	2547.826880
751.520039	2547.158927
751.848210	2548.457024
752.176334	2547.902497
752.504411	2548.552806
752.832440	2545.223124
753.160421	2547.579864
753.488356	2546.954761
753.816243	2548.842673
754.144082	2545.996941
754.471875	2548.431819
754.799620	2547.852086
755.127318	2548.681356
755.454969	2546.727909
755.782572	2547.600028
756.110129	2547.254709
756.437638	2549.707231
756.765100	2548.262940
757.092515	2546.324616
757.419882	2546.788402
757.747203	2547.748742
758.074477	2547.632796
758.401703	2547.189174
758.728882	2549.480379
759.056014	2547.544576
759.383099	2547.229503
759.710138	2546.828732
760.037129	2546.727909
760.364073	2544.507280
760.690970	2546.211190
761.017820	2547.063145
761.344623	2545.828063
761.671379	2546.836293
761.998088	2547.463917
762.324751	2547.932744
762.651366	2547.375697
762.977935	2547.451314
763.304456	2548.469627
763.630931	2547.905018
763.957359	2547.610111
764.283740	2545.608772
764.610074	2548.671273
764.936362	2547.516849
765.262602	2546.939637
765.588796	2548.199926
765.914943	2546.158258
766.241044	2549.046839
766.567097	2546.206149
766.893104	2547.748742
767.219064	2547.940306
767.544978	2548.474668
767.870845	2546.763197
768.196665	2546.359904
768.522438	2548.071376
768.848165	2546.795964
769.173846	2545.991900
769.499479	2548.593136
769.825066	2547.436191
770.150607	2549.223280
770.476101	2547.186654
770.801548	2547.864689
771.126949	2546.369987
771.452303	2547.957950
771.777611	2546.508618
772.102872	2551.678322
772.428087	2547.526932
772.753256	2546.148176
773.078378	2548.295708
773.403453	2546.130532
773.728482	2543.809081
774.053465	2546.259081
774.378401	2546.581715
774.703291	2544.230017
775.028135	2546.848896
775.352932	2547.257230
775.677683	2549.245965
776.002388	2542.543751
776.327046	2544.119112
776.651658	2544.877805
776.976224	2543.095757
777.300743	2548.353681
777.625216	2547.426108
777.949643	2545.601211
778.274024	2544.779503
778.598359	2547.905018
778.922647	2547.431150
779.246889	2547.017775
779.571086	2545.371838
779.895236	2548.154555
780.219339	2543.126004
780.543397	2546.579195
780.867409	2545.278577
781.191374	2547.083310
781.515294	2546.899308
781.839167	2544.469472
782.162995	2545.691952
782.486776	2544.537527
782.810511	2547.506767
783.134201	2546.170861
783.457844	2543.264636
783.781441	2550.453321
784.104993	2546.445604
784.428498	2546.564071
784.751958	2546.375028
785.075372	2548.051212
785.398739	2544.754297
785.722061	2550.163455
786.045337	2547.874771
786.368568	2547.587425
786.691752	2543.239430
787.014891	2547.680687
787.337983	2544.416540
787.661030	2545.941489
787.984031	2545.875954
788.306987	2547.451314
788.629897	2545.331509
788.952760	2547.529452
789.275579	2546.564071
789.598351	2545.472661
789.921078	2546.682538
790.243759	2544.799667
790.566395	2546.072559
790.888984	2547.736139
791.211529	2547.453835
791.534027	2545.961653
791.856480	2547.123639
792.178888	2542.442928
792.501249	2542.783206
792.823566	2546.188505
793.145836	2540.358411
793.468062	2547.345450
793.790241	2544.988711
794.112375	2547.620193
794.434464	2545.994421
794.756507	2545.495347
795.078505	2546.009544
795.400457	2544.643392
795.722364	2547.390820
796.044226	2549.185471
796.366042	2545.208001
796.687812	2548.162117
797.009538	2547.078269
797.331218	2546.412837
797.652852	2546.745553
797.974442	2548.162117
798.295986	2544.671118
798.617484	2544.351005
798.938938	2546.546427
799.260346	2545.868392
799.581709	2545.402085
799.903026	2547.806716
800.224299	2546.047353
800.545526	2549.251006
800.866708	2545.772610
801.187845	2546.430481
801.508936	2543.589790
801.829983	2544.212373
802.150984	2545.381921
802.471940	2548.111705
802.792851	2545.026519
803.113717	2547.315203
803.434538	2546.518701
803.755314	2546.972405
804.076045	2543.927548
804.396731	2544.739173
804.717372	2545.817980
805.037967	2546.216232
805.358518	2546.929555
805.679024	2547.153886
805.999485	2547.569781
806.319901	2546.642209
806.640272	2544.701365
806.960598	2545.374359
807.280879	2547.342929
807.601115	2546.657332
807.921306	2547.156407
808.241453	2543.453679
808.561554	2541.089378
808.881611	2542.775644
809.201623	2540.060983
809.521590	2546.080120
809.841513	2547.438711
810.161390	2547.468958
810.481223	2546.967363
810.801011	2547.965512
811.120755	2547.007693
811.440453	2546.795964
811.760107	2548.394010
812.079716	2545.833104
812.399281	2546.516180
812.718801	2547.073228
813.038276	2546.062476
813.357707	2545.626417
813.677093	2546.551468
813.996434	2547.176571
814.315731	2543.468803
814.634983	2545.530635
814.954191	2544.751776
815.273354	2545.820501
815.592473	2544.701365
815.911547	2545.233207
816.230577	2544.910573
816.549562	2544.668597
816.868502	2544.703885
817.187399	2544.282949
817.506250	2546.407795
817.825058	2545.835624
818.143821	2545.976777
818.462539	2546.831252
818.781213	2543.468803
819.099843	2546.236396
819.418429	2546.289328
819.736970	2544.754297
820.055466	2546.677497
820.373919	2545.870913
820.692327	2546.727909
821.010691	2547.360573
821.329011	2545.757487
821.647286	2548.129349
821.965517	2549.109854
822.283704	2548.734288
822.601847	2544.681200
822.919945	2546.707744
823.237999	2545.286139
823.556010	2546.808567
823.873976	2545.465100
824.191897	2543.425953
824.509775	2542.011909
824.827609	2543.234389
825.145398	2541.855633
825.463144	2545.581046
825.780845	2546.526262
826.098502	2547.060625
826.416116	2547.589946
826.733685	2545.984338
827.051210	2546.722868
827.368692	2544.421581
827.686129	2544.676159
828.003522	2546.193546
828.320872	2545.029040
828.638177	2544.945861
828.955439	2545.888557
829.272656	2544.691283
829.589830	2546.185985
829.906960	2545.790254
830.224046	2545.903680
830.541088	2546.044832
830.858086	2543.153731
831.175041	2545.883515
831.491952	2544.051056
831.808819	2543.501570
832.125642	2541.288504
832.442421	2542.984852
832.759157	2545.828063
833.075849	2544.671118
833.392497	2543.975439
833.709101	2545.427291
834.025662	2545.762528
834.342179	2544.666077
834.658653	2545.664225
834.975083	2546.886705
835.291469	2552.812581
835.607811	2546.657333
835.924110	2544.227496
836.240366	2543.463762
836.556578	2544.451828
836.872746	2544.625748
837.188871	2545.704554
837.504952	2545.621375
837.820990	2545.233207
838.136984	2546.795964
838.452935	2546.717826
838.768842	2545.142466
839.084706	2544.862682
839.400526	2545.916283
839.716303	2547.393341
840.032037	2542.475695
840.347727	2541.041487
840.663373	2542.412681
840.978977	2540.885211
841.294537	2544.587939
841.610054	2544.839997
841.925527	2542.465613
842.240957	2544.522404
842.556344	2544.814791
842.871687	2545.008875
843.186987	2545.901159
843.502244	2545.376879
843.817458	2545.374359
844.132629	2545.361756
844.447756	2544.592980
844.762840	2543.199101
845.077881	2544.066179
845.392879	2544.509801
845.707833	2546.286808
846.022745	2546.576674
846.337613	2544.955943
846.652438	2544.429143
846.967221	2544.842517
847.281960	2545.208001
847.596656	2546.982487
847.911309	2542.342105
848.225919	2543.582229
848.540485	2547.070707
848.855009	2545.991900
849.169490	2543.115922
849.483928	2543.912424
849.798323	2543.446118
850.112675	2544.938299
850.426984	2546.390151
850.741251	2544.096426
851.055474	2545.263453
851.369654	2544.771941
851.683792	2543.178936
851.997887	2543.413350
852.311938	2545.195398
852.625947	2543.597352
852.939914	2543.544420
853.253837	2543.284801
853.567718	2544.267826
853.881555	2543.403268
854.195350	2544.335881
854.509103	2545.507949
854.822812	2541.568288
855.136479	2543.289842
855.450103	2544.383772
855.763685	2543.196580
856.077224	2538.223482
856.390720	2544.156920
856.704173	2540.706250
857.017584	2543.819163
857.330953	2542.654656
857.644278	2546.291849
857.957561	2547.191695
858.270802	2544.139276
858.584000	2545.031560
858.897155	2545.545758
859.210268	2548.172199
859.523339	2545.596170
859.836367	2543.408309
860.149352	2544.824873
860.462295	2543.781354
860.775195	2545.908721
861.088054	2544.479554
861.400869	2547.491643
861.713642	2543.796478
862.026373	2544.575336
862.339062	2543.060469
862.651708	2545.535676
862.964312	2546.080120
863.276873	2546.417878
863.589392	2543.105840
863.901869	2542.677342
864.214303	2543.483926
864.526696	2542.959646
864.839045	2542.969728
865.151353	2544.298073
865.463619	2543.710778
865.775842	2544.696324
866.088023	2546.407795
866.400162	2545.202960
866.712258	2546.901828
867.024313	2542.672300
867.336325	2544.305634
867.648296	2545.293700
867.960224	2545.150028
868.272110	2545.576005
868.583954	2543.791437
868.895755	2543.352856
869.207515	2545.545758
869.519233	2542.127856
869.830909	2546.979966
870.142542	2544.396375
870.454134	2543.796478
870.765684	2544.209852
871.077191	2544.315717
871.388657	2540.837320
871.700081	2539.924872
872.011463	2543.375541
872.322803	2540.131559
872.634101	2544.051056
872.945357	2542.755479
873.256571	2543.373021
873.567744	2544.645912
873.878874	2543.655325
874.189963	2544.749256
874.501010	2545.681869
874.812015	2543.405788
875.122979	2544.708927
875.433900	2544.809750
875.744780	2544.464431
876.055618	2544.492157
876.366415	2543.902342
876.677169	2540.839841
876.987882	2543.010058
877.298554	2543.927548
877.609183	2544.333361
877.919771	2539.471168
878.230317	2543.564585
878.540822	2543.851930
878.851285	2542.054759
879.161707	2546.569112
879.472087	2543.133566
879.782425	2545.621375
880.092722	2545.016437
880.402977	2545.636499
880.713191	2543.914945
881.023363	2545.066848
881.333494	2543.874616
881.643583	2539.796322
881.953631	2544.779503
882.263637	2543.473844
882.573602	2543.060469
882.883526	2545.208001
883.193408	2544.492157
883.503248	2543.075593
883.813048	2545.465100
884.122806	2541.870757
884.432522	2544.829914
884.742197	2546.367466
885.051831	2542.122815
885.361424	2543.985521
885.670975	2542.846220
885.980485	2544.038453
886.289954	2545.765048
886.599382	2543.657846
886.908768	2542.752959
887.218113	2537.447144
887.527417	2543.688093
887.836680	2538.049562
888.145901	2543.854451
888.455082	2544.497198
888.764221	2544.093906
889.073319	2542.251364
889.382376	2542.770603
889.691392	2542.722712
890.000366	2543.741025
890.309300	2543.620037
890.618193	2544.361087
890.927044	2543.241951
891.235855	2545.495347
891.544625	2542.006868
891.853353	2543.872095
892.162041	2544.066179
892.470687	2543.743546
892.779293	2544.340922
893.087858	2544.003165
893.396381	2544.255223
893.704864	2541.669111
894.013306	2542.541230
894.321707	2543.690613
894.630068	2544.189688
894.938387	2544.230017
895.246665	2544.232538
895.554903	2545.359235
895.863100	2543.272198
896.171256	2541.389327
896.479371	2545.979297
896.787446	2546.959802
897.095480	2545.719678
897.403473	2542.838658
897.711425	2543.675490
898.019336	2545.772610
898.327207	2546.271684
898.635038	2543.383103
898.942827	2545.119781
899.250576	2543.027702
899.558284	2542.969728
899.865952	2543.279759
900.173579	2542.936961
900.481165	2542.561395
900.788711	2543.988042
901.096216	2542.823535
901.403681	2545.288659
901.711105	2544.013247
902.018489	2543.269677
902.325832	2542.062321
902.633135	2538.261291
902.940397	2542.006868
903.247619	2537.913451
903.554800	2544.993752
903.861941	2542.248843
904.169041	2545.495347
904.476101	2541.409491
904.783121	2541.122146
905.090100	2542.102650
905.397039	2545.283618
905.703938	2546.027188
906.010796	2540.890252
906.317614	2544.184647
906.624391	2543.917465
906.931129	2542.979811
907.237826	2542.470654
907.544483	2543.551982
907.851099	2541.369162
908.157675	2543.115922
908.464211	2544.300593
908.770707	2542.553833
909.077163	2541.699358
909.383578	2544.184647
909.689954	2542.190870
909.996289	2543.040305
910.302584	2543.279759
910.608839	2544.265305
910.915054	2544.436704
911.221229	2542.132897
911.527363	2540.658359
911.833458	2543.680531
912.139513	2542.831097
912.445527	2541.613658
912.751502	2542.715150
913.057436	2541.250695
913.363331	2547.569781
913.669186	2542.231199
913.975000	2543.453679
914.280775	2543.355377
914.586510	2545.336550
914.892205	2542.843700
915.197859	2544.832435
915.503475	2544.734132
915.809050	2542.052238
916.114585	2543.383103
916.420081	2543.322609
916.725536	2542.652136
917.030952	2543.511653
917.336328	2542.074924
917.641665	2542.747918
917.946961	2537.825231
918.252218	2540.930582
918.557435	2539.980324
918.862612	2542.936961
919.167750	2544.030891
919.472848	2541.278421
919.777906	2543.163813
920.082925	2541.389327
920.387904	2542.909235
920.692843	2541.820345
920.997743	2543.549461
921.302603	2544.809750
921.607423	2542.793288
921.912204	2544.119112
922.216946	2544.005686
922.521647	2543.020140
922.826310	2539.882022
923.130932	2542.238761
923.435516	2542.405119
923.740059	2540.552495
924.044564	2542.079965
924.349028	2543.720860
924.653454	2540.630633
924.957840	2543.917465
925.262186	2542.369831
925.566493	2542.435366
925.870761	2542.773123
926.174989	2541.767413
926.479178	2542.984852
926.783328	2542.213555
927.087438	2543.325130
927.391509	2543.491488
927.695541	2543.728422
927.999533	2544.386293
928.303486	2543.458720
928.607400	2542.329502
928.911275	2541.742207
929.215110	2542.243802
929.518906	2544.202291
929.822663	2544.358566
930.126381	2541.538041
930.430060	2541.835469
930.733699	2541.308668
931.037299	2540.842362
931.340861	2542.064841
931.644383	2543.713299
931.947866	2539.950077
932.251309	2543.801519
932.554714	2542.006868
932.858080	2541.298586
933.161407	2539.703061
933.464694	2538.236085
933.767943	2538.548637
934.071153	2543.546941
934.374323	2541.177598
934.677455	2541.182639
934.980548	2543.723381
935.283602	2542.891591
935.586617	2541.837989
935.889593	2542.032074
936.192530	2542.286652
936.495428	2544.361087
936.798287	2541.648946
937.101108	2540.955788
937.403890	2540.096271
937.706632	2543.236910
938.009336	2542.342105
938.312002	2542.505942
938.614628	2542.788247
938.917216	2543.239430
939.219765	2542.039636
939.522275	2541.717002
939.824747	2541.795140
940.127179	2541.976621
940.429573	2543.511652
940.731929	2542.654656
941.034246	2543.002496
941.336524	2541.979142
941.638763	2540.580222
941.940964	2541.906045
942.243126	2540.242464
942.545250	2540.582742
942.847335	2542.778165
943.149381	2541.752290
943.451389	2538.901517
943.753359	2543.131045
944.055290	2542.274049
944.357182	2541.527958
944.659036	2543.221786
944.960851	2542.647095
945.262628	2540.555016
945.564367	2545.979297
945.866067	2543.410829
946.167729	2543.138607
946.469352	2541.464944
946.770937	2543.531817
947.072484	2543.010058
947.373992	2542.468134
947.675462	2542.029553
947.976893	2540.217258
948.278286	2540.083668
948.579641	2540.658359
948.880958	2538.798174
949.182236	2539.735828
949.483476	2540.040818
949.784678	2542.725232
950.085841	2540.955788
950.386967	2543.730943
950.688054	2541.359080
950.989103	2542.637012
951.290114	2541.149872
951.591087	2544.814791
951.892021	2543.388144
952.192917	2542.672300
952.493776	2541.127187
952.794596	2540.980993
953.095378	2541.248174
953.396122	2542.021992
953.696828	2542.175747
953.997496	2541.850592
954.298126	2540.338246
954.598718	2541.659028
954.899272	2541.336395
955.199788	2542.793288
955.500266	2539.408153
955.800706	2544.804708
956.101108	2544.172044
956.401472	2541.094419
956.701798	2543.383103
957.002087	2540.096271
957.302337	2541.326312
957.602550	2540.270191
957.902724	2540.827238
958.202861	2541.464944
958.502960	2538.220962
958.803022	2540.539892
959.103045	2541.061652
959.403031	2542.710109
959.702979	2542.553833
960.002889	2543.214224
960.302762	2540.398740
960.602596	2541.157434
960.902393	2540.917979
961.202153	2540.280273
961.501875	2542.984852
961.801559	2540.968390
962.101205	2543.017619
962.400814	2543.105840
962.700385	2543.052907
962.999918	2540.532331
963.299414	2538.941847
963.598873	2538.359593
963.898293	2536.567463
964.197677	2541.853113
964.497022	2541.996786
964.796331	2542.589121
965.095601	2543.380582
965.394835	2540.847403
965.694030	2541.739687
965.993189	2541.233051
966.292309	2542.755479
966.591393	2541.270860
966.890439	2539.372865
967.189447	2543.292362
967.488419	2540.224820
967.787353	2541.737166
968.086249	2539.690458
968.385108	2540.600386
968.683930	2543.544420
968.982714	2543.070552
969.281462	2541.495191
969.580172	2542.546272
969.878844	2542.228679
970.177480	2540.827238
970.476078	2542.674821
970.774639	2541.500232
971.073162	2540.623071
971.371649	2539.922351
971.670098	2544.633309
971.968510	2542.581560
972.266885	2541.323792
972.565223	2542.127856
972.863524	2539.957639
973.161788	2540.055942
973.460014	2539.027546
973.758204	2540.597866
974.056356	2540.865047
974.354471	2541.154913
974.652550	2542.296734
974.950591	2541.444779
975.248595	2541.787578
975.546563	2542.377393
975.844493	2540.618030
976.142386	2538.926723
976.440243	2539.178781
976.738062	2542.347146
977.035845	2543.420912
977.333590	2541.923689
977.631299	2539.448482
977.928971	2537.797505
978.226606	2537.845396
978.524204	2538.631816
978.821765	2537.510159
979.119290	2541.780016
979.416777	2538.742721
979.714228	2540.179450
980.011642	2539.597197
980.309020	2540.595345
980.606360	2540.330684
980.903664	2542.006868
981.200931	2538.896476
981.498162	2542.657177
981.795356	2540.749100
982.092513	2541.028884
982.389633	2541.805222
982.686717	2542.029553
982.983764	2541.636343
983.280775	2539.138452
983.577749	2543.037784
983.874686	2540.280273
984.171587	2541.764893
984.468451	2542.942002
984.765279	2540.565098
985.062070	2542.712630
985.358824	2540.706250
985.655543	2538.465457
985.952224	2539.521579
986.248869	2541.565767
986.545478	2540.181970
986.842050	2541.510314
987.138586	2541.200283
987.435086	2541.008720
987.731549	2540.544933
988.027975	2541.384286
988.324366	2541.424615
988.620719	2538.891435
988.917037	2541.986703
989.213318	2539.924872
989.509563	2537.663914
989.805772	2542.183308
990.101944	2542.470654
990.398080	2540.297917
990.694180	2538.926723
990.990244	2539.098122
991.286271	2539.534182
991.582262	2541.482588
991.878217	2539.065355
992.174136	2541.157434
992.470019	2540.928061
992.765865	2540.814635
993.061676	2536.277597
993.357450	2535.712988
993.653188	2537.260622
993.948890	2540.076106
994.244556	2541.278421
994.540186	2542.649615
994.835780	2540.164326
995.131337	2540.630633
995.426859	2542.085006
995.722345	2541.026364
996.017795	2540.532331
996.313208	2542.339584
996.608586	2538.402443
996.903928	2539.393030
997.199234	2539.360262
997.494504	2540.943185
997.789738	2538.722556
998.084936	2541.911086
998.380099	2541.495191
998.675225	2539.728267
998.970316	2541.427135
999.265371	2541.603576
999.560390	2540.141641
999.855373	2541.742207
1000.150320	2539.451003
1000.445232	2542.952084
1000.740108	2538.916641
1001.034948	2537.994110
1001.329752	2537.910931
1001.624521	2541.101981
1001.919254	2540.197094
1002.213951	2539.597197
1002.508613	2538.369676
1002.803239	2540.759183
1003.097829	2540.134079
1003.392384	2539.173740
1003.686903	2541.956457
1003.981386	2541.230530
1004.275834	2540.681045
1004.570246	2541.003678
1004.864623	2539.947557
1005.158964	2542.024512
1005.453270	2543.146169
1005.747540	2540.814635
1006.041775	2539.526620
1006.335974	2543.017619
1006.630138	2540.897814
1006.924266	2539.816487
1007.218359	2539.569470
1007.512416	2535.992772
1007.806438	2538.604089
1008.100425	2535.813811
1008.394376	2536.965714
1008.688292	2539.403112
1008.982172	2541.452341
1009.276017	2539.277083
1009.569827	2542.231199
1009.863602	2539.887063
1010.157341	2540.325643
1010.451045	2539.146013
1010.744714	2541.870757
1011.038347	2539.829090
1011.331945	2539.246836
1011.625508	2543.441076
1011.919036	2538.503266
1012.212528	2539.420756
1012.505986	2540.295396
1012.799408	2540.673483
1013.092795	2541.772454
1013.386147	2540.935623
1013.679464	2541.638864
1013.972745	2538.291538
1014.265992	2541.293545
1014.559204	2541.129707
1014.852380	2540.943185
1015.145521	2540.043339
1015.438628	2538.354552
1015.731699	2537.064017
1016.024736	2539.844213
1016.317737	2536.922864
1016.610703	2540.917979
1016.903635	2540.202135
1017.196531	2539.987886
1017.489393	2538.909079
1017.782219	2539.965201
1018.075011	2539.035108
1018.367768	2540.887732
1018.660490	2540.547454
1018.953177	2540.547454
1019.245829	2540.547454
