Dividing Wavelength (nm)	Counts (n)	Blue Motor Position (mm): 12.400000	Red Motor Position (mm): 0.000000	
326.493990	2063.503066
326.888308	2063.503066
327.282561	2063.503066
327.676750	2037.160516
328.070874	2038.153623
328.464933	2044.505477
328.858929	2053.072918
329.252859	2063.314022
329.646726	2076.037895
330.040528	2095.400967
330.434265	2110.766403
330.827938	2135.044600
331.221547	2154.672333
331.615091	2171.948367
332.008571	2194.734383
332.401986	2213.537886
332.795338	2236.873388
333.188625	2255.565986
333.581847	2270.079468
333.975006	2288.562858
334.368100	2309.516414
334.761129	2325.174238
335.154095	2340.249809
335.546996	2380.720192
335.939833	2454.217694
336.332606	2459.344548
336.725315	2476.592856
337.117960	2484.366315
337.510540	2494.869559
337.903056	2502.428769
338.295508	2509.904800
338.687896	2515.765142
339.080220	2520.279495
339.472480	2527.241328
339.864676	2528.952800
340.256807	2531.261649
340.648875	2535.082843
341.040879	2536.244829
341.432818	2538.967052
341.824694	2538.972093
342.216506	2536.733821
342.608253	2540.013092
342.999937	2534.470343
343.391557	2535.649973
343.783113	2536.587628
344.174605	2532.199303
344.566033	2532.635363
344.957397	2528.670496
345.348697	2526.611184
345.739934	2522.973992
346.131106	2525.068591
346.522215	2522.704290
346.913260	2523.450381
347.304241	2518.918383
347.695159	2517.814371
348.086012	2517.642972
348.476802	2514.850172
348.867528	2511.661643
349.258191	2506.307937
349.648789	2508.742814
350.039324	2503.958759
350.429796	2507.583349
350.820203	2506.350787
351.210548	2507.195180
351.600828	2504.883811
351.991045	2502.156547
352.381198	2502.275014
352.771288	2502.668224
353.161314	2502.368275
353.551276	2502.360714
353.941175	2502.133862
354.331010	2503.762154
354.720782	2506.403719
355.110490	2510.282887
355.500135	2503.938595
355.889717	2506.335663
356.279235	2503.058913
356.668689	2505.922289
357.058080	2502.675786
357.447408	2506.005468
357.836672	2506.539830
358.225873	2504.503204
358.615010	2507.666528
359.004084	2506.103770
359.393095	2511.011334
359.782043	2508.352125
360.170927	2507.543020
360.559748	2510.701303
360.948505	2511.754904
361.337199	2510.658453
361.725830	2515.868485
362.114398	2510.529903
362.502903	2512.884122
362.891344	2511.011334
363.279722	2512.087620
363.668037	2513.925121
364.056289	2510.686179
364.444478	2515.170286
364.832603	2514.633403
365.220665	2511.661643
365.608665	2515.087107
365.996601	2511.142404
366.384474	2517.700945
366.772284	2516.112981
367.160031	2514.036026
367.547715	2519.404855
367.935336	2515.818074
368.322893	2514.764473
368.710388	2512.437980
369.097820	2514.449401
369.485189	2513.070645
369.872495	2517.824453
370.259738	2516.851510
370.646918	2519.059536
371.034035	2516.359998
371.421090	2518.003414
371.808081	2520.783610
372.195010	2520.080369
372.581875	2520.443333
372.968678	2519.984588
373.355418	2520.569361
373.742096	2516.057529
374.128710	2520.851666
374.515262	2521.088600
374.901751	2523.324352
375.288177	2523.291584
375.674540	2520.738240
376.060841	2520.012314
376.447079	2521.577592
376.833254	2522.011131
377.219367	2521.630524
377.605417	2521.466687
377.991404	2522.739578
378.377329	2524.466173
378.763191	2523.815864
379.148991	2525.688653
379.534727	2521.996008
379.920402	2526.744775
380.306013	2524.902233
380.691563	2525.784435
381.077049	2524.514064
381.462474	2521.648168
381.847835	2524.221677
382.233134	2523.349558
382.618371	2525.219826
383.003545	2523.662109
383.388657	2526.028931
383.773706	2523.253776
384.158693	2525.907943
384.543618	2526.671678
384.928480	2527.200999
385.313280	2525.731503
385.698017	2526.001205
386.082692	2529.610671
386.467305	2528.146216
386.851856	2526.008766
387.236344	2526.596061
387.620770	2525.310567
388.005133	2522.578261
388.389435	2524.347706
388.773674	2525.073632
389.157851	2528.705784
389.541965	2528.831812
389.926018	2528.292409
390.310008	2531.954807
390.693936	2529.817358
391.077802	2528.993129
391.461606	2531.435568
391.845348	2528.801566
392.229027	2529.837523
392.612645	2532.007739
392.996200	2530.087060
393.379694	2530.770136
393.763125	2530.412214
394.146494	2529.645959
394.529801	2532.378264
394.913047	2532.353058
395.296230	2529.774508
395.679351	2531.223840
396.062410	2532.844571
396.445408	2532.214427
396.828343	2532.801721
397.211217	2534.404808
397.594028	2532.279962
397.976778	2531.473377
398.359466	2533.187369
398.742092	2534.397246
399.124656	2531.629653
399.507158	2534.243491
399.889598	2533.996475
400.271977	2534.094777
400.654294	2531.831299
401.036549	2532.859694
401.418742	2534.067051
401.800874	2534.097298
402.182944	2533.399098
402.564952	2536.111239
402.946898	2535.110570
403.328783	2533.482277
403.710606	2534.795498
404.092367	2535.443286
404.474067	2536.065868
404.855705	2536.280117
405.237282	2536.930426
405.618797	2535.975127
406.000250	2534.490508
406.381642	2535.975127
406.762972	2537.008564
407.144240	2532.670651
407.525447	2534.364479
407.906593	2530.031607
408.287677	2539.272042
408.668700	2536.643080
409.049661	2537.321116
409.430560	2535.712987
409.811399	2536.610313
410.192176	2540.991076
410.572891	2537.963863
410.953545	2540.481919
411.334138	2540.625592
411.714669	2539.534182
412.095139	2538.876312
412.475547	2541.008720
412.855894	2537.351363
413.236180	2537.653832
413.616405	2538.422608
413.996568	2538.674665
414.376670	2538.583925
414.756711	2540.129038
415.136691	2540.484440
415.516609	2541.638864
415.896466	2539.882022
416.276262	2539.224151
416.655997	2540.421425
417.035670	2541.689275
417.415283	2538.699871
417.794834	2539.355221
418.174324	2539.755993
418.553753	2538.755324
418.933121	2541.414532
419.312428	2539.904707
419.691674	2541.525438
420.070859	2541.848072
420.449983	2541.661549
420.829045	2539.819007
421.208047	2540.055942
421.586988	2537.190046
421.965867	2542.485778
422.344686	2539.624923
422.723444	2541.646426
423.102141	2541.530479
423.480777	2540.222300
423.859352	2541.744728
424.237866	2539.395550
424.616319	2541.951415
424.994712	2541.999306
425.373044	2540.108874
425.751314	2537.464788
426.129524	2535.531506
426.507673	2539.423277
426.885762	2533.270548
427.263789	2540.653318
427.641756	2543.007537
428.019662	2542.427804
428.397508	2541.507794
428.775292	2541.913607
429.153016	2543.143648
429.530679	2541.717002
429.908282	2542.566436
430.285824	2540.504604
430.663305	2543.002496
431.040726	2544.114070
431.418086	2542.256405
431.795385	2541.142310
432.172624	2539.811446
432.549802	2540.461754
432.926920	2542.505942
433.303977	2544.086344
433.680974	2541.424615
434.057910	2542.510983
434.434786	2546.483413
434.811601	2543.907383
435.188355	2543.040305
435.565050	2541.633823
435.941683	2540.938143
436.318257	2542.276570
436.694770	2543.430994
437.071222	2542.319420
437.447614	2541.381765
437.823946	2543.304965
438.200218	2544.681200
438.576429	2541.444779
438.952580	2544.502239
439.328670	2541.719522
439.704700	2541.096940
440.080670	2541.734646
440.456580	2542.871426
440.832429	2541.422094
441.208218	2542.508463
441.583947	2543.468803
441.959616	2540.882691
442.335224	2540.519728
442.710773	2541.142310
443.086261	2541.414532
443.461689	2542.339584
443.837057	2545.888557
444.212365	2542.011909
444.587612	2541.051569
444.962800	2536.943029
445.337927	2541.517876
445.712995	2539.635005
446.088002	2542.178267
446.462949	2541.374203
446.837837	2543.572146
447.212664	2540.028215
447.587431	2541.999306
447.962139	2543.710778
448.336786	2543.715819
448.711374	2543.093237
449.085901	2544.519883
449.460369	2544.187167
449.834776	2543.350336
450.209124	2544.371169
450.583412	2545.351674
450.957640	2544.242620
451.331808	2542.256405
451.705917	2542.314378
452.079965	2545.336550
452.453954	2545.079451
452.827883	2543.819163
453.201752	2544.469472
453.575562	2543.317568
453.949311	2545.061807
454.323001	2544.696324
454.696632	2545.265974
455.070202	2543.589790
455.443713	2542.558874
455.817164	2544.088865
456.190556	2543.002496
456.563888	2544.792106
456.937160	2545.354194
457.310373	2541.520397
457.683526	2542.442928
458.056619	2543.549461
458.429653	2544.469472
458.802628	2544.834955
459.175542	2542.112732
459.548398	2548.124308
459.921194	2542.014430
460.293930	2545.001313
460.666607	2543.841848
461.039224	2546.259081
461.411782	2545.515511
461.784280	2545.306303
462.156719	2544.489636
462.529099	2545.691952
462.901419	2544.328319
463.273680	2543.967877
463.645882	2541.744728
464.018024	2546.611962
464.390106	2540.875129
464.762130	2545.530635
465.134094	2545.636499
465.505999	2546.493495
465.877845	2547.345450
466.249631	2549.044319
466.621358	2545.127342
466.993026	2548.194884
467.364634	2550.445760
467.736184	2549.326623
468.107674	2546.188505
468.479105	2547.174051
468.850477	2546.430481
469.221790	2546.629606
469.593043	2546.448125
469.964238	2545.815460
470.335373	2544.794626
470.706449	2544.809750
471.077467	2545.374359
471.448425	2545.704554
471.819324	2547.753783
472.190164	2547.758825
472.560945	2546.405275
472.931667	2547.002652
473.302330	2551.103630
473.672934	2551.038095
474.043479	2549.805533
474.413965	2546.024668
474.784393	2547.244627
475.154761	2547.766386
475.525070	2547.945347
475.895321	2548.913249
476.265513	2550.148332
476.635645	2546.866540
477.005719	2549.732436
477.375734	2548.865358
477.745691	2549.422405
478.115588	2548.247817
478.485427	2548.837632
478.855207	2551.338044
479.224928	2551.254865
479.594591	2550.665050
479.964194	2550.128167
480.333739	2550.375183
480.703226	2549.855945
481.072653	2549.976932
481.442022	2549.419885
481.811333	2550.208825
482.180584	2548.520039
482.549777	2547.489123
482.918912	2548.774617
483.287988	2552.706717
483.657005	2552.794937
484.025964	2551.554813
484.394864	2550.685214
484.763706	2551.489278
485.132489	2551.809392
485.501213	2553.765359
485.869879	2551.847200
486.238487	2553.694783
486.607036	2551.360729
486.975527	2553.858621
487.343959	2551.007848
487.712333	2553.286450
488.080648	2553.863662
488.448905	2551.653116
488.817104	2548.467107
489.185244	2553.384752
489.553326	2552.263096
489.921350	2554.231666
490.289315	2555.249979
490.657222	2556.374157
491.025070	2556.598488
491.392861	2554.869372
491.760593	2555.323076
492.128267	2556.164949
492.495883	2554.004814
492.863440	2554.690411
493.230939	2553.599001
493.598380	2558.012532
493.965763	2556.595967
494.333088	2554.841646
494.700354	2555.108827
495.067563	2555.350802
495.434713	2551.514484
495.801805	2554.387942
496.168839	2556.031358
496.535815	2553.732592
496.902733	2554.009855
497.269593	2556.399362
497.636395	2556.313663
498.003139	2556.164949
498.369825	2555.426420
498.736453	2556.038920
499.103023	2556.532953
499.469535	2557.097562
499.835989	2554.934907
500.202385	2553.803168
500.568723	2552.510112
500.935003	2556.820299
501.301226	2552.477345
501.667390	2557.684857
502.033497	2559.550083
502.399546	2558.297357
502.765537	2558.491441
503.131470	2558.743499
503.497345	2560.729713
503.863163	2557.069836
504.228923	2560.205433
504.594625	2560.155022
504.960269	2562.640311
505.325856	2562.726010
505.691385	2558.854404
506.056856	2564.049313
506.422270	2562.403377
506.787625	2561.140567
507.152924	2563.164591
507.518164	2565.455795
507.883347	2565.251628
508.248472	2564.523182
508.613540	2564.656772
508.978550	2567.867987
509.343503	2565.710373
509.708398	2567.290775
510.073236	2567.139541
510.438016	2567.331104
510.802738	2570.176836
511.167403	2571.522824
511.532010	2571.737073
511.896561	2572.183215
512.261053	2575.661611
512.625488	2573.322516
512.989866	2575.873340
513.354186	2575.061714
513.718449	2575.298648
514.082655	2580.498598
514.446803	2579.381983
514.810894	2582.716706
515.174927	2583.402303
515.538904	2581.032961
515.902822	2584.612180
516.266684	2579.167734
516.630488	2588.428333
516.994235	2587.382294
517.357925	2584.934814
517.721558	2589.648292
518.085133	2587.858683
518.448651	2589.028231
518.812112	2589.577716
519.175516	2589.739033
519.538863	2592.277254
519.902152	2595.382605
520.265385	2596.915116
520.628560	2599.992740
520.991678	2601.351331
521.354739	2601.321084
521.717743	2601.794953
522.080690	2603.869387
522.443580	2606.906683
522.806413	2607.846858
523.169189	2609.956581
523.531908	2607.892228
523.894569	2610.818618
524.257174	2612.336005
524.619722	2615.698455
524.982213	2618.372787
525.344647	2618.682818
525.707025	2619.887654
526.069345	2622.309928
526.431608	2621.641975
526.793815	2626.783952
527.155964	2623.113992
527.518057	2627.023407
527.880093	2628.928963
528.242072	2630.310239
528.603995	2631.615898
528.965860	2631.688995
529.327669	2633.569345
529.689421	2633.239150
530.051117	2638.542444
530.412755	2638.232413
530.774337	2639.409522
531.135862	2640.256436
531.497331	2643.381951
531.858743	2641.002527
532.220098	2648.511325
532.581396	2647.646767
532.942638	2646.870430
533.303824	2650.613487
533.664953	2652.554331
534.026025	2650.184988
534.387040	2656.708242
534.747999	2656.531801
535.108902	2659.231339
535.469748	2658.449960
535.830537	2660.511792
536.191270	2663.319715
536.551947	2660.484066
536.912567	2661.323418
537.273131	2665.941115
537.633638	2663.362565
537.994089	2669.863132
538.354483	2668.887669
538.714821	2676.434277
539.075103	2676.479647
539.435328	2675.806653
539.795497	2677.916376
540.155609	2680.807477
540.515665	2679.433763
540.875665	2685.936852
541.235609	2683.023065
541.595496	2685.677232
541.955328	2689.488344
542.315102	2685.296625
542.674821	2690.095803
543.034483	2688.928776
543.394090	2689.518591
543.753640	2691.025896
544.113134	2695.358768
544.472571	2693.783407
544.831953	2698.610312
545.191278	2697.556711
545.550548	2695.242822
545.909761	2699.351362
546.268918	2699.837833
546.628019	2706.807228
546.987064	2706.295551
547.346053	2702.242464
547.704986	2706.242619
548.063863	2707.424770
548.422684	2704.485777
548.781449	2709.862168
549.140158	2709.355532
549.498811	2709.622713
549.857408	2707.691951
550.215949	2713.285111
550.574434	2713.000286
550.932864	2713.809391
551.291237	2718.086810
551.649555	2717.572612
552.007817	2717.401213
552.366022	2716.864330
552.724173	2718.041440
553.082267	2721.260217
553.440305	2724.862121
553.798288	2724.436143
554.156215	2724.292471
554.514086	2723.180896
554.871902	2723.435474
555.229661	2727.400342
555.587365	2724.577296
555.945014	2730.561145
556.302606	2727.344889
556.660143	2729.376474
557.017625	2731.453430
557.375050	2734.644480
557.732421	2738.926940
558.089735	2740.172105
558.446994	2739.282342
558.804197	2745.611510
559.161345	2746.886922
559.518437	2742.851478
559.875474	2747.496902
560.232455	2746.786099
560.589381	2751.290370
560.946251	2752.018817
561.303065	2755.663571
561.659825	2760.709766
562.016528	2758.542070
562.373177	2759.515012
562.729770	2765.181269
563.086307	2768.458019
563.442789	2772.175870
563.799216	2773.126128
564.155587	2775.719802
564.511904	2781.295318
564.868164	2783.251285
565.224370	2787.944600
565.580520	2793.134467
565.936615	2793.058850
566.292654	2797.527833
566.648638	2804.514872
567.004567	2810.226500
567.360441	2811.330512
567.716260	2816.109526
568.072023	2821.942141
568.427732	2828.722493
568.783385	2830.814572
569.138982	2841.043073
569.494525	2847.241172
569.850013	2850.585977
570.205445	2856.363140
570.560823	2862.498224
570.916145	2870.377547
571.271412	2879.348281
571.626625	2883.792058
571.981782	2890.590054
572.336884	2896.969634
572.691931	2905.239647
573.046923	2910.338774
573.401860	2917.197264
573.756743	2929.215374
574.111570	2940.847837
574.466342	2949.238838
574.821059	2961.574541
575.175722	2968.937146
575.530330	2978.071717
575.884882	2984.075731
576.239380	2997.782628
576.593823	3007.920389
576.948211	3016.858355
577.302544	3025.990405
577.656823	3038.016077
578.011047	3053.593243
578.365216	3066.662434
578.719330	3076.928744
579.073389	3092.518512
579.427394	3107.140379
579.781344	3123.037657
580.135239	3133.437558
580.489080	3152.825836
580.842866	3160.720282
581.196597	3182.861030
581.550273	3201.687219
581.903895	3221.120867
582.257463	3249.900815
582.610975	3258.158225
582.964434	3284.372225
583.317837	3298.978968
583.671186	3316.925476
584.024481	3345.954960
584.377721	3356.561548
584.730906	3384.696227
585.084037	3410.685896
585.437113	3423.392124
585.790135	3450.861372
586.143103	3466.100780
586.496016	3494.623628
586.848874	3518.183461
587.201679	3550.527504
587.554428	3563.957137
587.907124	3597.478290
588.259765	3624.254379
588.612352	3655.128925
588.964884	3673.755989
589.317362	3707.877039
589.669786	3740.140423
590.022155	3763.823764
590.374470	3803.727017
590.726731	3825.797189
591.078937	3833.875638
591.431090	3881.171743
591.783188	3898.162952
592.135232	3922.640275
592.487222	3963.766008
592.839157	4000.107686
593.191038	4023.380173
593.542866	4050.501580
593.894639	4060.571285
594.246358	4106.251701
594.598022	4145.459275
594.949633	4163.869569
595.301190	4197.171431
595.652692	4233.286257
596.004141	4286.029329
596.355535	4278.979276
596.706876	4314.093433
597.058162	4337.413810
597.409395	4395.954209
597.760573	4446.950522
598.111698	4468.713183
598.462768	4502.836753
598.813785	4545.275707
599.164748	4566.219181
599.515657	4620.197335
599.866511	4640.603926
600.217312	4714.799628
600.568060	4702.784038
600.918753	4791.609169
601.269392	4837.110624
601.619978	4865.046178
601.970510	4916.375206
602.320988	4974.401407
602.671412	5032.740160
603.021783	5071.191561
603.372100	5095.936065
603.722363	5145.417511
604.072572	5197.112023
604.422728	5247.137913
604.772830	5281.042193
605.122878	5342.231718
605.472872	5382.623964
605.822813	5450.997133
606.172701	5486.257484
606.522534	5564.791099
606.872314	5631.261233
607.222041	5673.594322
607.571714	5747.777422
607.921333	5765.227376
608.270899	5837.567934
608.620411	5925.168064
608.969870	5965.214990
609.319276	6027.518611
609.668627	6089.126552
610.017926	6184.699267
610.367171	6261.718015
610.716362	6326.217058
611.065500	6379.703701
611.414585	6465.151258
611.763616	6549.404062
612.112594	6600.697803
612.461518	6679.843918
612.810389	6787.757378
613.159207	6835.597928
613.507971	6899.441621
613.856682	7018.521237
614.205340	7078.415185
614.553945	7223.033286
614.902496	7226.012608
615.250994	7342.906884
615.599439	7430.325532
615.947830	7520.973040
616.296169	7606.392872
616.644454	7689.781118
616.992686	7794.616953
617.340864	7934.897142
617.688990	7953.950182
618.037063	8134.368038
618.385082	8202.516876
618.733048	8336.341866
619.080961	8408.929441
619.428821	8495.523861
619.776628	8574.927075
620.124382	8626.518243
620.472083	8725.987771
620.819731	8820.186771
621.167326	8829.313780
621.514868	8906.876973
621.862357	8899.738700
622.209793	8986.133994
622.557176	8992.206064
622.904506	9028.048668
623.251783	9043.023415
623.599007	9072.617509
623.946179	9134.590934
624.293297	9167.159308
624.640363	9151.982915
624.987376	9200.304895
625.334336	9243.063962
625.681243	9251.654088
626.028097	9321.068256
626.374899	9369.352427
626.721647	9442.600393
627.068343	9492.507816
627.414987	9529.779587
627.761577	9560.938959
628.108115	9704.894148
628.454600	9650.358946
628.801032	9772.180949
629.147412	9849.696251
629.493739	9920.353063
629.840014	9918.399616
630.186236	10094.933262
630.532405	10073.105066
630.878521	10210.226971
631.224585	10259.226987
631.570597	10275.890521
631.916556	10397.084900
632.262462	10461.651999
632.608316	10538.514471
632.954117	10597.372463
633.299866	10670.053299
633.645562	10736.258772
633.991206	10701.323576
634.336797	10686.810094
634.682336	10739.215409
635.027823	10764.842114
635.373257	10818.071658
635.718639	10815.435134
636.063968	10872.579134
636.409245	10787.270208
636.754470	10857.334685
637.099642	10878.936029
637.444762	10821.925620
637.789829	10924.311455
638.134845	10924.946640
638.479808	10978.781122
638.824719	11042.554239
639.169577	10990.834521
639.514383	11095.834194
639.859137	11075.503220
640.203839	11195.429750
640.548489	11202.575585
640.893086	11284.219592
641.237632	11286.346959
641.582125	11397.643033
641.926566	11422.896693
642.270955	11494.851603
642.615292	11562.037581
642.959576	11617.954059
643.303809	11701.039836
643.647990	11812.010756
643.992118	11881.631611
644.336195	11923.163157
644.680219	12028.697192
645.024192	12180.594719
645.368112	12431.208121
645.711981	12528.567925
646.055797	12870.509391
646.399562	12910.064804
646.743274	13306.256647
647.086935	13522.721272
647.430544	13609.028347
647.774101	13717.246797
648.117606	13914.749122
648.461059	14058.238004
648.804460	13999.763140
649.147810	13912.420109
649.491108	13878.104975
649.834354	13905.687648
650.177548	13697.629146
650.520690	13601.012912
650.863781	13681.474769
651.206820	13709.894274
651.549807	13630.785967
651.892742	13506.032533
652.235626	13541.746587
652.578458	13578.678080
652.921238	13401.390782
653.263967	13604.450979
653.606644	13569.750197
653.949269	13618.977064
654.291843	13548.055591
654.634365	13759.116100
654.976836	13669.131504
655.319255	13777.675108
655.661622	13802.374241
656.003938	13827.731245
656.346203	13830.420700
656.688416	14006.609027
657.030577	13990.207633
657.372687	14001.666176
657.714746	14141.235561
658.056753	14299.706753
658.398708	14114.814874
658.740612	14219.764135
659.082465	14388.738571
659.424266	14417.694959
659.766016	14490.519467
660.107715	14506.275594
660.449362	14625.377894
660.790958	14696.382546
661.132503	14739.688578
661.473996	14864.946128
661.815438	14975.145751
662.156829	15103.811121
662.498168	15089.307721
662.839456	15150.708975
663.180693	15296.282375
663.521879	15413.196815
663.863013	15462.620287
664.204097	15536.127872
664.545129	15800.977492
664.886110	15851.295769
665.227040	15986.711244
665.567918	16051.621141
665.908746	16169.773184
666.249522	16286.246523
666.590248	16380.710184
666.930922	16502.285171
667.271545	16585.673417
667.612118	16692.850869
667.952639	16663.355077
668.293109	16763.769821
668.633528	16774.507479
668.973896	16830.161817
669.314213	16894.597846
669.654480	16870.120523
669.994695	16945.072398
670.334859	16970.252962
670.674973	16970.278168
671.015035	17138.491389
671.355047	17187.012495
671.695008	17206.771298
672.034918	17240.489055
672.374777	17369.817336
672.714585	17367.440432
673.054342	17512.073657
673.394049	17499.284249
673.733705	17695.165844
674.073310	17601.685207
674.412864	17701.963840
674.752368	17626.906100
675.091820	17818.984144
675.431223	17659.071182
675.770574	17624.294783
676.109875	17608.936907
676.449125	17558.177529
676.788324	17568.189261
677.127473	17357.461468
677.466571	17367.982356
677.805619	17275.215043
678.144616	17307.380125
678.483562	17338.781473
678.822458	17216.735138
679.161303	17245.799911
679.500098	17264.404289
679.838842	17274.655475
680.177535	17385.560860
680.516179	17607.875744
680.854771	17745.103514
681.193314	18276.688146
681.531805	18967.114494
681.870247	19465.982038
682.208638	19981.830708
682.546978	20213.615400
682.885268	20366.369923
683.223508	20153.368570
683.561697	20057.458098
683.899836	20025.081287
684.237925	19820.075204
684.575963	19788.179824
684.913951	19611.699110
685.251889	19783.783938
685.589776	19847.977991
685.927614	19915.847045
686.265401	20082.321069
686.603137	20210.900739
686.940824	20570.660162
687.278460	20840.863488
687.616046	20989.650623
687.953582	21463.899692
688.291068	21463.763581
688.628504	21740.659038
688.965889	21800.714304
689.303224	21687.316068
689.640510	21572.309705
689.977745	21228.505533
690.314930	20796.032507
690.652065	20580.699620
690.989150	20203.999399
691.326185	19711.226611
691.663170	19357.035141
692.000105	18912.201205
692.336990	18557.745076
692.673825	18331.314089
693.010610	18031.652781
693.347345	17728.276142
693.684030	17342.471597
694.020665	17243.327225
694.357251	16830.912949
694.693786	16873.336779
695.030272	16753.964777
695.366707	16465.499871
695.703093	16303.252855
696.039429	16384.422994
696.375716	16255.009013
696.711952	16284.406502
697.048139	16220.159517
697.384276	16136.907381
697.720363	16252.450627
698.056400	16212.007971
698.392388	16125.766431
698.728326	16169.768143
699.064214	16084.411326
699.400053	16130.217770
699.735842	15892.953344
700.071581	15786.572395
700.407270	15650.388144
700.742910	15568.532409
701.078501	15422.583443
701.414042	15302.241018
701.749533	15119.289984
702.084974	14924.285550
702.420366	15121.482886
702.755709	14861.744995
703.091002	14677.647098
703.426246	14750.890022
703.761440	14731.579883
704.096584	14585.038581
704.431679	14567.208020
704.766725	14555.462132
705.101721	14526.679664
705.436668	14638.946160
705.771565	14463.171208
706.106413	14718.377101
706.441212	14793.008863
706.775961	14909.933385
707.110661	14988.131763
707.445311	15283.440035
707.779913	15224.287136
708.114465	15468.541122
708.448967	15735.752523
708.783421	16235.282978
709.117825	16532.529573
709.452180	16724.249695
709.786485	17081.170949
710.120742	17699.312193
710.454949	17798.328016
710.789107	18196.702678
711.123216	18753.235981
711.457275	18931.163506
711.791286	19368.992758
712.125247	19508.559623
712.459159	19325.785029
712.793023	19952.103024
713.126837	19191.655048
713.460602	19430.928374
713.794318	19209.412513
714.127985	19052.451147
714.461602	18395.828255
714.795171	18422.874046
715.128691	17677.589861
715.462162	17293.983259
715.795584	16988.582597
716.128957	16810.884445
716.462281	16545.629012
716.795556	16341.865573
717.128782	15993.249620
717.461960	15536.183324
717.795088	15524.782755
718.128167	15275.336380
718.461198	14936.792653
718.794180	14856.212329
719.127113	14609.636892
719.459997	14480.958919
719.792833	14196.131206
720.125619	14249.259927
720.458357	13985.070698
720.791046	13890.768353
721.123686	13781.024954
721.456278	13607.805867
721.788821	13626.319505
722.121315	13416.841918
722.453761	13516.137526
722.786158	13431.357921
723.118506	13516.198019
723.450805	13430.833641
723.783056	13584.881220
724.115259	13505.631761
724.447412	13522.819575
724.779518	13714.474162
725.111574	13766.027522
725.443582	13997.008150
725.775542	13960.449702
726.107453	14403.420932
726.439315	14354.741030
726.771129	14696.377505
727.102895	15047.907245
727.434612	15276.389982
727.766281	15423.969760
728.097901	15696.151739
728.429473	15779.595438
728.760996	15810.837989
729.092471	15934.200065
729.423897	15863.356730
729.755276	15781.069975
730.086606	15892.514763
730.417887	16392.899694
730.749120	16880.437244
731.080305	17075.103921
731.411442	17447.398173
731.742530	17580.777022
732.073570	17740.818533
732.404562	18033.381897
732.735506	17922.710926
733.066401	17755.536182
733.397249	17353.310078
733.728048	16840.954928
734.058798	16130.089221
734.389501	15524.243352
734.720156	15096.859370
735.050762	14617.130567
735.381320	14296.780363
735.711831	14073.795005
736.042293	13769.568932
736.372707	13806.465137
736.703073	13631.191780
737.033391	13816.355881
737.363661	13814.863700
737.693883	13915.717023
738.024056	14092.427110
738.354182	14275.584832
738.684260	14597.437299
739.014290	14833.320449
739.344272	15023.233318
739.674207	15335.890720
740.004093	15483.261291
740.333931	15546.623554
740.663722	15624.516943
740.993464	15673.859757
741.323159	15566.526029
741.652806	15325.677343
741.982405	15203.310895
742.311956	14907.954732
742.641460	14835.699874
742.970915	14574.351335
743.300323	14280.532724
743.629683	14105.660139
743.958996	13846.164224
744.288260	13578.821753
744.617477	13318.546980
744.946647	13294.457826
745.275768	13011.573478
745.604842	12843.110720
745.933869	12682.912933
746.262847	12668.061693
746.591778	12598.191301
746.920662	12496.123059
747.249498	12505.721416
747.578286	12660.421825
747.907027	12825.885097
748.235720	13077.708376
748.564365	13146.048778
748.892963	13068.863671
749.221514	13179.645547
749.550017	13060.132393
749.878473	13041.286039
750.206881	12842.011748
750.535242	12779.506482
750.863555	12721.195455
751.191821	12631.672124
751.520039	12659.781598
751.848210	12592.522524
752.176334	12646.447746
752.504411	12572.993094
752.832440	12425.496494
753.160421	12539.242569
753.488356	12431.392123
753.816243	12356.997295
754.144082	12210.612270
754.471875	12159.247953
754.799620	12154.587407
755.127318	12125.688992
755.454969	12121.754372
755.782572	12104.125457
756.110129	12120.350410
756.437638	12050.590923
756.765100	12053.101418
757.092515	12083.996129
757.419882	12120.872170
757.747203	12128.078499
758.074477	12210.060264
758.401703	12191.770957
758.728882	12371.684697
759.056014	12418.007860
759.383099	12579.458373
759.710138	12697.169316
760.037129	12821.663131
760.364073	12884.649827
760.690970	12907.980287
761.017820	12932.636571
761.344623	13163.271880
761.671379	13523.053989
761.998088	14177.955326
762.324751	15808.231712
762.651366	18922.129758
762.977935	23017.197659
763.304456	25746.876602
763.630931	26743.515238
763.957359	25677.527969
764.283740	23636.979798
764.610074	21577.673493
764.936362	19159.973917
765.262602	17412.957010
765.588796	15665.526729
765.914943	14482.667870
766.241044	13469.625320
766.567097	12724.913306
766.893104	12073.087072
767.219064	11654.532672
767.544978	11213.774508
767.870845	10856.124808
768.196665	10661.211115
768.522438	10447.839237
768.848165	10259.965516
769.173846	10077.944574
769.499479	9959.860586
769.825066	9804.363675
770.150607	9595.198640
770.476101	9519.306590
770.801548	9408.607892
771.126949	9266.076829
771.452303	9166.927415
771.777611	8982.322882
772.102872	8984.563675
772.428087	8850.116102
772.753256	8702.853916
773.078378	8627.337431
773.403453	8455.461811
773.728482	8348.919545
774.053465	8280.926983
774.378401	8186.657406
774.703291	8072.971825
775.028135	7961.516954
775.352932	7934.385464
775.677683	7829.282448
776.002388	7734.004640
776.327046	7748.898729
776.651658	7654.019173
776.976224	7554.080818
777.300743	7560.646921
777.625216	7480.938717
777.949643	7438.177130
778.274024	7456.315201
778.598359	7379.651854
778.922647	7398.256232
779.246889	7344.814960
779.571086	7353.778132
779.895236	7359.260387
780.219339	7366.461675
780.543397	7369.609876
780.867409	7446.222811
781.191374	7460.658155
781.515294	7428.704802
781.839167	7518.840632
782.162995	7494.746437
782.486776	7447.304139
782.810511	7403.796460
783.134201	7329.283165
783.457844	7323.579100
783.781441	7273.802747
784.104993	7217.293933
784.428498	7198.041766
784.751958	7184.246649
785.075372	7159.625653
785.398739	7105.471058
785.722061	7153.321690
786.045337	7162.012640
786.368568	7310.479662
786.691752	7332.965728
787.014891	7656.174266
787.337983	7995.325453
787.661030	8556.453767
787.984031	9148.864961
788.306987	9537.663951
788.629897	9747.996013
788.952760	9705.975475
789.275579	9503.008539
789.598351	9132.405594
789.921078	8794.257597
790.243759	8400.122545
790.566395	8128.795042
790.888984	7887.119606
791.211529	7687.542846
791.534027	7471.456307
791.856480	7285.672143
792.178888	7206.397479
792.501249	7115.971782
792.823566	6970.582384
793.145836	6972.588763
793.468062	6947.778725
793.790241	6902.229379
794.112375	6965.959646
794.434464	7116.264168
794.756507	7155.469222
795.078505	7301.062786
795.400457	7600.993796
795.722364	7941.279242
796.044226	8213.373001
796.366042	8480.145821
796.687812	8431.410466
797.009538	8509.644133
797.331218	8413.416068
797.652852	8343.706992
797.974442	8192.522788
798.295986	8110.230993
798.617484	7925.245852
798.938938	7792.643342
799.260346	7695.323867
799.581709	7497.272056
799.903026	7424.906292
800.224299	7322.800242
800.545526	7158.821589
800.866708	7068.040491
801.187845	7004.627817
801.508936	6906.456387
801.829983	6867.722681
802.150984	6717.849177
802.471940	6677.404000
802.792851	6662.182236
803.113717	6629.618903
803.434538	6601.632937
803.755314	6540.382918
804.076045	6543.455501
804.396731	6493.868191
804.717372	6527.802718
805.037967	6523.482449
805.358518	6567.080868
805.679024	6639.305480
805.999485	6651.116903
806.319901	6696.018460
806.640272	6712.059412
806.960598	6790.091432
807.280879	6795.074613
807.601115	6870.409616
807.921306	6823.168963
808.241453	6838.073135
808.561554	6861.867381
808.881611	6825.382030
809.201623	6834.708164
809.521590	6787.069261
809.841513	6769.521004
810.161390	6810.498023
810.481223	6680.993301
810.801011	6671.412588
811.120755	6646.100955
811.440453	6571.386014
811.760107	6546.475152
812.079716	6512.671695
812.399281	6449.516120
812.718801	6447.320697
813.038276	6403.891157
813.357707	6342.210119
813.677093	6379.917950
813.996434	6290.911337
814.315731	6333.763666
814.634983	6326.212017
814.954191	6341.199367
815.273354	6446.342713
815.592473	6511.514750
815.911547	6633.225848
816.230577	6710.605039
816.549562	6854.736669
816.868502	6960.598379
817.187399	7049.118520
817.506250	7209.555762
817.825058	7235.051397
818.143821	7501.221800
818.462539	7768.889425
818.781213	8129.513406
819.099843	8665.249428
819.418429	9636.286565
819.736970	10582.828734
820.055466	11745.472566
820.373919	13246.040064
820.692327	15579.880046
821.010691	19628.884404
821.329011	28323.049891
821.647286	40773.787442
821.965517	53914.648872
822.283704	59548.564273
822.601847	61709.036453
822.919945	58997.210756
823.237999	54713.079421
823.556010	48577.017207
823.873976	42020.230374
824.191897	35678.877252
824.509775	30969.968211
824.827609	26571.793374
825.145398	24073.553803
825.463144	22744.302357
825.780845	23049.471126
826.098502	24792.324039
826.416116	28463.758577
826.733685	31989.854128
827.051210	33095.298508
827.368692	31335.746773
827.686129	27490.170617
828.003522	23495.996369
828.320872	19895.561442
828.638177	17105.834795
828.955439	15008.069527
829.272656	13236.146800
829.589830	11781.012701
829.906960	10545.110821
830.224046	9628.971850
830.541088	8891.945076
830.858086	8446.475954
831.175041	8069.485867
831.491952	7960.977551
831.808819	8005.768203
832.125642	8400.974500
832.442421	9279.937482
832.759157	11048.598582
833.075849	13895.706163
833.392497	17045.986216
833.709101	19152.928904
834.025662	18995.186159
834.342179	17342.211978
834.658653	15213.526793
834.975083	13325.622239
835.291469	11743.531722
835.607811	10461.672163
835.924110	9559.444257
836.240366	8706.612096
836.556578	7913.000890
836.872746	7274.657222
837.188871	6791.112266
837.504952	6381.856273
837.820990	6075.424696
838.136984	5855.799267
838.452935	5764.672849
838.768842	5799.731553
839.084706	6215.044492
839.400526	7395.687764
839.716303	8947.080175
840.032037	10015.840079
840.347727	9940.242936
840.663373	8993.937700
840.978977	7973.265363
841.294537	7177.153745
841.610054	6589.768581
841.925527	6161.701523
842.240957	5809.561803
842.556344	5478.884796
842.871687	5198.944482
843.186987	4919.730094
843.502244	4701.611970
843.817458	4539.004512
844.132629	4400.304725
844.447756	4311.729132
844.762840	4232.338520
845.077881	4160.955782
845.392879	4096.124023
845.707833	4047.050911
846.022745	4007.987009
846.337613	3978.650015
846.652438	3933.546811
846.967221	3918.743463
847.281960	3883.818349
847.596656	3869.982902
847.911309	3849.309130
848.225919	3826.828105
848.540485	3811.230775
848.855009	3792.893578
849.169490	3775.539406
849.483928	3764.012807
849.798323	3752.340016
850.112675	3736.208323
850.426984	3744.223758
850.741251	3728.596181
851.055474	3722.524111
851.369654	3729.349833
851.683792	3722.027558
851.997887	3731.068867
852.311938	3732.782859
852.625947	3734.572469
852.939914	3721.112588
853.253837	3733.377715
853.567718	3730.234556
853.881555	3721.394893
854.195350	3735.063981
854.509103	3730.287488
854.822812	3732.089701
855.136479	3726.708269
855.450103	3731.630956
855.763685	3717.180488
856.077224	3719.948082
856.390720	3737.745875
856.704173	3759.659771
857.017584	3770.152933
857.330953	3783.534676
857.644278	3805.229281
857.957561	3805.342707
858.270802	3807.500321
858.584000	3813.310251
858.897155	3806.519817
859.210268	3788.810243
859.523339	3767.624794
859.836367	3766.649331
860.149352	3760.206736
860.462295	3753.479316
860.775195	3738.368458
861.088054	3735.850401
861.400869	3735.129516
861.713642	3738.592789
862.026373	3748.569232
862.339062	3753.282711
862.651708	3772.302985
862.964312	3804.740289
863.276873	3818.648833
863.589392	3869.914847
863.901869	3918.957712
864.214303	3967.115855
864.526696	3997.042664
864.839045	4042.387843
865.151353	4063.669074
865.463619	4074.683995
865.775842	4082.631374
866.088023	4102.180969
866.400162	4092.522118
866.712258	4097.606122
867.024313	4096.734002
867.336325	4101.427317
867.648296	4108.384109
867.960224	4107.610292
868.272110	4118.189153
868.583954	4119.532621
868.895755	4133.327738
869.207515	4127.772387
869.519233	4172.356351
869.830909	4182.668031
870.142542	4211.710119
870.454134	4225.197726
870.765684	4253.438270
871.077191	4290.969660
871.388657	4312.303823
871.700081	4348.940409
872.011463	4396.143253
872.322803	4424.688786
872.634101	4458.285556
872.945357	4494.624714
873.256571	4547.234195
873.567744	4581.297272
873.878874	4593.370835
874.189963	4630.418275
874.501010	4645.841685
874.812015	4644.820851
875.122979	4685.384496
875.433900	4685.497922
875.744780	4698.977967
876.055618	4723.112491
876.366415	4724.259354
876.677169	4748.638374
876.987882	4795.606804
877.298554	4842.784442
877.609183	4925.119087
877.919771	5032.722516
878.230317	5176.639897
878.540822	5385.981372
878.851285	5706.056833
879.161707	6169.109499
879.472087	6915.084321
879.782425	8140.084706
880.092722	10295.780393
880.402977	13539.992266
880.713191	17189.739759
881.023363	20797.557456
881.333494	22936.304784
881.643583	24137.619307
881.953631	24166.174923
882.263637	23369.869220
882.573602	21947.278290
882.883526	20427.067936
883.193408	18794.999420
883.503248	17136.081718
883.813048	15610.505056
884.122806	14218.934866
884.432522	12745.256882
884.742197	11517.877073
885.051831	10446.636922
885.361424	9462.346592
885.670975	8647.088672
885.980485	7968.282183
886.289954	7399.939978
886.599382	6929.270128
886.908768	6558.941926
887.218113	6198.295259
887.527417	5915.282361
887.836680	5649.227905
888.145901	5434.968785
888.455082	5276.091780
888.764221	5122.828100
889.073319	4989.512266
889.382376	4917.665742
889.691392	4859.659705
890.000366	4837.569369
890.309300	4819.574970
890.618193	4817.797963
890.927044	4807.347651
891.235855	4829.909335
891.544625	4860.103326
891.853353	4918.535341
892.162041	5037.483886
892.470687	5223.726794
892.779293	5468.580678
893.087858	5842.299057
893.396381	6413.406335
893.704864	7207.004938
894.013306	8343.477620
894.321707	9495.159463
894.630068	10291.694538
894.938387	10494.900929
895.246665	10259.849569
895.554903	9660.819340
895.863100	8979.328437
896.171256	8429.116741
896.479371	7925.278620
896.787446	7439.666791
897.095480	7021.843357
897.403473	6701.815787
897.711425	6390.025463
898.019336	6125.793384
898.327207	5860.371593
898.635038	5632.309793
898.942827	5386.588831
899.250576	5197.142270
899.558284	5008.714021
899.865952	4886.521493
900.173579	4741.414400
900.481165	4634.970437
900.788711	4548.013053
901.096216	4468.750992
901.403681	4406.636414
901.711105	4386.030698
902.018489	4369.886403
902.325832	4437.657155
902.633135	4559.305238
902.940397	4904.112599
903.247619	5686.348442
903.554800	7103.855368
903.861941	8994.371240
904.169041	10487.712243
904.476101	11098.405182
904.783121	10754.691751
905.090100	10031.376915
905.397039	9216.282832
905.703938	8472.894121
906.010796	7792.741644
906.317614	7240.125318
906.624391	6712.649227
906.931129	6293.288241
907.237826	5895.596656
907.544483	5519.569428
907.851099	5153.821114
908.157675	4800.358092
908.464211	4484.212210
908.770707	4253.944906
909.077163	4054.844534
909.383578	3912.338677
909.689954	3795.968682
909.996289	3729.856469
910.302584	3660.147394
910.608839	3630.797796
910.915054	3597.274123
911.221229	3583.811722
911.527363	3597.664813
911.833458	3609.955146
912.139513	3634.588744
912.445527	3670.166687
912.751502	3746.116711
913.057436	3850.453472
913.363331	3985.647136
913.669186	4190.759083
913.975000	4444.697126
914.280775	4866.377042
914.586510	5444.239467
914.892205	6224.335339
915.197859	7250.615960
915.503475	8445.737425
915.809050	9477.563315
916.114585	10109.373647
916.420081	10359.321617
916.725536	10329.288943
917.030952	9896.906657
917.336328	9498.141305
917.641665	9092.028472
917.946961	8626.031772
918.252218	8210.519708
918.557435	7709.555044
918.862612	7285.846063
919.167750	6913.100627
919.472848	6497.618810
919.777906	6133.100537
920.082925	5774.540908
920.387904	5409.241256
920.692843	5151.219879
920.997743	4909.267179
921.302603	4681.777550
921.607423	4520.821070
921.912204	4355.521635
922.216946	4235.970672
922.521647	4119.368783
922.826310	4012.183770
923.130932	3919.842434
923.435516	3823.747960
923.740059	3755.631889
924.044564	3678.015764
924.349028	3619.009058
924.653454	3557.391035
924.957840	3488.780931
925.262186	3438.543312
925.566493	3379.660115
925.870761	3326.281857
926.174989	3291.346661
926.479178	3251.110692
926.783328	3207.131665
927.087438	3183.869261
927.391509	3148.835762
927.695541	3120.847276
927.999533	3090.373501
928.303486	3071.617888
928.607400	3056.849828
928.911275	3045.807181
929.215110	3024.324303
929.518906	3017.256606
929.822663	3018.620238
930.126381	3015.262829
930.430060	3024.720034
930.733699	3025.511495
931.037299	3031.112217
931.340861	3030.638349
931.644383	3040.788712
931.947866	3038.386602
932.251309	3031.749923
932.554714	3029.499048
932.858080	3024.717513
933.161407	3017.927079
933.464694	3008.502642
933.767943	3002.269255
934.071153	2999.849502
934.374323	2987.896926
934.677455	2985.857779
934.980548	2974.283290
935.283602	2974.174905
935.586617	2966.882876
935.889593	2980.327633
936.192530	2980.864516
936.495428	2996.098883
936.798287	3014.834331
937.101108	3048.841955
937.403890	3099.276179
937.706632	3160.460663
938.009336	3237.817169
938.312002	3308.295020
938.614628	3373.343549
938.917216	3425.269954
939.219765	3456.172227
939.522275	3485.783965
939.824747	3491.891323
940.127179	3490.273112
940.429573	3488.629696
940.731929	3484.223728
941.034246	3468.775112
941.336524	3457.346816
941.638763	3440.640432
941.940964	3428.004780
942.243126	3385.235631
942.545250	3367.954555
942.847335	3327.010304
943.149381	3295.026703
943.451389	3261.056888
943.753359	3229.078329
944.055290	3200.865511
944.357182	3176.362983
944.659036	3167.979544
944.960851	3155.694252
945.262628	3139.640698
945.564367	3142.647746
945.866067	3135.466622
946.167729	3132.782208
946.469352	3132.681385
946.770937	3125.613687
947.072484	3113.938375
947.373992	3115.675052
947.675462	3107.959566
947.976893	3086.786720
948.278286	3081.816142
948.579641	3074.859350
948.880958	3069.959349
949.182236	3072.152251
949.483476	3068.121848
949.784678	3066.980027
950.085841	3067.854667
950.386967	3077.954619
950.688054	3092.221084
950.989103	3111.634567
951.290114	3132.875469
951.591087	3159.520488
951.892021	3187.755991
952.192917	3214.890001
952.493776	3239.125348
952.794596	3249.247985
953.095378	3254.760487
953.396122	3247.755804
953.696828	3243.105339
953.997496	3230.787280
954.298126	3209.884135
954.598718	3189.684232
954.899272	3164.475942
955.199788	3139.484422
955.500266	3106.686675
955.800706	3072.840368
956.101108	3033.405942
956.401472	3003.610202
956.701798	2970.774647
957.002087	2930.652103
957.302337	2904.491035
957.602550	2874.196221
957.902724	2845.900225
958.202861	2821.478355
958.502960	2804.010757
958.803022	2784.688014
959.103045	2759.512492
959.403031	2745.185533
959.702979	2731.045096
960.002889	2719.944475
960.302762	2707.525593
960.602596	2694.040506
960.902393	2686.705627
961.202153	2678.491067
961.501875	2669.769871
961.801559	2664.522030
962.101205	2656.526760
962.400814	2649.239772
962.700385	2644.904380
962.999918	2637.072947
963.299414	2631.202524
963.598873	2631.089098
963.898293	2622.534260
964.197677	2625.795886
964.497022	2620.326234
964.796331	2620.275823
965.095601	2619.028137
965.394835	2616.608383
965.694030	2614.009668
965.993189	2613.888681
966.292309	2610.727877
966.591393	2609.250819
966.890439	2608.547578
967.189447	2611.310131
967.488419	2611.738629
967.787353	2611.098402
968.086249	2612.177209
968.385108	2616.512601
968.683930	2616.283229
968.982714	2621.301697
969.281462	2623.671040
969.580172	2630.640435
969.878844	2635.656383
970.177480	2644.238947
970.476078	2651.329330
970.774639	2658.192861
971.073162	2668.433965
971.371649	2671.947650
971.670098	2677.228258
971.968510	2681.558609
972.266885	2688.039013
972.565223	2691.388859
972.863524	2693.359951
973.161788	2696.432534
973.460014	2701.884542
973.758204	2702.378575
974.056356	2704.384954
974.354471	2710.890563
974.652550	2709.221941
974.950591	2707.013916
975.248595	2705.453679
975.546563	2703.767413
975.844493	2699.386650
976.142386	2694.481607
976.440243	2689.442974
976.738062	2686.451049
977.035845	2676.414112
977.333590	2669.948832
977.631299	2666.909016
977.928971	2660.978099
978.226606	2652.927376
978.524204	2652.032571
978.821765	2647.029226
979.119290	2651.556182
979.416777	2650.512663
979.714228	2653.673467
980.011642	2655.558858
980.309020	2665.066475
980.606360	2679.426201
980.903664	2703.114583
981.200931	2733.492576
981.498162	2785.945782
981.795356	2861.190044
982.092513	2945.541151
982.389633	3047.095195
982.686717	3143.736635
982.983764	3216.188098
983.280775	3263.990840
983.577749	3273.700102
983.874686	3257.578492
984.171587	3224.511043
984.468451	3189.699355
984.765279	3144.623878
985.062070	3097.385746
985.358824	3053.850342
985.655543	2997.747340
985.952224	2945.941923
986.248869	2884.870865
986.545478	2825.153356
986.842050	2770.174532
987.138586	2727.599467
987.435086	2690.456246
987.731549	2661.146977
988.027975	2634.486835
988.324366	2620.336317
988.620719	2606.692434
988.917037	2591.906729
989.213318	2587.044537
989.509563	2577.625141
989.805772	2574.597928
990.101944	2571.137176
990.398080	2567.447051
990.694180	2567.270611
990.990244	2567.061403
991.286271	2567.381516
991.582262	2567.094170
991.878217	2570.474264
992.174136	2575.064234
992.470019	2578.779565
992.765865	2579.997003
993.061676	2584.503795
993.357450	2593.282964
993.653188	2598.147678
993.948890	2620.636265
994.244556	2638.618061
994.540186	2660.602533
994.835780	2691.151925
995.131337	2727.828840
995.426859	2765.327463
995.722345	2812.237920
996.017795	2863.904706
996.313208	2901.186559
996.608586	2927.788728
996.903928	2941.135183
997.199234	2939.726180
997.494504	2933.581014
997.789738	2921.630958
998.084936	2900.690005
998.380099	2868.381250
998.675225	2841.451407
998.970316	2807.660552
999.265371	2773.612599
999.560390	2740.978690
999.855373	2707.306303
1000.150320	2682.587005
1000.445232	2657.638334
1000.740108	2639.064203
1001.034948	2620.462345
1001.329752	2607.355345
1001.624521	2591.362285
1001.919254	2580.400296
1002.213951	2574.050962
1002.508613	2563.703994
1002.803239	2556.434650
1003.097829	2552.157231
1003.392384	2547.884853
1003.686903	2546.382590
1003.981386	2540.590304
1004.275834	2536.239788
1004.570246	2533.363810
1004.864623	2531.659900
1005.158964	2528.390712
1005.453270	2527.942049
1005.747540	2527.805938
1006.041775	2524.148581
1006.335974	2523.268899
1006.630138	2521.713703
1006.924266	2521.877541
1007.218359	2521.827129
1007.512416	2517.504340
1007.806438	2516.526356
1008.100425	2516.869154
1008.394376	2513.534431
1008.688292	2518.235307
1008.982172	2516.486027
1009.276017	2518.373939
1009.569827	2515.878568
1009.863602	2513.937723
1010.157341	2515.288753
1010.451045	2515.210615
1010.744714	2514.940913
1011.038347	2513.032836
1011.331945	2512.483351
1011.625508	2512.637106
1011.919036	2509.367918
1012.212528	2510.940758
1012.505986	2509.191477
1012.799408	2508.659635
1013.092795	2506.650736
1013.386147	2507.512773
1013.679464	2508.740294
1013.972745	2507.202742
1014.265992	2505.753410
1014.559204	2508.475633
1014.852380	2504.694768
1015.145521	2507.863133
1015.438628	2505.720643
1015.731699	2507.979080
1016.024736	2507.840448
1016.317737	2512.392610
1016.610703	2512.324554
1016.903635	2511.218021
1017.196531	2512.354801
1017.489393	2514.101561
1017.782219	2515.636592
1018.075011	2517.582478
1018.367768	2519.624145
1018.660490	2518.777231
1018.953177	2518.777231
1019.245829	2518.777231
