Dividing Wavelength (nm)	Counts (n)	Blue Motor Position (mm): 9.300000	Red Motor Position (mm): 0.000000	
326.493990	2160.656183
326.888308	2160.656183
327.282561	2160.656183
327.676750	2121.413320
328.070874	2114.436363
328.464933	2119.855604
328.858929	2120.077415
329.252859	2123.946500
329.646726	2133.038221
330.040528	2145.507515
330.434265	2159.219454
330.827938	2178.426250
331.221547	2193.496779
331.615091	2211.874306
332.008571	2229.674620
332.401986	2248.563823
332.795338	2265.010588
333.188625	2286.347271
333.581847	2304.374438
333.975006	2320.312045
334.368100	2341.074038
334.761129	2359.386029
335.154095	2373.702906
335.546996	2392.067829
335.939833	2413.654050
336.332606	2431.547626
336.725315	2441.899635
337.117960	2456.821450
337.510540	2470.069603
337.903056	2478.914307
338.295508	2490.884527
338.687896	2496.492811
339.080220	2501.662514
339.472480	2510.416477
339.864676	2517.252282
340.256807	2519.150277
340.648875	2527.841226
341.040879	2522.726975
341.432818	2530.339117
341.824694	2535.231557
342.216506	2533.275590
342.608253	2535.362627
342.999937	2535.115611
343.391557	2536.393543
343.783113	2534.853471
344.174605	2536.252391
344.566033	2531.223840
344.957397	2531.165867
345.348697	2530.593696
345.739934	2528.516740
346.131106	2527.047244
346.522215	2527.894158
346.913260	2522.104393
347.304241	2520.004752
347.695159	2518.200019
348.086012	2519.097344
348.476802	2516.866634
348.867528	2514.734226
349.258191	2510.774399
349.648789	2509.239368
350.039324	2507.069151
350.429796	2510.948319
350.820203	2508.778102
351.210548	2507.215345
351.600828	2504.868688
351.991045	2502.244767
352.381198	2504.712412
352.771288	2500.182935
353.161314	2501.881804
353.551276	2501.090343
353.941175	2501.685199
354.331010	2500.659324
354.720782	2502.852226
355.110490	2500.626557
355.500135	2502.499345
355.889717	2500.745024
356.279235	2498.778974
356.668689	2500.434993
357.058080	2498.504231
357.447408	2500.127483
357.836672	2500.447596
358.225873	2501.234016
358.615010	2502.204438
359.004084	2502.068327
359.393095	2503.832731
359.782043	2502.201917
360.170927	2505.493791
360.559748	2503.744510
360.948505	2504.503204
361.337199	2505.516476
361.725830	2507.606034
362.114398	2508.142917
362.502903	2503.179901
362.891344	2509.015037
363.279722	2508.521004
363.668037	2510.217352
364.056289	2506.663338
364.444478	2510.424039
364.832603	2508.112670
365.220665	2511.202897
365.608665	2512.145593
365.996601	2510.945799
366.384474	2509.962774
366.772284	2513.864627
367.160031	2511.790192
367.547715	2514.560306
367.935336	2513.783968
368.322893	2509.776251
368.710388	2510.250119
369.097820	2507.028822
369.485189	2510.421519
369.872495	2513.879750
370.259738	2512.642147
370.646918	2515.313958
371.034035	2512.765655
371.421090	2517.252282
371.808081	2514.507374
372.195010	2513.075686
372.581875	2517.811850
372.968678	2516.733043
373.355418	2515.669360
373.742096	2516.002076
374.128710	2519.062056
374.515262	2518.666326
374.901751	2515.702127
375.288177	2517.022910
375.674540	2517.080883
376.060841	2517.617766
376.447079	2520.365195
376.833254	2517.413599
377.219367	2516.730523
377.605417	2517.138856
377.991404	2517.895029
378.377329	2521.292767
378.763191	2521.960720
379.148991	2517.287570
379.534727	2520.536594
379.920402	2518.436953
380.306013	2518.893178
380.691563	2521.103724
381.077049	2522.235463
381.462474	2519.934176
381.847835	2524.849301
382.233134	2519.009124
382.618371	2521.131450
383.003545	2521.466687
383.388657	2522.585823
383.773706	2522.217819
384.158693	2522.595905
384.543618	2525.310567
384.928480	2520.203878
385.313280	2520.844104
385.698017	2523.606657
386.082692	2525.038344
386.467305	2522.777387
386.851856	2525.371060
387.236344	2521.975843
387.620770	2522.863086
388.005133	2520.889475
388.389435	2521.086080
388.773674	2518.910822
389.157851	2526.769981
389.541965	2526.412059
389.926018	2526.623787
390.310008	2526.223015
390.693936	2527.392563
391.077802	2527.279137
391.461606	2524.055319
391.845348	2529.502286
392.229027	2528.136133
392.612645	2527.332069
392.996200	2527.253931
393.379694	2527.833664
393.763125	2527.092614
394.146494	2526.853160
394.529801	2530.407173
394.913047	2526.775022
395.296230	2529.318284
395.679351	2526.865762
396.062410	2530.286185
396.445408	2531.309540
396.828343	2528.262162
397.211217	2528.501617
397.594028	2527.526154
397.976778	2530.576052
398.359466	2528.809127
398.742092	2527.324508
399.124656	2529.688809
399.507158	2529.625794
399.889598	2529.651000
400.271977	2529.950949
400.654294	2530.482790
401.036549	2530.190403
401.418742	2529.993798
401.800874	2531.274252
402.182944	2529.663603
402.564952	2532.910106
402.946898	2528.181504
403.328783	2529.479601
403.710606	2534.903882
404.092367	2531.669982
404.474067	2532.597554
404.855705	2530.981865
405.237282	2533.139478
405.618797	2530.664272
406.000250	2533.157122
406.381642	2531.455733
406.762972	2529.802235
407.144240	2529.605630
407.525447	2530.749972
407.906593	2528.365506
408.287677	2534.432534
408.668700	2531.294416
409.049661	2531.435568
409.430560	2534.601413
409.811399	2534.825744
410.192176	2534.440096
410.572891	2533.630991
410.953545	2535.501259
411.334138	2534.145189
411.714669	2532.965559
412.095139	2534.583769
412.475547	2535.110570
412.855894	2533.474715
413.236180	2534.147709
413.616405	2536.227185
413.996568	2536.217103
414.376670	2535.163502
414.756711	2534.324150
415.136691	2537.374048
415.516609	2534.472864
415.896466	2536.995961
416.276262	2536.532175
416.655997	2537.628626
417.035670	2537.610982
417.415283	2537.121990
417.794834	2539.438400
418.174324	2536.822041
418.553753	2537.101825
418.933121	2537.668955
419.312428	2540.297917
419.691674	2537.033770
420.070859	2539.899666
420.449983	2537.358924
420.829045	2538.263811
421.208047	2537.888245
421.586988	2540.401261
421.965867	2537.910931
422.344686	2539.763555
422.723444	2539.135931
423.102141	2539.453524
423.480777	2539.352701
423.859352	2536.547298
424.237866	2539.536703
424.616319	2539.012423
424.994712	2539.289686
425.373044	2541.018802
425.751314	2537.288348
426.129524	2538.967052
426.507673	2534.568646
426.885762	2534.424973
427.263789	2537.842875
427.641756	2538.853626
428.019662	2539.786240
428.397508	2540.668442
428.775292	2539.491332
429.153016	2540.423946
429.530679	2540.307999
429.908282	2537.250539
430.285824	2541.371683
430.663305	2539.229192
431.040726	2540.469316
431.418086	2539.345139
431.795385	2543.068031
432.172624	2539.992927
432.549802	2539.211548
432.926920	2541.989224
433.303977	2542.510983
433.680974	2541.885880
434.057910	2540.565098
434.434786	2542.233720
434.811601	2539.967721
435.188355	2541.270860
435.565050	2541.684234
435.941683	2540.928061
436.318257	2542.190870
436.694770	2543.365459
437.071222	2541.152393
437.447614	2543.844369
437.823946	2545.170192
438.200218	2545.225645
438.576429	2543.821683
438.952580	2542.702547
439.328670	2542.170706
439.704700	2544.739173
440.080670	2543.557023
440.456580	2542.301776
440.832429	2543.249513
441.208218	2541.064172
441.583947	2543.370500
441.959616	2544.847558
442.335224	2541.883360
442.710773	2543.579708
443.086261	2540.794471
443.461689	2543.090716
443.837057	2543.972918
444.212365	2546.450645
444.587612	2539.700540
444.962800	2542.856303
445.337927	2543.340253
445.712995	2538.447813
446.088002	2547.537014
446.462949	2543.559543
446.837837	2545.003834
447.212664	2542.432846
447.587431	2543.589790
447.962139	2544.930737
448.336786	2547.105995
448.711374	2547.350491
449.085901	2544.313196
449.460369	2544.877805
449.834776	2546.614483
450.209124	2544.865202
450.583412	2544.524924
450.957640	2545.669266
451.331808	2545.772610
451.705917	2545.628937
452.079965	2546.180943
452.453954	2546.927034
452.827883	2547.121119
453.201752	2548.210008
453.575562	2547.350491
453.949311	2546.400234
454.323001	2544.040974
454.696632	2546.541386
455.070202	2547.630275
455.443713	2547.947868
455.817164	2545.817980
456.190556	2549.697148
456.563888	2547.461397
456.937160	2548.328475
457.310373	2547.136242
457.683526	2547.471479
458.056619	2546.644730
458.429653	2549.707231
458.802628	2545.974256
459.175542	2549.682025
459.548398	2547.184133
459.921194	2547.370656
460.293930	2548.779658
460.666607	2548.978784
461.039224	2549.165307
461.411782	2549.308979
461.784280	2546.720347
462.156719	2551.433826
462.529099	2548.509957
462.901419	2547.413506
463.273680	2545.959133
463.645882	2544.204811
464.018024	2545.880995
464.390106	2544.300593
464.762130	2548.083979
465.134094	2549.266130
465.505999	2548.308310
465.877845	2550.556665
466.249631	2550.697817
466.621358	2550.970040
466.993026	2550.869217
467.364634	2551.738816
467.736184	2550.740667
468.107674	2549.039278
468.479105	2547.925183
468.850477	2549.553475
469.221790	2547.491643
469.593043	2549.341747
469.964238	2549.679504
470.335373	2549.089689
470.706449	2550.478527
471.077467	2548.169679
471.448425	2547.889895
471.819324	2549.876109
472.190164	2550.677653
472.560945	2551.978270
472.931667	2551.048177
473.302330	2548.023485
473.672934	2551.383414
474.043479	2548.976263
474.413965	2549.860986
474.784393	2547.421067
475.154761	2550.334854
475.525070	2549.036757
475.895321	2548.709082
476.265513	2551.862324
476.635645	2554.566903
477.005719	2551.179248
477.375734	2551.433826
477.745691	2551.479196
478.115588	2552.154711
478.485427	2550.314690
478.855207	2553.967006
479.224928	2552.394166
479.594591	2553.566234
479.964194	2550.029864
480.333739	2551.360729
480.703226	2551.499361
481.072653	2552.827705
481.442022	2552.137067
481.811333	2553.944320
482.180584	2547.506767
482.549777	2554.491286
482.918912	2546.433001
483.287988	2552.031202
483.657005	2553.967006
484.025964	2551.421223
484.394864	2554.680329
484.763706	2550.904505
485.132489	2553.243600
485.501213	2554.498847
485.869879	2554.274516
486.238487	2554.697973
486.607036	2553.329300
486.975527	2557.213509
487.343959	2553.987170
487.712333	2555.688560
488.080648	2554.226625
488.448905	2553.122612
488.817104	2555.456667
489.185244	2555.779300
489.553326	2554.861810
489.921350	2558.032696
490.289315	2556.522871
490.657222	2556.011193
491.025070	2555.557490
491.392861	2556.159907
491.760593	2557.417675
492.128267	2556.921122
492.495883	2558.756102
492.863440	2555.323076
493.230939	2556.694270
493.598380	2558.980433
493.965763	2557.853735
494.333088	2554.113199
494.700354	2555.330638
495.067563	2555.260062
495.434713	2556.227963
495.801805	2555.985988
496.168839	2554.798796
496.535815	2554.168652
496.902733	2555.905329
497.269593	2556.122099
497.636395	2555.799465
498.003139	2557.311811
498.369825	2559.300546
498.736453	2556.278375
499.103023	2555.597819
499.469535	2556.096893
499.835989	2557.407593
500.202385	2555.439022
500.568723	2551.131357
500.935003	2553.306614
501.301226	2553.893909
501.667390	2555.161759
502.033497	2558.778787
502.399546	2559.126627
502.765537	2557.659651
503.131470	2558.156204
503.497345	2558.972871
503.863163	2558.627552
504.228923	2556.346430
504.594625	2556.638817
504.960269	2557.321893
505.325856	2558.015052
505.691385	2558.499003
506.056856	2559.565207
506.422270	2557.944476
506.787625	2560.144940
507.152924	2555.895247
507.518164	2558.841801
507.883347	2556.258210
508.248472	2555.963302
508.613540	2556.238045
508.978550	2557.863818
509.343503	2559.093859
509.708398	2558.171328
510.073236	2557.389949
510.438016	2559.676112
510.802738	2559.169476
511.167403	2558.378015
511.532010	2556.981616
511.896561	2556.822819
512.261053	2555.774259
512.625488	2558.914898
512.989866	2558.133519
513.354186	2561.319528
513.718449	2559.671071
514.082655	2558.683005
514.446803	2558.718293
514.810894	2558.216698
515.174927	2561.495969
515.538904	2561.148129
515.902822	2559.953376
516.266684	2559.285423
516.630488	2559.855073
516.994235	2559.976061
517.357925	2560.517985
517.721558	2560.056719
518.085133	2560.931360
518.448651	2556.749723
518.812112	2556.459856
519.175516	2557.009342
519.538863	2554.032541
519.902152	2557.541184
520.265385	2559.759291
520.628560	2561.221226
520.991678	2558.763663
521.354739	2560.386915
521.717743	2561.803479
522.080690	2562.201730
522.443580	2560.482697
522.806413	2560.969168
523.169189	2562.751216
523.531908	2563.376319
523.894569	2559.855073
524.257174	2562.930177
524.619722	2562.839436
524.982213	2563.630897
525.344647	2563.691391
525.707025	2564.460167
526.069345	2563.338511
526.431608	2566.141392
526.793815	2563.893037
527.155964	2564.903789
527.518057	2565.886814
527.880093	2567.063923
528.242072	2566.232133
528.603995	2568.538461
528.965860	2565.617112
529.327669	2566.368244
529.689421	2569.085426
530.051117	2566.779098
530.412755	2566.713563
530.774337	2568.440158
531.135862	2570.691033
531.497331	2568.336815
531.858743	2568.977041
532.220098	2572.321847
532.581396	2572.972156
532.942638	2573.751014
533.303824	2571.553071
533.664953	2573.279666
534.026025	2575.202866
534.387040	2573.413257
534.747999	2572.604151
535.108902	2575.371745
535.469748	2575.966601
535.830537	2576.448031
536.191270	2576.994996
536.551947	2573.579615
536.912567	2573.851837
537.273131	2576.901735
537.633638	2573.864440
537.994089	2582.338619
538.354483	2581.985739
538.714821	2582.573033
539.075103	2582.764597
539.435328	2583.384659
539.795497	2582.963722
540.155609	2581.123701
540.515665	2579.933989
540.875665	2585.920359
541.235609	2583.493044
541.595496	2582.734350
541.955328	2585.688466
542.315102	2589.983529
542.674821	2589.449167
543.034483	2589.088724
543.394090	2590.076791
543.753640	2589.391194
544.113134	2592.433530
544.472571	2589.008066
544.831953	2590.336410
545.191278	2592.622573
545.550548	2591.765577
545.909761	2591.780701
546.268918	2595.097780
546.628019	2592.844384
546.987064	2596.468974
547.346053	2594.255907
547.704986	2593.383787
548.063863	2595.788418
548.422684	2598.566094
548.781449	2595.581731
549.140158	2600.015425
549.498811	2598.182966
549.857408	2600.242277
550.215949	2598.540888
550.574434	2597.928388
550.932864	2602.044490
551.291237	2600.668255
551.649555	2600.708584
552.007817	2597.865373
552.366022	2598.372009
552.724173	2600.804366
553.082267	2598.964345
553.440305	2604.028184
553.798288	2602.362082
554.156215	2603.342587
554.514086	2601.013574
554.871902	2597.847729
555.229661	2598.165322
555.587365	2596.733634
555.945014	2603.297217
556.302606	2601.326125
556.660143	2603.836620
557.017625	2601.994078
557.375050	2605.348966
557.732421	2602.871239
558.089735	2602.866198
558.446994	2601.419387
558.804197	2604.423914
559.161345	2605.127155
559.518437	2600.527103
559.875474	2603.524068
560.232455	2604.166816
560.589381	2604.718822
560.946251	2606.185798
561.303065	2605.001127
561.659825	2605.716970
562.016528	2604.343256
562.373177	2604.386106
562.729770	2604.439038
563.086307	2607.148658
563.442789	2606.488267
563.799216	2605.333843
564.155587	2602.288986
564.511904	2604.476847
564.868164	2606.571446
565.224370	2606.402567
565.580520	2602.155395
565.936615	2606.573967
566.292654	2604.343256
566.648638	2604.416353
567.004567	2602.503235
567.360441	2602.062134
567.716260	2604.151692
568.072023	2601.842844
568.427732	2603.577001
568.783385	2602.026846
569.138982	2604.247474
569.494525	2605.732094
569.850013	2601.399222
570.205445	2602.198245
570.560823	2599.518872
570.916145	2602.659511
571.271412	2602.788060
571.626625	2604.605396
571.981782	2602.571290
572.336884	2600.000302
572.691931	2598.682040
573.046923	2595.795980
573.401860	2597.578027
573.756743	2601.071547
574.111570	2602.019284
574.466342	2598.656834
574.821059	2599.816300
575.175722	2599.418049
575.530330	2598.656834
575.884882	2601.366455
576.239380	2598.288830
576.593823	2599.725559
576.948211	2598.608943
577.302544	2597.532657
577.656823	2596.418562
578.011047	2598.016608
578.365216	2595.596854
578.719330	2597.731783
579.073389	2599.395363
579.427394	2598.109869
579.781344	2596.610126
580.135239	2596.794128
580.489080	2594.742378
580.842866	2594.772625
581.196597	2597.446957
581.550273	2596.405959
581.903895	2596.690784
582.257463	2595.821185
582.610975	2597.459560
582.964434	2597.444437
583.317837	2594.913778
583.671186	2596.383274
584.024481	2596.587441
584.377721	2592.529312
584.730906	2594.218098
585.084037	2593.950917
585.437113	2595.901844
585.790135	2599.821341
586.143103	2596.456371
586.496016	2596.080805
586.848874	2596.484097
587.201679	2598.445106
587.554428	2593.167018
587.907124	2594.465115
588.259765	2596.496700
588.612352	2595.929570
588.964884	2598.077102
589.317362	2595.680033
589.669786	2594.155084
590.022155	2594.412183
590.374470	2592.720876
590.726731	2595.516196
591.078937	2591.894127
591.431090	2600.713625
591.783188	2596.940322
592.135232	2594.238263
592.487222	2595.017121
592.839157	2599.798656
593.191038	2597.116762
593.542866	2597.134406
593.894639	2597.978799
594.246358	2597.315888
594.598022	2596.763881
594.949633	2598.273707
595.301190	2596.794128
595.652692	2597.215064
596.004141	2597.199941
596.355535	2597.590630
596.706876	2594.896134
597.058162	2598.820672
597.409395	2597.782194
597.760573	2596.794128
598.111698	2598.291351
598.462768	2599.506269
598.813785	2599.791094
599.164748	2599.171032
599.515657	2596.342945
599.866511	2599.576845
600.217312	2598.901330
600.568060	2600.595158
600.918753	2601.467278
601.269392	2601.311002
601.619978	2599.435693
601.970510	2600.980806
602.320988	2598.424941
602.671412	2601.762185
603.021783	2605.205293
603.372100	2604.212186
603.722363	2604.436517
604.072572	2600.690940
604.422728	2603.529110
604.772830	2603.526589
605.122878	2603.503904
605.472872	2605.270828
605.822813	2609.981787
606.172701	2603.710591
606.522534	2606.631940
606.872314	2610.180912
607.222041	2608.149327
607.571714	2608.930706
607.921333	2608.668566
608.270899	2613.170316
608.620411	2609.583535
608.969870	2614.423043
609.319276	2617.467900
609.668627	2622.940072
610.017926	2627.361164
610.367171	2629.735548
610.716362	2630.469036
611.065500	2627.262862
611.414585	2625.803448
611.763616	2626.655403
612.112594	2624.432254
612.461518	2626.146246
612.810389	2628.255969
613.159207	2626.932666
613.507971	2628.944087
613.856682	2628.991978
614.205340	2628.896196
614.553945	2632.215796
614.902496	2631.021042
615.250994	2635.369037
615.599439	2633.337452
615.947830	2637.587145
616.296169	2631.752009
616.644454	2638.396250
616.992686	2636.833492
617.340864	2642.605614
617.688990	2641.375572
618.037063	2644.793474
618.385082	2645.000162
618.733048	2648.826397
619.080961	2649.519556
619.428821	2653.428971
619.776628	2656.493992
620.124382	2657.111534
620.472083	2658.626401
620.819731	2660.887358
621.167326	2660.237049
621.514868	2660.484066
621.862357	2657.411482
622.209793	2662.046823
622.557176	2661.278047
622.904506	2661.613284
623.251783	2662.019097
623.599007	2663.072698
623.946179	2664.327946
624.293297	2665.068995
624.640363	2664.030517
624.987376	2663.130672
625.334336	2661.598161
625.681243	2663.337359
626.028097	2662.913902
626.374899	2667.944973
626.721647	2669.495128
627.068343	2669.099398
627.414987	2670.737773
627.761577	2678.682631
628.108115	2682.276974
628.454600	2675.892352
628.801032	2681.359484
629.147412	2683.333096
629.493739	2686.388035
629.840014	2689.657223
630.186236	2689.528674
630.532405	2695.517564
630.878521	2695.956145
631.224585	2700.087370
631.570597	2704.727752
631.916556	2706.615665
632.262462	2708.012064
632.608316	2714.885677
632.954117	2715.868702
633.299866	2721.575289
633.645562	2723.397666
633.991206	2722.717110
634.336797	2722.270968
634.682336	2728.529560
635.027823	2725.353633
635.373257	2729.111814
635.718639	2728.327914
636.063968	2729.857904
636.409245	2728.237173
636.754470	2734.026939
637.099642	2732.849829
637.444762	2731.866804
637.789829	2741.833165
638.134845	2737.427197
638.479808	2740.625809
638.824719	2744.880543
639.169577	2745.780389
639.514383	2751.620566
639.859137	2752.379259
640.203839	2755.827408
640.548489	2757.639703
640.893086	2765.564397
641.237632	2763.023656
641.582125	2776.493619
641.926566	2774.857764
642.270955	2775.291303
642.615292	2778.835235
642.959576	2782.364042
643.303809	2792.214457
643.647990	2793.507513
643.992118	2802.863894
644.336195	2800.580252
644.680219	2811.423774
645.024192	2820.878458
645.368112	2826.567400
645.711981	2839.535768
646.055797	2847.341995
646.399562	2860.257431
646.743274	2872.777137
647.086935	2895.215312
647.430544	2904.352404
647.774101	2914.643919
648.117606	2932.282917
648.461059	2933.399532
648.804460	2947.418981
649.147810	2943.086109
649.491108	2938.546550
649.834354	2947.030812
650.177548	2941.193156
650.520690	2941.236006
650.863781	2946.932510
651.206820	2950.680608
651.549807	2956.997173
651.892742	2957.218984
652.235626	2960.165538
652.578458	2967.220633
652.921238	2962.746609
653.263967	2978.502736
653.606644	2977.771768
653.949269	2981.897953
654.291843	2991.934890
654.634365	2999.342866
654.976836	3003.035511
655.319255	3012.643950
655.661622	3021.844056
656.003938	3026.502082
656.346203	3029.544418
656.688416	3041.827190
657.030577	3048.743653
657.372687	3052.771535
657.714746	3058.566341
658.056753	3070.871798
658.398708	3078.645257
658.740612	3085.251689
659.082465	3098.149481
659.424266	3095.654110
659.766016	3117.618417
660.107715	3124.930611
660.449362	3130.962351
660.790958	3148.097233
661.132503	3155.742143
661.473996	3168.057682
661.815438	3181.958664
662.156829	3195.632793
662.498168	3194.574151
662.839456	3211.830021
663.180693	3223.301166
663.521879	3237.469329
663.863013	3252.439036
664.204097	3259.025303
664.545129	3276.351749
664.886110	3281.702934
665.227040	3305.693785
665.567918	3319.572081
665.908746	3340.008919
666.249522	3340.462623
666.590248	3361.506920
666.930922	3389.076990
667.271545	3395.940521
667.612118	3417.970363
667.952639	3421.516815
668.293109	3433.509720
668.633528	3443.667645
668.973896	3451.257102
669.314213	3486.840087
669.654480	3458.947382
669.994695	3472.699650
670.334859	3488.244048
670.674973	3500.448681
671.015035	3521.901312
671.355047	3524.686549
671.695008	3531.910522
672.034918	3545.297307
672.374777	3568.652972
672.714585	3569.542736
673.054342	3597.062395
673.394049	3600.966768
673.733705	3619.442597
674.073310	3633.177221
674.412864	3658.282167
674.752368	3645.928820
675.091820	3646.616937
675.431223	3684.377700
675.770574	3657.238648
676.109875	3669.554187
676.449125	3676.440403
676.788324	3677.330167
677.127473	3669.319773
677.466571	3681.325281
677.805619	3686.053884
678.144616	3686.956250
678.483562	3705.167418
678.822458	3687.110005
679.161303	3695.710214
679.500098	3721.283987
679.838842	3722.098134
680.177535	3727.323290
680.516179	3745.080754
680.854771	3759.823608
681.193314	3806.618119
681.531805	3828.423630
681.870247	3928.261161
682.208638	3988.591170
682.546978	4068.841298
682.885268	4099.413376
683.223508	4051.230027
683.561697	4049.241292
683.899836	4053.947209
684.237925	4027.133312
684.575963	4032.355947
684.913951	4068.150660
685.251889	4037.255949
685.589776	4100.572841
685.927614	4105.840847
686.265401	4092.496913
686.603137	4140.216475
686.940824	4181.889173
687.278460	4223.098085
687.616046	4261.463787
687.953582	4311.121673
688.291068	4298.937204
688.628504	4360.323334
688.965889	4387.273343
689.303224	4411.304523
689.640510	4404.075508
689.977745	4346.916385
690.314930	4330.714117
690.652065	4329.315197
690.989150	4268.607102
691.326185	4245.160695
691.663170	4218.679514
692.000105	4172.479859
692.336990	4186.383362
692.673825	4127.444712
693.010610	4124.369608
693.347345	4083.911827
693.684030	4048.580901
694.020665	4053.087692
694.357251	4030.944424
694.693786	4053.395203
695.030272	3991.023527
695.366707	3996.422602
695.703093	3998.502078
696.039429	4003.928881
696.375716	4015.102598
696.711952	3977.571208
697.048139	4011.165457
697.384276	4022.172816
697.720363	4023.075183
698.056400	4022.634082
698.392388	4035.776370
698.728326	4031.007438
699.064214	4023.110471
699.400053	4067.200402
699.735842	4018.502856
700.071581	4020.138711
700.407270	4013.502032
700.742910	4008.644880
701.078501	4008.216382
701.414042	3980.081702
701.749533	3975.237153
702.084974	3943.699695
702.420366	3974.160867
702.755709	3968.119044
703.091002	3948.135910
703.426246	3960.264927
703.761440	3956.940286
704.096584	3958.198053
704.431679	3945.960652
704.766725	3960.459011
705.101721	3956.219401
705.436668	3969.192810
705.771565	3962.329279
706.106413	3989.561592
706.441212	4025.308414
706.775961	4009.005322
707.110661	4025.394114
707.445311	4092.592694
707.779913	4062.186975
708.114465	4117.158237
708.448967	4146.394409
708.783421	4169.868542
709.117825	4247.872836
709.452180	4267.452677
709.786485	4286.314154
710.120742	4395.785331
710.454949	4408.620108
710.789107	4425.707099
711.123216	4489.613807
711.457275	4571.414090
711.791286	4639.084018
712.125247	4621.150113
712.459159	4664.556969
712.793023	4734.744954
713.126837	4617.565853
713.460602	4673.346220
713.794318	4600.362916
714.127985	4663.773069
714.461602	4592.420578
714.795171	4560.948654
715.128691	4523.525649
715.462162	4447.557981
715.795584	4460.959888
716.128957	4415.685286
716.462281	4337.668389
716.795556	4407.294285
717.128782	4339.853729
717.461960	4236.429417
717.795088	4285.575625
718.128167	4268.844036
718.461198	4220.879978
718.794180	4207.583934
719.127113	4231.226946
719.459997	4186.595090
719.792833	4098.016976
720.125619	4139.654386
720.458357	4086.646653
720.791046	4094.815843
721.123686	4134.472080
721.456278	4072.985127
721.788821	4076.841609
722.121315	4043.940519
722.453761	4084.884770
722.786158	4085.174637
723.118506	4087.571705
723.450805	4087.478444
723.783056	4117.198566
724.115259	4073.728697
724.447412	4088.922734
724.779518	4104.323459
725.111574	4112.089357
725.443582	4153.749452
725.775542	4144.738390
726.107453	4225.001121
726.439315	4201.060681
726.771129	4213.098957
727.102895	4277.330818
727.434612	4336.551773
727.766281	4339.291640
728.097901	4383.368969
728.429473	4378.816807
728.760996	4383.056417
729.092471	4388.679824
729.423897	4394.023448
729.755276	4427.441256
730.086606	4405.257659
730.417887	4430.791103
730.749120	4503.950848
731.080305	4620.209938
731.411442	4664.211650
731.742530	4646.938136
732.073570	4745.827930
732.404562	4791.664622
732.735506	4688.290721
733.066401	4772.712404
733.397249	4754.165999
733.728048	4678.946942
734.058798	4548.746541
734.389501	4494.211339
734.720156	4433.866207
735.050762	4319.999144
735.381320	4285.381541
735.711831	4283.594452
736.042293	4245.314450
736.372707	4271.437709
736.703073	4207.868759
737.033391	4221.762179
737.363661	4229.888519
737.693883	4250.451386
738.024056	4301.233449
738.354182	4327.293694
738.684260	4335.921629
739.014290	4390.597983
739.344272	4437.513482
739.674207	4436.853091
740.004093	4473.797187
740.333931	4488.814784
740.663722	4493.883664
740.993464	4557.482861
741.323159	4587.114763
741.652806	4425.621400
741.982405	4431.325465
742.311956	4534.114592
742.641460	4461.148932
742.970915	4348.237168
743.300323	4383.636150
743.629683	4358.299311
743.958996	4300.691525
744.288260	4273.194552
744.617477	4261.645268
744.946647	4281.114204
745.275768	4195.986760
745.604842	4196.190927
745.933869	4190.058363
746.262847	4161.603570
746.591778	4175.854912
746.920662	4158.964526
747.249498	4153.174761
747.578286	4186.690872
747.907027	4236.121906
748.235720	4265.574848
748.564365	4227.751070
748.892963	4242.307402
749.221514	4361.482799
749.550017	4280.642856
749.878473	4196.737892
750.206881	4255.973970
750.535242	4230.435485
750.863555	4194.043395
751.191821	4223.697983
751.520039	4233.061926
751.848210	4181.778268
752.176334	4184.563505
752.504411	4245.233792
752.832440	4201.474056
753.160421	4129.337665
753.488356	4183.076365
753.816243	4233.445053
754.144082	4136.221360
754.471875	4105.782873
754.799620	4151.745594
755.127318	4165.402079
755.454969	4133.547028
755.782572	4111.897793
756.110129	4159.506450
756.437638	4175.920447
756.765100	4121.783496
757.092515	4117.863999
757.419882	4153.157117
757.747203	4144.899707
758.074477	4197.453736
758.401703	4197.751164
758.728882	4147.926920
759.056014	4177.442875
759.383099	4284.622847
759.710138	4275.062299
760.037129	4251.820059
760.364073	4256.316768
760.690970	4328.964837
761.017820	4338.593440
761.344623	4281.303248
761.671379	4343.168287
761.998088	4421.543106
762.324751	4542.213206
762.651366	4855.006720
762.977935	5505.088714
763.304456	6327.522717
763.630931	6794.086547
763.957359	6655.578324
764.283740	6261.418067
764.610074	5903.087810
764.936362	5357.690417
765.262602	5018.423283
765.588796	4710.035738
765.914943	4511.210110
766.241044	4454.925627
766.567097	4358.130432
766.893104	4194.781924
767.219064	4090.956840
767.544978	4075.475457
767.870845	4045.231054
768.196665	3968.507213
768.522438	3921.909307
768.848165	3916.510232
769.173846	3895.100451
769.499479	3872.710167
769.825066	3832.935463
770.150607	3807.054179
770.476101	3794.405924
770.801548	3806.066113
771.126949	3770.836009
771.452303	3740.072368
771.777611	3712.381310
772.102872	3724.250706
772.428087	3705.860577
772.753256	3695.969833
773.078378	3673.448478
773.403453	3631.211171
773.728482	3631.342241
774.053465	3599.565328
774.378401	3591.602825
774.703291	3610.577728
775.028135	3567.049885
775.352932	3525.314173
775.677683	3518.954757
776.002388	3547.953995
776.327046	3562.575861
776.651658	3498.507837
776.976224	3454.170889
777.300743	3464.812765
777.625216	3490.928462
777.949643	3496.680419
778.274024	3458.733133
778.598359	3423.790375
778.922647	3441.918365
779.246889	3445.109415
779.571086	3448.020681
779.895236	3435.841254
780.219339	3419.583533
780.543397	3408.440062
780.867409	3446.258798
781.191374	3467.729072
781.515294	3428.498813
781.839167	3423.119902
782.162995	3437.900565
782.486776	3434.328908
782.810511	3441.288220
783.134201	3455.695838
783.457844	3426.540325
783.781441	3383.960219
784.104993	3386.674880
784.428498	3408.787902
784.751958	3420.334664
785.075372	3403.865215
785.398739	3366.931201
785.722061	3376.741287
786.045337	3416.026998
786.368568	3449.275929
786.691752	3382.773027
787.014891	3406.713467
787.337983	3486.025940
787.661030	3578.248809
787.984031	3673.541740
788.306987	3789.095068
788.629897	3841.792770
788.952760	3819.415088
789.275579	3789.838638
789.598351	3778.604427
789.921078	3698.815565
790.243759	3553.902556
790.566395	3541.622305
790.888984	3550.555230
791.211529	3475.595793
791.534027	3437.388888
791.856480	3446.760393
792.178888	3392.389028
792.501249	3351.091896
792.823566	3363.077239
793.145836	3391.978174
793.468062	3360.269316
793.790241	3320.111485
794.112375	3346.547296
794.434464	3387.559603
794.756507	3412.246133
795.078505	3397.707445
795.400457	3402.274731
795.722364	3490.643637
796.044226	3559.893967
796.366042	3605.707974
796.687812	3603.686471
797.009538	3615.223152
797.331218	3584.058738
797.652852	3569.734300
797.974442	3562.951427
798.295986	3576.565063
798.617484	3525.029348
798.938938	3455.577371
799.260346	3490.689007
799.581709	3501.587982
799.903026	3445.391720
800.224299	3417.849376
800.545526	3418.640837
800.866708	3392.605798
801.187845	3340.979341
801.508936	3378.170454
801.829983	3383.009961
802.150984	3318.533604
802.471940	3305.287972
802.792851	3322.395128
803.113717	3323.322700
803.434538	3329.291426
803.755314	3288.742905
804.076045	3256.048502
804.396731	3274.040380
804.717372	3298.739513
805.037967	3287.911115
805.358518	3279.767131
805.679024	3292.443112
805.999485	3299.039462
806.319901	3300.443423
806.640272	3319.509067
806.960598	3328.973833
807.280879	3307.657314
807.601115	3309.643529
807.921306	3328.079028
808.241453	3363.722507
808.561554	3353.773790
808.881611	3296.140798
809.201623	3325.318997
809.521590	3340.205524
809.841513	3318.541165
810.161390	3345.440762
810.481223	3338.073116
810.801011	3290.560241
811.120755	3281.292080
811.440453	3314.351967
811.760107	3324.656085
812.079716	3295.218267
812.399281	3264.111827
812.718801	3284.765435
813.038276	3265.384719
813.357707	3268.419493
813.677093	3288.022020
813.996434	3250.747728
814.315731	3249.931062
814.634983	3255.395672
814.954191	3265.752723
815.273354	3298.505099
815.592473	3298.749595
815.911547	3292.546456
816.230577	3316.696103
816.549562	3363.389791
816.868502	3398.647621
817.187399	3424.226435
817.506250	3419.510436
817.825058	3394.135788
818.143821	3470.607571
818.462539	3558.638720
818.781213	3599.184721
819.099843	3635.405411
819.418429	3808.248932
819.736970	3982.466168
820.055466	4160.005524
820.373919	4460.964929
820.692327	4800.781548
821.010691	5096.412454
821.329011	6045.127361
821.647286	7816.878689
821.965517	10494.061577
822.283704	12802.385758
822.601847	14338.619420
822.919945	13668.710567
823.237999	12398.755693
823.556010	10914.887018
823.873976	9592.811654
824.191897	8077.473575
824.509775	7039.626027
824.827609	6189.896697
825.145398	5757.927785
825.463144	5678.832081
825.780845	5769.414054
826.098502	5838.818140
826.416116	6387.603189
826.733685	7297.723022
827.051210	8178.316817
827.368692	8373.142289
827.686129	7531.151130
828.003522	6391.258025
828.320872	5627.399709
828.638177	5102.751705
828.955439	4667.836239
829.272656	4267.871093
829.589830	4025.537787
829.906960	3892.640368
830.224046	3746.212493
830.541088	3640.300371
830.858086	3611.336422
831.175041	3552.082700
831.491952	3533.753064
831.808819	3549.622617
832.125642	3601.601954
832.442421	3717.125035
832.759157	3928.036830
833.075849	4335.311649
833.392497	4971.288495
833.709101	5525.586046
834.025662	5833.688766
834.342179	5647.075333
834.658653	5161.120705
834.975083	4662.608563
835.291469	4205.474211
835.607811	3858.408413
835.924110	3751.906476
836.240366	3587.642999
836.556578	3409.675145
836.872746	3319.259530
837.188871	3297.070891
837.504952	3244.826893
837.820990	3175.420287
838.136984	3132.094090
838.452935	3152.871206
838.768842	3153.760970
839.084706	3167.997188
839.400526	3285.521608
839.716303	3520.111702
840.032037	3909.621495
840.347727	4163.715813
840.663373	3995.661388
840.978977	3705.066595
841.294537	3449.318778
841.610054	3255.778800
841.925527	3158.963440
842.240957	3105.701129
842.556344	3062.725293
842.871687	3013.417767
843.186987	2971.682054
843.502244	2941.382199
843.817458	2907.747621
844.132629	2881.205946
844.447756	2889.390259
844.762840	2882.052860
845.077881	2852.546986
845.392879	2837.211796
845.707833	2833.529233
846.022745	2830.769202
846.337613	2832.137875
846.652438	2825.450784
846.967221	2822.153870
847.281960	2810.478557
847.596656	2805.439924
847.911309	2804.978658
848.225919	2801.117135
848.540485	2795.014818
848.855009	2797.749644
849.169490	2788.899898
849.483928	2778.933537
849.798323	2779.220883
850.112675	2775.059410
850.426984	2781.509567
850.741251	2784.136008
851.055474	2778.429422
851.369654	2771.225613
851.683792	2776.077723
851.997887	2780.191305
852.311938	2782.094341
852.625947	2774.109153
852.939914	2778.704165
853.253837	2784.141049
853.567718	2768.488266
853.881555	2763.797473
854.195350	2781.514608
854.509103	2779.851027
854.822812	2774.570418
855.136479	2770.567742
855.450103	2769.907351
855.763685	2765.173708
856.077224	2759.227667
856.390720	2773.456323
856.704173	2783.273971
857.017584	2775.717281
857.330953	2769.201590
857.644278	2782.389248
857.957561	2788.950310
858.270802	2789.673715
858.584000	2792.675722
858.897155	2781.897736
859.210268	2780.594597
859.523339	2776.518824
859.836367	2775.750048
860.149352	2775.220727
860.462295	2768.349635
860.775195	2777.600152
861.088054	2777.529576
861.400869	2763.172370
861.713642	2758.292533
862.026373	2773.030346
862.339062	2773.801642
862.651708	2780.050153
862.964312	2784.655247
863.276873	2780.408075
863.589392	2781.640637
863.901869	2792.103552
864.214303	2809.329174
864.526696	2823.280567
864.839045	2823.404076
865.151353	2822.113540
865.463619	2819.192192
865.775842	2818.413333
866.088023	2834.918071
866.400162	2844.254288
866.712258	2822.040444
867.024313	2811.935451
867.336325	2819.313179
867.648296	2835.487722
867.960224	2828.122596
868.272110	2820.505412
868.583954	2824.578665
868.895755	2836.972341
869.207515	2827.626042
869.519233	2826.242245
869.830909	2837.463854
870.142542	2847.523476
870.454134	2844.942406
870.765684	2850.669156
871.077191	2850.510360
871.388657	2854.331555
871.700081	2867.872094
872.011463	2876.290821
872.322803	2874.748228
872.634101	2876.305944
872.945357	2887.517470
873.256571	2909.832138
873.567744	2902.330901
873.878874	2894.922925
874.189963	2918.946544
874.501010	2921.940989
874.812015	2911.699885
875.122979	2916.945206
875.433900	2913.171902
875.744780	2911.868764
876.055618	2919.990063
876.366415	2920.562234
876.677169	2931.110848
876.987882	2932.908020
877.298554	2922.097265
877.609183	2937.281221
877.919771	2961.267031
878.230317	2986.377018
878.540822	3034.545243
878.851285	3067.582445
879.161707	3099.871035
879.472087	3183.251720
879.782425	3366.754761
880.092722	3733.435689
880.402977	4175.126465
880.713191	4642.181807
881.023363	5462.846365
881.333494	6391.300875
881.643583	6829.115004
881.953631	6693.669283
882.263637	6321.624567
882.573602	5939.379077
882.883526	5485.808821
883.193408	5000.234800
883.503248	4586.794650
883.813048	4341.993699
884.122806	4115.338381
884.432522	3850.503884
884.742197	3644.111484
885.051831	3474.287613
885.361424	3347.452183
885.670975	3284.677214
885.980485	3216.006617
886.289954	3153.193840
886.599382	3118.170423
886.908768	3082.063159
887.218113	3044.809032
887.527417	2995.665344
887.836680	2951.209929
888.145901	2947.681121
888.455082	2944.462344
888.764221	2898.431568
889.073319	2872.280583
889.382376	2872.517517
889.691392	2873.392157
890.000366	2871.882332
890.309300	2862.495703
890.618193	2874.171016
890.927044	2892.253634
891.235855	2891.116854
891.544625	2874.551623
891.853353	2882.564537
892.162041	2899.152453
892.470687	2932.061106
892.779293	2979.314361
893.087858	3017.072604
893.396381	3076.946388
893.704864	3173.890297
894.013306	3371.165770
894.321707	3623.788072
894.630068	3814.908297
894.938387	3827.188547
895.246665	3786.264460
895.554903	3694.417158
895.863100	3515.388141
896.171256	3370.613764
896.479371	3254.155548
896.787446	3152.324241
897.095480	3061.608677
897.403473	2998.702639
897.711425	2959.132102
898.019336	2955.434416
898.327207	2933.500355
898.635038	2904.133113
898.942827	2888.712224
899.250576	2879.592777
899.558284	2849.381142
899.865952	2829.582010
900.173579	2818.249496
900.481165	2810.949905
900.788711	2800.504634
901.096216	2777.602672
901.403681	2764.457864
901.711105	2774.615789
902.018489	2774.101591
902.325832	2770.308123
902.633135	2780.367745
902.940397	2806.816159
903.247619	2872.356200
903.554800	3030.756816
903.861941	3310.316523
904.169041	3668.757685
904.476101	3952.199080
904.783121	3944.665076
905.090100	3741.428438
905.397039	3499.962210
905.703938	3281.269394
906.010796	3114.442490
906.317614	3016.727285
906.624391	2938.556633
906.931129	2875.910214
907.237826	2822.393324
907.544483	2775.724843
907.851099	2750.514032
908.157675	2731.627349
908.464211	2712.637323
908.770707	2705.983000
909.077163	2691.832481
909.383578	2677.684483
909.689954	2667.085457
909.996289	2666.951866
910.302584	2667.939932
910.608839	2669.250632
910.915054	2661.905671
911.221229	2656.113385
911.527363	2658.724703
911.833458	2660.521874
912.139513	2669.603513
912.445527	2670.470592
912.751502	2677.994514
913.057436	2690.781400
913.363331	2700.651980
913.669186	2714.479865
913.975000	2742.506159
914.280775	2792.111113
914.586510	2857.111751
914.892205	2922.513160
915.197859	3030.345962
915.503475	3188.708769
915.809050	3362.242928
916.114585	3491.198164
916.420081	3524.139584
916.725536	3483.066783
917.030952	3383.612379
917.336328	3275.159516
917.641665	3160.173317
917.946961	3069.614030
918.252218	3012.694362
918.557435	2944.510235
918.862612	2892.609036
919.167750	2849.713858
919.472848	2815.005513
919.777906	2790.228242
920.082925	2769.514141
920.387904	2745.702251
920.692843	2727.397821
920.997743	2716.685369
921.302603	2706.487115
921.607423	2695.502441
921.912204	2687.423992
922.216946	2677.059380
922.521647	2671.070489
922.826310	2664.532112
923.130932	2657.794610
923.435516	2650.424443
923.740059	2642.721560
924.044564	2634.151599
924.349028	2629.241515
924.653454	2626.516771
924.957840	2618.060236
925.262186	2616.245420
925.566493	2609.497836
925.870761	2607.728391
926.174989	2605.527927
926.479178	2598.442585
926.783328	2594.334045
927.087438	2595.082656
927.391509	2592.199116
927.695541	2590.142326
927.999533	2587.226018
928.303486	2584.090420
928.607400	2583.412385
928.911275	2581.602611
929.215110	2583.029257
929.518906	2579.134966
929.822663	2582.071438
930.126381	2578.935841
930.430060	2582.237796
930.733699	2581.307703
931.037299	2585.073445
931.340861	2586.805082
931.644383	2585.471697
931.947866	2584.145873
932.251309	2583.193095
932.554714	2582.777200
932.858080	2580.208732
933.161407	2578.444328
933.464694	2578.519945
933.767943	2574.522310
934.071153	2575.134811
934.374323	2577.428536
934.677455	2575.790161
934.980548	2577.786457
935.283602	2577.718402
935.586617	2575.603638
935.889593	2574.852506
936.192530	2574.166909
936.495428	2577.047928
936.798287	2577.032805
937.101108	2580.659915
937.403890	2583.301480
937.706632	2587.440267
938.009336	2591.173242
938.312002	2601.845364
938.614628	2610.783330
938.917216	2616.225256
939.219765	2617.052005
939.522275	2616.782303
939.824747	2608.580346
940.127179	2611.910028
940.429573	2609.951540
940.731929	2606.611775
941.034246	2602.054572
941.336524	2600.688419
941.638763	2600.055755
941.940964	2595.254056
942.243126	2594.601226
942.545250	2594.056782
942.847335	2589.577716
943.149381	2584.430698
943.451389	2582.273084
943.753359	2581.337950
944.055290	2580.856520
944.357182	2582.061356
944.659036	2576.818556
944.960851	2577.055490
945.262628	2576.843762
945.564367	2576.359811
945.866067	2574.963411
946.167729	2580.208732
946.469352	2576.082547
946.770937	2577.667990
947.072484	2579.266036
947.373992	2579.762590
947.675462	2574.300500
947.976893	2571.893349
948.278286	2568.813204
948.579641	2571.810170
948.880958	2565.193655
949.182236	2571.931157
949.483476	2567.131979
949.784678	2568.223389
950.085841	2568.722463
950.386967	2568.334294
950.688054	2571.185067
950.989103	2572.631878
951.290114	2573.395613
951.591087	2575.727146
951.892021	2576.044739
952.192917	2580.828794
952.493776	2580.808629
952.794596	2583.896336
953.095378	2581.418609
953.396122	2580.286870
953.696828	2579.840728
953.997496	2576.810994
954.298126	2577.945254
954.598718	2572.911662
954.899272	2572.203380
955.199788	2572.042063
955.500266	2568.387226
955.800706	2569.387895
956.101108	2564.344221
956.401472	2564.293809
956.701798	2559.512275
957.002087	2558.655279
957.302337	2558.125957
957.602550	2557.021945
957.902724	2555.360885
958.202861	2554.216543
958.502960	2554.105637
958.803022	2554.007335
959.103045	2552.704197
959.403031	2551.617828
959.702979	2552.089176
960.002889	2550.297046
960.302762	2550.564227
960.602596	2549.825698
960.902393	2549.384597
961.202153	2545.760007
961.501875	2546.599359
961.801559	2549.684545
962.101205	2546.410316
962.400814	2547.736139
962.700385	2548.010882
962.999918	2546.518701
963.299414	2542.571477
963.598873	2545.477703
963.898293	2540.940664
964.197677	2546.422919
964.497022	2547.847045
964.796331	2547.927703
965.095601	2548.724206
965.394835	2544.771941
965.694030	2547.345450
965.993189	2547.247148
966.292309	2545.790254
966.591393	2547.927703
966.890439	2545.429812
967.189447	2546.881664
967.488419	2544.865202
967.787353	2547.219421
968.086249	2545.233207
968.385108	2546.248999
968.683930	2544.799667
968.982714	2547.030378
969.281462	2543.967877
969.580172	2547.731098
969.878844	2547.242106
970.177480	2548.416695
970.476078	2546.158258
970.774639	2547.854607
971.073162	2546.443083
971.371649	2550.208825
971.670098	2548.003321
971.968510	2548.182282
972.266885	2547.463917
972.565223	2547.849565
972.863524	2547.042981
973.161788	2547.201777
973.460014	2544.761859
973.758204	2547.398382
974.056356	2545.996941
974.354471	2548.434339
974.652550	2551.267468
974.950591	2545.371838
975.248595	2547.335368
975.546563	2547.519370
975.844493	2546.173382
976.142386	2547.645399
976.440243	2547.158927
976.738062	2546.717826
977.035845	2544.280428
977.333590	2546.430481
977.631299	2546.077600
977.928971	2541.737166
978.226606	2539.675334
978.524204	2543.357897
978.821765	2540.406302
979.119290	2542.548792
979.416777	2546.594318
979.714228	2544.950902
980.011642	2545.613814
980.309020	2546.385110
980.606360	2545.833104
980.903664	2546.667415
981.200931	2546.425439
981.498162	2548.862837
981.795356	2546.261602
982.092513	2550.004659
982.389633	2549.548434
982.686717	2552.651264
982.983764	2557.021945
983.280775	2561.264076
983.577749	2558.151163
983.874686	2561.594271
984.171587	2557.563869
984.468451	2555.277706
984.765279	2554.080432
985.062070	2552.429454
985.358824	2553.152859
985.655543	2552.321069
985.952224	2550.339895
986.248869	2549.308979
986.545478	2547.864689
986.842050	2548.210008
987.138586	2543.962836
987.435086	2544.582898
987.731549	2541.971580
988.027975	2543.862013
988.324366	2542.634492
988.620719	2544.527445
988.917037	2544.456869
989.213318	2542.286652
989.509563	2546.276725
989.805772	2545.107178
990.101944	2545.530635
990.398080	2542.052238
990.694180	2544.073741
990.990244	2543.463762
991.286271	2540.492001
991.582262	2544.444266
991.878217	2541.081816
992.174136	2543.700696
992.470019	2542.427804
992.765865	2541.979142
993.061676	2542.576518
993.357450	2540.960829
993.653188	2537.810108
993.948890	2543.383103
994.244556	2542.644574
994.540186	2543.478885
994.835780	2545.034081
995.131337	2545.288659
995.426859	2543.599873
995.722345	2545.621375
996.017795	2547.521890
996.313208	2548.388969
996.608586	2546.385110
996.903928	2548.928372
997.199234	2549.392158
997.494504	2547.098433
997.789738	2544.403937
998.084936	2545.291180
998.380099	2547.201777
998.675225	2543.481406
998.970316	2545.036602
999.265371	2545.444935
999.560390	2547.632796
999.855373	2544.003165
1000.150320	2544.416540
1000.445232	2546.901828
1000.740108	2541.906045
1001.034948	2543.511652
1001.329752	2542.175747
1001.624521	2543.350336
1001.919254	2543.569626
1002.213951	2543.834286
1002.508613	2543.962836
1002.803239	2541.709440
1003.097829	2542.609286
1003.392384	2541.800181
1003.686903	2542.521066
1003.981386	2542.891591
1004.275834	2540.204656
1004.570246	2540.875129
1004.864623	2541.066693
1005.158964	2544.562733
1005.453270	2542.518545
1005.747540	2543.294883
1006.041775	2543.617517
1006.335974	2543.463762
1006.630138	2542.006868
1006.924266	2543.352856
1007.218359	2543.257074
1007.512416	2540.280273
1007.806438	2536.479243
1008.100425	2537.870601
1008.394376	2535.501259
1008.688292	2542.037115
1008.982172	2541.590973
1009.276017	2543.383103
1009.569827	2539.541744
1009.863602	2543.720860
1010.157341	2543.801519
1010.451045	2542.178267
1010.744714	2542.049718
1011.038347	2542.085006
1011.331945	2541.548123
1011.625508	2542.362269
1011.919036	2542.909235
1012.212528	2541.159954
1012.505986	2542.100129
1012.799408	2543.410829
1013.092795	2540.996117
1013.386147	2542.921838
1013.679464	2544.648433
1013.972745	2543.476364
1014.265992	2539.307330
1014.559204	2542.533669
1014.852380	2538.992258
1015.145521	2542.049718
1015.438628	2541.638864
1015.731699	2544.318237
1016.024736	2539.244316
1016.317737	2544.605583
1016.610703	2541.003678
1016.903635	2545.066848
1017.196531	2542.957126
1017.489393	2540.492001
1017.782219	2541.759852
1018.075011	2543.594832
1018.367768	2541.026364
1018.660490	2543.977959
1018.953177	2543.977959
1019.245829	2543.977959
