Dividing Wavelength (nm)	Counts (n)	Blue Motor Position (mm): 6.100000	Red Motor Position (mm): 0.000000	
326.493990	2134.928654
326.888308	2134.928654
327.282561	2134.928654
327.676750	2081.996538
328.070874	2059.311346
328.464933	2054.270192
328.858929	2069.393654
329.252859	2069.393654
329.646726	2044.187885
330.040528	2122.325769
330.434265	2114.764038
330.827938	2102.161154
331.221547	2228.190000
331.615091	2139.969808
332.008571	2180.299038
332.401986	2165.175577
332.795338	2230.710577
333.188625	2223.148846
333.581847	2288.683846
333.975006	2273.560385
334.368100	2281.122115
334.761129	2349.177692
335.154095	2245.834038
335.546996	2298.766154
335.939833	2336.574808
336.332606	2354.218846
336.725315	2389.506923
337.117960	2397.068654
337.510540	2359.260000
337.903056	2467.644808
338.295508	2376.904038
338.687896	2379.424615
339.080220	2462.603654
339.472480	2424.795000
339.864676	2422.274423
340.256807	2472.685962
340.648875	2560.906154
341.040879	2480.247692
341.432818	2518.056346
341.824694	2510.494615
342.216506	2470.165385
342.608253	2409.671538
342.999937	2439.918462
343.391557	2417.233269
343.783113	2515.535769
344.174605	2465.124231
344.566033	2480.247692
344.957397	2525.618077
345.348697	2518.056346
345.739934	2528.138654
346.131106	2492.850577
346.522215	2419.753846
346.913260	2437.397885
347.304241	2467.644808
347.695159	2462.603654
348.086012	2475.206538
348.476802	2444.959615
348.867528	2336.574808
349.258191	2432.356731
349.648789	2495.371154
350.039324	2442.439038
350.429796	2497.891731
350.820203	2336.574808
351.210548	2490.330000
351.600828	2457.562500
351.991045	2480.247692
352.381198	2553.344423
352.771288	2482.768269
353.161314	2409.671538
353.551276	2427.315577
353.941175	2465.124231
354.331010	2389.506923
354.720782	2349.177692
355.110490	2349.177692
355.500135	2447.480192
355.889717	2442.439038
356.279235	2404.630385
356.668689	2424.795000
357.058080	2414.712692
357.447408	2502.932885
357.836672	2439.918462
358.225873	2346.657115
358.615010	2472.685962
359.004084	2442.439038
359.393095	2414.712692
359.782043	2354.218846
360.170927	2397.068654
360.559748	2460.083077
360.948505	2434.877308
361.337199	2462.603654
361.725830	2437.397885
362.114398	2482.768269
362.502903	2419.753846
362.891344	2397.068654
363.279722	2369.342308
363.668037	2371.862885
364.056289	2490.330000
364.444478	2404.630385
364.832603	2502.932885
365.220665	2424.795000
365.608665	2450.000769
365.996601	2470.165385
366.384474	2462.603654
366.772284	2465.124231
367.160031	2407.150962
367.547715	2455.041923
367.935336	2465.124231
368.322893	2550.823846
368.710388	2462.603654
369.097820	2422.274423
369.485189	2437.397885
369.872495	2533.179808
370.259738	2550.823846
370.646918	2359.260000
371.034035	2485.288846
371.421090	2467.644808
371.808081	2444.959615
372.195010	2465.124231
372.581875	2379.424615
372.968678	2412.192115
373.355418	2407.150962
373.742096	2402.109808
374.128710	2422.274423
374.515262	2465.124231
374.901751	2500.412308
375.288177	2452.521346
375.674540	2480.247692
376.060841	2480.247692
376.447079	2477.727115
376.833254	2450.000769
377.219367	2470.165385
377.605417	2399.589231
377.991404	2409.671538
378.377329	2386.986346
378.763191	2424.795000
379.148991	2470.165385
379.534727	2439.918462
379.920402	2540.741538
380.306013	2402.109808
380.691563	2447.480192
381.077049	2490.330000
381.462474	2450.000769
381.847835	2525.618077
382.233134	2455.041923
382.618371	2467.644808
383.003545	2465.124231
383.388657	2515.535769
383.773706	2497.891731
384.158693	2472.685962
384.543618	2477.727115
384.928480	2452.521346
385.313280	2457.562500
385.698017	2507.974038
386.082692	2409.671538
386.467305	2447.480192
386.851856	2500.412308
387.236344	2482.768269
387.620770	2558.385577
388.005133	2480.247692
388.389435	2412.192115
388.773674	2374.383462
389.157851	2419.753846
389.541965	2507.974038
389.926018	2444.959615
390.310008	2465.124231
390.693936	2513.015192
391.077802	2460.083077
391.461606	2467.644808
391.845348	2457.562500
392.229027	2507.974038
392.612645	2470.165385
392.996200	2475.206538
393.379694	2422.274423
393.763125	2351.698269
394.146494	2497.891731
394.529801	2525.618077
394.913047	2548.303269
395.296230	2490.330000
395.679351	2495.371154
396.062410	2518.056346
396.445408	2437.397885
396.828343	2437.397885
397.211217	2475.206538
397.594028	2497.891731
397.976778	2422.274423
398.359466	2538.220962
398.742092	2381.945192
399.124656	2402.109808
399.507158	2462.603654
399.889598	2424.795000
400.271977	2462.603654
400.654294	2480.247692
401.036549	2500.412308
401.418742	2485.288846
401.800874	2392.027500
402.182944	2525.618077
402.564952	2465.124231
402.946898	2520.576923
403.328783	2452.521346
403.710606	2510.494615
404.092367	2407.150962
404.474067	2497.891731
404.855705	2540.741538
405.237282	2424.795000
405.618797	2515.535769
406.000250	2487.809423
406.381642	2442.439038
406.762972	2495.371154
407.144240	2543.262115
407.525447	2437.397885
407.906593	2452.521346
408.287677	2510.494615
408.668700	2427.315577
409.049661	2475.206538
409.430560	2513.015192
409.811399	2450.000769
410.192176	2505.453462
410.572891	2492.850577
410.953545	2457.562500
411.334138	2465.124231
411.714669	2439.918462
412.095139	2452.521346
412.475547	2510.494615
412.855894	2472.685962
413.236180	2548.303269
413.616405	2525.618077
413.996568	2465.124231
414.376670	2470.165385
414.756711	2550.823846
415.136691	2467.644808
415.516609	2502.932885
415.896466	2482.768269
416.276262	2450.000769
416.655997	2545.782692
417.035670	2477.727115
417.415283	2530.659231
417.794834	2374.383462
418.174324	2490.330000
418.553753	2447.480192
418.933121	2507.974038
419.312428	2450.000769
419.691674	2467.644808
420.070859	2394.548077
420.449983	2472.685962
420.829045	2553.344423
421.208047	2475.206538
421.586988	2533.179808
421.965867	2573.509038
422.344686	2520.576923
422.723444	2520.576923
423.102141	2462.603654
423.480777	2485.288846
423.859352	2545.782692
424.237866	2485.288846
424.616319	2530.659231
424.994712	2470.165385
425.373044	2513.015192
425.751314	2437.397885
426.129524	2477.727115
426.507673	2429.836154
426.885762	2500.412308
427.263789	2525.618077
427.641756	2487.809423
428.019662	2518.056346
428.397508	2475.206538
428.775292	2545.782692
429.153016	2452.521346
429.530679	2467.644808
429.908282	2477.727115
430.285824	2457.562500
430.663305	2502.932885
431.040726	2465.124231
431.418086	2437.397885
431.795385	2563.426731
432.172624	2472.685962
432.549802	2480.247692
432.926920	2452.521346
433.303977	2472.685962
433.680974	2439.918462
434.057910	2439.918462
434.434786	2429.836154
434.811601	2555.865000
435.188355	2460.083077
435.565050	2374.383462
435.941683	2460.083077
436.318257	2460.083077
436.694770	2497.891731
437.071222	2444.959615
437.447614	2432.356731
437.823946	2555.865000
438.200218	2525.618077
438.576429	2432.356731
438.952580	2502.932885
439.328670	2505.453462
439.704700	2477.727115
440.080670	2487.809423
440.456580	2429.836154
440.832429	2500.412308
441.208218	2578.550192
441.583947	2467.644808
441.959616	2467.644808
442.335224	2444.959615
442.710773	2455.041923
443.086261	2462.603654
443.461689	2507.974038
443.837057	2502.932885
444.212365	2523.097500
444.587612	2437.397885
444.962800	2404.630385
445.337927	2573.509038
445.712995	2434.877308
446.088002	2455.041923
446.462949	2497.891731
446.837837	2467.644808
447.212664	2510.494615
447.587431	2477.727115
447.962139	2543.262115
448.336786	2573.509038
448.711374	2513.015192
449.085901	2470.165385
449.460369	2497.891731
449.834776	2490.330000
450.209124	2460.083077
450.583412	2404.630385
450.957640	2434.877308
451.331808	2462.603654
451.705917	2475.206538
452.079965	2470.165385
452.453954	2437.397885
452.827883	2487.809423
453.201752	2429.836154
453.575562	2437.397885
453.949311	2434.877308
454.323001	2467.644808
454.696632	2502.932885
455.070202	2465.124231
455.443713	2502.932885
455.817164	2437.397885
456.190556	2523.097500
456.563888	2535.700385
456.937160	2482.768269
457.310373	2515.535769
457.683526	2432.356731
458.056619	2444.959615
458.429653	2548.303269
458.802628	2505.453462
459.175542	2432.356731
459.548398	2545.782692
459.921194	2447.480192
460.293930	2573.509038
460.666607	2452.521346
461.039224	2404.630385
461.411782	2528.138654
461.784280	2548.303269
462.156719	2414.712692
462.529099	2470.165385
462.901419	2523.097500
463.273680	2497.891731
463.645882	2513.015192
464.018024	2482.768269
464.390106	2480.247692
464.762130	2460.083077
465.134094	2442.439038
465.505999	2500.412308
465.877845	2510.494615
466.249631	2480.247692
466.621358	2455.041923
466.993026	2460.083077
467.364634	2470.165385
467.736184	2495.371154
468.107674	2515.535769
468.479105	2487.809423
468.850477	2480.247692
469.221790	2515.535769
469.593043	2543.262115
469.964238	2502.932885
470.335373	2477.727115
470.706449	2490.330000
471.077467	2513.015192
471.448425	2535.700385
471.819324	2616.358846
472.190164	2497.891731
472.560945	2500.412308
472.931667	2455.041923
473.302330	2507.974038
473.672934	2477.727115
474.043479	2487.809423
474.413965	2475.206538
474.784393	2502.932885
475.154761	2457.562500
475.525070	2437.397885
475.895321	2447.480192
476.265513	2533.179808
476.635645	2611.317692
477.005719	2492.850577
477.375734	2447.480192
477.745691	2533.179808
478.115588	2525.618077
478.485427	2434.877308
478.855207	2515.535769
479.224928	2477.727115
479.594591	2515.535769
479.964194	2462.603654
480.333739	2462.603654
480.703226	2462.603654
481.072653	2477.727115
481.442022	2437.397885
481.811333	2490.330000
482.180584	2586.111923
482.549777	2455.041923
482.918912	2472.685962
483.287988	2457.562500
483.657005	2515.535769
484.025964	2442.439038
484.394864	2513.015192
484.763706	2550.823846
485.132489	2452.521346
485.501213	2502.932885
485.869879	2424.795000
486.238487	2480.247692
486.607036	2505.453462
486.975527	2450.000769
487.343959	2485.288846
487.712333	2497.891731
488.080648	2439.918462
488.448905	2573.509038
488.817104	2480.247692
489.185244	2492.850577
489.553326	2513.015192
489.921350	2545.782692
490.289315	2475.206538
490.657222	2515.535769
491.025070	2545.782692
491.392861	2505.453462
491.760593	2528.138654
492.128267	2457.562500
492.495883	2422.274423
492.863440	2462.603654
493.230939	2497.891731
493.598380	2548.303269
493.965763	2583.591346
494.333088	2434.877308
494.700354	2460.083077
495.067563	2462.603654
495.434713	2462.603654
495.801805	2525.618077
496.168839	2528.138654
496.535815	2450.000769
496.902733	2470.165385
497.269593	2525.618077
497.636395	2457.562500
498.003139	2523.097500
498.369825	2470.165385
498.736453	2510.494615
499.103023	2497.891731
499.469535	2477.727115
499.835989	2434.877308
500.202385	2525.618077
500.568723	2560.906154
500.935003	2492.850577
501.301226	2467.644808
501.667390	2533.179808
502.033497	2457.562500
502.399546	2485.288846
502.765537	2500.412308
503.131470	2528.138654
503.497345	2570.988462
503.863163	2432.356731
504.228923	2472.685962
504.594625	2485.288846
504.960269	2502.932885
505.325856	2525.618077
505.691385	2480.247692
506.056856	2495.371154
506.422270	2482.768269
506.787625	2450.000769
507.152924	2472.685962
507.518164	2530.659231
507.883347	2482.768269
508.248472	2515.535769
508.613540	2540.741538
508.978550	2490.330000
509.343503	2495.371154
509.708398	2485.288846
510.073236	2482.768269
510.438016	2515.535769
510.802738	2525.618077
511.167403	2528.138654
511.532010	2482.768269
511.896561	2475.206538
512.261053	2452.521346
512.625488	2482.768269
512.989866	2427.315577
513.354186	2470.165385
513.718449	2513.015192
514.082655	2550.823846
514.446803	2480.247692
514.810894	2407.150962
515.174927	2480.247692
515.538904	2535.700385
515.902822	2545.782692
516.266684	2450.000769
516.630488	2487.809423
516.994235	2434.877308
517.357925	2538.220962
517.721558	2523.097500
518.085133	2495.371154
518.448651	2598.714808
518.812112	2427.315577
519.175516	2492.850577
519.538863	2530.659231
519.902152	2386.986346
520.265385	2563.426731
520.628560	2477.727115
520.991678	2444.959615
521.354739	2495.371154
521.717743	2507.974038
522.080690	2530.659231
522.443580	2487.809423
522.806413	2492.850577
523.169189	2497.891731
523.531908	2533.179808
523.894569	2565.947308
524.257174	2578.550192
524.619722	2505.453462
524.982213	2417.233269
525.344647	2490.330000
525.707025	2502.932885
526.069345	2518.056346
526.431608	2397.068654
526.793815	2513.015192
527.155964	2480.247692
527.518057	2490.330000
527.880093	2487.809423
528.242072	2518.056346
528.603995	2570.988462
528.965860	2455.041923
529.327669	2450.000769
529.689421	2467.644808
530.051117	2482.768269
530.412755	2485.288846
530.774337	2563.426731
531.135862	2480.247692
531.497331	2482.768269
531.858743	2500.412308
532.220098	2518.056346
532.581396	2500.412308
532.942638	2444.959615
533.303824	2460.083077
533.664953	2560.906154
534.026025	2518.056346
534.387040	2480.247692
534.747999	2507.974038
535.108902	2520.576923
535.469748	2490.330000
535.830537	2563.426731
536.191270	2540.741538
536.551947	2538.220962
536.912567	2455.041923
537.273131	2530.659231
537.633638	2470.165385
537.994089	2530.659231
538.354483	2462.603654
538.714821	2462.603654
539.075103	2485.288846
539.435328	2470.165385
539.795497	2475.206538
540.155609	2520.576923
540.515665	2596.194231
540.875665	2502.932885
541.235609	2560.906154
541.595496	2518.056346
541.955328	2555.865000
542.315102	2487.809423
542.674821	2480.247692
543.034483	2520.576923
543.394090	2487.809423
543.753640	2553.344423
544.113134	2507.974038
544.472571	2550.823846
544.831953	2480.247692
545.191278	2407.150962
545.550548	2490.330000
545.909761	2492.850577
546.268918	2515.535769
546.628019	2455.041923
546.987064	2472.685962
547.346053	2495.371154
547.704986	2550.823846
548.063863	2492.850577
548.422684	2472.685962
548.781449	2550.823846
549.140158	2467.644808
549.498811	2495.371154
549.857408	2470.165385
550.215949	2550.823846
550.574434	2500.412308
550.932864	2513.015192
551.291237	2588.632500
551.649555	2475.206538
552.007817	2520.576923
552.366022	2490.330000
552.724173	2495.371154
553.082267	2497.891731
553.440305	2568.467885
553.798288	2535.700385
554.156215	2485.288846
554.514086	2462.603654
554.871902	2487.809423
555.229661	2467.644808
555.587365	2513.015192
555.945014	2558.385577
556.302606	2389.506923
556.660143	2507.974038
557.017625	2523.097500
557.375050	2570.988462
557.732421	2497.891731
558.089735	2530.659231
558.446994	2412.192115
558.804197	2455.041923
559.161345	2389.506923
559.518437	2533.179808
559.875474	2495.371154
560.232455	2510.494615
560.589381	2528.138654
560.946251	2530.659231
561.303065	2429.836154
561.659825	2487.809423
562.016528	2485.288846
562.373177	2513.015192
562.729770	2485.288846
563.086307	2515.535769
563.442789	2588.632500
563.799216	2518.056346
564.155587	2399.589231
564.511904	2452.521346
564.868164	2523.097500
565.224370	2507.974038
565.580520	2487.809423
565.936615	2475.206538
566.292654	2545.782692
566.648638	2545.782692
567.004567	2477.727115
567.360441	2548.303269
567.716260	2467.644808
568.072023	2407.150962
568.427732	2412.192115
568.783385	2543.262115
569.138982	2528.138654
569.494525	2437.397885
569.850013	2513.015192
570.205445	2444.959615
570.560823	2525.618077
570.916145	2457.562500
571.271412	2502.932885
571.626625	2424.795000
571.981782	2502.932885
572.336884	2553.344423
572.691931	2492.850577
573.046923	2460.083077
573.401860	2482.768269
573.756743	2530.659231
574.111570	2475.206538
574.466342	2545.782692
574.821059	2424.795000
575.175722	2555.865000
575.530330	2465.124231
575.884882	2518.056346
576.239380	2462.603654
576.593823	2482.768269
576.948211	2457.562500
577.302544	2533.179808
577.656823	2497.891731
578.011047	2515.535769
578.365216	2455.041923
578.719330	2513.015192
579.073389	2439.918462
579.427394	2578.550192
579.781344	2472.685962
580.135239	2538.220962
580.489080	2530.659231
580.842866	2555.865000
581.196597	2497.891731
581.550273	2495.371154
581.903895	2533.179808
582.257463	2460.083077
582.610975	2573.509038
582.964434	2538.220962
583.317837	2528.138654
583.671186	2434.877308
584.024481	2520.576923
584.377721	2470.165385
584.730906	2518.056346
585.084037	2467.644808
585.437113	2482.768269
585.790135	2485.288846
586.143103	2520.576923
586.496016	2513.015192
586.848874	2492.850577
587.201679	2414.712692
587.554428	2447.480192
587.907124	2419.753846
588.259765	2450.000769
588.612352	2419.753846
588.964884	2507.974038
589.317362	2553.344423
589.669786	2409.671538
590.022155	2530.659231
590.374470	2520.576923
590.726731	2422.274423
591.078937	2429.836154
591.431090	2460.083077
591.783188	2510.494615
592.135232	2490.330000
592.487222	2424.795000
592.839157	2490.330000
593.191038	2475.206538
593.542866	2515.535769
593.894639	2470.165385
594.246358	2528.138654
594.598022	2550.823846
594.949633	2563.426731
595.301190	2452.521346
595.652692	2525.618077
596.004141	2462.603654
596.355535	2520.576923
596.706876	2429.836154
597.058162	2545.782692
597.409395	2447.480192
597.760573	2500.412308
598.111698	2434.877308
598.462768	2555.865000
598.813785	2366.821731
599.164748	2457.562500
599.515657	2505.453462
599.866511	2518.056346
600.217312	2412.192115
600.568060	2487.809423
600.918753	2482.768269
601.269392	2477.727115
601.619978	2618.879423
601.970510	2535.700385
602.320988	2523.097500
602.671412	2394.548077
603.021783	2513.015192
603.372100	2492.850577
603.722363	2427.315577
604.072572	2414.712692
604.422728	2573.509038
604.772830	2520.576923
605.122878	2480.247692
605.472872	2457.562500
605.822813	2548.303269
606.172701	2495.371154
606.522534	2429.836154
606.872314	2525.618077
607.222041	2497.891731
607.571714	2588.632500
607.921333	2533.179808
608.270899	2525.618077
608.620411	2543.262115
608.969870	2482.768269
609.319276	2507.974038
609.668627	2460.083077
610.017926	2472.685962
610.367171	2545.782692
610.716362	2520.576923
611.065500	2457.562500
611.414585	2475.206538
611.763616	2460.083077
612.112594	2497.891731
612.461518	2480.247692
612.810389	2513.015192
613.159207	2502.932885
613.507971	2560.906154
613.856682	2492.850577
614.205340	2500.412308
614.553945	2555.865000
614.902496	2424.795000
615.250994	2510.494615
615.599439	2429.836154
615.947830	2576.029615
616.296169	2472.685962
616.644454	2518.056346
616.992686	2444.959615
617.340864	2586.111923
617.688990	2457.562500
618.037063	2424.795000
618.385082	2558.385577
618.733048	2472.685962
619.080961	2457.562500
619.428821	2457.562500
619.776628	2518.056346
620.124382	2492.850577
620.472083	2525.618077
620.819731	2442.439038
621.167326	2568.467885
621.514868	2447.480192
621.862357	2475.206538
622.209793	2593.673654
622.557176	2490.330000
622.904506	2518.056346
623.251783	2452.521346
623.599007	2477.727115
623.946179	2535.700385
624.293297	2439.918462
624.640363	2457.562500
624.987376	2550.823846
625.334336	2427.315577
625.681243	2417.233269
626.028097	2495.371154
626.374899	2593.673654
626.721647	2465.124231
627.068343	2507.974038
627.414987	2462.603654
627.761577	2462.603654
628.108115	2495.371154
628.454600	2553.344423
628.801032	2452.521346
629.147412	2485.288846
629.493739	2439.918462
629.840014	2502.932885
630.186236	2581.070769
630.532405	2404.630385
630.878521	2497.891731
631.224585	2540.741538
631.570597	2444.959615
631.916556	2455.041923
632.262462	2507.974038
632.608316	2563.426731
632.954117	2591.153077
633.299866	2487.809423
633.645562	2553.344423
633.991206	2502.932885
634.336797	2555.865000
634.682336	2475.206538
635.027823	2487.809423
635.373257	2429.836154
635.718639	2505.453462
636.063968	2507.974038
636.409245	2457.562500
636.754470	2467.644808
637.099642	2535.700385
637.444762	2487.809423
637.789829	2462.603654
638.134845	2472.685962
638.479808	2583.591346
638.824719	2558.385577
639.169577	2487.809423
639.514383	2555.865000
639.859137	2409.671538
640.203839	2500.412308
640.548489	2603.755962
640.893086	2497.891731
641.237632	2427.315577
641.582125	2404.630385
641.926566	2404.630385
642.270955	2450.000769
642.615292	2603.755962
642.959576	2472.685962
643.303809	2417.233269
643.647990	2558.385577
643.992118	2399.589231
644.336195	2444.959615
644.680219	2535.700385
645.024192	2507.974038
645.368112	2593.673654
645.711981	2460.083077
646.055797	2462.603654
646.399562	2502.932885
646.743274	2442.439038
647.086935	2480.247692
647.430544	2530.659231
647.774101	2550.823846
648.117606	2450.000769
648.461059	2480.247692
648.804460	2450.000769
649.147810	2439.918462
649.491108	2485.288846
649.834354	2470.165385
650.177548	2500.412308
650.520690	2621.400000
650.863781	2419.753846
651.206820	2462.603654
651.549807	2485.288846
651.892742	2535.700385
652.235626	2515.535769
652.578458	2460.083077
652.921238	2490.330000
653.263967	2523.097500
653.606644	2412.192115
653.949269	2477.727115
654.291843	2414.712692
654.634365	2535.700385
654.976836	2465.124231
655.319255	2505.453462
655.661622	2447.480192
656.003938	2457.562500
656.346203	2507.974038
656.688416	2487.809423
657.030577	2543.262115
657.372687	2487.809423
657.714746	2467.644808
658.056753	2553.344423
658.398708	2417.233269
658.740612	2565.947308
659.082465	2502.932885
659.424266	2492.850577
659.766016	2480.247692
660.107715	2523.097500
660.449362	2462.603654
660.790958	2490.330000
661.132503	2455.041923
661.473996	2550.823846
661.815438	2460.083077
662.156829	2470.165385
662.498168	2555.865000
662.839456	2528.138654
663.180693	2455.041923
663.521879	2495.371154
663.863013	2535.700385
664.204097	2538.220962
664.545129	2502.932885
664.886110	2487.809423
665.227040	2477.727115
665.567918	2568.467885
665.908746	2507.974038
666.249522	2414.712692
666.590248	2487.809423
666.930922	2533.179808
667.271545	2492.850577
667.612118	2528.138654
667.952639	2437.397885
668.293109	2507.974038
668.633528	2540.741538
668.973896	2545.782692
669.314213	2467.644808
669.654480	2462.603654
669.994695	2482.768269
670.334859	2560.906154
670.674973	2523.097500
671.015035	2487.809423
671.355047	2596.194231
671.695008	2465.124231
672.034918	2530.659231
672.374777	2535.700385
672.714585	2528.138654
673.054342	2472.685962
673.394049	2538.220962
673.733705	2495.371154
674.073310	2538.220962
674.412864	2412.192115
674.752368	2480.247692
675.091820	2407.150962
675.431223	2533.179808
675.770574	2472.685962
676.109875	2460.083077
676.449125	2545.782692
676.788324	2467.644808
677.127473	2505.453462
677.466571	2460.083077
677.805619	2429.836154
678.144616	2548.303269
678.483562	2502.932885
678.822458	2523.097500
679.161303	2470.165385
679.500098	2490.330000
679.838842	2518.056346
680.177535	2414.712692
680.516179	2525.618077
680.854771	2535.700385
681.193314	2525.618077
681.531805	2513.015192
681.870247	2432.356731
682.208638	2472.685962
682.546978	2497.891731
682.885268	2518.056346
683.223508	2424.795000
683.561697	2540.741538
683.899836	2490.330000
684.237925	2412.192115
684.575963	2563.426731
684.913951	2442.439038
685.251889	2520.576923
685.589776	2525.618077
685.927614	2455.041923
686.265401	2444.959615
686.603137	2510.494615
686.940824	2414.712692
687.278460	2502.932885
687.616046	2462.603654
687.953582	2502.932885
688.291068	2505.453462
688.628504	2487.809423
688.965889	2409.671538
689.303224	2480.247692
689.640510	2439.918462
689.977745	2513.015192
690.314930	2492.850577
690.652065	2470.165385
690.989150	2490.330000
691.326185	2439.918462
691.663170	2510.494615
692.000105	2475.206538
692.336990	2465.124231
692.673825	2565.947308
693.010610	2490.330000
693.347345	2419.753846
693.684030	2432.356731
694.020665	2432.356731
694.357251	2497.891731
694.693786	2450.000769
695.030272	2505.453462
695.366707	2591.153077
695.703093	2530.659231
696.039429	2553.344423
696.375716	2505.453462
696.711952	2523.097500
697.048139	2439.918462
697.384276	2545.782692
697.720363	2475.206538
698.056400	2507.974038
698.392388	2535.700385
698.728326	2495.371154
699.064214	2417.233269
699.400053	2523.097500
699.735842	2553.344423
700.071581	2502.932885
700.407270	2553.344423
700.742910	2492.850577
701.078501	2470.165385
701.414042	2414.712692
701.749533	2480.247692
702.084974	2596.194231
702.420366	2490.330000
702.755709	2470.165385
703.091002	2538.220962
703.426246	2450.000769
703.761440	2482.768269
704.096584	2414.712692
704.431679	2465.124231
704.766725	2497.891731
705.101721	2500.412308
705.436668	2540.741538
705.771565	2507.974038
706.106413	2427.315577
706.441212	2447.480192
706.775961	2480.247692
707.110661	2439.918462
707.445311	2563.426731
707.779913	2407.150962
708.114465	2538.220962
708.448967	2485.288846
708.783421	2550.823846
709.117825	2455.041923
709.452180	2462.603654
709.786485	2472.685962
710.120742	2457.562500
710.454949	2545.782692
710.789107	2548.303269
711.123216	2495.371154
711.457275	2596.194231
711.791286	2452.521346
712.125247	2543.262115
712.459159	2553.344423
712.793023	2462.603654
713.126837	2568.467885
713.460602	2550.823846
713.794318	2470.165385
714.127985	2480.247692
714.461602	2581.070769
714.795171	2432.356731
715.128691	2500.412308
715.462162	2470.165385
715.795584	2560.906154
716.128957	2510.494615
716.462281	2505.453462
716.795556	2470.165385
717.128782	2495.371154
717.461960	2535.700385
717.795088	2500.412308
718.128167	2432.356731
718.461198	2495.371154
718.794180	2497.891731
719.127113	2573.509038
719.459997	2550.823846
719.792833	2490.330000
720.125619	2477.727115
720.458357	2543.262115
720.791046	2475.206538
721.123686	2505.453462
721.456278	2460.083077
721.788821	2477.727115
722.121315	2485.288846
722.453761	2457.562500
722.786158	2457.562500
723.118506	2535.700385
723.450805	2427.315577
723.783056	2502.932885
724.115259	2477.727115
724.447412	2472.685962
724.779518	2487.809423
725.111574	2407.150962
725.443582	2439.918462
725.775542	2497.891731
726.107453	2490.330000
726.439315	2528.138654
726.771129	2442.439038
727.102895	2540.741538
727.434612	2502.932885
727.766281	2455.041923
728.097901	2523.097500
728.429473	2555.865000
728.760996	2455.041923
729.092471	2495.371154
729.423897	2538.220962
729.755276	2460.083077
730.086606	2518.056346
730.417887	2507.974038
730.749120	2477.727115
731.080305	2492.850577
731.411442	2495.371154
731.742530	2482.768269
732.073570	2533.179808
732.404562	2487.809423
732.735506	2485.288846
733.066401	2487.809423
733.397249	2460.083077
733.728048	2439.918462
734.058798	2452.521346
734.389501	2518.056346
734.720156	2543.262115
735.050762	2419.753846
735.381320	2515.535769
735.711831	2470.165385
736.042293	2427.315577
736.372707	2500.412308
736.703073	2545.782692
737.033391	2482.768269
737.363661	2485.288846
737.693883	2487.809423
738.024056	2530.659231
738.354182	2472.685962
738.684260	2535.700385
739.014290	2472.685962
739.344272	2507.974038
739.674207	2545.782692
740.004093	2460.083077
740.333931	2402.109808
740.663722	2540.741538
740.993464	2462.603654
741.323159	2381.945192
741.652806	2480.247692
741.982405	2465.124231
742.311956	2434.877308
742.641460	2394.548077
742.970915	2475.206538
743.300323	2520.576923
743.629683	2502.932885
743.958996	2452.521346
744.288260	2533.179808
744.617477	2462.603654
744.946647	2515.535769
745.275768	2535.700385
745.604842	2540.741538
745.933869	2565.947308
746.262847	2485.288846
746.591778	2543.262115
746.920662	2457.562500
747.249498	2505.453462
747.578286	2482.768269
747.907027	2553.344423
748.235720	2434.877308
748.564365	2487.809423
748.892963	2548.303269
749.221514	2500.412308
749.550017	2520.576923
749.878473	2553.344423
750.206881	2477.727115
750.535242	2462.603654
750.863555	2480.247692
751.191821	2419.753846
751.520039	2545.782692
751.848210	2427.315577
752.176334	2520.576923
752.504411	2490.330000
752.832440	2455.041923
753.160421	2568.467885
753.488356	2487.809423
753.816243	2495.371154
754.144082	2535.700385
754.471875	2427.315577
754.799620	2477.727115
755.127318	2402.109808
755.454969	2528.138654
755.782572	2422.274423
756.110129	2583.591346
756.437638	2553.344423
756.765100	2429.836154
757.092515	2502.932885
757.419882	2480.247692
757.747203	2485.288846
758.074477	2434.877308
758.401703	2601.235385
758.728882	2560.906154
759.056014	2439.918462
759.383099	2457.562500
759.710138	2482.768269
760.037129	2444.959615
760.364073	2480.247692
760.690970	2460.083077
761.017820	2518.056346
761.344623	2404.630385
761.671379	2578.550192
761.998088	2515.535769
762.324751	2450.000769
762.651366	2497.891731
762.977935	2533.179808
763.304456	2437.397885
763.630931	2402.109808
763.957359	2485.288846
764.283740	2457.562500
764.610074	2515.535769
764.936362	2432.356731
765.262602	2530.659231
765.588796	2558.385577
765.914943	2523.097500
766.241044	2472.685962
766.567097	2510.494615
766.893104	2505.453462
767.219064	2553.344423
767.544978	2460.083077
767.870845	2475.206538
768.196665	2515.535769
768.522438	2402.109808
768.848165	2470.165385
769.173846	2444.959615
769.499479	2523.097500
769.825066	2487.809423
770.150607	2550.823846
770.476101	2560.906154
770.801548	2402.109808
771.126949	2540.741538
771.452303	2497.891731
771.777611	2510.494615
772.102872	2550.823846
772.428087	2510.494615
772.753256	2465.124231
773.078378	2397.068654
773.403453	2576.029615
773.728482	2500.412308
774.053465	2450.000769
774.378401	2457.562500
774.703291	2477.727115
775.028135	2447.480192
775.352932	2399.589231
775.677683	2545.782692
776.002388	2422.274423
776.327046	2487.809423
776.651658	2497.891731
776.976224	2591.153077
777.300743	2472.685962
777.625216	2434.877308
777.949643	2513.015192
778.274024	2518.056346
778.598359	2520.576923
778.922647	2485.288846
779.246889	2538.220962
779.571086	2409.671538
779.895236	2492.850577
780.219339	2439.918462
780.543397	2513.015192
780.867409	2442.439038
781.191374	2510.494615
781.515294	2545.782692
781.839167	2500.412308
782.162995	2581.070769
782.486776	2520.576923
782.810511	2545.782692
783.134201	2553.344423
783.457844	2500.412308
783.781441	2515.535769
784.104993	2565.947308
784.428498	2482.768269
784.751958	2424.795000
785.075372	2485.288846
785.398739	2502.932885
785.722061	2442.439038
786.045337	2450.000769
786.368568	2447.480192
786.691752	2538.220962
787.014891	2409.671538
787.337983	2520.576923
787.661030	2535.700385
787.984031	2427.315577
788.306987	2558.385577
788.629897	2480.247692
788.952760	2465.124231
789.275579	2477.727115
789.598351	2523.097500
789.921078	2502.932885
790.243759	2414.712692
790.566395	2558.385577
790.888984	2467.644808
791.211529	2500.412308
791.534027	2495.371154
791.856480	2437.397885
792.178888	2518.056346
792.501249	2437.397885
792.823566	2429.836154
793.145836	2513.015192
793.468062	2452.521346
793.790241	2442.439038
794.112375	2497.891731
794.434464	2530.659231
794.756507	2485.288846
795.078505	2450.000769
795.400457	2439.918462
795.722364	2482.768269
796.044226	2505.453462
796.366042	2507.974038
796.687812	2515.535769
797.009538	2490.330000
797.331218	2515.535769
797.652852	2502.932885
797.974442	2452.521346
798.295986	2502.932885
798.617484	2535.700385
798.938938	2497.891731
799.260346	2480.247692
799.581709	2485.288846
799.903026	2460.083077
800.224299	2422.274423
800.545526	2553.344423
800.866708	2555.865000
801.187845	2492.850577
801.508936	2565.947308
801.829983	2470.165385
802.150984	2530.659231
802.471940	2417.233269
802.792851	2581.070769
803.113717	2573.509038
803.434538	2581.070769
803.755314	2500.412308
804.076045	2513.015192
804.396731	2485.288846
804.717372	2480.247692
805.037967	2515.535769
805.358518	2520.576923
805.679024	2520.576923
805.999485	2523.097500
806.319901	2555.865000
806.640272	2518.056346
806.960598	2450.000769
807.280879	2576.029615
807.601115	2570.988462
807.921306	2502.932885
808.241453	2598.714808
808.561554	2429.836154
808.881611	2553.344423
809.201623	2444.959615
809.521590	2525.618077
809.841513	2558.385577
810.161390	2455.041923
810.481223	2550.823846
810.801011	2507.974038
811.120755	2518.056346
811.440453	2452.521346
811.760107	2497.891731
812.079716	2409.671538
812.399281	2482.768269
812.718801	2457.562500
813.038276	2540.741538
813.357707	2523.097500
813.677093	2460.083077
813.996434	2545.782692
814.315731	2417.233269
814.634983	2409.671538
814.954191	2495.371154
815.273354	2505.453462
815.592473	2497.891731
815.911547	2467.644808
816.230577	2475.206538
816.549562	2583.591346
816.868502	2492.850577
817.187399	2558.385577
817.506250	2533.179808
817.825058	2507.974038
818.143821	2545.782692
818.462539	2636.523462
818.781213	2477.727115
819.099843	2450.000769
819.418429	2538.220962
819.736970	2437.397885
820.055466	2548.303269
820.373919	2538.220962
820.692327	2490.330000
821.010691	2462.603654
821.329011	2432.356731
821.647286	2518.056346
821.965517	2507.974038
822.283704	2485.288846
822.601847	2550.823846
822.919945	2576.029615
823.237999	2578.550192
823.556010	2442.439038
823.873976	2533.179808
824.191897	2434.877308
824.509775	2518.056346
824.827609	2543.262115
825.145398	2525.618077
825.463144	2490.330000
825.780845	2518.056346
826.098502	2482.768269
826.416116	2485.288846
826.733685	2427.315577
827.051210	2520.576923
827.368692	2568.467885
827.686129	2480.247692
828.003522	2553.344423
828.320872	2432.356731
828.638177	2470.165385
828.955439	2502.932885
829.272656	2490.330000
829.589830	2540.741538
829.906960	2555.865000
830.224046	2434.877308
830.541088	2555.865000
830.858086	2530.659231
831.175041	2475.206538
831.491952	2492.850577
831.808819	2376.904038
832.125642	2558.385577
832.442421	2560.906154
832.759157	2583.591346
833.075849	2530.659231
833.392497	2523.097500
833.709101	2407.150962
834.025662	2465.124231
834.342179	2495.371154
834.658653	2490.330000
834.975083	2475.206538
835.291469	2523.097500
835.607811	2538.220962
835.924110	2548.303269
836.240366	2505.453462
836.556578	2417.233269
836.872746	2450.000769
837.188871	2502.932885
837.504952	2412.192115
837.820990	2482.768269
838.136984	2427.315577
838.452935	2480.247692
838.768842	2510.494615
839.084706	2485.288846
839.400526	2434.877308
839.716303	2482.768269
840.032037	2419.753846
840.347727	2495.371154
840.663373	2422.274423
840.978977	2502.932885
841.294537	2460.083077
841.610054	2560.906154
841.925527	2437.397885
842.240957	2550.823846
842.556344	2460.083077
842.871687	2495.371154
843.186987	2450.000769
843.502244	2507.974038
843.817458	2419.753846
844.132629	2450.000769
844.447756	2563.426731
844.762840	2485.288846
845.077881	2523.097500
845.392879	2465.124231
845.707833	2404.630385
846.022745	2525.618077
846.337613	2472.685962
846.652438	2485.288846
846.967221	2381.945192
847.281960	2487.809423
847.596656	2497.891731
847.911309	2576.029615
848.225919	2513.015192
848.540485	2525.618077
848.855009	2462.603654
849.169490	2467.644808
849.483928	2507.974038
849.798323	2495.371154
850.112675	2507.974038
850.426984	2510.494615
850.741251	2523.097500
851.055474	2477.727115
851.369654	2502.932885
851.683792	2462.603654
851.997887	2565.947308
852.311938	2450.000769
852.625947	2548.303269
852.939914	2470.165385
853.253837	2470.165385
853.567718	2437.397885
853.881555	2480.247692
854.195350	2452.521346
854.509103	2515.535769
854.822812	2429.836154
855.136479	2533.179808
855.450103	2576.029615
855.763685	2450.000769
856.077224	2492.850577
856.390720	2465.124231
856.704173	2460.083077
857.017584	2437.397885
857.330953	2470.165385
857.644278	2470.165385
857.957561	2467.644808
858.270802	2475.206538
858.584000	2477.727115
858.897155	2525.618077
859.210268	2384.465769
859.523339	2472.685962
859.836367	2553.344423
860.149352	2538.220962
860.462295	2386.986346
860.775195	2397.068654
861.088054	2545.782692
861.400869	2495.371154
861.713642	2477.727115
862.026373	2427.315577
862.339062	2477.727115
862.651708	2447.480192
862.964312	2538.220962
863.276873	2588.632500
863.589392	2477.727115
863.901869	2472.685962
864.214303	2412.192115
864.526696	2518.056346
864.839045	2437.397885
865.151353	2422.274423
865.463619	2429.836154
865.775842	2495.371154
866.088023	2467.644808
866.400162	2472.685962
866.712258	2480.247692
867.024313	2485.288846
867.336325	2442.439038
867.648296	2543.262115
867.960224	2444.959615
868.272110	2485.288846
868.583954	2548.303269
868.895755	2545.782692
869.207515	2485.288846
869.519233	2497.891731
869.830909	2457.562500
870.142542	2528.138654
870.454134	2457.562500
870.765684	2543.262115
871.077191	2523.097500
871.388657	2407.150962
871.700081	2513.015192
872.011463	2497.891731
872.322803	2480.247692
872.634101	2535.700385
872.945357	2472.685962
873.256571	2565.947308
873.567744	2573.509038
873.878874	2384.465769
874.189963	2528.138654
874.501010	2465.124231
874.812015	2397.068654
875.122979	2500.412308
875.433900	2432.356731
875.744780	2447.480192
876.055618	2487.809423
876.366415	2427.315577
876.677169	2465.124231
876.987882	2545.782692
877.298554	2457.562500
877.609183	2513.015192
877.919771	2492.850577
878.230317	2487.809423
878.540822	2507.974038
878.851285	2523.097500
879.161707	2439.918462
879.472087	2520.576923
879.782425	2492.850577
880.092722	2482.768269
880.402977	2540.741538
880.713191	2470.165385
881.023363	2475.206538
881.333494	2490.330000
881.643583	2424.795000
881.953631	2510.494615
882.263637	2409.671538
882.573602	2578.550192
882.883526	2530.659231
883.193408	2402.109808
883.503248	2515.535769
883.813048	2505.453462
884.122806	2487.809423
884.432522	2490.330000
884.742197	2450.000769
885.051831	2497.891731
885.361424	2513.015192
885.670975	2477.727115
885.980485	2510.494615
886.289954	2490.330000
886.599382	2538.220962
886.908768	2444.959615
887.218113	2538.220962
887.527417	2424.795000
887.836680	2550.823846
888.145901	2417.233269
888.455082	2432.356731
888.764221	2502.932885
889.073319	2467.644808
889.382376	2515.535769
889.691392	2376.904038
890.000366	2434.877308
890.309300	2505.453462
890.618193	2482.768269
890.927044	2472.685962
891.235855	2523.097500
891.544625	2462.603654
891.853353	2497.891731
892.162041	2555.865000
892.470687	2540.741538
892.779293	2540.741538
893.087858	2515.535769
893.396381	2548.303269
893.704864	2533.179808
894.013306	2470.165385
894.321707	2565.947308
894.630068	2482.768269
894.938387	2518.056346
895.246665	2490.330000
895.554903	2545.782692
895.863100	2397.068654
896.171256	2520.576923
896.479371	2523.097500
896.787446	2545.782692
897.095480	2497.891731
897.403473	2502.932885
897.711425	2470.165385
898.019336	2581.070769
898.327207	2598.714808
898.635038	2482.768269
898.942827	2439.918462
899.250576	2434.877308
899.558284	2450.000769
899.865952	2568.467885
900.173579	2500.412308
900.481165	2485.288846
900.788711	2432.356731
901.096216	2535.700385
901.403681	2487.809423
901.711105	2520.576923
902.018489	2422.274423
902.325832	2490.330000
902.633135	2548.303269
902.940397	2538.220962
903.247619	2470.165385
903.554800	2495.371154
903.861941	2450.000769
904.169041	2437.397885
904.476101	2502.932885
904.783121	2409.671538
905.090100	2452.521346
905.397039	2444.959615
905.703938	2497.891731
906.010796	2374.383462
906.317614	2535.700385
906.624391	2490.330000
906.931129	2523.097500
907.237826	2573.509038
907.544483	2523.097500
907.851099	2462.603654
908.157675	2515.535769
908.464211	2565.947308
908.770707	2490.330000
909.077163	2470.165385
909.383578	2490.330000
909.689954	2452.521346
909.996289	2447.480192
910.302584	2475.206538
910.608839	2450.000769
910.915054	2530.659231
911.221229	2540.741538
911.527363	2518.056346
911.833458	2513.015192
912.139513	2540.741538
912.445527	2480.247692
912.751502	2540.741538
913.057436	2417.233269
913.363331	2419.753846
913.669186	2530.659231
913.975000	2450.000769
914.280775	2465.124231
914.586510	2538.220962
914.892205	2429.836154
915.197859	2510.494615
915.503475	2586.111923
915.809050	2462.603654
916.114585	2523.097500
916.420081	2394.548077
916.725536	2419.753846
917.030952	2553.344423
917.336328	2555.865000
917.641665	2470.165385
917.946961	2482.768269
918.252218	2470.165385
918.557435	2515.535769
918.862612	2467.644808
919.167750	2409.671538
919.472848	2485.288846
919.777906	2500.412308
920.082925	2497.891731
920.387904	2467.644808
920.692843	2439.918462
920.997743	2482.768269
921.302603	2490.330000
921.607423	2447.480192
921.912204	2432.356731
922.216946	2434.877308
922.521647	2525.618077
922.826310	2505.453462
923.130932	2407.150962
923.435516	2525.618077
923.740059	2528.138654
924.044564	2538.220962
924.349028	2548.303269
924.653454	2528.138654
924.957840	2462.603654
925.262186	2452.521346
925.566493	2422.274423
925.870761	2467.644808
926.174989	2467.644808
926.479178	2581.070769
926.783328	2500.412308
927.087438	2465.124231
927.391509	2497.891731
927.695541	2502.932885
927.999533	2399.589231
928.303486	2419.753846
928.607400	2487.809423
928.911275	2472.685962
929.215110	2515.535769
929.518906	2540.741538
929.822663	2434.877308
930.126381	2518.056346
930.430060	2444.959615
930.733699	2427.315577
931.037299	2505.453462
931.340861	2487.809423
931.644383	2452.521346
931.947866	2442.439038
932.251309	2472.685962
932.554714	2472.685962
932.858080	2513.015192
933.161407	2374.383462
933.464694	2470.165385
933.767943	2596.194231
934.071153	2530.659231
934.374323	2475.206538
934.677455	2462.603654
934.980548	2641.564615
935.283602	2492.850577
935.586617	2475.206538
935.889593	2492.850577
936.192530	2389.506923
936.495428	2510.494615
936.798287	2465.124231
937.101108	2492.850577
937.403890	2495.371154
937.706632	2465.124231
938.009336	2495.371154
938.312002	2533.179808
938.614628	2510.494615
938.917216	2563.426731
939.219765	2467.644808
939.522275	2497.891731
939.824747	2470.165385
940.127179	2394.548077
940.429573	2490.330000
940.731929	2482.768269
941.034246	2402.109808
941.336524	2560.906154
941.638763	2497.891731
941.940964	2500.412308
942.243126	2490.330000
942.545250	2515.535769
942.847335	2505.453462
943.149381	2452.521346
943.451389	2450.000769
943.753359	2515.535769
944.055290	2513.015192
944.357182	2467.644808
944.659036	2510.494615
944.960851	2470.165385
945.262628	2492.850577
945.564367	2470.165385
945.866067	2462.603654
946.167729	2490.330000
946.469352	2475.206538
946.770937	2555.865000
947.072484	2520.576923
947.373992	2414.712692
947.675462	2450.000769
947.976893	2467.644808
948.278286	2462.603654
948.579641	2505.453462
948.880958	2497.891731
949.182236	2586.111923
949.483476	2553.344423
949.784678	2465.124231
950.085841	2573.509038
950.386967	2447.480192
950.688054	2598.714808
950.989103	2560.906154
951.290114	2513.015192
951.591087	2525.618077
951.892021	2502.932885
952.192917	2397.068654
952.493776	2465.124231
952.794596	2505.453462
953.095378	2583.591346
953.396122	2480.247692
953.696828	2386.986346
953.997496	2528.138654
954.298126	2432.356731
954.598718	2550.823846
954.899272	2550.823846
955.199788	2543.262115
955.500266	2507.974038
955.800706	2520.576923
956.101108	2460.083077
956.401472	2465.124231
956.701798	2409.671538
957.002087	2452.521346
957.302337	2444.959615
957.602550	2505.453462
957.902724	2452.521346
958.202861	2424.795000
958.502960	2384.465769
958.803022	2502.932885
959.103045	2548.303269
959.403031	2490.330000
959.702979	2523.097500
960.002889	2563.426731
960.302762	2485.288846
960.602596	2533.179808
960.902393	2455.041923
961.202153	2480.247692
961.501875	2419.753846
961.801559	2518.056346
962.101205	2490.330000
962.400814	2477.727115
962.700385	2404.630385
962.999918	2434.877308
963.299414	2538.220962
963.598873	2465.124231
963.898293	2467.644808
964.197677	2513.015192
964.497022	2487.809423
964.796331	2528.138654
965.095601	2467.644808
965.394835	2528.138654
965.694030	2424.795000
965.993189	2523.097500
966.292309	2397.068654
966.591393	2513.015192
966.890439	2442.439038
967.189447	2497.891731
967.488419	2530.659231
967.787353	2492.850577
968.086249	2525.618077
968.385108	2444.959615
968.683930	2447.480192
968.982714	2560.906154
969.281462	2495.371154
969.580172	2513.015192
969.878844	2497.891731
970.177480	2528.138654
970.476078	2475.206538
970.774639	2533.179808
971.073162	2455.041923
971.371649	2507.974038
971.670098	2422.274423
971.968510	2598.714808
972.266885	2465.124231
972.565223	2523.097500
972.863524	2407.150962
973.161788	2460.083077
973.460014	2447.480192
973.758204	2457.562500
974.056356	2455.041923
974.354471	2447.480192
974.652550	2414.712692
974.950591	2402.109808
975.248595	2502.932885
975.546563	2543.262115
975.844493	2447.480192
976.142386	2452.521346
976.440243	2530.659231
976.738062	2444.959615
977.035845	2550.823846
977.333590	2513.015192
977.631299	2505.453462
977.928971	2455.041923
978.226606	2477.727115
978.524204	2565.947308
978.821765	2515.535769
979.119290	2507.974038
979.416777	2518.056346
979.714228	2492.850577
980.011642	2482.768269
980.309020	2497.891731
980.606360	2502.932885
980.903664	2437.397885
981.200931	2495.371154
981.498162	2480.247692
981.795356	2371.862885
982.092513	2480.247692
982.389633	2381.945192
982.686717	2397.068654
982.983764	2565.947308
983.280775	2485.288846
983.577749	2485.288846
983.874686	2434.877308
984.171587	2507.974038
984.468451	2492.850577
984.765279	2492.850577
985.062070	2457.562500
985.358824	2548.303269
985.655543	2477.727115
985.952224	2535.700385
986.248869	2581.070769
986.545478	2502.932885
986.842050	2427.315577
987.138586	2356.739423
987.435086	2533.179808
987.731549	2455.041923
988.027975	2525.618077
988.324366	2502.932885
988.620719	2472.685962
988.917037	2455.041923
989.213318	2513.015192
989.509563	2472.685962
989.805772	2439.918462
990.101944	2455.041923
990.398080	2467.644808
990.694180	2475.206538
990.990244	2500.412308
991.286271	2389.506923
991.582262	2467.644808
991.878217	2472.685962
992.174136	2442.439038
992.470019	2576.029615
992.765865	2540.741538
993.061676	2381.945192
993.357450	2394.548077
993.653188	2429.836154
993.948890	2538.220962
994.244556	2465.124231
994.540186	2465.124231
994.835780	2437.397885
995.131337	2540.741538
995.426859	2497.891731
995.722345	2507.974038
996.017795	2427.315577
996.313208	2513.015192
996.608586	2470.165385
996.903928	2432.356731
997.199234	2392.027500
997.494504	2502.932885
997.789738	2470.165385
998.084936	2545.782692
998.380099	2586.111923
998.675225	2565.947308
998.970316	2565.947308
999.265371	2545.782692
999.560390	2477.727115
999.855373	2457.562500
1000.150320	2427.315577
1000.445232	2412.192115
1000.740108	2457.562500
1001.034948	2452.521346
1001.329752	2467.644808
1001.624521	2593.673654
1001.919254	2455.041923
1002.213951	2487.809423
1002.508613	2409.671538
1002.803239	2533.179808
1003.097829	2490.330000
1003.392384	2513.015192
1003.686903	2588.632500
1003.981386	2565.947308
1004.275834	2535.700385
1004.570246	2460.083077
1004.864623	2460.083077
1005.158964	2482.768269
1005.453270	2548.303269
1005.747540	2457.562500
1006.041775	2475.206538
1006.335974	2485.288846
1006.630138	2515.535769
1006.924266	2472.685962
1007.218359	2497.891731
1007.512416	2442.439038
1007.806438	2442.439038
1008.100425	2402.109808
1008.394376	2389.506923
1008.688292	2568.467885
1008.982172	2495.371154
1009.276017	2500.412308
1009.569827	2530.659231
1009.863602	2424.795000
1010.157341	2361.780577
1010.451045	2482.768269
1010.744714	2560.906154
1011.038347	2480.247692
1011.331945	2432.356731
1011.625508	2520.576923
1011.919036	2560.906154
1012.212528	2550.823846
1012.505986	2490.330000
1012.799408	2596.194231
1013.092795	2465.124231
1013.386147	2520.576923
1013.679464	2374.383462
1013.972745	2560.906154
1014.265992	2507.974038
1014.559204	2533.179808
1014.852380	2485.288846
1015.145521	2472.685962
1015.438628	2510.494615
1015.731699	2507.974038
1016.024736	2409.671538
1016.317737	2417.233269
1016.610703	2565.947308
1016.903635	2545.782692
1017.196531	2523.097500
1017.489393	2455.041923
1017.782219	2457.562500
1018.075011	2507.974038
1018.367768	2467.644808
1018.660490	2505.453462
1018.953177	2505.453462
1019.245829	2505.453462
