Dividing Wavelength (nm)	Counts (n)	Blue Motor Position (mm): 25.000000	Red Motor Position (mm): 0.000000	
326.493990	2099.209558
326.888308	2099.209558
327.282561	2099.209558
327.676750	2076.559654
328.070874	2079.407906
328.464933	2086.873855
328.858929	2094.246542
329.252859	2108.820518
329.646726	2121.317538
330.040528	2135.944446
330.434265	2157.202992
330.827938	2175.618327
331.221547	2195.679599
331.615091	2216.625593
332.008571	2238.259705
332.401986	2258.953641
332.795338	2278.084820
333.188625	2299.411422
333.581847	2316.137970
333.975006	2333.797132
334.368100	2354.140708
334.761129	2370.348018
335.154095	2384.296891
335.546996	2426.314908
335.939833	2502.695950
336.332606	2514.824967
336.725315	2528.090763
337.117960	2535.912113
337.510540	2542.347146
337.903056	2553.074721
338.295508	2553.805689
338.687896	2565.123079
339.080220	2569.957546
339.472480	2578.446849
339.864676	2579.641602
340.256807	2582.419278
340.648875	2584.866758
341.040879	2586.089238
341.432818	2589.799527
341.824694	2586.905905
342.216506	2588.559403
342.608253	2584.350040
342.999937	2588.725761
343.391557	2583.659402
343.783113	2583.361974
344.174605	2580.002045
344.566033	2580.891808
344.957397	2578.023392
345.348697	2577.531879
345.739934	2575.495253
346.131106	2575.235634
346.522215	2574.154306
346.913260	2571.389233
347.304241	2569.919737
347.695159	2566.980744
348.086012	2565.448233
348.476802	2564.959242
348.867528	2563.875393
349.258191	2562.113510
349.648789	2563.814900
350.039324	2559.882800
350.429796	2559.693756
350.820203	2559.928170
351.210548	2558.224260
351.600828	2558.002449
351.991045	2556.727037
352.381198	2556.263251
352.771288	2554.057746
353.161314	2554.740823
353.551276	2553.984650
353.941175	2555.698642
354.331010	2554.990360
354.720782	2556.258210
355.110490	2560.044117
355.500135	2556.311142
355.889717	2556.880792
356.279235	2554.967675
356.668689	2557.586554
357.058080	2556.001111
357.447408	2554.705535
357.836672	2556.941286
358.225873	2556.253169
358.615010	2557.795762
359.004084	2560.286092
359.393095	2560.714590
359.782043	2561.107800
360.170927	2561.982440
360.559748	2559.776935
360.948505	2563.124262
361.337199	2567.522668
361.725830	2562.751216
362.114398	2564.445044
362.502903	2565.899417
362.891344	2566.877401
363.279722	2563.976217
363.668037	2565.579303
364.056289	2564.187945
364.444478	2567.815055
364.832603	2567.646177
365.220665	2567.212637
365.608665	2569.372772
365.996601	2569.864284
366.384474	2568.402350
366.772284	2569.077864
367.160031	2569.047617
367.547715	2571.162381
367.935336	2568.724983
368.322893	2571.749676
368.710388	2573.486353
369.097820	2576.821077
369.485189	2573.604820
369.872495	2574.572722
370.259738	2574.698751
370.646918	2572.203380
371.034035	2575.389389
371.421090	2574.560119
371.808081	2573.725808
372.195010	2571.565674
372.581875	2575.054152
372.968678	2575.134811
373.355418	2572.132803
373.742096	2575.984245
374.128710	2575.182702
374.515262	2579.891139
374.901751	2577.264698
375.288177	2580.942220
375.674540	2577.945254
376.060841	2577.065572
376.447079	2575.525500
376.833254	2578.000707
377.219367	2576.448031
377.605417	2576.705130
377.991404	2574.174471
378.377329	2576.828638
378.763191	2578.444328
379.148991	2580.173444
379.534727	2583.359453
379.920402	2582.338619
380.306013	2581.337950
380.691563	2583.624114
381.077049	2580.763259
381.462474	2582.373908
381.847835	2582.898187
382.233134	2582.051274
382.618371	2584.400451
383.003545	2585.547314
383.388657	2586.222828
383.773706	2585.786769
384.158693	2586.268199
384.543618	2585.660740
384.928480	2587.031934
385.313280	2588.098138
385.698017	2589.396235
386.082692	2587.215936
386.467305	2588.345154
386.851856	2588.745926
387.236344	2589.887747
387.620770	2589.212233
388.005133	2590.293560
388.389435	2593.272882
388.773674	2591.369847
389.157851	2587.949424
389.541965	2590.475042
389.926018	2590.964034
390.310008	2592.504106
390.693936	2592.143664
391.077802	2592.826740
391.461606	2594.674323
391.845348	2594.029055
392.229027	2590.759867
392.612645	2594.263469
392.996200	2594.381936
393.379694	2595.206165
393.763125	2595.735486
394.146494	2595.821185
394.529801	2596.181628
394.913047	2595.342276
395.296230	2597.923347
395.679351	2597.751947
396.062410	2598.906372
396.445408	2597.877976
396.828343	2599.100456
397.211217	2597.046186
397.594028	2596.849581
397.976778	2594.102152
398.359466	2598.172884
398.742092	2593.872779
399.124656	2596.985692
399.507158	2599.539036
399.889598	2600.678337
400.271977	2601.426948
400.654294	2600.655652
401.036549	2601.484922
401.418742	2602.783019
401.800874	2600.348142
402.182944	2599.682709
402.564952	2605.175046
402.946898	2602.886363
403.328783	2602.329315
403.710606	2603.645056
404.092367	2605.543051
404.474067	2607.733432
404.855705	2603.478698
405.237282	2606.526076
405.618797	2607.415839
406.000250	2606.594131
406.381642	2608.562702
406.762972	2608.043463
407.144240	2608.638319
407.525447	2609.865840
407.906593	2606.699995
408.287677	2609.765017
408.668700	2608.897938
409.049661	2610.241406
409.430560	2611.978083
409.811399	2610.682507
410.192176	2609.916252
410.572891	2611.617641
410.953545	2611.547065
411.334138	2611.693258
411.714669	2614.241562
412.095139	2612.126797
412.475547	2612.063783
412.855894	2613.893722
413.236180	2610.687548
413.616405	2613.490430
413.996568	2613.913887
414.376670	2613.611417
414.756711	2613.702158
415.136691	2614.627210
415.516609	2615.922786
415.896466	2617.288939
416.276262	2618.524022
416.655997	2616.114350
417.035670	2615.522015
417.415283	2618.806326
417.794834	2613.591253
418.174324	2616.988990
418.553753	2619.996039
418.933121	2619.421347
419.312428	2619.587705
419.691674	2623.882768
420.070859	2624.588530
420.449983	2619.887654
420.829045	2620.812706
421.208047	2621.107613
421.586988	2623.166924
421.965867	2626.083232
422.344686	2625.362347
422.723444	2624.187758
423.102141	2624.641462
423.480777	2626.499127
423.859352	2624.694394
424.237866	2628.571041
424.616319	2625.856380
424.994712	2626.355454
425.373044	2627.824951
425.751314	2629.899385
426.129524	2628.429889
426.507673	2627.046092
426.885762	2630.469036
427.263789	2631.126906
427.641756	2631.822586
428.019662	2629.677575
428.397508	2629.803603
428.775292	2633.632360
429.153016	2630.675723
429.530679	2634.685961
429.908282	2633.778553
430.285824	2634.837196
430.663305	2633.629839
431.040726	2633.960035
431.418086	2634.204531
431.795385	2638.885242
432.172624	2634.897689
432.549802	2638.799542
432.926920	2638.613020
433.303977	2638.164357
433.680974	2638.222330
434.057910	2642.971097
434.434786	2639.969090
434.811601	2640.579070
435.188355	2643.288690
435.565050	2643.747435
435.941683	2642.696354
436.318257	2645.501757
436.694770	2642.388844
437.071222	2644.433032
437.447614	2645.491674
437.823946	2645.630306
438.200218	2649.317910
438.576429	2651.593991
438.952580	2651.961995
439.328670	2654.807727
439.704700	2653.610452
440.080670	2653.751605
440.456580	2654.727068
440.832429	2657.708911
441.208218	2656.879641
441.583947	2659.339724
441.959616	2664.020435
442.335224	2662.256031
442.710773	2664.481701
443.086261	2667.639984
443.461689	2669.900941
443.837057	2671.183915
444.212365	2674.105263
444.587612	2675.042918
444.962800	2678.070131
445.337927	2678.281859
445.712995	2678.042405
446.088002	2685.387366
446.462949	2687.544980
446.837837	2692.639066
447.212664	2694.148891
447.587431	2706.736652
447.962139	2718.366594
448.336786	2727.954869
448.711374	2726.709704
449.085901	2718.043960
449.460369	2719.689897
449.834776	2725.343551
450.209124	2743.179153
450.583412	2745.969432
450.957640	2752.596029
451.331808	2753.155597
451.705917	2751.993611
452.079965	2759.777152
452.453954	2769.093205
452.827883	2777.363218
453.201752	2785.877727
453.575562	2796.375929
453.949311	2812.757159
454.323001	2825.100424
454.696632	2838.051148
455.070202	2866.019470
455.443713	2881.120246
455.817164	2903.306364
456.190556	2930.369799
456.563888	2942.405553
456.937160	2966.038483
457.310373	2971.220789
457.683526	2996.418996
458.056619	3025.695497
458.429653	3051.904456
458.802628	3092.909202
459.175542	3129.497896
459.548398	3187.355219
459.921194	3266.269441
460.293930	3336.984227
460.666607	3435.316974
461.039224	3533.725338
461.411782	3597.702621
461.784280	3612.631998
462.156719	3648.398985
462.529099	3691.044626
462.901419	3706.100032
463.273680	3734.206985
463.645882	3804.647028
464.018024	3878.530179
464.390106	3999.434692
464.762130	4228.529928
465.134094	4560.736926
465.505999	4985.033201
465.877845	5368.458321
466.249631	5551.495056
466.621358	5545.672523
466.993026	5526.095202
467.364634	5513.479715
467.736184	5512.713459
468.107674	5564.849072
468.479105	5637.534949
468.850477	5709.320980
469.221790	5737.889199
469.593043	5716.088729
469.964238	5771.785917
470.335373	5901.540176
470.706449	6232.791875
471.077467	6697.520724
471.448425	7369.897221
471.819324	7849.893205
472.190164	7784.259903
472.560945	7524.574945
472.931667	7313.884961
473.302330	7346.314704
473.672934	7411.597646
474.043479	7654.535891
474.413965	7722.478042
474.784393	7837.464241
475.154761	8156.823857
475.525070	8344.400151
475.895321	8445.923948
476.265513	8739.896314
476.635645	9113.682748
477.005719	9287.163976
477.375734	9586.663967
477.745691	9928.988560
478.115588	10418.698847
478.485427	11087.649880
478.855207	12090.688261
479.224928	13001.833969
479.594591	13655.906037
479.964194	13672.017564
480.333739	13996.856915
480.703226	14336.446682
481.072653	14836.012426
481.442022	15289.875068
481.811333	15676.803790
482.180584	15607.992040
482.549777	15770.380209
482.918912	15929.093376
483.287988	16167.103893
483.657005	16225.185547
484.025964	16326.711865
484.394864	16655.455589
484.763706	16838.273034
485.132489	16858.604007
485.501213	17123.378010
485.869879	17505.583171
486.238487	17692.269701
486.607036	18101.762628
486.975527	18227.730980
487.343959	18639.754566
487.712333	18999.236727
488.080648	19292.364699
488.448905	19819.719803
488.817104	20093.192317
489.185244	20880.527286
489.553326	22054.914486
489.921350	23716.274627
490.289315	25559.973303
490.657222	26267.605109
491.025070	26805.150906
491.392861	26681.599787
491.760593	26391.456177
492.128267	25865.779777
492.495883	25438.892349
492.863440	25072.382821
493.230939	24723.431631
493.598380	24500.857127
493.965763	24657.793287
494.333088	24564.902466
494.700354	24628.625171
495.067563	24801.289731
495.434713	25036.537696
495.801805	25408.743729
496.168839	25509.642423
496.535815	25639.099254
496.902733	25979.389741
497.269593	26030.277669
497.636395	26296.667361
498.003139	26869.400412
498.369825	26828.824164
498.736453	27332.813520
499.103023	27339.518255
499.469535	27563.128716
499.835989	27933.860211
500.202385	27987.117481
500.568723	28313.451534
500.935003	28747.169725
501.301226	28896.521470
501.667390	29622.619023
502.033497	30074.268599
502.399546	29963.242227
502.765537	29751.307078
503.131470	30313.143674
503.497345	30863.970390
503.863163	30139.904422
504.228923	30882.894882
504.594625	31457.901492
504.960269	31181.812619
505.325856	31974.128249
505.691385	31746.101737
506.056856	32109.810905
506.422270	32709.378017
506.787625	32630.791469
507.152924	33042.137020
507.518164	33356.412633
507.883347	32951.028247
508.248472	33399.698501
508.613540	34029.847773
508.978550	34524.246333
509.343503	34552.587700
509.708398	34947.037824
510.073236	35635.341847
510.438016	35842.475297
510.802738	35590.054641
511.167403	36332.074679
511.532010	36746.281085
511.896561	37210.042033
512.261053	38186.296763
512.625488	37982.233376
512.989866	38070.423321
513.354186	38106.223075
513.718449	38306.918972
514.082655	39099.020352
514.446803	38984.359308
514.810894	39635.444492
515.174927	39743.988096
515.538904	39817.571298
515.902822	40588.247774
516.266684	40254.770406
516.630488	40805.350106
516.994235	40808.316825
517.357925	41485.124496
517.721558	41807.168528
518.085133	42260.637960
518.448651	42482.320180
518.812112	42417.858946
519.175516	42640.680466
519.538863	43092.713170
519.902152	43171.571939
520.265385	43749.260444
520.628560	43895.768977
520.991678	43786.431392
521.354739	44124.130726
521.717743	44550.516560
522.080690	44541.997010
522.443580	45162.878120
522.806413	45307.218958
523.169189	45355.823242
523.531908	45611.235823
523.894569	45548.659980
524.257174	45788.565971
524.619722	46145.099056
524.982213	46211.609519
525.344647	46208.925105
525.707025	46314.491908
526.069345	46780.314688
526.431608	46765.917152
526.793815	47128.834859
527.155964	46749.004081
527.518057	46947.701160
527.880093	46807.657906
528.242072	47360.531331
528.603995	47120.370762
528.965860	47150.002664
529.327669	47315.140782
529.689421	47236.007269
530.051117	47225.123418
530.412755	47419.979137
530.774337	47531.144142
531.135862	47366.986528
531.497331	47590.758306
531.858743	47530.332516
532.220098	47883.702277
532.581396	47620.281824
532.942638	47293.390723
533.303824	47659.035694
533.664953	47656.527720
534.026025	47385.558139
534.387040	47866.532107
534.747999	47858.536837
535.108902	48045.029282
535.469748	47566.648988
535.830537	47686.134417
536.191270	47903.902180
536.551947	47576.549814
536.912567	47900.912776
537.273131	48041.480310
537.633638	47521.104684
537.994089	47881.895023
538.354483	47469.599215
538.714821	48078.394159
539.075103	48437.160475
539.435328	48192.709884
539.795497	48085.832382
540.155609	48087.372454
540.515665	48577.498637
540.875665	48012.057616
541.235609	48357.946304
541.595496	48357.258187
541.955328	49041.015089
542.315102	48405.348274
542.674821	48165.265843
543.034483	48219.304491
543.394090	48202.056183
543.753640	48162.659566
544.113134	49174.076345
544.472571	48168.648457
544.831953	49435.742476
545.191278	48631.854878
545.550548	48356.368423
545.909761	48829.369806
546.268918	49034.474192
546.628019	49357.155929
546.987064	48907.391744
547.346053	48168.792130
547.704986	49061.530064
548.063863	48591.981872
548.422684	48794.873191
548.781449	48623.579824
549.140158	49029.581752
549.498811	48876.882681
549.857408	48284.290006
550.215949	49145.704731
550.574434	49083.527139
550.932864	48816.721551
551.291237	49550.905115
551.649555	49173.375624
552.007817	49408.391696
552.366022	49033.513852
552.724173	49208.930882
553.082267	49610.080700
553.440305	49873.770854
553.798288	49180.400472
554.156215	49496.445530
554.514086	49709.978725
554.871902	49422.232184
555.229661	49458.795673
555.587365	49275.073341
555.945014	49378.817767
556.302606	49297.836672
556.660143	49517.535197
557.017625	49588.391135
557.375050	49375.863651
557.732421	49731.093598
558.089735	49700.866839
558.446994	49616.823243
558.804197	50080.017061
559.161345	49993.664616
559.518437	49227.326053
559.875474	49551.915867
560.232455	49719.178831
560.589381	49884.954654
560.946251	49582.921483
561.303065	50252.432084
561.659825	50038.959384
562.016528	49711.390248
562.373177	49409.619217
562.729770	49902.928888
563.086307	49419.910733
563.442789	49866.856912
563.799216	49887.102186
564.155587	49684.961999
564.511904	49704.332633
564.868164	49778.593870
565.224370	50027.982271
565.580520	49740.071893
565.936615	49943.207708
566.292654	49654.722638
566.648638	49914.324417
567.004567	49872.258508
567.360441	49914.311814
567.716260	49763.987127
568.072023	50032.776408
568.427732	50010.252533
568.783385	49530.745541
569.138982	49940.528334
569.494525	49888.511188
569.850013	49631.404780
570.205445	49613.228900
570.560823	49546.042922
570.916145	49429.955232
571.271412	49455.907092
571.626625	49179.654381
571.981782	49218.158714
572.336884	48912.185882
572.691931	49226.032997
573.046923	48821.185493
573.401860	48641.783431
573.756743	48626.798601
574.111570	48737.550230
574.466342	48569.712575
574.821059	48684.852528
575.175722	48181.170683
575.530330	48204.773365
575.884882	47881.068274
576.239380	47848.144498
576.593823	47796.240778
576.948211	47729.780727
577.302544	47238.941221
577.656823	47237.000376
578.011047	47463.247361
578.365216	47187.017336
578.719330	46971.258472
579.073389	46789.698796
579.427394	46877.561066
579.781344	46847.193155
580.135239	46464.559496
580.489080	46536.363171
580.842866	46004.261821
581.196597	46444.967052
581.550273	46382.474388
581.903895	46249.977741
582.257463	46650.653690
582.610975	46015.788419
582.964434	46295.630431
583.317837	45919.008347
583.671186	45755.969870
584.024481	45969.780328
584.377721	45459.671012
584.730906	45754.875940
585.084037	45796.835984
585.437113	45499.297002
585.790135	45537.289658
586.143103	45087.177633
586.496016	45213.612293
586.848874	45234.858235
587.201679	45237.444347
587.554428	44710.116970
587.907124	44884.699689
588.259765	44624.734947
588.612352	44875.988575
588.964884	44235.275566
589.317362	44549.732660
589.669786	44470.084950
590.022155	44231.449330
590.374470	44652.153783
590.726731	44167.121686
591.078937	43654.600177
591.431090	43761.770067
591.783188	43417.365998
592.135232	43075.699276
592.487222	43324.487780
592.839157	43400.097526
593.191038	43044.590315
593.542866	42795.821976
593.894639	42197.426932
594.246358	42464.872746
594.598022	42459.922333
594.949633	42044.992522
595.301190	41995.100222
595.652692	41817.586072
596.004141	42136.461738
596.355535	41149.928095
596.706876	41095.483633
597.058162	40927.580443
597.409395	41383.860318
597.760573	41461.282359
598.111698	41054.471326
598.462768	41059.633468
598.813785	41074.595612
599.164748	40525.266119
599.515657	40899.108006
599.866511	40388.741590
600.217312	40992.220638
600.568060	39954.887287
600.918753	40712.600437
601.269392	40644.943111
601.619978	40298.063836
601.970510	40506.139981
602.320988	40698.931348
602.671412	40996.669456
603.021783	40755.901428
603.372100	40378.636597
603.722363	40486.234985
604.072572	40566.389331
604.422728	40583.856929
604.772830	40379.927133
605.122878	40493.146407
605.472872	40424.642167
605.822813	40685.070696
606.172701	40512.506958
606.522534	40763.455597
606.872314	41014.868022
607.222041	40778.836157
607.571714	41163.723212
607.921333	40597.266399
608.270899	40898.374518
608.620411	41242.113155
608.969870	41033.008614
609.319276	41027.148272
609.668627	41072.493451
610.017926	41552.141596
610.367171	41711.719321
610.716362	41785.763788
611.065500	41719.061761
611.414585	41920.034921
611.763616	42217.894017
612.112594	42139.166317
612.461518	42374.699107
612.810389	42660.159485
613.159207	42524.592775
613.507971	42613.526291
613.856682	43076.026951
614.205340	42959.566214
614.553945	43673.910317
614.902496	43093.723921
615.250994	43587.862862
615.599439	43645.400072
615.947830	43839.963404
616.296169	43929.300212
616.644454	44009.454558
616.992686	44182.494685
617.340864	44720.282457
617.688990	44411.073203
618.037063	45030.835178
618.385082	44978.381972
618.733048	45279.863136
619.080961	45280.213497
619.428821	45314.793291
619.776628	45412.412715
620.124382	45265.314366
620.472083	45396.643986
620.819731	45521.261309
621.167326	45201.447988
621.514868	45191.038006
621.862357	44740.510086
622.209793	44781.020799
622.557176	44441.468840
622.904506	44187.490468
623.251783	43833.006612
623.599007	43620.491731
623.946179	43405.882250
624.293297	43359.889282
624.640363	42741.417843
624.987376	42717.542939
625.334336	42495.686799
625.681243	42131.997796
626.028097	42093.102774
626.374899	41942.911677
626.721647	41930.822990
627.068343	41817.449961
627.414987	41575.668661
627.761577	41344.541839
628.108115	41674.243383
628.454600	41109.016611
628.801032	41297.233131
629.147412	41267.800354
629.493739	41247.671027
629.840014	40901.573130
630.186236	41235.499161
630.532405	40801.158387
630.878521	41031.695393
631.224585	40920.618609
631.570597	40608.009097
631.916556	40771.586978
632.262462	40727.126522
632.608316	40733.969888
632.954117	40637.429271
633.299866	40609.760898
633.645562	40542.590044
633.991206	40073.863559
634.336797	39619.877409
634.682336	39601.930901
635.027823	39370.055468
635.373257	39196.261689
635.718639	38952.388310
636.063968	38810.636105
636.409245	38242.356914
636.754470	38280.596587
637.099642	38041.834938
637.444762	37542.092754
637.789829	37686.771349
638.134845	37339.259409
638.479808	37287.146481
638.824719	37179.598505
639.169577	36797.017778
639.514383	36864.445731
639.859137	36538.734260
640.203839	36788.034441
640.548489	36418.003667
640.893086	36493.394123
641.237632	36237.706799
641.582125	36354.921188
641.926566	36278.610722
642.270955	36248.331031
642.615292	36274.209794
642.959576	36220.970169
643.303809	36221.733903
643.647990	36383.315487
643.992118	36345.663109
644.336195	36321.445406
644.680219	36404.233755
645.024192	36708.419499
645.368112	37236.213183
645.711981	37222.357572
646.055797	38095.611447
646.399562	38012.813015
646.743274	38964.660999
647.086935	39404.300026
647.430544	39284.912900
647.774101	39411.276983
648.117606	39679.599958
648.461059	39974.036110
648.804460	39588.871792
649.147810	38967.350455
649.491108	38709.064417
649.834354	38355.182979
650.177548	37517.605349
650.520690	37072.111022
650.863781	37078.336847
651.206820	36940.405837
651.549807	36494.510738
651.892742	35996.472464
652.235626	35809.571686
652.578458	35669.762845
652.921238	35048.027259
653.263967	35386.570987
653.606644	35061.358591
653.949269	34996.027757
654.291843	34572.732151
654.634365	34987.114997
654.976836	34569.137808
655.319255	34591.792754
655.661622	34574.710804
656.003938	34364.167014
656.346203	34218.016402
656.688416	34436.802479
657.030577	34245.273921
657.372687	34079.916513
657.714746	34345.451730
658.056753	34466.540245
658.398708	33905.346396
658.740612	33970.982219
659.082465	34235.514247
659.424266	34059.656116
659.766016	34196.891447
660.107715	34068.279009
660.449362	34178.879404
660.790958	34155.906866
661.132503	34167.980429
661.473996	34207.193045
661.815438	34325.680325
662.156829	34520.034449
662.498168	34273.408600
662.839456	34296.628155
663.180693	34446.025270
663.521879	34619.103205
663.863013	34569.823405
664.204097	34551.546702
664.545129	35002.084704
664.886110	34982.076364
665.227040	35055.336932
665.567918	35163.474723
665.908746	35209.475252
666.249522	35374.631014
666.590248	35380.521602
666.930922	35479.605481
667.271545	35457.333663
667.612118	35532.708996
667.952639	35315.405018
668.293109	35372.647320
668.633528	35251.717601
668.973896	35204.366043
669.314213	35237.133543
669.654480	34965.070032
669.994695	34998.618910
670.334859	34875.362699
670.674973	34778.133965
671.015035	34933.020896
671.355047	34874.793048
671.695008	34822.475954
672.034918	34711.600816
672.374777	34804.375691
672.714585	34633.793127
673.054342	34861.612952
673.394049	34604.630052
673.733705	34884.817383
674.073310	34542.636463
674.412864	34609.225064
674.752368	34221.981269
675.091820	34534.958785
675.431223	34100.804534
675.770574	33807.706808
676.109875	33671.421734
676.449125	33396.699014
676.788324	33326.410206
677.127473	32771.434621
677.466571	32701.533981
677.805619	32341.832531
678.144616	32343.493591
678.483562	32261.748761
678.822458	31923.051278
679.161303	31854.153828
679.500098	31764.746444
679.838842	31640.602990
680.177535	31794.272482
680.516179	32064.432958
680.854771	32324.362412
681.193314	33183.536345
681.531805	34295.148576
681.870247	35037.503851
682.208638	35748.177993
682.546978	35968.723433
682.885268	36076.533549
683.223508	35552.402263
683.561697	35230.948047
683.899836	35033.360022
684.237925	34529.476531
684.575963	34366.382601
684.913951	33886.126997
685.251889	34030.878689
685.589776	34012.269269
685.927614	34008.198538
686.265401	34145.123838
686.603137	34222.664346
686.940824	34731.291563
687.278460	35099.041216
687.616046	35210.057506
687.953582	35809.206202
688.291068	35660.287997
688.628504	35948.994878
688.965889	35890.293162
689.303224	35535.917690
689.640510	35189.834917
689.977745	34460.458093
690.314930	33666.294881
690.652065	33170.809952
690.989150	32436.197890
691.326185	31517.462725
691.663170	30822.572435
692.000105	30056.869056
692.336990	29382.781087
692.673825	28921.429811
693.010610	28394.044460
693.347345	27806.389595
693.684030	27123.870296
694.020665	26841.817738
694.357251	26157.523953
694.693786	26106.643588
695.030272	25866.606527
695.366707	25306.017616
695.703093	25012.662792
696.039429	25002.489743
696.375716	24731.074020
696.711952	24689.308060
697.048139	24512.275340
697.384276	24328.484953
697.720363	24461.654594
698.056400	24258.372586
698.392388	24023.946329
698.728326	23998.705272
699.064214	23786.530668
699.400053	23728.786771
699.735842	23369.700342
700.071581	23085.366662
700.407270	22787.835241
700.742910	22596.536056
701.078501	22326.211742
701.414042	22049.996841
701.749533	21741.528637
702.084974	21377.136393
702.420366	21600.749375
702.755709	21146.682565
703.091002	20848.407575
703.426246	20853.345385
703.761440	20747.070300
704.096584	20480.090792
704.431679	20422.679612
704.766725	20329.443471
705.101721	20261.027452
705.436668	20344.266984
705.771565	20012.128042
706.106413	20356.653099
706.441212	20359.818944
706.775961	20483.881740
707.110661	20546.301307
707.445311	20908.553581
707.779913	20723.190354
708.114465	20976.505814
708.448967	21235.021225
708.783421	21943.784770
709.117825	22203.946118
709.452180	22410.330956
709.786485	22809.532367
710.120742	23610.304532
710.454949	23611.632876
710.789107	24070.408123
711.123216	24780.840291
711.457275	24883.664706
711.791286	25434.304899
712.125247	25516.392528
712.459159	25201.852254
712.793023	25885.238631
713.126837	24790.252125
713.460602	25076.201495
713.794318	24707.118457
714.127985	24320.041021
714.461602	23427.194701
714.795171	23395.586667
715.128691	22364.690870
715.462162	21825.970484
715.795584	21415.000499
716.128957	21146.778347
716.462281	20740.935216
716.795556	20513.352325
717.128782	19994.128603
717.461960	19431.876111
717.795088	19351.709162
718.128167	18936.829762
718.461198	18474.729875
718.794180	18328.029777
719.127113	17958.669476
719.459997	17762.104805
719.792833	17393.745173
720.125619	17366.505298
720.458357	17028.440480
720.791046	16850.812904
721.123686	16679.869897
721.456278	16447.875997
721.788821	16404.252373
722.121315	16132.453522
722.453761	16208.854729
722.786158	16126.739374
723.118506	16139.291847
723.450805	15989.481358
723.783056	16151.909855
724.115259	16045.682661
724.447412	15966.665095
724.779518	16206.903803
725.111574	16227.081021
725.443582	16433.211281
725.775542	16414.780823
726.107453	16891.200108
726.439315	16750.786329
726.771129	17152.770458
727.102895	17522.695368
727.434612	17724.691882
727.766281	17843.748812
728.097901	18107.532228
728.429473	18155.302202
728.760996	18138.368967
729.092471	18240.689266
729.423897	18120.752654
729.755276	17986.771388
730.086606	18105.281353
730.417887	18628.260736
730.749120	19144.883223
731.080305	19309.187030
731.411442	19640.290014
731.742530	19713.089317
732.073570	19817.990687
732.404562	20110.954822
732.735506	19934.257339
733.066401	19637.739190
733.397249	19101.126008
733.728048	18479.279516
734.058798	17638.427657
734.389501	16955.089171
734.720156	16490.304869
735.050762	15955.677901
735.381320	15587.255254
735.711831	15349.658112
736.042293	14996.207692
736.372707	14994.307177
736.703073	14778.563436
737.033391	14960.385253
737.363661	14925.649182
737.693883	15011.331153
738.024056	15174.359548
738.354182	15338.655793
738.684260	15619.886643
739.014290	15830.420351
739.344272	16010.366858
739.674207	16289.578726
740.004093	16401.628452
740.333931	16400.834470
740.663722	16441.667817
740.993464	16445.559587
741.323159	16275.309740
741.652806	16012.653021
741.982405	15795.444826
742.311956	15462.733713
742.641460	15355.357136
742.970915	15057.800510
743.300323	14715.130598
743.629683	14512.108209
743.958996	14234.910282
744.288260	13951.393269
744.617477	13654.073577
744.946647	13581.339809
745.275768	13309.314107
745.604842	13123.177063
745.933869	12944.808437
746.262847	12903.528948
746.591778	12822.202534
746.920662	12709.419320
747.249498	12704.952857
747.578286	12816.054847
747.907027	12967.750728
748.235720	13186.163759
748.564365	13203.371738
748.892963	13101.245523
749.221514	13155.049758
749.550017	13012.929549
749.878473	12968.156541
750.206881	12744.740164
750.535242	12648.048313
750.863555	12569.149214
751.191821	12454.591513
751.520039	12475.708907
751.848210	12385.893189
752.176334	12417.113055
752.504411	12318.308960
752.832440	12149.253866
753.160421	12212.205275
753.488356	12086.138620
753.816243	12001.694252
754.144082	11855.858712
754.471875	11788.718105
754.799620	11737.018551
755.127318	11709.529139
755.454969	11673.026144
755.782572	11625.046963
756.110129	11634.388221
756.437638	11547.060313
756.765100	11539.632172
757.092515	11542.475383
757.419882	11549.858153
757.747203	11556.560367
758.074477	11620.590583
758.401703	11576.455281
758.728882	11728.277191
759.056014	11771.371494
759.383099	11883.277548
759.710138	11981.063330
760.037129	12072.149418
760.364073	12084.396901
760.690970	12065.860578
761.017820	12072.136815
761.344623	12271.486723
761.671379	12610.287550
761.998088	13278.444601
762.324751	14868.338825
762.651366	17777.883617
762.977935	21377.181763
763.304456	23484.051355
763.630931	23906.358895
763.957359	22747.206062
764.283740	20863.951973
764.610074	19005.336523
764.936362	16890.073410
765.262602	15369.361461
765.588796	13913.226693
765.914943	12896.481415
766.241044	12035.059128
766.567097	11393.847044
766.893104	10846.962511
767.219064	10483.822993
767.544978	10103.679664
767.870845	9785.000603
768.196665	9588.841745
768.522438	9398.744875
768.848165	9232.936284
769.173846	9064.070233
769.499479	8942.248229
769.825066	8785.864075
770.150607	8595.245446
770.476101	8534.383595
770.801548	8428.214375
771.126949	8285.206922
771.452303	8193.538581
771.777611	8033.524796
772.102872	8013.254316
772.428087	7888.886530
772.753256	7770.121987
773.078378	7678.257040
773.403453	7533.739763
773.728482	7425.728000
774.053465	7359.683844
774.378401	7270.631861
774.703291	7171.676532
775.028135	7075.730771
775.352932	7037.843979
775.677683	6956.323480
776.002388	6864.808894
776.327046	6860.160950
776.651658	6770.597290
776.976224	6700.825201
777.300743	6684.880031
777.625216	6615.223888
777.949643	6572.600932
778.274024	6573.394914
778.598359	6510.526684
778.922647	6507.839749
779.246889	6470.842721
779.571086	6473.970757
779.895236	6477.623073
780.219339	6473.242310
780.543397	6469.532021
780.867409	6521.385329
781.191374	6518.612695
781.515294	6489.220247
781.839167	6533.363111
782.162995	6512.570872
782.486776	6461.546833
782.810511	6422.697181
783.134201	6347.246232
783.457844	6334.565209
783.781441	6288.668024
784.104993	6240.903091
784.428498	6214.164811
784.751958	6202.197112
785.075372	6178.581827
785.398739	6132.946782
785.722061	6156.370503
786.045337	6158.795298
786.368568	6270.101454
786.691752	6293.041225
787.014891	6545.393825
787.337983	6819.027655
787.661030	7255.533605
787.984031	7675.171854
788.306987	7919.728310
788.629897	8002.047831
788.952760	7915.831498
789.275579	7751.663802
789.598351	7446.134591
789.921078	7182.618356
790.243759	6912.193220
790.566395	6711.761984
790.888984	6514.557087
791.211529	6381.042127
791.534027	6214.041303
791.856480	6081.784111
792.178888	6019.614081
792.501249	5954.157219
792.823566	5846.994891
793.145836	5837.530125
793.468062	5823.828269
793.790241	5777.187513
794.112375	5820.664945
794.434464	5914.871507
794.756507	5943.243121
795.078505	6067.804992
795.400457	6277.345592
795.722364	6508.663978
796.044226	6698.095416
796.366042	6852.024528
796.687812	6802.769934
797.009538	6833.478123
797.331218	6744.002683
797.652852	6678.150091
797.974442	6564.038532
798.295986	6491.498849
798.617484	6361.167378
798.938938	6259.197438
799.260346	6190.630184
799.581709	6046.584254
799.903026	6000.180433
800.224299	5926.907262
800.545526	5810.489376
800.866708	5744.553604
801.187845	5694.434452
801.508936	5613.879335
801.829983	5588.602989
802.150984	5477.216174
802.471940	5459.715809
802.792851	5437.978353
803.113717	5407.771760
803.434538	5383.465836
803.755314	5350.968038
804.076045	5339.920349
804.396731	5305.138908
804.717372	5322.039377
805.037967	5316.279858
805.358518	5341.528478
805.679024	5398.874123
805.999485	5406.065329
806.319901	5421.677783
806.640272	5433.431233
806.960598	5483.794880
807.280879	5479.920753
807.601115	5509.666082
807.921306	5473.337007
808.241453	5470.150997
808.561554	5483.071475
808.881611	5453.527792
809.201623	5450.379592
809.521590	5403.683384
809.841513	5387.627309
810.161390	5405.057098
810.481223	5315.642153
810.801011	5306.963806
811.120755	5284.568480
811.440453	5233.511674
811.760107	5202.962282
812.079716	5181.396226
812.399281	5128.171723
812.718801	5120.347853
813.038276	5091.154531
813.357707	5052.183891
813.677093	5080.449640
813.996434	5013.286348
814.315731	5037.562024
814.634983	5034.784348
814.954191	5045.990833
815.273354	5100.831025
815.592473	5142.942304
815.911547	5218.312595
816.230577	5269.210605
816.549562	5358.933061
816.868502	5410.365433
817.187399	5467.859793
817.506250	5552.067227
817.825058	5578.404735
818.143821	5734.962809
818.462539	5906.583850
818.781213	6143.122351
819.099843	6505.276322
819.418429	7135.773434
819.736970	7753.289574
820.055466	8461.838871
820.373919	9404.476667
820.692327	10917.090002
821.010691	13749.321138
821.329011	20117.387335
821.647286	29559.287007
821.965517	39493.263789
822.283704	44450.663905
822.601847	45654.599828
822.919945	41170.876610
823.237999	36253.054592
823.556010	31250.135377
823.873976	26699.493362
824.191897	22595.064039
824.509775	19592.749413
824.827609	16876.903396
825.145398	15368.746441
825.463144	14667.789122
825.780845	15010.673283
826.098502	16298.725899
826.416116	18686.291978
826.733685	20784.679828
827.051210	21121.244903
827.368692	19638.875971
827.686129	17139.441647
828.003522	14751.789868
828.320872	12612.946758
828.638177	11006.885555
828.955439	9799.060381
829.272656	8744.420750
829.589830	7919.125892
829.906960	7195.579162
830.224046	6676.516757
830.541088	6269.186485
830.858086	6013.204254
831.175041	5816.606816
831.491952	5758.631026
831.808819	5801.770700
832.125642	6059.633281
832.442421	6628.083871
832.759157	7764.455730
833.075849	9520.947485
833.392497	11292.141766
833.709101	12310.986684
834.025662	11995.521359
834.342179	10948.884559
834.658653	9680.789871
834.975083	8620.108416
835.291469	7742.967812
835.607811	7014.042171
835.924110	6504.250447
836.240366	6024.985431
836.556578	5573.764353
836.872746	5224.175457
837.188871	4955.542451
837.504952	4736.269903
837.820990	4572.318977
838.136984	4454.978559
838.452935	4417.515224
838.768842	4450.050831
839.084706	4758.256895
839.400526	5509.749261
839.716303	6386.352982
840.032037	6905.107878
840.347727	6723.218006
840.663373	6129.549044
840.978977	5569.418878
841.294537	5144.079084
841.610054	4819.675793
841.925527	4582.456737
842.240957	4378.489132
842.556344	4192.281512
842.871687	4034.475752
843.186987	3887.765572
843.502244	3769.542953
843.817458	3684.135725
844.132629	3609.831637
844.447756	3563.906726
844.762840	3517.076927
845.077881	3475.288283
845.392879	3442.319136
845.707833	3416.566402
846.022745	3389.795354
846.337613	3377.363869
846.652438	3354.797144
846.967221	3346.398582
847.281960	3326.579285
847.596656	3316.723829
847.911309	3301.497024
848.225919	3290.409006
848.540485	3279.981380
848.855009	3273.190945
849.169490	3260.361209
849.483928	3251.420722
849.798323	3249.419384
850.112675	3239.508476
850.426984	3235.788104
850.741251	3232.281982
851.055474	3228.415417
851.369654	3226.991291
851.683792	3224.352247
851.997887	3223.066753
852.311938	3227.114799
852.625947	3228.107907
852.939914	3218.993500
853.253837	3228.813668
853.567718	3223.379304
853.881555	3217.634909
854.195350	3223.364181
854.509103	3220.226062
854.822812	3218.302862
855.136479	3212.258519
855.450103	3217.009806
855.763685	3210.549568
856.077224	3213.470916
856.390720	3220.175651
856.704173	3231.084708
857.017584	3232.773494
857.330953	3241.739187
857.644278	3247.357552
857.957561	3251.491299
858.270802	3247.652460
858.584000	3246.906369
858.897155	3239.137951
859.210268	3233.771643
859.523339	3220.531052
859.836367	3218.645661
860.149352	3213.695248
860.462295	3207.277859
860.775195	3198.755788
861.088054	3197.780325
861.400869	3196.184800
861.713642	3192.247659
862.026373	3201.142775
862.339062	3201.843495
862.651708	3213.488560
862.964312	3231.240984
863.276873	3239.233733
863.589392	3267.895213
863.901869	3294.252886
864.214303	3314.818273
864.526696	3332.883248
864.839045	3351.772452
865.151353	3360.493648
865.463619	3362.618494
865.775842	3368.688043
866.088023	3368.446068
866.400162	3364.455995
866.712258	3364.607229
867.024313	3367.195862
867.336325	3366.643855
867.648296	3365.507075
867.960224	3363.704863
868.272110	3367.760471
868.583954	3368.287272
868.895755	3372.637787
869.207515	3369.721480
869.519233	3391.020355
869.830909	3398.163670
870.142542	3405.939650
870.454134	3413.196391
870.765684	3427.745161
871.077191	3446.805763
871.388657	3455.441260
871.700081	3475.598313
872.011463	3494.343844
872.322803	3510.354549
872.634101	3529.510933
872.945357	3547.991803
873.256571	3579.746031
873.567744	3592.747167
873.878874	3594.892178
874.189963	3614.663583
874.501010	3616.359932
874.812015	3614.368676
875.122979	3628.977940
875.433900	3625.892754
875.744780	3630.190337
876.055618	3637.187459
876.366415	3638.062099
876.677169	3644.600476
876.987882	3662.728465
877.298554	3686.011034
877.609183	3722.549317
877.919771	3771.592182
878.230317	3841.495342
878.540822	3947.225982
878.851285	4100.091411
879.161707	4334.016073
879.472087	4720.836410
879.782425	5364.105285
880.092722	6572.545479
880.402977	8500.282710
880.713191	10796.979470
881.023363	13048.328531
881.333494	14243.669287
881.643583	14651.279343
881.953631	14224.631369
882.263637	13438.818828
882.573602	12460.822379
882.883526	11553.560881
883.193408	10638.150357
883.503248	9747.905272
883.813048	8949.114281
884.122806	8204.067031
884.432522	7446.926052
884.742197	6803.974770
885.051831	6254.025215
885.361424	5765.182006
885.670975	5375.500813
885.980485	5058.727308
886.289954	4797.575375
886.599382	4579.701747
886.908768	4400.705497
887.218113	4240.414449
887.527417	4106.541567
887.836680	3987.151921
888.145901	3887.758011
888.455082	3813.486691
888.764221	3743.056731
889.073319	3683.243440
889.382376	3647.829335
889.691392	3627.573978
890.000366	3617.824387
890.309300	3610.101339
890.618193	3613.655353
890.927044	3610.481946
891.235855	3619.114922
891.544625	3632.521871
891.853353	3662.405831
892.162041	3725.609297
892.470687	3817.391065
892.779293	3937.957821
893.087858	4115.141776
893.396381	4400.874376
893.704864	4816.953570
894.013306	5375.399990
894.321707	5918.155819
894.630068	6234.059725
894.938387	6249.389874
895.246665	6072.702473
895.554903	5762.847951
895.863100	5444.602430
896.171256	5185.320764
896.479371	4953.316782
896.787446	4737.767125
897.095480	4544.317888
897.403473	4396.581833
897.711425	4258.345833
898.019336	4136.231443
898.327207	4016.587218
898.635038	3916.537958
898.942827	3810.754386
899.250576	3728.533167
899.558284	3644.413953
899.865952	3594.264554
900.173579	3530.718290
900.481165	3487.329078
900.788711	3442.614044
901.096216	3412.538520
901.403681	3386.090106
901.711105	3371.962273
902.018489	3372.189125
902.325832	3407.048703
902.633135	3470.821820
902.940397	3644.459323
903.247619	4069.665527
903.554800	4820.361390
903.861941	5750.711373
904.169041	6405.602628
904.476101	6580.467653
904.783121	6300.323172
905.090100	5913.896044
905.397039	5518.291496
905.703938	5176.463457
906.010796	4861.953430
906.317614	4617.986789
906.624391	4380.503073
906.931129	4187.595759
907.237826	4011.223430
907.544483	3844.895600
907.851099	3677.360414
908.157675	3517.966691
908.464211	3376.292624
908.770707	3279.361318
909.077163	3201.306612
909.383578	3141.352169
909.689954	3099.172835
909.996289	3065.921384
910.302584	3048.942778
910.608839	3032.367464
910.915054	3022.940507
911.221229	3016.790299
911.527363	3024.339427
911.833458	3031.777649
912.139513	3044.151162
912.445527	3054.782955
912.751502	3089.329982
913.057436	3134.322280
913.363331	3193.679346
913.669186	3284.868778
913.975000	3407.053745
914.280775	3593.218515
914.586510	3867.704301
914.892205	4249.228906
915.197859	4732.673039
915.503475	5294.023164
915.809050	5756.851499
916.114585	6011.028996
916.420081	6056.278393
916.725536	5995.817315
917.030952	5769.877840
917.336328	5571.493313
917.641665	5370.371439
917.946961	5154.272297
918.252218	4956.560764
918.557435	4741.754678
918.862612	4545.832754
919.167750	4377.385119
919.472848	4192.740257
919.777906	4029.802603
920.082925	3874.991289
920.387904	3725.541242
920.692843	3620.087865
920.997743	3521.087165
921.302603	3427.901436
921.607423	3367.279041
921.912204	3302.205306
922.216946	3250.581370
922.521647	3204.671582
922.826310	3162.361178
923.130932	3125.341465
923.435516	3088.225970
923.740059	3058.490724
924.044564	3026.776825
924.349028	3002.551560
924.653454	2973.212045
924.957840	2946.577108
925.262186	2931.778801
925.566493	2907.109915
925.870761	2883.451780
926.174989	2870.243957
926.479178	2855.554034
926.783328	2838.131807
927.087438	2828.102431
927.391509	2814.834114
927.695541	2804.620737
927.999533	2792.673202
928.303486	2784.955195
928.607400	2779.082251
928.911275	2775.147631
929.215110	2765.859305
929.518906	2763.815117
929.822663	2763.442071
930.126381	2762.143974
930.430060	2766.759151
930.733699	2764.447782
931.037299	2772.110335
931.340861	2771.155037
931.644383	2772.846344
931.947866	2770.517331
932.251309	2767.928698
932.554714	2768.642022
932.858080	2766.209665
933.161407	2762.587596
933.464694	2757.858993
933.767943	2757.639703
934.071153	2750.052767
934.374323	2746.856675
934.677455	2745.931623
934.980548	2740.971128
935.283602	2738.798391
935.586617	2736.839902
935.889593	2743.385841
936.192530	2743.035481
936.495428	2749.465472
936.798287	2756.976792
937.101108	2770.678648
937.403890	2793.507513
937.706632	2816.447283
938.009336	2848.428363
938.312002	2873.649256
938.614628	2897.604819
938.917216	2917.270360
939.219765	2925.910898
939.522275	2937.497990
939.824747	2937.523196
940.127179	2930.553801
940.429573	2925.285795
940.731929	2926.478028
941.034246	2917.514856
941.336524	2915.044691
941.638763	2909.328023
941.940964	2902.109090
942.243126	2885.614435
942.545250	2876.084133
942.847335	2866.125334
943.149381	2850.346522
943.451389	2836.390088
943.753359	2823.411637
944.055290	2817.054742
944.357182	2810.584422
944.659036	2802.362300
944.960851	2799.940025
945.262628	2795.239149
945.564367	2795.707977
945.866067	2792.274951
946.167729	2790.145063
946.469352	2791.143212
946.770937	2788.221863
947.072484	2780.944957
947.373992	2781.300359
947.675462	2776.906993
947.976893	2774.809873
948.278286	2771.238216
948.579641	2769.080602
948.880958	2764.110024
949.182236	2764.939294
949.483476	2761.947369
949.784678	2760.929056
950.085841	2759.154570
950.386967	2762.824530
950.688054	2765.284613
950.989103	2777.025460
951.290114	2784.246913
951.591087	2795.375260
951.892021	2806.475881
952.192917	2819.325782
952.493776	2830.575117
952.794596	2832.137875
953.095378	2834.537464
953.396122	2834.671055
953.696828	2831.807679
953.997496	2824.712255
954.298126	2815.118939
954.598718	2809.092240
954.899272	2796.398615
955.199788	2787.115330
955.500266	2776.357507
955.800706	2761.602050
956.101108	2742.937178
956.401472	2735.476270
956.701798	2722.417161
957.002087	2707.230685
957.302337	2699.890765
957.602550	2689.016997
957.902724	2679.824452
958.202861	2673.777588
958.502960	2663.952380
958.803022	2656.887202
959.103045	2648.977632
959.403031	2643.442445
959.702979	2638.648308
960.002889	2635.820221
960.302762	2629.564149
960.602596	2624.727162
960.902393	2623.907974
961.202153	2620.991667
961.501875	2614.838938
961.801559	2614.176027
962.101205	2610.019595
962.400814	2606.142948
962.700385	2610.770727
962.999918	2606.233689
963.299414	2602.651949
963.598873	2602.888883
963.898293	2599.914602
964.197677	2599.135744
964.497022	2599.675148
964.796331	2598.588779
965.095601	2595.735486
965.394835	2597.691453
965.694030	2594.271031
965.993189	2595.753130
966.292309	2595.120465
966.591393	2592.473859
966.890439	2594.868407
967.189447	2591.594178
967.488419	2593.986205
967.787353	2592.935125
968.086249	2595.405290
968.385108	2594.225660
968.683930	2594.260948
968.982714	2595.075095
969.281462	2599.014756
969.580172	2601.406784
969.878844	2600.607761
970.177480	2601.963831
970.476078	2605.432145
970.774639	2607.468771
971.073162	2611.229472
971.371649	2609.759976
971.670098	2610.155706
971.968510	2612.953547
972.266885	2611.007661
972.565223	2621.004269
972.863524	2617.286418
973.161788	2621.488220
973.460014	2620.212808
973.758204	2624.649024
974.056356	2623.713890
974.354471	2623.660957
974.652550	2624.122223
974.950591	2625.627007
975.248595	2623.512243
975.546563	2623.827316
975.844493	2622.025103
976.142386	2617.394803
976.440243	2617.273816
976.738062	2615.426233
977.035845	2612.313320
977.333590	2609.719647
977.631299	2609.361725
977.928971	2605.054059
978.226606	2605.474995
978.524204	2603.317381
978.821765	2600.945518
979.119290	2602.581373
979.416777	2601.268152
979.714228	2603.216558
980.011642	2603.277052
980.309020	2607.756117
980.606360	2612.424226
980.903664	2619.882613
981.200931	2633.077833
981.498162	2651.311686
981.795356	2682.037519
982.092513	2716.090513
982.389633	2757.276740
982.686717	2798.054634
982.983764	2825.314673
983.280775	2843.230934
983.577749	2843.467868
983.874686	2833.015036
984.171587	2815.439053
984.468451	2803.531847
984.765279	2786.336472
985.062070	2766.459202
985.358824	2750.629979
985.655543	2729.910837
985.952224	2708.196066
986.248869	2682.289577
986.545478	2660.055568
986.842050	2638.610499
987.138586	2622.400669
987.435086	2607.819132
987.731549	2596.925198
988.027975	2590.578385
988.324366	2585.600246
988.620719	2582.961202
988.917037	2578.867785
989.213318	2580.974987
989.509563	2574.076168
989.805772	2573.738411
990.101944	2570.885118
990.398080	2570.174315
990.694180	2571.754717
990.990244	2568.896383
991.286271	2569.801270
991.582262	2569.037535
991.878217	2570.544840
992.174136	2571.916034
992.470019	2573.219172
992.765865	2573.304872
993.061676	2577.083217
993.357450	2579.142528
993.653188	2583.717375
993.948890	2590.780032
994.244556	2596.254725
994.540186	2601.999119
994.835780	2615.171654
995.131337	2628.281175
995.426859	2643.424801
995.722345	2661.479694
996.017795	2679.648012
996.313208	2692.013962
996.608586	2698.522092
996.903928	2704.573997
997.199234	2702.665921
997.494504	2698.622915
997.789738	2692.671833
998.084936	2681.379648
998.380099	2671.554440
998.675225	2663.808707
998.970316	2650.202632
999.265371	2635.593369
999.560390	2623.965947
999.855373	2610.843824
1000.150320	2604.595314
1000.445232	2595.065012
1000.740108	2587.667119
1001.034948	2582.883064
1001.329752	2578.880388
1001.624521	2573.574573
1001.919254	2568.515776
1002.213951	2566.511917
1002.508613	2562.748696
1002.803239	2561.906823
1003.097829	2559.655948
1003.392384	2559.250135
1003.686903	2559.161915
1003.981386	2558.057902
1004.275834	2554.997922
1004.570246	2558.428427
1004.864623	2555.726368
1005.158964	2552.237890
1005.453270	2554.904660
1005.747540	2550.755791
1006.041775	2549.964329
1006.335974	2553.825853
1006.630138	2551.035575
1006.924266	2549.775286
1007.218359	2550.206305
1007.512416	2551.287632
1007.806438	2550.917107
1008.100425	2550.191181
1008.394376	2551.655637
1008.688292	2550.110523
1008.982172	2549.480379
1009.276017	2548.444422
1009.569827	2551.267468
1009.863602	2549.180430
1010.157341	2549.258568
1010.451045	2548.842673
1010.744714	2547.650440
1011.038347	2548.194884
1011.331945	2546.369987
1011.625508	2546.642209
1011.919036	2543.831766
1012.212528	2546.034750
1012.505986	2546.226314
1012.799408	2547.395862
1013.092795	2546.122970
1013.386147	2545.462579
1013.679464	2546.478372
1013.972745	2546.372507
1014.265992	2545.276056
1014.559204	2545.243289
1014.852380	2545.651622
1015.145521	2543.625078
1015.438628	2545.061807
1015.731699	2546.770758
1016.024736	2545.381921
1016.317737	2545.064328
1016.610703	2544.817311
1016.903635	2543.362938
1017.196531	2544.136756
1017.489393	2544.139276
1017.782219	2544.872764
1018.075011	2545.938968
1018.367768	2547.912580
1018.660490	2546.133052
1018.953177	2546.133052
1019.245829	2546.133052
