Dividing Wavelength (nm)	Counts (n)	Blue Motor Position (mm): 25.400000	Red Motor Position (mm): 0.000000	
326.493990	2058.106510
326.888308	2058.106510
327.282561	2058.106510
327.676750	2031.264887
328.070874	2035.012985
328.464933	2041.916845
328.858929	2049.561755
329.252859	2058.373692
329.646726	2072.015054
330.040528	2090.034658
330.434265	2105.218614
330.827938	2127.026645
331.221547	2148.028092
331.615091	2168.628767
332.008571	2189.287416
332.401986	2208.917669
332.795338	2229.460371
333.188625	2249.067939
333.581847	2269.930754
333.975006	2287.960441
334.368100	2303.603141
334.761129	2319.969247
335.154095	2337.194870
335.546996	2384.294370
335.939833	2487.287664
336.332606	2495.983654
336.725315	2512.017044
337.117960	2520.612211
337.510540	2531.992616
337.903056	2539.939995
338.295508	2544.378731
338.687896	2553.916594
339.080220	2557.122768
339.472480	2560.268448
339.864676	2565.458316
340.256807	2568.868656
340.648875	2571.500139
341.040879	2571.485015
341.432818	2578.625810
341.824694	2573.113308
342.216506	2570.005437
342.608253	2573.385530
342.999937	2575.374265
343.391557	2573.493915
343.783113	2568.898903
344.174605	2565.662482
344.566033	2565.380178
344.957397	2564.230795
345.348697	2561.884138
345.739934	2559.345917
346.131106	2560.235680
346.522215	2559.292985
346.913260	2556.210319
347.304241	2555.063457
347.695159	2551.471634
348.086012	2553.707386
348.476802	2549.898794
348.867528	2546.927034
349.258191	2544.250182
349.648789	2544.792106
350.039324	2541.974101
350.429796	2546.700182
350.820203	2542.316899
351.210548	2545.679349
351.600828	2545.860830
351.991045	2541.865716
352.381198	2539.652649
352.771288	2540.950746
353.161314	2539.272042
353.551276	2539.773637
353.941175	2542.024512
354.331010	2541.139790
354.720782	2541.238092
355.110490	2543.766231
355.500135	2542.768082
355.889717	2540.872608
356.279235	2542.800850
356.668689	2542.568957
357.058080	2541.681714
357.447408	2542.866385
357.836672	2543.781354
358.225873	2543.700696
358.615010	2543.763710
359.004084	2545.817980
359.393095	2545.767569
359.782043	2544.144317
360.170927	2546.410316
360.559748	2545.321427
360.948505	2546.581715
361.337199	2548.953578
361.725830	2549.278732
362.114398	2549.412323
362.502903	2548.227652
362.891344	2548.885522
363.279722	2548.971222
363.668037	2552.303425
364.056289	2551.453990
364.444478	2550.266799
364.832603	2549.626572
365.220665	2552.202602
365.608665	2552.333672
365.996601	2553.324258
366.384474	2555.494475
366.772284	2552.479865
367.160031	2551.695966
367.547715	2555.023127
367.935336	2552.280740
368.322893	2554.153528
368.710388	2550.861655
369.097820	2553.165462
369.485189	2551.885009
369.872495	2556.099414
370.259738	2557.437840
370.646918	2557.011862
371.034035	2558.027655
371.421090	2555.824671
371.808081	2558.766184
372.195010	2556.432130
372.581875	2558.619991
372.968678	2556.495144
373.355418	2557.508416
373.742096	2557.455484
374.128710	2559.025803
374.515262	2557.062274
374.901751	2559.565207
375.288177	2559.242573
375.674540	2559.792059
376.060841	2562.037893
376.447079	2561.806000
376.833254	2561.508572
377.219367	2563.615774
377.605417	2560.681823
377.991404	2560.759960
378.377329	2560.558314
378.763191	2560.051678
379.148991	2565.498645
379.534727	2567.709191
379.920402	2563.930846
380.306013	2561.677450
380.691563	2565.264231
381.077049	2564.492935
381.462474	2566.272462
381.847835	2565.516289
382.233134	2564.092163
382.618371	2563.391443
383.003545	2568.581311
383.388657	2566.469067
383.773706	2567.212637
384.158693	2565.803635
384.543618	2566.811866
384.928480	2567.467216
385.313280	2568.470405
385.698017	2566.612740
386.082692	2568.503173
386.467305	2569.735735
386.851856	2569.675241
387.236344	2567.147102
387.620770	2568.276321
388.005133	2566.171639
388.389435	2568.278841
388.773674	2563.023438
389.157851	2571.971487
389.541965	2571.046435
389.926018	2570.330591
390.310008	2571.779923
390.693936	2572.967114
391.077802	2574.303020
391.461606	2571.815211
391.845348	2572.236147
392.229027	2571.870663
392.612645	2574.048442
392.996200	2570.650704
393.379694	2571.938719
393.763125	2573.015005
394.146494	2574.514749
394.529801	2574.081209
394.913047	2574.129100
395.296230	2574.242526
395.679351	2576.795871
396.062410	2572.659604
396.445408	2576.866447
396.828343	2575.099522
397.211217	2576.059862
397.594028	2578.295614
397.976778	2573.388051
398.359466	2575.976683
398.742092	2575.076837
399.124656	2575.172619
399.507158	2576.246385
399.889598	2579.059349
400.271977	2577.214287
400.654294	2578.154462
401.036549	2579.855851
401.418742	2578.240161
401.800874	2579.308886
402.182944	2578.212435
402.564952	2580.337281
402.946898	2577.869637
403.328783	2582.663774
403.710606	2583.394741
404.092367	2581.703434
404.474067	2585.615369
404.855705	2584.798702
405.237282	2580.221335
405.618797	2580.322158
406.000250	2582.091603
406.381642	2581.693352
406.762972	2580.886767
407.144240	2579.576067
407.525447	2584.070256
407.906593	2579.238310
408.287677	2584.362643
408.668700	2582.971284
409.049661	2586.825246
409.430560	2585.501943
409.811399	2587.621749
410.192176	2587.074783
410.572891	2586.590833
410.953545	2584.438260
411.334138	2582.383990
411.714669	2586.066553
412.095139	2588.423292
412.475547	2586.714341
412.855894	2589.431523
413.236180	2585.948086
413.616405	2589.615525
413.996568	2587.029413
414.376670	2589.660895
414.756711	2588.440936
415.136691	2588.647623
415.516609	2589.121492
415.896466	2587.147880
416.276262	2588.713158
416.655997	2588.846749
417.035670	2587.956985
417.415283	2590.240628
417.794834	2587.992273
418.174324	2588.201481
418.553753	2592.163828
418.933121	2588.839187
419.312428	2592.153746
419.691674	2590.822881
420.070859	2592.786411
420.449983	2591.730289
420.829045	2591.626945
421.208047	2593.822368
421.586988	2592.115937
421.965867	2592.425968
422.344686	2592.108376
422.723444	2594.326483
423.102141	2594.581062
423.480777	2590.966554
423.859352	2595.866556
424.237866	2595.087697
424.616319	2594.828078
424.994712	2595.490990
425.373044	2594.356730
425.751314	2593.315732
426.129524	2591.760536
426.507673	2591.498396
426.885762	2590.832964
427.263789	2594.843202
427.641756	2595.216247
428.019662	2597.701536
428.397508	2596.325301
428.775292	2598.906372
429.153016	2601.076588
429.530679	2596.872266
429.908282	2598.661876
430.285824	2597.774632
430.663305	2599.012236
431.040726	2597.794797
431.418086	2600.184304
431.795385	2600.401074
432.172624	2603.733276
432.549802	2601.646239
432.926920	2601.648759
433.303977	2602.659511
433.680974	2603.125817
434.057910	2602.223451
434.434786	2603.055241
434.811601	2604.325612
435.188355	2605.422063
435.565050	2604.660849
435.941683	2606.883997
436.318257	2607.791405
436.694770	2606.372320
437.071222	2609.558330
437.447614	2612.651077
437.823946	2608.345932
438.200218	2607.443566
438.576429	2608.812239
438.952580	2612.761983
439.328670	2610.299379
439.704700	2609.921293
440.080670	2610.836262
440.456580	2609.805346
440.832429	2610.863988
441.208218	2615.569906
441.583947	2617.321707
441.959616	2615.711058
442.335224	2615.431274
442.710773	2616.956223
443.086261	2618.859258
443.461689	2618.700462
443.837057	2621.210957
444.212365	2619.764146
444.587612	2621.505864
444.962800	2621.503344
445.337927	2623.892851
445.712995	2621.470576
446.088002	2628.318984
446.462949	2632.553553
446.837837	2630.632873
447.212664	2635.676548
447.587431	2641.486477
447.962139	2648.828918
448.336786	2653.310504
448.711374	2652.387973
449.085901	2651.904022
449.460369	2654.374187
449.834776	2656.330155
450.209124	2665.583193
450.583412	2671.304903
450.957640	2673.124759
451.331808	2677.011489
451.705917	2680.363856
452.079965	2684.989115
452.453954	2692.598736
452.827883	2700.694829
453.201752	2706.479553
453.575562	2713.028012
453.949311	2728.796742
454.323001	2738.727815
454.696632	2748.840369
455.070202	2769.950201
455.443713	2781.055863
455.817164	2798.082360
456.190556	2815.728919
456.563888	2830.527226
456.937160	2849.519773
457.310373	2855.072604
457.683526	2872.651108
458.056619	2894.882596
458.429653	2916.113416
458.802628	2944.555606
459.175542	2966.983699
459.548398	3017.609487
459.921194	3071.297775
460.293930	3119.110599
460.666607	3192.245138
461.039224	3265.835902
461.411782	3314.432625
461.784280	3326.569203
462.156719	3358.888040
462.529099	3391.900036
462.901419	3396.411869
463.273680	3414.335691
463.645882	3466.466263
464.018024	3510.871267
464.390106	3589.523349
464.762130	3746.209972
465.134094	3961.769711
465.505999	4241.589038
465.877845	4500.187627
466.249631	4649.690606
466.621358	4656.929703
466.993026	4648.304289
467.364634	4647.553157
467.736184	4645.980317
468.107674	4656.944826
468.479105	4713.907344
468.850477	4754.055093
469.221790	4780.390081
469.593043	4769.730561
469.964238	4799.690139
470.335373	4889.210949
470.706449	5099.066622
471.077467	5378.969127
471.448425	5849.573442
471.819324	6196.266194
472.190164	6211.084666
472.560945	6009.758626
472.931667	5852.038566
473.302330	5902.382049
473.672934	5912.655920
474.043479	6098.281287
474.413965	6159.972407
474.784393	6225.850206
475.154761	6458.527182
475.525070	6594.857626
475.895321	6659.742317
476.265513	6884.723972
476.635645	7136.280070
477.005719	7271.836697
477.375734	7486.171435
477.745691	7773.996114
478.115588	8071.867812
478.485427	8560.058192
478.855207	9241.178570
479.224928	9904.561649
479.594591	10402.075642
479.964194	10405.110417
480.333739	10675.890955
480.703226	10946.560587
481.072653	11296.583022
481.442022	11647.099490
481.811333	11927.662387
482.180584	11945.218205
482.549777	12065.182543
482.918912	12181.270234
483.287988	12349.622087
483.657005	12477.657313
484.025964	12535.847352
484.394864	12804.518166
484.763706	12987.738903
485.132489	12982.722955
485.501213	13199.492570
485.869879	13471.677069
486.238487	13648.853462
486.607036	13960.149753
486.975527	14033.669941
487.343959	14370.875243
487.712333	14709.265215
488.080648	14901.857457
488.448905	15308.242512
488.817104	15478.565457
489.185244	16135.775642
489.553326	16932.146880
489.921350	18193.970373
490.289315	19680.921714
490.657222	20284.337747
491.025070	20754.291753
491.392861	20797.257507
491.760593	20596.362485
492.128267	20278.643764
492.495883	20002.408698
492.863440	19750.305635
493.230939	19466.781061
493.598380	19401.626668
493.965763	19555.318846
494.333088	19501.040742
494.700354	19601.072358
495.067563	19815.142435
495.434713	19960.234405
495.801805	20370.228927
496.168839	20486.140177
496.535815	20612.713468
496.902733	20910.539796
497.269593	21002.984475
497.636395	21319.233700
498.003139	21728.514898
498.369825	21765.953027
498.736453	22258.115836
499.103023	22369.142208
499.469535	22624.887505
499.835989	22932.110544
500.202385	23021.049100
500.568723	23277.946300
500.935003	23718.225554
501.301226	23829.458613
501.667390	24542.355905
502.033497	24886.891044
502.399546	24926.786736
502.765537	24811.084693
503.131470	25354.586613
503.497345	25881.162858
503.863163	25259.515493
504.228923	26053.388838
504.594625	26546.577522
504.960269	26315.422974
505.325856	27035.597172
505.691385	26942.595445
506.056856	27364.509775
506.422270	27956.414333
506.787625	27733.895282
507.152924	28276.696481
507.518164	28612.734755
507.883347	28385.600527
508.248472	28690.340798
508.613540	29424.284907
508.978550	29769.971950
509.343503	29801.254830
509.708398	30265.724060
510.073236	30937.299014
510.438016	31162.134475
510.802738	31025.887210
511.167403	31647.947951
511.532010	32011.558816
511.896561	32569.619588
512.261053	33380.189236
512.625488	33315.390244
512.989866	33371.770509
513.354186	33536.003739
513.718449	33618.124135
514.082655	34545.809869
514.446803	34385.065117
514.810894	35066.477882
515.174927	35177.882341
515.538904	35273.218122
515.902822	35987.390826
516.266684	35783.282068
516.630488	36210.547583
516.994235	36321.180745
517.357925	36955.791438
517.721558	37282.695142
518.085133	37718.480207
518.448651	37974.780030
518.812112	37953.236659
519.175516	38165.494442
519.538863	38660.326542
519.902152	38781.919172
520.265385	39391.122450
520.628560	39465.789500
520.991678	39482.742901
521.354739	39782.237851
521.717743	40179.979848
522.080690	40156.228452
522.443580	40867.610877
522.806413	40948.546602
523.169189	41131.265743
523.531908	41398.744325
523.894569	41304.704121
524.257174	41534.280787
524.619722	41935.667539
524.982213	42084.217740
525.344647	42160.064420
525.707025	42331.446007
526.069345	42804.742297
526.431608	42738.025147
526.793815	43148.690142
527.155964	42749.382867
527.518057	43041.926065
527.880093	42920.134309
528.242072	43576.139659
528.603995	43330.297709
528.965860	43284.680308
529.327669	43529.655179
529.689421	43601.352990
530.051117	43572.731839
530.412755	43876.920103
530.774337	43975.509949
531.135862	43938.119711
531.497331	44100.424700
531.858743	44113.882060
532.220098	44528.572417
532.581396	44275.219148
532.942638	44051.669181
533.303824	44318.689018
533.664953	44393.230039
534.026025	44069.426645
534.387040	44662.669630
534.747999	44746.282208
535.108902	45072.893524
535.469748	44420.469914
535.830537	44692.480493
536.191270	44946.884843
536.551947	44688.954206
536.912567	44989.948899
537.273131	45156.574157
537.633638	44778.369152
537.994089	44988.214742
538.354483	44736.348614
538.714821	45391.907822
539.075103	45682.401792
539.435328	45543.139917
539.795497	45321.094734
540.155609	45416.337253
540.515665	46039.973354
540.875665	45360.408172
541.235609	45641.361758
541.595496	45766.470594
541.955328	46334.069229
542.315102	45782.466175
542.674821	45669.330080
543.034483	45566.243525
543.394090	45594.864676
543.753640	45582.594507
544.113134	46648.080181
544.472571	45756.090858
544.831953	46899.956392
545.191278	46152.214645
545.550548	45836.842581
545.909761	46488.053793
546.268918	46640.094993
546.628019	47064.897905
546.987064	46504.619025
547.346053	45790.539583
547.704986	46709.985550
548.063863	46358.065121
548.422684	46568.210660
548.781449	46171.255083
549.140158	46703.076649
549.498811	46487.474061
549.857408	45872.349948
550.215949	46710.900520
550.574434	46545.848102
550.932864	46481.769995
551.291237	47195.962863
551.649555	46962.549879
552.007817	47138.337434
552.366022	46811.665623
552.724173	46878.488638
553.082267	47301.300294
553.440305	47633.351015
553.798288	46908.370078
554.156215	47291.187739
554.514086	47517.361627
554.871902	47140.086714
555.229661	47295.848286
555.587365	46979.304153
555.945014	47131.297463
556.302606	47146.269689
556.660143	47238.825274
557.017625	47457.518090
557.375050	47159.023809
557.732421	47573.888085
558.089735	47620.649828
558.446994	47505.855193
558.804197	47988.810335
559.161345	47840.093776
559.518437	47202.234059
559.875474	47454.304354
560.232455	47696.423412
560.589381	47745.932583
560.946251	47543.063950
561.303065	48230.707581
561.659825	47903.017458
562.016528	47714.490907
562.373177	47289.413253
562.729770	47907.889733
563.086307	47447.463508
563.442789	47990.141199
563.799216	47845.447481
564.155587	47735.504957
564.511904	47695.972228
564.868164	47750.225126
565.224370	48053.800890
565.580520	47805.335020
565.936615	48001.493878
566.292654	47663.464348
566.648638	48008.324641
567.004567	47948.332390
567.360441	48059.822548
567.716260	47777.477604
568.072023	48142.431936
568.427732	48081.713759
568.783385	47623.760220
569.138982	48009.526956
569.494525	48165.117129
569.850013	47760.589738
570.205445	47878.126761
570.560823	47663.275304
570.916145	47539.474648
571.271412	47765.106612
571.626625	47419.414528
571.981782	47494.873040
572.336884	47082.438599
572.691931	47420.969724
573.046923	47069.190447
573.401860	46933.575847
573.756743	46943.408618
574.111570	47085.465812
574.466342	47004.724172
574.821059	47151.462078
575.175722	46643.328894
575.530330	46756.064217
575.884882	46388.485964
576.239380	46275.929601
576.593823	46372.679426
576.948211	46318.056003
577.302544	45858.547269
577.656823	45857.846548
578.011047	46113.034797
578.365216	45942.757223
578.719330	45666.370922
579.073389	45645.629095
579.427394	45689.161979
579.781344	45615.745135
580.135239	45376.570111
580.489080	45438.452795
580.842866	44927.819199
581.196597	45425.421412
581.550273	45422.285815
581.903895	45336.818093
582.257463	45790.007741
582.610975	45212.974587
582.964434	45561.477114
583.317837	45056.507253
583.671186	45007.913051
584.024481	45287.780268
584.377721	44844.642681
584.730906	45054.798302
585.084037	45160.965002
585.437113	44875.086209
585.790135	45006.960273
586.143103	44562.058281
586.496016	44726.152880
586.848874	44822.325493
587.201679	44851.528897
587.554428	44348.993914
587.907124	44630.481863
588.259765	44393.290533
588.612352	44545.142690
588.964884	44017.190209
589.317362	44309.937575
589.669786	44328.811655
590.022155	44169.062530
590.374470	44609.067041
590.726731	44183.817988
591.078937	43532.306826
591.431090	43872.478847
591.783188	43410.270574
592.135232	43196.175291
592.487222	43448.316162
592.839157	43616.728509
593.191038	43248.109258
593.542866	43057.667068
593.894639	42459.387971
594.246358	42750.862445
594.598022	42758.625822
594.949633	42322.616426
595.301190	42295.336222
595.652692	42235.238106
596.004141	42725.097108
596.355535	41637.831129
596.706876	41660.322237
597.058162	41359.186391
597.409395	41853.216947
597.760573	42084.532812
598.111698	41657.310147
598.462768	41597.222114
598.813785	41618.926802
599.164748	41228.673438
599.515657	41482.634166
599.866511	40987.466830
600.217312	41673.726665
600.568060	40618.645932
600.918753	41446.834412
601.269392	41357.752183
601.619978	41086.510379
601.970510	41297.472586
602.320988	41414.324011
602.671412	41672.592405
603.021783	41553.916082
603.372100	41116.154885
603.722363	41226.525907
604.072572	41247.973496
604.422728	41250.433579
604.772830	41039.680581
605.122878	41209.186858
605.472872	41047.582589
605.822813	41307.688484
606.172701	41061.977604
606.522534	41387.595813
606.872314	41594.179777
607.222041	41423.859354
607.571714	41753.891093
607.921333	41240.010993
608.270899	41464.362504
608.620411	41845.481297
608.969870	41584.200813
609.319276	41612.224588
609.668627	41630.082875
610.017926	42024.021322
610.367171	42170.892819
610.716362	42202.397510
611.065500	42083.254880
611.414585	42310.565548
611.763616	42501.862213
612.112594	42386.664286
612.461518	42524.839792
612.810389	42914.092486
613.159207	42713.484810
613.507971	42687.648897
613.856682	43160.798994
614.205340	42991.743899
614.553945	43691.471177
614.902496	43016.178372
615.250994	43444.179895
615.599439	43503.153834
615.947830	43619.170948
616.296169	43620.920229
616.644454	43653.145805
616.992686	43808.746059
617.340864	44272.789312
617.688990	43796.617043
618.037063	44471.357841
618.385082	44289.926714
618.733048	44632.117717
619.080961	44495.096635
619.428821	44522.880954
619.776628	44540.648501
620.124382	44353.800654
620.472083	44456.347806
620.819731	44572.846351
621.167326	44122.073935
621.514868	44091.905150
621.862357	43572.772168
622.209793	43667.066951
622.557176	43233.580652
622.904506	42988.673837
623.251783	42605.417595
623.599007	42299.227993
623.946179	42212.154663
624.293297	41958.977834
624.640363	41429.253388
624.987376	41260.213417
625.334336	41060.102295
625.681243	40643.004788
626.028097	40563.914125
626.374899	40372.262058
626.721647	40352.480571
627.068343	40129.472527
627.414987	39846.930978
627.761577	39597.368657
628.108115	39915.654508
628.454600	39181.178557
628.801032	39383.903518
629.147412	39301.563831
629.493739	39211.798525
629.840014	38772.005743
630.186236	39207.410201
630.532405	38631.052561
630.878521	38880.188905
631.224585	38645.808018
631.570597	38318.591763
631.916556	38479.588573
632.262462	38380.504694
632.608316	38299.788260
632.954117	38171.427880
633.299866	38123.337793
633.645562	38042.442397
633.991206	37509.572271
634.336797	37105.541434
634.682336	36993.453899
635.027823	36764.542664
635.373257	36626.460419
635.718639	36304.789434
636.063968	36190.098143
636.409245	35549.669958
636.754470	35503.775293
637.099642	35267.589674
637.444762	34706.708376
637.789829	34851.175243
638.134845	34462.008248
638.479808	34394.411416
638.824719	34335.271120
639.169577	33829.141794
639.514383	33922.186371
639.859137	33537.926939
640.203839	33694.684139
640.548489	33414.390944
640.893086	33401.110024
641.237632	33131.587254
641.582125	33224.236100
641.926566	33031.306101
642.270955	33053.494740
642.615292	33009.608975
642.959576	32892.424833
643.303809	32891.071284
643.647990	32968.531133
643.992118	32937.361679
644.336195	32783.046918
644.680219	32866.485576
645.024192	33060.053281
645.368112	33601.344655
645.711981	33606.867239
646.055797	34359.524111
646.399562	34155.866537
646.743274	35032.606370
647.086935	35424.752686
647.430544	35385.356069
647.774101	35425.009785
648.117606	35699.329213
648.461059	35849.001070
648.804460	35444.110717
649.147810	34940.486845
649.491108	34584.044500
649.834354	34438.808858
650.177548	33593.377111
650.520690	33120.307672
650.863781	33101.574745
651.206820	32913.070879
651.549807	32506.716070
651.892742	31930.998657
652.235626	31838.927023
652.578458	31707.552033
652.921238	31019.094256
653.263967	31326.660093
653.606644	31035.331812
653.949269	30943.464345
654.291843	30559.978731
654.634365	30909.308007
654.976836	30457.812186
655.319255	30516.065240
655.661622	30400.552240
656.003938	30279.191503
656.346203	30080.736399
656.688416	30334.843321
657.030577	30088.555229
657.372687	29921.763613
657.714746	30085.205382
658.056753	30267.548958
658.398708	29641.115016
658.740612	29715.169566
659.082465	29935.624265
659.424266	29823.546812
659.766016	29827.141155
660.107715	29691.670228
660.449362	29792.750403
660.790958	29768.497412
661.132503	29702.264213
661.473996	29776.545614
661.815438	29852.404898
662.156829	29986.849950
662.498168	29771.902712
662.839456	29761.031463
663.180693	29884.436389
663.521879	29966.304727
663.863013	29924.369889
664.204097	29911.179710
664.545129	30323.231023
664.886110	30257.504459
665.227040	30355.494407
665.567918	30347.799086
665.908746	30429.581725
666.249522	30515.314108
666.590248	30535.700534
666.930922	30640.170886
667.271545	30627.215120
667.612118	30687.678719
667.952639	30496.238382
668.293109	30532.181808
668.633528	30389.781815
668.973896	30362.105881
669.314213	30337.449597
669.654480	30148.542439
669.994695	30126.782298
670.334859	30048.092407
670.674973	29882.359434
671.015035	30060.223944
671.355047	30009.948517
671.695008	29949.656317
672.034918	29862.265394
672.374777	29958.266608
672.714585	29815.478446
673.054342	29959.176536
673.394049	29805.799430
673.733705	30023.766320
674.073310	29752.363199
674.412864	29794.721495
674.752368	29485.802108
675.091820	29711.963393
675.431223	29324.293621
675.770574	29114.591703
676.109875	28954.940881
676.449125	28745.281813
676.788324	28658.483226
677.127473	28161.871599
677.466571	28065.900633
677.805619	27792.057594
678.144616	27718.466830
678.483562	27674.573504
678.822458	27353.721706
679.161303	27293.590823
679.500098	27215.619296
679.838842	27139.974262
680.177535	27231.539260
680.516179	27466.136916
680.854771	27604.821579
681.193314	28369.065543
681.531805	29399.318593
681.870247	30148.718879
682.208638	30874.050177
682.546978	31130.904527
682.885268	31273.964912
683.223508	30823.691571
683.561697	30552.863142
683.899836	30392.037732
684.237925	29989.632667
684.575963	29843.827374
684.913951	29475.939090
685.251889	29646.251952
685.589776	29673.532156
685.927614	29681.202272
686.265401	29871.818381
686.603137	29975.172117
686.940824	30471.952623
687.278460	30819.046148
687.616046	30997.903765
687.953582	31653.856183
688.291068	31570.611610
688.628504	31902.165778
688.965889	31891.947359
689.303224	31624.620012
689.640510	31333.004385
689.977745	30699.432170
690.314930	29969.856220
690.652065	29521.256543
690.989150	28849.774850
691.326185	27991.790630
691.663170	27349.020830
692.000105	26630.427034
692.336990	26020.117223
692.673825	25602.404695
693.010610	25094.783188
693.347345	24603.288332
693.684030	23972.062773
694.020665	23780.385501
694.357251	23113.927319
694.693786	23106.269806
695.030272	22878.407132
695.366707	22372.025748
695.703093	22097.121547
696.039429	22169.477228
696.375716	21933.508378
696.711952	21931.194489
697.048139	21784.438938
697.384276	21635.155250
697.720363	21752.714957
698.056400	21643.778143
698.392388	21489.907004
698.728326	21477.682206
699.064214	21316.385448
699.400053	21317.582722
699.735842	20934.906213
700.071581	20738.008826
700.407270	20488.597739
700.742910	20315.318158
701.078501	20059.454395
701.414042	19858.665237
701.749533	19557.456295
702.084974	19237.814373
702.420366	19473.639550
702.755709	19063.798784
703.091002	18769.208877
703.426246	18835.023661
703.761440	18757.712525
704.096584	18515.913581
704.431679	18461.552298
704.766725	18401.998628
705.101721	18335.268874
705.436668	18452.500907
705.771565	18175.928083
706.106413	18486.437954
706.441212	18574.156552
706.775961	18671.917128
707.110661	18751.015352
707.445311	19115.883985
707.779913	18989.968565
708.114465	19283.744326
708.448967	19596.663869
708.783421	20232.877649
709.117825	20589.020045
709.452180	20838.126141
709.786485	21286.672887
710.120742	22048.698744
710.454949	22149.040390
710.789107	22670.056243
711.123216	23377.531774
711.457275	23592.446245
711.791286	24153.506503
712.125247	24305.000738
712.459159	24034.149624
712.793023	24784.119561
713.126837	23753.422890
713.460602	24002.944882
713.794318	23660.869826
714.127985	23388.231623
714.461602	22492.012772
714.795171	22473.821768
715.128691	21495.389259
715.462162	20972.641770
715.795584	20548.242151
716.128957	20280.766090
716.462281	19902.707278
716.795556	19613.231621
717.128782	19139.433736
717.461960	18543.342499
717.795088	18502.932610
718.128167	18156.149116
718.461198	17700.126339
718.794180	17568.020382
719.127113	17234.338847
719.459997	17044.768778
719.792833	16681.049528
720.125619	16727.652474
720.458357	16383.956687
720.791046	16258.542862
721.123686	16105.921929
721.456278	15878.984307
721.788821	15875.921806
722.121315	15607.006495
722.453761	15708.558018
722.786158	15600.730258
723.118506	15675.447720
723.450805	15569.883438
723.783056	15736.259159
724.115259	15636.497245
724.447412	15625.837725
724.779518	15849.289390
725.111574	15896.240176
725.443582	16163.529715
725.775542	16123.326513
726.107453	16630.131353
726.439315	16559.842545
726.771129	16977.086246
727.102895	17393.417498
727.434612	17671.719437
727.766281	17833.416968
728.097901	18154.518303
728.429473	18240.472497
728.760996	18248.593795
729.092471	18374.453763
729.423897	18266.351260
729.755276	18139.266292
730.086606	18255.389271
730.417887	18841.667901
730.749120	19393.517972
731.080305	19599.897769
731.411442	19997.659931
731.742530	20119.998652
732.073570	20280.362797
732.404562	20595.999522
732.735506	20429.535581
733.066401	20233.729604
733.397249	19730.138499
733.728048	19104.569116
734.058798	18236.469820
734.389501	17478.416393
734.720156	16968.952344
735.050762	16388.796195
735.381320	16004.708163
735.711831	15735.750002
736.042293	15370.238622
736.372707	15402.822120
736.703073	15203.880545
737.033391	15399.026131
737.363661	15400.949331
737.693883	15524.923907
738.024056	15719.010851
738.354182	15943.503514
738.684260	16304.402238
739.014290	16582.195021
739.344272	16806.102910
739.674207	17160.364956
740.004093	17336.281060
740.333931	17385.127321
740.663722	17459.943085
740.993464	17502.114857
741.323159	17348.878904
741.652806	17050.467802
741.982405	16885.705250
742.311956	16519.956936
742.641460	16405.782363
742.970915	16081.215234
743.300323	15735.697070
743.629683	15508.194838
743.958996	15202.136306
744.288260	14885.940013
744.617477	14579.286625
744.946647	14548.076841
745.275768	14230.509355
745.604842	14029.213561
745.933869	13856.765770
746.262847	13832.656452
746.591778	13746.109923
746.920662	13634.642450
747.249498	13632.873005
747.578286	13795.987099
747.907027	13973.198780
748.235720	14239.545623
748.564365	14306.610613
748.892963	14231.320981
749.221514	14336.242516
749.550017	14201.046331
749.878473	14167.575590
750.206881	13944.252475
750.535242	13864.955125
750.863555	13790.615750
751.191821	13696.726780
751.520039	13708.797823
751.848210	13639.865085
752.176334	13681.565510
752.504411	13606.502729
752.832440	13424.640583
753.160421	13541.928069
753.488356	13433.989403
753.816243	13343.099920
754.144082	13180.046319
754.471875	13130.121252
754.799620	13100.582611
755.127318	13074.940782
755.454969	13064.543402
755.782572	13026.457485
756.110129	13050.483624
756.437638	12961.227475
756.765100	12961.787043
757.092515	12978.677429
757.419882	13019.218388
757.747203	13036.990976
758.074477	13121.964665
758.401703	13104.282818
758.728882	13301.187767
759.056014	13346.359026
759.383099	13514.317669
759.710138	13636.583294
760.037129	13763.406122
760.364073	13821.994412
760.690970	13853.489020
761.017820	13871.506104
761.344623	14087.446450
761.671379	14474.763341
761.998088	15173.709239
762.324751	16961.398175
762.651366	20365.664162
762.977935	24860.672003
763.304456	27789.468962
763.630931	28839.798407
763.957359	27626.236400
764.283740	25363.204465
764.610074	23104.215536
764.936362	20477.545010
765.262602	18595.619264
765.588796	16676.983837
765.914943	15387.315531
766.241044	14291.850115
766.567097	13503.307789
766.893104	12779.095628
767.219064	12322.634270
767.544978	11837.662667
767.870845	11455.976745
768.196665	11225.270860
768.522438	11000.629483
768.848165	10799.066508
769.173846	10594.899777
769.499479	10462.854314
769.825066	10293.083376
770.150607	10065.356813
770.476101	9984.166509
770.801548	9856.423671
771.126949	9704.894148
771.452303	9594.508002
771.777611	9392.486282
772.102872	9386.963698
772.428087	9243.366431
772.753256	9081.207635
773.078378	8990.761773
773.403453	8811.130338
773.728482	8701.225623
774.053465	8626.253583
774.378401	8524.691977
774.703291	8395.398984
775.028135	8278.096375
775.352932	8251.431192
775.677683	8140.379613
776.002388	8034.664097
776.327046	8050.500882
776.651658	7941.576670
776.976224	7848.025458
777.300743	7847.019748
777.625216	7755.724452
777.949643	7719.841518
778.274024	7727.110862
778.598359	7644.362842
778.922647	7663.194073
779.246889	7610.665250
779.571086	7618.121116
779.895236	7632.319526
780.219339	7637.995865
780.543397	7641.353274
780.867409	7722.518371
781.191374	7725.787559
781.515294	7692.150460
781.839167	7792.797097
782.162995	7761.788960
782.486776	7702.454579
782.810511	7656.325501
783.134201	7569.544558
783.457844	7566.701347
783.781441	7509.932913
784.104993	7441.312727
784.428498	7419.792042
784.751958	7410.324755
785.075372	7377.711010
785.398739	7323.808472
785.722061	7368.026953
786.045337	7371.427212
786.368568	7530.142899
786.691752	7550.541928
787.014891	7898.966317
787.337983	8255.451512
787.661030	8851.265485
787.984031	9480.371238
788.306987	9885.737980
788.629897	10088.006717
788.952760	10037.103666
789.275579	9813.793153
789.598351	9411.521679
789.921078	9050.869971
790.243759	8645.548599
790.566395	8355.823405
790.888984	8099.765557
791.211529	7889.113382
791.534027	7671.451483
791.856480	7471.630227
792.178888	7397.956284
792.501249	7301.708054
792.823566	7143.181409
793.145836	7139.531614
793.468062	7117.403469
793.790241	7067.964873
794.112375	7137.857951
794.434464	7292.313864
794.756507	7334.031932
795.078505	7496.664597
795.400457	7808.578429
795.722364	8152.700193
796.044226	8444.288094
796.366042	8715.754228
796.687812	8671.039194
797.009538	8750.502902
797.331218	8641.220769
797.652852	8554.525525
797.974442	8401.793687
798.295986	8317.026685
798.617484	8120.976212
798.938938	7983.445974
799.260346	7873.770631
799.581709	7673.876278
799.903026	7602.052438
800.224299	7487.721590
800.545526	7319.876372
800.866708	7229.889256
801.187845	7159.814697
801.508936	7055.979530
801.829983	7012.199630
802.150984	6866.709409
802.471940	6821.583520
802.792851	6802.895963
803.113717	6770.509070
803.434538	6736.241827
803.755314	6678.901223
804.076045	6679.710328
804.396731	6629.147555
804.717372	6664.498646
805.037967	6664.095354
805.358518	6705.493309
805.679024	6787.434744
805.999485	6795.467823
806.319901	6842.370718
806.640272	6864.700509
806.960598	6949.875845
807.280879	6943.284536
807.601115	7025.266300
807.921306	6970.297559
808.241453	6988.707853
808.561554	7010.306676
808.881611	6967.845037
809.201623	6976.319217
809.521590	6924.455826
809.841513	6900.538072
810.161390	6947.188910
810.481223	6809.061294
810.801011	6795.855992
811.120755	6774.829339
811.440453	6692.852616
811.760107	6661.461351
812.079716	6629.845754
812.399281	6568.943575
812.718801	6552.206944
813.038276	6513.367374
813.357707	6449.979906
813.677093	6493.222923
813.996434	6398.567698
814.315731	6436.182268
814.634983	6434.301917
814.954191	6447.464370
815.273354	6549.499844
815.592473	6616.864783
815.911547	6741.174596
816.230577	6818.566390
816.549562	6970.741180
816.868502	7071.501243
817.187399	7173.423291
817.506250	7322.878379
817.825058	7352.258224
818.143821	7616.661702
818.462539	7893.640338
818.781213	8260.094414
819.099843	8813.459352
819.418429	9816.641405
819.736970	10788.399426
820.055466	11972.455559
820.373919	13509.130322
820.692327	15863.777666
821.010691	20019.876296
821.329011	29060.099350
821.647286	42132.159113
821.965517	55568.520379
822.283704	60934.395109
822.601847	62897.511157
822.919945	60199.944364
823.237999	56009.618820
823.556010	49833.935657
823.873976	43105.056435
824.191897	36561.250574
824.509775	31699.740766
824.827609	27161.474783
825.145398	24568.965636
825.463144	23197.592829
825.780845	23507.979192
826.098502	25290.901716
826.416116	29082.348483
826.733685	32742.904210
827.051210	33902.669544
827.368692	32105.127673
827.686129	28120.594632
828.003522	23987.292099
828.320872	20295.491300
828.638177	17433.285463
828.955439	15269.534012
829.272656	13464.652221
829.589830	11983.722538
829.906960	10708.277848
830.224046	9761.173589
830.541088	9016.179271
830.858086	8556.594919
831.175041	8175.410592
831.491952	8058.944814
831.808819	8107.470961
832.125642	8509.563474
832.442421	9395.077435
832.759157	11196.029647
833.075849	14135.886897
833.392497	17359.505656
833.709101	19543.479696
834.025662	19389.573269
834.342179	17682.010953
834.658653	15474.119159
834.975083	13548.733626
835.291469	11925.305647
835.607811	10609.519123
835.924110	9699.971461
836.240366	8826.561310
836.556578	8018.499637
836.872746	7376.796040
837.188871	6869.202260
837.504952	6452.744979
837.820990	6142.880375
838.136984	5920.585655
838.452935	5829.988559
838.768842	5862.158682
839.084706	6287.942098
839.400526	7497.062848
839.716303	9086.251310
840.032037	10187.201501
840.347727	10106.021280
840.663373	9129.615315
840.978977	8084.117816
841.294537	7269.573219
841.610054	6671.205901
841.925527	6239.720941
842.240957	5872.092276
842.556344	5542.675557
842.871687	5260.885139
843.186987	4973.801510
843.502244	4746.591665
843.817458	4586.713992
844.132629	4451.454793
844.447756	4359.204198
844.762840	4278.369296
845.077881	4201.511864
845.392879	4139.959376
845.707833	4094.243672
846.022745	4046.718194
846.337613	4019.483361
846.652438	3975.884942
846.967221	3957.691417
847.281960	3923.484668
847.596656	3908.199890
847.911309	3889.618197
848.225919	3866.461656
848.540485	3849.404912
848.855009	3839.035259
849.169490	3812.939726
849.483928	3804.223571
849.798323	3792.041623
850.112675	3773.260804
850.426984	3782.286990
850.741251	3766.712345
851.055474	3760.662961
851.369654	3768.388529
851.683792	3766.969444
851.997887	3770.891462
852.311938	3773.817852
852.625947	3774.258953
852.939914	3766.634207
853.253837	3774.485804
853.567718	3775.342801
853.881555	3761.169597
854.195350	3774.841206
854.509103	3772.519754
854.822812	3768.350720
855.136479	3763.964916
855.450103	3773.207872
855.763685	3761.673712
856.077224	3763.952313
856.390720	3779.002678
856.704173	3797.546563
857.017584	3812.145744
857.330953	3824.710820
857.644278	3842.682534
857.957561	3853.241230
858.270802	3849.717464
858.584000	3852.742156
858.897155	3847.423739
859.210268	3831.791121
859.523339	3811.228254
859.836367	3808.170794
860.149352	3802.181904
860.462295	3792.938948
860.775195	3779.025363
861.088054	3778.155764
861.400869	3775.390692
861.713642	3775.625105
862.026373	3787.023154
862.339062	3786.609779
862.651708	3810.615754
862.964312	3845.334181
863.276873	3860.946634
863.589392	3915.801950
863.901869	3963.304742
864.214303	4009.396012
864.526696	4037.845764
864.839045	4085.361159
865.151353	4111.275211
865.463619	4122.814412
865.775842	4129.304897
866.088023	4147.886590
866.400162	4136.281854
866.712258	4144.990448
867.024313	4145.514728
867.336325	4141.464160
867.648296	4154.361953
867.960224	4150.160151
868.272110	4161.432171
868.583954	4166.788397
868.895755	4181.480840
869.207515	4175.726363
869.519233	4215.523752
869.830909	4227.642685
870.142542	4257.617386
870.454134	4267.429992
870.765684	4298.947286
871.077191	4334.961289
871.388657	4355.539279
871.700081	4395.835742
872.011463	4439.872742
872.322803	4478.188032
872.634101	4508.087115
872.945357	4545.782343
873.256571	4602.994398
873.567744	4635.993791
873.878874	4646.514679
874.189963	4691.408675
874.501010	4698.042833
874.812015	4695.731464
875.122979	4741.356427
875.433900	4738.210747
875.744780	4747.511676
876.055618	4777.554432
876.366415	4776.218526
876.677169	4800.398421
876.987882	4843.618753
877.298554	4900.472886
877.609183	4976.816120
877.919771	5087.030867
878.230317	5231.815326
878.540822	5450.845899
878.851285	5766.611173
879.161707	6234.629375
879.472087	6996.914851
879.782425	8237.225220
880.092722	10426.918449
880.402977	13760.618364
880.713191	17542.837298
881.023363	21275.224427
881.333494	23512.019676
881.643583	24739.679270
881.953631	24735.454783
882.263637	23875.660788
882.573602	22396.997104
882.883526	20826.178607
883.193408	19139.413571
883.503248	17424.934792
883.813048	15872.148502
884.122806	14437.088278
884.432522	12950.192389
884.742197	11684.663648
885.051831	10585.382079
885.361424	9584.418133
885.670975	8755.236545
885.980485	8067.154333
886.289954	7489.821230
886.599382	7011.851790
886.908768	6632.101671
887.218113	6268.914262
887.527417	5979.383153
887.836680	5713.109407
888.145901	5491.873329
888.455082	5328.600438
888.764221	5179.818344
889.073319	5046.741965
889.382376	4971.089369
889.691392	4907.122168
890.000366	4884.956215
890.309300	4870.170511
890.618193	4872.968351
890.927044	4859.735322
891.235855	4882.874218
891.544625	4910.345986
891.853353	4971.926201
892.162041	5089.848872
892.470687	5277.919198
892.779293	5535.726327
893.087858	5906.833388
893.396381	6491.970197
893.704864	7293.493494
894.013306	8446.261705
894.321707	9637.047779
894.630068	10453.356780
894.938387	10665.309573
895.246665	10416.763044
895.554903	9813.556219
895.863100	9114.892625
896.171256	8549.703662
896.479371	8042.379583
896.787446	7540.280660
897.095480	7110.451718
897.403473	6792.183511
897.711425	6470.346167
898.019336	6202.620569
898.327207	5928.611172
898.635038	5697.073497
898.942827	5450.611485
899.250576	5258.394809
899.558284	5064.048246
899.865952	4943.864618
900.173579	4792.700579
900.481165	4683.486501
900.788711	4590.421760
901.096216	4518.509701
901.403681	4454.391265
901.711105	4428.504940
902.018489	4416.761572
902.325832	4484.728929
902.633135	4607.997743
902.940397	4954.619920
903.247619	5755.855871
903.554800	7202.167951
903.861941	9127.939131
904.169041	10656.999231
904.476101	11291.383072
904.783121	10932.765470
905.090100	10180.153968
905.397039	9345.613634
905.703938	8583.774300
906.010796	7885.700521
906.317614	7334.362128
906.624391	6796.952443
906.931129	6365.452359
907.237826	5968.252285
907.544483	5587.476291
907.851099	5216.225557
908.157675	4853.774158
908.464211	4531.956978
908.770707	4296.230104
909.077163	4095.458590
909.383578	3949.978452
909.689954	3837.585927
909.996289	3764.658075
910.302584	3700.602654
910.608839	3667.328518
910.915054	3638.107469
911.221229	3622.031230
911.527363	3631.901809
911.833458	3649.187926
912.139513	3674.905372
912.445527	3708.882749
912.751502	3786.947537
913.057436	3890.664236
913.363331	4023.133156
913.669186	4233.165269
913.975000	4490.959795
914.280775	4918.701699
914.586510	5498.512529
914.892205	6305.848276
915.197859	7341.278591
915.503475	8573.349194
915.809050	9629.062591
916.114585	10289.612541
916.420081	10543.492611
916.725536	10509.258135
917.030952	10062.369929
917.336328	9650.671497
917.641665	9233.556346
917.946961	8756.690918
918.252218	8336.604006
918.557435	7818.048237
918.862612	7387.092597
919.167750	7010.281471
919.472848	6586.388488
919.777906	6210.547783
920.082925	5848.938256
920.387904	5481.463347
920.692843	5214.211617
920.997743	4965.972598
921.302603	4730.228080
921.607423	4568.033996
921.912204	4404.793873
922.216946	4287.672745
922.521647	4162.949558
922.826310	4059.424423
923.130932	3965.931183
923.435516	3866.328066
923.740059	3793.485913
924.044564	3719.501939
924.349028	3659.734019
924.653454	3594.685491
924.957840	3525.954399
925.262186	3473.937253
925.566493	3414.431473
925.870761	3358.663709
926.174989	3320.290446
926.479178	3285.783748
926.783328	3240.415884
927.087438	3216.689693
927.391509	3182.190557
927.695541	3146.060607
927.999533	3123.582102
928.303486	3104.405553
928.607400	3087.815116
928.911275	3076.890935
929.215110	3055.072821
929.518906	3051.521328
929.822663	3047.322047
930.126381	3047.654763
930.430060	3051.866648
930.733699	3056.050805
931.037299	3065.870973
931.340861	3063.063050
931.644383	3072.903383
931.947866	3068.641087
932.251309	3064.585479
932.554714	3065.157650
932.858080	3059.221691
933.161407	3050.354301
933.464694	3042.026315
933.767943	3033.494162
934.071153	3029.529295
934.374323	3019.822553
934.677455	3016.674353
934.980548	3005.717405
935.283602	3001.795387
935.586617	3000.635922
935.889593	3008.313599
936.192530	3011.426511
936.495428	3026.126516
936.798287	3047.218704
937.101108	3081.070052
937.403890	3134.148361
937.706632	3196.124306
938.009336	3277.526338
938.312002	3347.527800
938.614628	3412.299065
938.917216	3464.043989
939.219765	3497.948269
939.522275	3527.963299
939.824747	3537.034855
940.127179	3531.497148
940.429573	3527.197044
940.731929	3523.307793
941.034246	3509.275742
941.336524	3495.387363
941.638763	3483.404540
941.940964	3466.252014
942.243126	3422.769542
942.545250	3400.394380
942.847335	3362.764688
943.149381	3326.417968
943.451389	3297.159111
943.753359	3261.571086
944.055290	3235.165522
944.357182	3208.618806
944.659036	3194.450643
944.960851	3185.653829
945.262628	3173.290400
945.564367	3172.186387
945.866067	3168.942404
946.167729	3166.389060
946.469352	3166.348731
946.770937	3159.805313
947.072484	3140.411994
947.373992	3145.609424
947.675462	3139.146665
947.976893	3121.245527
948.278286	3111.836214
948.579641	3106.810183
948.880958	3096.851384
949.182236	3103.024277
949.483476	3096.788369
949.784678	3094.693770
950.085841	3097.766353
950.386967	3109.476954
950.688054	3125.457411
950.989103	3145.768220
951.290114	3166.562980
951.591087	3193.276054
951.892021	3221.897205
952.192917	3249.484919
952.493776	3274.562139
952.794596	3280.752676
953.095378	3289.499078
953.396122	3284.798202
953.696828	3277.354938
953.997496	3265.956890
954.298126	3242.520565
954.598718	3223.722103
954.899272	3194.385108
955.199788	3167.203206
955.500266	3137.866212
955.800706	3100.496138
956.101108	3062.238822
956.401472	3030.761857
956.701798	3001.356807
957.002087	2954.438788
957.302337	2930.062288
957.602550	2901.516755
957.902724	2869.949049
958.202861	2848.161182
958.502960	2826.360712
958.803022	2806.148206
959.103045	2782.124587
959.403031	2768.037083
959.702979	2754.151225
960.002889	2743.111098
960.302762	2730.571228
960.602596	2719.021944
960.902393	2705.756148
961.202153	2699.542926
961.501875	2689.468180
961.801559	2684.548014
962.101205	2680.038702
962.400814	2673.704492
962.700385	2666.788029
962.999918	2660.791576
963.299414	2653.507109
963.598873	2652.589619
963.898293	2644.531334
964.197677	2645.738691
964.497022	2644.029740
964.796331	2641.788947
965.095601	2639.454892
965.394835	2635.858029
965.694030	2634.862401
965.993189	2634.549850
966.292309	2632.775364
966.591393	2630.872328
966.890439	2629.128089
967.189447	2630.451392
967.488419	2631.063892
967.787353	2632.157822
968.086249	2632.992133
968.385108	2632.571197
968.683930	2640.511014
968.982714	2642.431694
969.281462	2646.767086
969.580172	2653.239928
969.878844	2653.040802
970.177480	2665.235353
970.476078	2673.069306
970.774639	2679.615245
971.073162	2685.820905
971.371649	2692.213088
971.670098	2698.038141
971.968510	2706.277907
972.266885	2709.060624
972.565223	2711.727395
972.863524	2714.885677
973.161788	2719.810885
973.460014	2721.706359
973.758204	2726.160218
974.056356	2726.820609
974.354471	2729.220198
974.652550	2731.075343
974.950591	2726.135012
975.248595	2725.232646
975.546563	2724.272306
975.844493	2720.398179
976.142386	2715.261243
976.440243	2709.547096
976.738062	2706.643391
977.035845	2698.123841
977.333590	2692.502954
977.631299	2687.376101
977.928971	2683.504495
978.226606	2672.887825
978.524204	2670.939419
978.821765	2667.783657
979.119290	2669.268276
979.416777	2668.597803
979.714228	2673.916220
980.011642	2674.954698
980.309020	2683.585153
980.606360	2699.585776
980.903664	2720.924980
981.200931	2757.294384
981.498162	2806.289358
981.795356	2879.063455
982.092513	2971.631643
982.389633	3075.547468
982.686717	3173.345852
982.983764	3247.259250
983.280775	3295.515695
983.577749	3304.171356
983.874686	3288.571506
984.171587	3255.556989
984.468451	3216.709858
984.765279	3171.989782
985.062070	3124.071094
985.358824	3078.766244
985.655543	3021.990249
985.952224	2971.011581
986.248869	2908.924730
986.545478	2848.640092
986.842050	2793.136988
987.138586	2745.795512
987.435086	2709.297558
987.731549	2679.673218
988.027975	2654.694301
988.324366	2635.789974
988.620719	2623.151801
988.917037	2614.342385
989.213318	2604.532299
989.509563	2597.341093
989.805772	2590.424630
990.101944	2588.020000
990.398080	2584.140832
990.694180	2582.368866
990.990244	2584.808785
991.286271	2581.786613
991.582262	2580.125553
991.878217	2587.011769
992.174136	2588.879517
992.470019	2592.660382
992.765865	2595.871597
993.061676	2600.343100
993.357450	2608.734101
993.653188	2616.714247
993.948890	2633.655045
994.244556	2653.338230
994.540186	2673.865809
994.835780	2706.406457
995.131337	2744.278125
995.426859	2787.075001
995.722345	2833.982937
996.017795	2883.731564
996.313208	2920.484096
996.608586	2949.778241
996.903928	2962.739048
997.199234	2961.662761
997.494504	2958.819550
997.789738	2942.047632
998.084936	2920.138777
998.380099	2890.733727
998.675225	2857.013448
998.970316	2830.060919
999.265371	2791.788479
999.560390	2757.531318
999.855373	2725.930846
1000.150320	2697.226516
1000.445232	2671.635098
1000.740108	2650.573157
1001.034948	2631.134468
1001.329752	2617.596449
1001.624521	2604.136569
1001.919254	2592.776328
1002.213951	2585.925400
1002.508613	2580.395255
1002.803239	2568.709860
1003.097829	2563.552760
1003.392384	2559.083777
1003.686903	2551.733774
1003.981386	2555.040771
1004.275834	2549.293856
1004.570246	2546.049873
1004.864623	2543.322609
1005.158964	2542.904193
1005.453270	2538.546116
1005.747540	2537.951260
1006.041775	2536.638039
1006.335974	2532.957997
1006.630138	2533.880528
1006.924266	2535.720549
1007.218359	2532.153933
1007.512416	2527.732841
1007.806438	2528.428520
1008.100425	2527.425331
1008.394376	2524.332583
1008.688292	2529.623274
1008.982172	2529.260311
1009.276017	2527.921884
1009.569827	2530.628984
1009.863602	2525.766791
1010.157341	2523.589012
1010.451045	2524.748478
1010.744714	2524.614887
1011.038347	2524.566996
1011.331945	2526.926256
1011.625508	2522.157325
1011.919036	2519.712365
1012.212528	2518.124402
1012.505986	2523.057171
1012.799408	2518.467200
1013.092795	2516.153311
1013.386147	2515.752539
1013.679464	2518.235307
1013.972745	2518.729340
1014.265992	2515.654236
1014.559204	2515.369411
1014.852380	2516.047446
1015.145521	2519.225894
1015.438628	2520.460977
1015.731699	2515.077024
1016.024736	2517.433764
1016.317737	2517.214473
1016.610703	2522.752181
1016.903635	2522.515247
1017.196531	2521.743950
1017.489393	2522.890813
1017.782219	2523.364681
1018.075011	2526.381812
1018.367768	2527.100176
1018.660490	2529.167049
1018.953177	2529.167049
1019.245829	2529.167049
