Dividing Wavelength (nm)	Counts (n)	Blue Motor Position (mm): 37.500000	Red Motor Position (mm): 0.000000	
326.493990	2097.911461
326.888308	2097.911461
327.282561	2097.911461
327.676750	2073.615620
328.070874	2075.412792
328.464933	2082.518298
328.858929	2092.570359
329.252859	2106.284818
329.646726	2119.084307
330.040528	2135.084930
330.434265	2152.907929
330.827938	2175.905673
331.221547	2192.642304
331.615091	2215.014944
332.008571	2237.269118
332.401986	2256.564134
332.795338	2276.098606
333.188625	2297.193314
333.581847	2316.934472
333.975006	2333.507266
334.368100	2352.656088
334.761129	2368.003881
335.154095	2384.584236
335.546996	2429.531164
335.939833	2513.335306
336.332606	2526.104548
336.725315	2537.530323
337.117960	2548.628424
337.510540	2556.792572
337.903056	2565.019735
338.295508	2570.703636
338.687896	2576.248906
339.080220	2584.420616
339.472480	2590.873293
339.864676	2593.585434
340.256807	2595.735486
340.648875	2594.124837
341.040879	2596.552153
341.432818	2599.516351
341.824694	2600.706063
342.216506	2600.738831
342.608253	2600.307812
342.999937	2597.787235
343.391557	2600.335539
343.783113	2596.829416
344.174605	2595.027204
344.566033	2594.081987
344.957397	2591.445464
345.348697	2592.335227
345.739934	2588.561924
346.131106	2586.890781
346.522215	2586.762232
346.913260	2582.749473
347.304241	2584.077817
347.695159	2579.964236
348.086012	2581.811819
348.476802	2578.318299
348.867528	2578.744277
349.258191	2575.344018
349.648789	2575.543144
350.039324	2574.164388
350.429796	2573.728329
350.820203	2571.424521
351.210548	2573.851837
351.600828	2572.803277
351.991045	2569.728173
352.381198	2569.834037
352.771288	2569.095508
353.161314	2570.189439
353.551276	2568.215827
353.941175	2569.380333
354.331010	2569.511403
354.720782	2573.128431
355.110490	2575.452403
355.500135	2567.862946
355.889717	2572.399985
356.279235	2570.088616
356.668689	2572.717577
357.058080	2572.891497
357.447408	2571.134655
357.836672	2570.307906
358.225873	2573.012485
358.615010	2570.244891
359.004084	2575.880901
359.393095	2576.957188
359.782043	2571.845458
360.170927	2575.291086
360.559748	2576.606827
360.948505	2577.572208
361.337199	2581.889957
361.725830	2581.022878
362.114398	2581.181675
362.502903	2582.802406
362.891344	2581.658064
363.279722	2581.799216
363.668037	2582.862899
364.056289	2582.840214
364.444478	2584.788620
364.832603	2583.969433
365.220665	2585.350709
365.608665	2584.844073
365.996601	2586.205184
366.384474	2586.550503
366.772284	2588.733323
367.160031	2587.163004
367.547715	2588.529156
367.935336	2588.060329
368.322893	2588.488827
368.710388	2590.028900
369.097820	2593.555187
369.485189	2590.739702
369.872495	2590.936307
370.259738	2592.352872
370.646918	2589.993612
371.034035	2592.322625
371.421090	2596.804210
371.808081	2592.940166
372.195010	2595.009560
372.581875	2593.519899
372.968678	2597.066350
373.355418	2595.939652
373.742096	2598.124993
374.128710	2596.098449
374.515262	2596.085846
374.901751	2600.509458
375.288177	2597.991402
375.674540	2601.739500
376.060841	2601.000971
376.447079	2603.133379
376.833254	2602.314192
377.219367	2596.675661
377.605417	2599.501228
377.991404	2600.829572
378.377329	2600.091043
378.763191	2598.228336
379.148991	2605.948863
379.534727	2605.227978
379.920402	2607.012547
380.306013	2608.108998
380.691563	2607.289810
381.077049	2608.512290
381.462474	2612.676283
381.847835	2614.138218
382.233134	2612.227621
382.618371	2616.137035
383.003545	2614.579319
383.388657	2613.944133
383.773706	2616.184926
384.158693	2613.276181
384.543618	2618.105606
384.928480	2616.172323
385.313280	2618.481172
385.698017	2618.466048
386.082692	2622.299846
386.467305	2620.943776
386.851856	2621.145422
387.236344	2623.681122
387.620770	2622.889661
388.005133	2625.029631
388.389435	2628.112296
388.773674	2627.522481
389.157851	2627.882924
389.541965	2630.002729
389.926018	2629.763274
390.310008	2631.872997
390.693936	2633.065230
391.077802	2633.980199
391.461606	2632.140178
391.845348	2637.226702
392.229027	2634.902731
392.612645	2639.470016
392.996200	2641.340284
393.379694	2644.722898
393.763125	2645.111067
394.146494	2644.581746
394.529801	2651.190699
394.913047	2652.884526
395.296230	2655.440391
395.679351	2654.555669
396.062410	2658.089518
396.445408	2657.663540
396.828343	2659.526247
397.211217	2661.169663
397.594028	2667.551763
397.976778	2667.909685
398.359466	2675.489060
398.742092	2675.630212
399.124656	2688.676719
399.507158	2694.317770
399.889598	2704.125335
400.271977	2712.773434
400.654294	2725.772049
401.036549	2737.538102
401.418742	2750.715678
401.800874	2772.075047
402.182944	2788.710855
402.564952	2819.038437
402.946898	2835.951508
403.328783	2862.397401
403.710606	2898.396280
404.092367	2937.422373
404.474067	2988.373315
404.855705	3016.707120
405.237282	3056.093655
405.618797	3131.741210
406.000250	3200.222764
406.381642	3283.086730
406.762972	3342.106039
407.144240	3389.230745
407.525447	3482.517297
407.906593	3545.519117
408.287677	3654.723112
408.668700	3752.967639
409.049661	3834.334383
409.430560	3949.865026
409.811399	4040.618398
410.192176	4158.135256
410.572891	4272.423255
410.953545	4465.302842
411.334138	4480.411180
411.714669	4712.515986
412.095139	4685.485319
412.475547	4906.834822
412.855894	4995.725488
413.236180	5206.085277
413.616405	5253.857771
413.996568	5459.027691
414.376670	5584.683492
414.756711	5678.895096
415.136691	5906.727523
415.516609	6103.874447
415.896466	6279.288957
416.276262	6531.951588
416.655997	6842.736202
417.035670	7020.968717
417.415283	7428.178001
417.794834	7631.008826
418.174324	7696.316974
418.553753	7819.326169
418.933121	8217.806695
419.312428	8306.074779
419.691674	8433.139582
420.070859	8832.000715
420.449983	8827.211619
420.829045	9286.947206
421.208047	9328.743412
421.586988	9754.486499
421.965867	10081.264173
422.344686	10251.791285
422.723444	10774.596747
423.102141	10142.415890
423.480777	11041.966944
423.859352	10901.457384
424.237866	11785.166612
424.616319	11770.474169
424.994712	12382.187941
425.373044	12421.115731
425.751314	13088.670365
426.129524	12620.521092
426.507673	13579.739243
426.885762	13541.371021
427.263789	13840.823121
427.641756	14141.323782
428.019662	14333.308564
428.397508	14519.440567
428.775292	14898.371499
429.153016	15024.299522
429.530679	15227.841149
429.908282	15390.118412
430.285824	15294.016376
430.663305	16009.330901
431.040726	15812.403267
431.418086	15793.579599
431.795385	16460.909901
432.172624	16938.423117
432.549802	16670.067374
432.926920	16959.263247
433.303977	16959.769883
433.680974	17281.637473
434.057910	17664.399682
434.434786	17795.598231
434.811601	17818.991706
435.188355	18882.725579
435.565050	18656.060178
435.941683	18680.172017
436.318257	19596.469784
436.694770	19482.595160
437.071222	20110.501119
437.447614	19293.509041
437.823946	19378.954078
438.200218	19603.356001
438.576429	19440.277194
438.952580	19782.934503
439.328670	19790.806265
439.704700	20250.995556
440.080670	19862.738489
440.456580	20501.256077
440.832429	20694.165911
441.208218	19750.867724
441.583947	20219.410206
441.959616	20367.670541
442.335224	20632.757095
442.710773	20795.258690
443.086261	21358.136284
443.461689	20732.450954
443.837057	20886.254037
444.212365	21566.429199
444.587612	21585.406623
444.962800	21191.001869
445.337927	21630.222481
445.712995	20366.495952
446.088002	22263.938369
446.462949	22474.840081
446.837837	22680.645187
447.212664	22714.957801
447.587431	25692.099425
447.962139	28654.336877
448.336786	30951.467177
448.711374	29249.152702
449.085901	25548.918052
449.460369	25582.456849
449.834776	25604.554747
450.209124	28162.290015
450.583412	27630.397873
450.957640	28098.733668
451.331808	26758.787414
451.705917	25388.611881
452.079965	25456.937159
452.453954	25846.996438
452.827883	25766.584993
453.201752	25552.469545
453.575562	25733.041156
453.949311	26876.649591
454.323001	26959.090100
454.696632	26740.566163
455.070202	28341.379526
455.443713	28520.012812
455.817164	29118.319636
456.190556	29671.077114
456.563888	29071.053778
456.937160	29498.866258
457.310373	27792.685218
457.683526	28245.030473
458.056619	28266.520912
458.429653	28238.459329
458.802628	28853.439769
459.175542	28998.539300
459.548398	30379.984333
459.921194	32007.848527
460.293930	32738.553695
460.666607	34827.590204
461.039224	36622.558566
461.411782	36977.440674
461.784280	35696.864088
462.156719	35156.096995
462.529099	34579.746917
462.901419	33256.582664
463.273680	32201.648125
463.645882	32343.256657
464.018024	32356.507330
464.390106	33296.309477
464.762130	36220.743317
465.134094	40564.027551
465.505999	46026.609256
465.877845	50534.250228
466.249631	51510.141996
466.621358	49686.469304
466.993026	47480.205802
467.364634	45349.027767
467.736184	43395.731886
468.107674	42113.806793
468.479105	41329.640188
468.850477	40603.517429
469.221790	39145.237651
469.593043	37372.304172
469.964238	36455.867773
470.335373	36422.845695
470.706449	38323.133843
471.077467	41121.674948
471.448425	45744.478560
471.819324	48451.676478
472.190164	46392.299597
472.560945	42800.737101
472.931667	39659.415178
473.302330	38559.218639
473.672934	37724.300219
474.043479	38280.029457
474.413965	37474.395099
474.784393	37098.871987
475.154761	38026.736682
475.525070	38063.925274
475.895321	37586.583457
476.265513	38201.263949
476.635645	39228.056247
477.005719	39067.112369
477.375734	39578.950801
477.745691	40312.554632
478.115588	41676.060719
478.485427	43826.503524
478.855207	47288.692368
479.224928	49923.375808
479.594591	51449.789302
479.964194	50364.285206
480.333739	50501.586072
480.703226	50587.631007
481.072653	51251.374528
481.442022	51720.060683
481.811333	51916.232144
482.180584	50624.633076
482.549777	50119.320417
482.918912	49586.137739
483.287988	49267.821642
483.657005	48439.607956
484.025964	47766.092158
484.394864	47764.244575
484.763706	47333.205756
485.132489	46443.356403
485.501213	46282.314223
485.869879	46441.271886
486.238487	46040.449743
486.607036	46230.735657
486.975527	45665.471076
487.343959	45899.693166
487.712333	45970.329814
488.080648	45856.372011
488.448905	46333.854980
488.817104	46135.475493
489.185244	47173.602826
489.553326	48959.592892
489.921350	51697.743495
490.289315	54493.678323
490.657222	54985.969682
491.025070	55219.475928
491.392861	54299.598942
491.760593	53053.783633
492.128267	51373.246942
492.495883	49824.841415
492.863440	48407.064787
493.230939	47049.782005
493.598380	45959.067876
493.965763	45617.544827
494.333088	44788.199402
494.700354	44306.365917
495.067563	43989.801620
495.434713	43858.787073
495.801805	43928.050006
496.168839	43529.503945
496.535815	43184.023589
496.902733	43214.189854
497.269593	42778.331692
497.636395	42702.220352
498.003139	43112.708907
498.369825	42550.350551
498.736453	42869.362328
499.103023	42379.616753
499.469535	42256.196703
499.835989	42347.192051
500.202385	42001.094154
500.568723	42032.286294
500.935003	42204.484547
501.301226	42004.012982
501.667390	42635.866164
502.033497	42865.790671
502.399546	42302.928200
502.765537	41583.570669
503.131470	41966.849596
503.497345	42331.909793
503.863163	40983.302837
504.228923	41612.259876
504.594625	42020.421938
504.960269	41286.805504
505.325856	41996.955367
505.691385	41355.690351
506.056856	41485.406801
506.422270	41928.864502
506.787625	41481.953611
507.152924	41692.552854
507.518164	41779.810186
507.883347	40975.519295
508.248472	41227.098078
508.613540	41726.777247
508.978550	42018.211392
509.343503	41782.630711
509.708398	41968.344298
510.073236	42494.938188
510.438016	42501.756348
510.802738	41954.972638
511.167403	42596.910648
511.532010	42814.428875
511.896561	43102.084675
512.261053	43973.672448
512.625488	43510.198846
512.989866	43388.933890
513.354186	43225.398860
513.718449	43214.308321
514.082655	43908.076955
514.446803	43557.752050
514.810894	44094.662661
515.174927	44014.515877
515.538904	43904.807766
515.902822	44581.297845
516.266684	44020.091393
516.630488	44454.865707
516.994235	44292.233042
517.357925	44873.435231
517.721558	45060.484724
518.085133	45369.517537
518.448651	45480.518703
518.812112	45237.386374
519.175516	45348.379979
519.538863	45686.454879
519.902152	45637.724566
520.265385	46124.548793
520.628560	46144.327760
520.991678	45925.645026
521.354739	46165.818198
521.717743	46468.761298
522.080690	46356.857765
522.443580	46916.627488
522.806413	46955.013354
523.169189	46892.066986
523.531908	47077.447857
523.894569	46927.216431
524.257174	47101.234542
524.619722	47391.390754
524.982213	47371.788227
525.344647	47291.918706
525.707025	47326.332143
526.069345	47743.653982
526.431608	47650.702667
526.793815	47970.362232
527.155964	47501.567692
527.518057	47655.222061
527.880093	47435.170655
528.242072	47970.296697
528.603995	47661.856220
528.965860	47660.727001
529.327669	47754.641177
529.689421	47658.725663
530.051117	47592.255529
530.412755	47738.083507
530.774337	47809.010021
531.135862	47622.212586
531.497331	47809.453642
531.858743	47694.457362
532.220098	48052.389367
532.581396	47750.676309
532.942638	47403.973474
533.303824	47729.208556
533.664953	47691.107515
534.026025	47404.192764
534.387040	47880.118017
534.747999	47836.222169
535.108902	48001.272067
535.469748	47494.613420
535.830537	47601.697610
536.191270	47801.851582
536.551947	47446.538457
536.912567	47750.656145
537.273131	47882.300836
537.633638	47372.015079
537.994089	47699.798464
538.354483	47271.481869
538.714821	47871.384217
539.075103	48209.600270
539.435328	47969.913569
539.795497	47842.780711
540.155609	47827.216148
540.515665	48305.462852
540.875665	47734.416068
541.235609	48072.465762
541.595496	48043.408551
541.955328	48721.600019
542.315102	48067.122139
542.674821	47850.980147
543.034483	47882.119355
543.394090	47870.290287
543.753640	47802.317889
544.113134	48818.632149
544.472571	47805.067839
544.831953	49062.064427
545.191278	48254.466539
545.550548	47977.104775
545.909761	48452.906519
546.268918	48642.247217
546.628019	48941.293504
546.987064	48496.857819
547.346053	47743.850587
547.704986	48626.743148
548.063863	48175.033078
548.422684	48333.791616
548.781449	48183.635807
549.140158	48585.902240
549.498811	48429.755020
549.857408	47845.676853
550.215949	48686.425368
550.574434	48608.456363
550.932864	48364.661121
551.291237	49081.752653
551.649555	48686.299340
552.007817	48914.666129
552.366022	48566.400537
552.724173	48728.743334
553.082267	49107.765007
553.440305	49395.471219
553.798288	48682.528557
554.156215	48992.917440
554.514086	49185.683601
554.871902	48920.609650
555.229661	48957.394949
555.587365	48760.084188
555.945014	48859.848622
556.302606	48790.252973
556.660143	49005.606024
557.017625	49063.296989
557.375050	48851.356799
557.732421	49210.649916
558.089735	49156.092028
558.446994	49071.466179
558.804197	49530.569101
559.161345	49463.005036
559.518437	48692.441986
559.875474	49007.183905
560.232455	49167.608544
560.589381	49330.536116
560.946251	49025.571514
561.303065	49679.605773
561.659825	49474.461058
562.016528	49155.051030
562.373177	48861.287872
562.729770	49327.803811
563.086307	48829.914251
563.442789	49301.516714
563.799216	49317.799641
564.155587	49100.659501
564.511904	49114.265575
564.868164	49210.344926
565.224370	49431.623853
565.580520	49165.511424
565.936615	49364.659686
566.292654	49065.920909
566.648638	49326.397329
567.004567	49275.506881
567.360441	49327.342545
567.716260	49184.156132
568.072023	49450.129929
568.427732	49416.974260
568.783385	48948.124267
569.138982	49334.059883
569.494525	49287.603129
569.850013	49038.305469
570.205445	49008.844966
570.560823	48936.466599
570.916145	48827.186987
571.271412	48845.105768
571.626625	48590.953476
571.981782	48617.331314
572.336884	48305.271288
572.691931	48619.556983
573.046923	48205.038026
573.401860	48045.959375
573.756743	48007.291205
574.111570	48100.918034
574.466342	47944.082697
574.821059	48045.971978
575.175722	47541.566727
575.530330	47563.891477
575.884882	47259.504087
576.239380	47217.932212
576.593823	47195.378090
576.948211	47114.359186
577.302544	46626.241903
577.656823	46625.848693
578.011047	46837.410796
578.365216	46575.810200
578.719330	46346.800663
579.073389	46166.672674
579.427394	46254.444204
579.781344	46208.877214
580.135239	45858.501898
580.489080	45919.179747
580.842866	45393.495785
581.196597	45835.955338
581.550273	45773.689526
581.903895	45650.531617
582.257463	46043.988633
582.610975	45406.302837
582.964434	45706.543877
583.317837	45324.749570
583.671186	45141.564122
584.024481	45350.600607
584.377721	44863.073139
584.730906	45143.008412
585.084037	45197.130240
585.437113	44876.553185
585.790135	44917.449545
586.143103	44488.953989
586.496016	44606.735507
586.848874	44623.338548
587.201679	44637.136186
587.554428	44111.545486
587.907124	44297.914423
588.259765	44038.852047
588.612352	44278.067400
588.964884	43651.015917
589.317362	43940.201708
589.669786	43871.813414
590.022155	43615.553920
590.374470	44045.440835
590.726731	43558.598964
591.078937	43049.449988
591.431090	43158.071729
591.783188	42793.505566
592.135232	42468.860299
592.487222	42729.004002
592.839157	42806.380673
593.191038	42444.105713
593.542866	42212.033675
593.894639	41606.835594
594.246358	41872.529608
594.598022	41837.634741
594.949633	41441.805861
595.301190	41400.115519
595.652692	41247.736562
596.004141	41551.997923
596.355535	40553.887270
596.706876	40501.968426
597.058162	40327.441160
597.409395	40804.009159
597.760573	40871.358974
598.111698	40457.623917
598.462768	40457.581067
598.813785	40490.535089
599.164748	39935.647724
599.515657	40301.864866
599.866511	39803.609822
600.217312	40421.670407
600.568060	39373.574193
600.918753	40129.769956
601.269392	40064.817209
601.619978	39727.586702
601.970510	39944.661307
602.320988	40105.612746
602.671412	40408.606257
603.021783	40162.451756
603.372100	39802.624277
603.722363	39914.729456
604.072572	39970.063681
604.422728	40012.081698
604.772830	39809.311367
605.122878	39896.755222
605.472872	39844.639773
605.822813	40096.788207
606.172701	39925.076424
606.522534	40166.945945
606.872314	40433.804465
607.222041	40179.206031
607.571714	40560.687786
607.921333	40014.879539
608.270899	40293.562085
608.620411	40646.679789
608.969870	40416.165467
609.319276	40435.410072
609.668627	40477.019756
610.017926	40953.388630
610.367171	41102.165683
610.716362	41191.482326
611.065500	41117.904165
611.414585	41320.437562
611.763616	41619.551905
612.112594	41546.429968
612.461518	41772.954216
612.810389	42061.159502
613.159207	41930.598659
613.507971	41995.775737
613.856682	42464.471975
614.205340	42350.904861
614.553945	43063.476998
614.902496	42501.514373
615.250994	42968.302534
615.599439	43039.264336
615.947830	43235.927309
616.296169	43319.134074
616.644454	43420.814147
616.992686	43602.930871
617.340864	44110.302841
617.688990	43812.801667
618.037063	44433.100525
618.385082	44385.867434
618.733048	44658.283826
619.080961	44680.038925
619.428821	44700.924426
619.776628	44816.591180
620.124382	44657.265513
620.472083	44764.606802
620.819731	44885.589453
621.167326	44555.903033
621.514868	44550.451025
621.862357	44099.877735
622.209793	44130.739679
622.557176	43787.442143
622.904506	43521.186041
623.251783	43185.114999
623.599007	42950.386273
623.946179	42736.611103
624.293297	42692.100235
624.640363	42088.878287
624.987376	42088.795108
625.334336	41849.025228
625.681243	41476.741058
626.028097	41430.798502
626.374899	41312.679226
626.721647	41290.016719
627.068343	41179.436489
627.414987	40928.845772
627.761577	40705.000897
628.108115	41043.509337
628.454600	40486.086271
628.801032	40670.486638
629.147412	40643.312298
629.493739	40642.122586
629.840014	40281.836361
630.186236	40609.529005
630.532405	40194.468124
630.878521	40437.247573
631.224585	40294.025871
631.570597	40006.828816
631.916556	40160.165593
632.262462	40106.512592
632.608316	40129.477569
632.954117	40021.511177
633.299866	40007.106080
633.645562	39948.084250
633.991206	39456.896905
634.336797	39002.923357
634.682336	39002.691464
635.027823	38751.843648
635.373257	38569.232892
635.718639	38343.326185
636.063968	38195.053247
636.409245	37602.503421
636.754470	37672.099071
637.099642	37422.836698
637.444762	36940.161341
637.789829	37094.062727
638.134845	36741.769252
638.479808	36693.946346
638.824719	36588.228309
639.169577	36199.469648
639.514383	36264.150172
639.859137	35952.009488
640.203839	36202.872426
640.548489	35835.362229
640.893086	35913.542963
641.237632	35660.661042
641.582125	35767.157938
641.926566	35684.296492
642.270955	35652.461605
642.615292	35693.801587
642.959576	35642.132281
643.303809	35646.308877
643.647990	35798.014840
643.992118	35754.769302
644.336195	35740.906129
644.680219	35830.492474
645.024192	36145.234394
645.368112	36649.120406
645.711981	36651.696436
646.055797	37523.541308
646.399562	37450.253013
646.743274	38408.296576
647.086935	38828.814506
647.430544	38719.101354
647.774101	38836.383798
648.117606	39069.635466
648.461059	39378.950584
648.804460	38974.340015
649.147810	38371.990186
649.491108	38099.205789
649.834354	37738.518793
650.177548	36902.342605
650.520690	36470.998797
650.863781	36486.059244
651.206820	36322.619995
651.549807	35900.115850
651.892742	35410.551756
652.235626	35214.498762
652.578458	35088.545533
652.921238	34473.582737
653.263967	34807.690250
653.606644	34473.123992
653.949269	34423.103143
654.291843	34010.608209
654.634365	34415.254067
654.976836	34006.565204
655.319255	34008.306922
655.661622	34008.546377
656.003938	33802.547187
656.346203	33668.399563
656.688416	33885.360742
657.030577	33681.075544
657.372687	33508.103473
657.714746	33776.416366
658.056753	33896.486568
658.398708	33349.637323
658.740612	33402.362751
659.082465	33672.339224
659.424266	33508.753782
659.766016	33635.122906
660.107715	33499.162987
660.449362	33626.840290
660.790958	33593.293932
661.132503	33609.571818
661.473996	33639.884276
661.815438	33764.892288
662.156829	33951.472954
662.498168	33715.390678
662.839456	33735.373812
663.180693	33882.278076
663.521879	34050.985331
663.863013	34014.331101
664.204097	33999.815099
664.545129	34452.465344
664.886110	34408.009929
665.227040	34479.627081
665.567918	34600.234166
665.908746	34655.147455
666.249522	34835.522460
666.590248	34820.981252
666.930922	34938.425013
667.271545	34889.024226
667.612118	34972.503213
667.952639	34738.926391
668.293109	34810.420034
668.633528	34697.029361
668.973896	34621.790140
669.314213	34661.857231
669.654480	34390.706168
669.994695	34415.861526
670.334859	34305.377078
670.674973	34195.638720
671.015035	34345.108932
671.355047	34309.296575
671.695008	34244.711832
672.034918	34138.519926
672.374777	34233.301180
672.714585	34062.935386
673.054342	34288.111126
673.394049	34037.442271
673.733705	34321.113039
674.073310	33974.004391
674.412864	34042.065009
674.752368	33652.666122
675.091820	33969.553052
675.431223	33538.075653
675.770574	33240.579521
676.109875	33098.774384
676.449125	32826.582323
676.788324	32749.477875
677.127473	32216.635475
677.466571	32143.221152
677.805619	31784.923663
678.144616	31782.846707
678.483562	31693.769519
678.822458	31373.482330
679.161303	31301.595476
679.500098	31230.121997
679.838842	31109.479623
680.177535	31252.267786
680.516179	31539.671528
680.854771	31802.204738
681.193314	32663.969823
681.531805	33782.251502
681.870247	34526.892939
682.208638	35238.829891
682.546978	35442.013597
682.885268	35529.331423
683.223508	35014.354872
683.561697	34687.620047
683.899836	34486.619161
684.237925	33985.117615
684.575963	33814.913137
684.913951	33367.314129
685.251889	33523.678118
685.589776	33515.156047
685.927614	33518.382386
686.265401	33645.973990
686.603137	33736.961776
686.940824	34236.903085
687.278460	34617.046414
687.616046	34747.534161
687.953582	35339.821847
688.291068	35196.000248
688.628504	35472.031148
688.965889	35403.506743
689.303224	35021.651942
689.640510	34686.314388
689.977745	33945.095894
690.314930	33139.058244
690.652065	32634.174084
690.989150	31904.671231
691.326185	30989.364051
691.663170	30299.532558
692.000105	29537.126095
692.336990	28859.887405
692.673825	28411.471729
693.010610	27878.407518
693.347345	27308.187483
693.684030	26652.789592
694.020665	26360.274120
694.357251	25697.453130
694.693786	25643.704348
695.030272	25406.132411
695.366707	24858.867270
695.703093	24572.925462
696.039429	24581.525671
696.375716	24310.178003
696.711952	24270.045377
697.048139	24103.689821
697.384276	23919.740638
697.720363	24049.716707
698.056400	23851.375030
698.392388	23631.716833
698.728326	23597.263067
699.064214	23391.853692
699.400053	23329.015709
699.735842	22959.942754
700.071581	22696.915511
700.407270	22394.995766
700.742910	22211.013815
701.078501	21948.140327
701.414042	21668.396618
701.749533	21357.846418
702.084974	21009.560660
702.420366	21206.579035
702.755709	20765.435223
703.091002	20471.286417
703.426246	20487.844087
703.761440	20388.140146
704.096584	20117.926738
704.431679	20066.761547
704.766725	19981.162755
705.101721	19921.767880
705.436668	20008.137969
705.771565	19675.363842
706.106413	20017.156593
706.441212	20016.919659
706.775961	20148.488733
707.110661	20220.201668
707.445311	20576.074362
707.779913	20397.380581
708.114465	20652.543624
708.448967	20920.060015
708.783421	21615.956015
709.117825	21885.032643
709.452180	22088.402871
709.786485	22495.450839
710.120742	23290.135810
710.454949	23308.273882
710.789107	23767.132308
711.123216	24471.893177
711.457275	24596.359266
711.791286	25120.104903
712.125247	25179.852659
712.459159	24880.879468
712.793023	25539.085282
713.126837	24438.009062
713.460602	24699.637385
713.794318	24334.325130
714.127985	23956.341935
714.461602	23051.626219
714.795171	22999.341892
715.128691	21986.044763
715.462162	21459.317283
715.795584	21039.338756
716.128957	20779.699168
716.462281	20381.342150
716.795556	20146.719288
717.128782	19634.230547
717.461960	19085.523636
717.795088	19007.405916
718.128167	18604.569833
718.461198	18143.173186
718.794180	18006.164707
719.127113	17641.273389
719.459997	17451.662990
719.792833	17083.384016
720.125619	17057.354018
720.458357	16735.741006
720.791046	16567.941159
721.123686	16401.620890
721.456278	16167.660940
721.788821	16122.121677
722.121315	15869.038110
722.453761	15952.098681
722.786158	15863.316400
723.118506	15872.836619
723.450805	15742.084212
723.783056	15900.842750
724.115259	15784.873526
724.447412	15725.760956
724.779518	15956.698734
725.111574	15977.400233
725.443582	16187.699527
725.775542	16171.802248
726.107453	16634.645706
726.439315	16513.905031
726.771129	16913.686175
727.102895	17277.503727
727.434612	17482.754306
727.766281	17593.952078
728.097901	17849.536057
728.429473	17900.103871
728.760996	17883.732724
729.092471	17972.676322
729.423897	17838.808482
729.755276	17706.299232
730.086606	17836.542483
730.417887	18365.903966
730.749120	18881.792965
731.080305	19033.687972
731.411442	19357.667806
731.742530	19423.560728
732.073570	19532.691627
732.404562	19820.092848
732.735506	19635.115270
733.066401	19339.834724
733.397249	18799.259195
733.728048	18172.001024
734.058798	17336.122264
734.389501	16659.420457
734.720156	16206.734924
735.050762	15684.882239
735.381320	15330.554659
735.711831	15089.965592
736.042293	14751.510084
736.372707	14757.352782
736.703073	14551.557758
737.033391	14734.612137
737.363661	14702.729359
737.693883	14800.885666
738.024056	14971.412777
738.354182	15142.297810
738.684260	15423.105203
739.014290	15634.074970
739.344272	15814.578525
739.674207	16090.939620
740.004093	16203.440530
740.333931	16198.011207
740.663722	16243.530306
740.993464	16237.838843
741.323159	16058.323355
741.652806	15780.349090
741.982405	15576.003399
742.311956	15233.635956
742.641460	15124.779800
742.970915	14827.331559
743.300323	14489.846473
743.629683	14283.426347
743.958996	13997.159384
744.288260	13733.701123
744.617477	13434.269187
744.946647	13370.614538
745.275768	13089.988626
745.604842	12908.973395
745.933869	12738.340419
746.262847	12689.801669
746.591778	12611.910801
746.920662	12508.582271
747.249498	12511.727951
747.578286	12628.748255
747.907027	12772.998352
748.235720	12989.836023
748.564365	13015.223274
748.892963	12914.498499
749.221514	12969.162251
749.550017	12826.510200
749.878473	12782.871452
750.206881	12557.221844
750.535242	12467.446456
750.863555	12383.730534
751.191821	12273.828339
751.520039	12293.425825
751.848210	12215.350955
752.176334	12238.172258
752.504411	12152.414669
752.832440	11988.940133
753.160421	12041.927701
753.488356	11931.029878
753.816243	11841.924963
754.144082	11700.263499
754.471875	11639.147070
754.799620	11584.889131
755.127318	11554.876622
755.454969	11520.039728
755.782572	11470.525515
756.110129	11475.173459
756.437638	11395.286294
756.765100	11390.771941
757.092515	11397.244782
757.419882	11405.658468
757.747203	11407.387584
758.074477	11481.381640
758.401703	11438.877151
758.728882	11598.838004
759.056014	11637.811164
759.383099	11743.650189
759.710138	11854.666479
760.037129	11938.589088
760.364073	11944.109151
760.690970	11932.731267
761.017820	11940.270313
761.344623	12126.782923
761.671379	12458.516052
761.998088	13118.834109
762.324751	14727.090735
762.651366	17617.264893
762.977935	21204.242460
763.304456	23296.303662
763.630931	23668.015662
763.957359	22475.104742
764.283740	20589.773697
764.610074	18735.899452
764.936362	16641.110986
765.262602	15140.843437
765.588796	13710.226990
765.914943	12699.717619
766.241044	11855.031963
766.567097	11236.938610
766.893104	10697.237721
767.219064	10338.572227
767.544978	9967.926432
767.870845	9655.314400
768.196665	9467.778436
768.522438	9281.880846
768.848165	9113.798695
769.173846	8941.144217
769.499479	8825.633738
769.825066	8673.824431
770.150607	8488.478848
770.476101	8432.476670
770.801548	8317.046850
771.126949	8174.122577
771.452303	8087.533198
771.777611	7931.542254
772.102872	7909.295642
772.428087	7792.144267
772.753256	7664.353538
773.078378	7581.792041
773.403453	7435.316275
773.728482	7329.759554
774.053465	7262.198011
774.378401	7182.449477
774.703291	7089.997236
775.028135	6988.715414
775.352932	6950.697553
775.677683	6870.195367
776.002388	6781.415607
776.327046	6781.576923
776.651658	6699.862340
776.976224	6621.724456
777.300743	6602.333657
777.625216	6544.211674
777.949643	6502.029819
778.274024	6498.032184
778.598359	6434.082627
778.922647	6439.476662
779.246889	6395.490074
779.571086	6404.707824
779.895236	6408.987763
780.219339	6413.391211
780.543397	6402.467031
780.867409	6456.808149
781.191374	6453.337314
781.515294	6417.764412
781.839167	6476.561910
782.162995	6439.126302
782.486776	6391.542850
782.810511	6348.206571
783.134201	6275.276199
783.457844	6267.434684
783.781441	6219.742848
784.104993	6175.365571
784.428498	6147.687115
784.751958	6129.085258
785.075372	6108.252689
785.398739	6069.508902
785.722061	6091.649649
786.045337	6093.461944
786.368568	6204.994952
786.691752	6226.127469
787.014891	6479.440409
787.337983	6760.041114
787.661030	7187.059612
787.984031	7608.285825
788.306987	7858.185903
788.629897	7933.568797
788.952760	7835.790577
789.275579	7664.086357
789.598351	7370.839917
789.921078	7112.536235
790.243759	6831.643143
790.566395	6634.627289
790.888984	6443.517147
791.211529	6304.804757
791.534027	6149.012939
791.856480	6012.133009
792.178888	5955.230985
792.501249	5888.627260
792.823566	5790.017250
793.145836	5781.064161
793.468062	5761.605307
793.790241	5723.932764
794.112375	5762.958857
794.434464	5860.185070
794.756507	5894.885853
795.078505	6010.023286
795.400457	6222.850719
795.722364	6461.902235
796.044226	6647.918291
796.366042	6803.823535
796.687812	6745.220122
797.009538	6773.334637
797.331218	6685.278282
797.652852	6611.440502
797.974442	6499.698286
798.295986	6424.161636
798.617484	6296.975845
798.938938	6195.671338
799.260346	6129.402850
799.581709	5993.332026
799.903026	5937.977636
800.224299	5868.129929
800.545526	5753.741107
800.866708	5688.362383
801.187845	5639.385052
801.508936	5564.440739
801.829983	5535.552407
802.150984	5428.594246
802.471940	5404.419392
802.792851	5384.403491
803.113717	5364.460686
803.434538	5341.011759
803.755314	5308.445905
804.076045	5299.303773
804.396731	5263.693062
804.717372	5282.859529
805.037967	5277.863746
805.358518	5306.263086
805.679024	5360.190829
805.999485	5366.908167
806.319901	5388.285179
806.640272	5397.729781
806.960598	5449.003357
807.280879	5440.423313
807.601115	5478.463860
807.921306	5440.143529
808.241453	5432.939720
808.561554	5441.502120
808.881611	5415.502369
809.201623	5411.260238
809.521590	5363.974215
809.841513	5349.531309
810.161390	5368.753229
810.481223	5277.069764
810.801011	5266.949647
811.120755	5243.687243
811.440453	5191.226476
811.760107	5160.893853
812.079716	5135.519205
812.399281	5086.173871
812.718801	5076.487293
813.038276	5039.931366
813.357707	5008.872818
813.677093	5034.996077
813.996434	4972.775635
814.315731	4993.134335
814.634983	4992.305065
814.954191	4999.279502
815.273354	5053.260177
815.592473	5098.864975
815.911547	5172.561603
816.230577	5226.161672
816.549562	5308.823992
816.868502	5361.975397
817.187399	5419.618471
817.506250	5499.283825
817.825058	5529.306417
818.143821	5682.837278
818.462539	5850.251477
818.781213	6082.888124
819.099843	6446.627538
819.418429	7076.948210
819.736970	7688.014194
820.055466	8387.701142
820.373919	9306.393457
820.692327	10810.469598
821.010691	13614.631589
821.329011	19978.687548
821.647286	29444.993967
821.965517	39439.026014
822.283704	44398.979475
822.601847	45530.663061
822.919945	40954.411984
823.237999	35952.117872
823.556010	30928.154361
823.873976	26375.238785
824.191897	22306.049647
824.509775	19337.286421
824.827609	16644.115514
825.145398	15158.094265
825.463144	14462.543584
825.780845	14815.157172
826.098502	16115.948784
826.416116	18517.022635
826.733685	20642.151286
827.051210	20997.482056
827.368692	19513.631024
827.686129	17003.338055
828.003522	14611.829793
828.320872	12471.290335
828.638177	10882.570701
828.955439	9681.833390
829.272656	8648.290987
829.589830	7823.858166
829.906960	7110.829805
830.224046	6597.645384
830.541088	6200.034457
830.858086	5946.010715
831.175041	5751.671713
831.491952	5699.447880
831.808819	5739.593109
832.125642	5997.700186
832.442421	6563.867133
832.759157	7698.131789
833.075849	9451.578688
833.392497	11228.771941
833.709101	12246.903537
834.025662	11924.085688
834.342179	10869.143588
834.658653	9606.526113
834.975083	8531.817648
835.291469	7668.462078
835.607811	6951.952800
835.924110	6441.510767
836.240366	5964.799095
836.556578	5522.117732
836.872746	5175.036810
837.188871	4912.145678
837.504952	4695.423954
837.820990	4527.868603
838.136984	4418.427673
838.452935	4376.961662
838.768842	4418.513373
839.084706	4720.481009
839.400526	5469.770390
839.716303	6345.950655
840.032037	6862.827721
840.347727	6675.513567
840.663373	6080.944759
840.978977	5525.903638
841.294537	5104.347230
841.610054	4780.170791
841.925527	4550.740318
842.240957	4345.547712
842.556344	4166.788397
842.871687	4008.833923
843.186987	3862.264896
843.502244	3744.017071
843.817458	3658.486334
844.132629	3592.033844
844.447756	3544.263870
844.762840	3498.434740
845.077881	3458.420582
845.392879	3423.671908
845.707833	3399.308012
846.022745	3375.155844
846.337613	3362.714276
846.652438	3337.508507
846.967221	3331.086077
847.281960	3310.661842
847.596656	3299.835964
847.911309	3287.926238
848.225919	3278.272428
848.540485	3267.035697
848.855009	3262.591919
849.169490	3247.894435
849.483928	3240.655338
849.798323	3233.302816
850.112675	3223.815364
850.426984	3226.111610
850.741251	3221.607339
851.055474	3214.753890
851.369654	3218.723799
851.683792	3211.840103
851.997887	3218.769169
852.311938	3215.588201
852.625947	3213.879250
852.939914	3209.874053
853.253837	3215.202553
853.567718	3214.658108
853.881555	3210.030329
854.195350	3213.239023
854.509103	3206.108311
854.822812	3207.058569
855.136479	3204.132179
855.450103	3206.342725
855.763685	3197.097249
856.077224	3204.359031
856.390720	3208.875905
856.704173	3218.444015
857.017584	3227.833164
857.330953	3232.534040
857.644278	3238.432190
857.957561	3240.990575
858.270802	3239.871439
858.584000	3235.077302
858.897155	3233.509503
859.210268	3225.310066
859.523339	3210.068137
859.836367	3206.236861
860.149352	3204.094370
860.462295	3199.758978
860.775195	3189.507792
861.088054	3189.238090
861.400869	3188.716330
861.713642	3185.416895
862.026373	3193.991898
862.339062	3199.380891
862.651708	3205.543702
862.964312	3220.369735
863.276873	3229.345510
863.589392	3262.153339
863.901869	3284.173099
864.214303	3304.970379
864.526696	3326.501147
864.839045	3342.380782
865.151353	3353.715816
865.463619	3352.173223
865.775842	3355.084490
866.088023	3361.015407
866.400162	3356.677494
866.712258	3355.512988
867.024313	3356.569109
867.336325	3350.618027
867.648296	3355.676825
867.960224	3349.322451
868.272110	3356.039788
868.583954	3356.579192
868.895755	3365.040768
869.207515	3361.217053
869.519233	3378.109960
869.830909	3384.723954
870.142542	3393.694687
870.454134	3399.247518
870.765684	3414.698654
871.077191	3433.481994
871.388657	3446.296607
871.700081	3463.577682
872.011463	3482.860096
872.322803	3501.225019
872.634101	3518.009541
872.945357	3540.765309
873.256571	3565.338414
873.567744	3576.945670
873.878874	3585.520673
874.189963	3599.903085
874.501010	3604.992130
874.812015	3601.927108
875.122979	3618.038636
875.433900	3611.538068
875.744780	3618.373873
876.055618	3625.597846
876.366415	3622.915952
876.677169	3629.134216
876.987882	3648.139366
877.298554	3668.956810
877.609183	3706.931822
877.919771	3756.307404
878.230317	3826.810461
878.540822	3929.261830
878.851285	4084.766303
879.161707	4312.243329
879.472087	4696.225497
879.782425	5338.896995
880.092722	6545.323248
880.402977	8481.181778
880.713191	10803.354009
881.023363	13085.577617
881.333494	14285.634372
881.643583	14679.227500
881.953631	14249.680863
882.263637	13432.565277
882.573602	12440.435953
882.883526	11524.412929
883.193408	10595.643347
883.503248	9708.186021
883.813048	8903.254904
884.122806	8155.392170
884.432522	7404.131697
884.742197	6767.320540
885.051831	6213.716148
885.361424	5729.593980
885.670975	5344.301112
885.980485	5031.610942
886.289954	4766.151342
886.599382	4557.261050
886.908768	4379.467116
887.218113	4218.404771
887.527417	4086.160182
887.836680	3970.148109
888.145901	3869.113303
888.455082	3795.915749
888.764221	3728.875965
889.073319	3668.644259
889.382376	3632.962972
889.691392	3606.451544
890.000366	3601.594392
890.309300	3598.693208
890.618193	3605.034980
890.927044	3600.482818
891.235855	3600.901233
891.544625	3621.234727
891.853353	3650.304541
892.162041	3712.988769
892.470687	3804.319353
892.779293	3927.915842
893.087858	4103.390846
893.396381	4388.894073
893.704864	4803.110562
894.013306	5364.105285
894.321707	5913.102062
894.630068	6236.837401
894.938387	6250.985399
895.246665	6070.199540
895.554903	5758.159678
895.863100	5434.522643
896.171256	5174.212581
896.479371	4937.588382
896.787446	4720.483529
897.095480	4533.575189
897.403473	4388.500863
897.711425	4247.935850
898.019336	4125.206439
898.327207	4007.014067
898.635038	3904.792070
898.942827	3799.399187
899.250576	3714.972463
899.558284	3634.591265
899.865952	3577.883325
900.173579	3516.166999
900.481165	3472.855926
900.788711	3432.811520
901.096216	3399.098804
901.403681	3373.386399
901.711105	3365.993547
902.018489	3361.370808
902.325832	3396.870614
902.633135	3459.897640
902.940397	3636.821975
903.247619	4060.389804
903.554800	4819.882480
903.861941	5754.368731
904.169041	6410.341313
904.476101	6576.422127
904.783121	6292.423683
905.090100	5905.845321
905.397039	5501.005379
905.703938	5161.181199
906.010796	4847.994475
906.317614	4600.688070
906.624391	4375.945870
906.931129	4183.404040
907.237826	3998.224815
907.544483	3833.815144
907.851099	3663.005728
908.157675	3503.957324
908.464211	3368.178887
908.770707	3269.541150
909.077163	3191.249510
909.383578	3132.535191
909.689954	3086.322934
909.996289	3060.275292
910.302584	3039.914072
910.608839	3025.534180
910.915054	3015.368694
911.221229	3013.127901
911.527363	3014.819208
911.833458	3022.486803
912.139513	3034.888041
912.445527	3047.838766
912.751502	3083.578026
913.057436	3127.297432
913.363331	3185.293387
913.669186	3275.600617
913.975000	3396.331210
914.280775	3589.397320
914.586510	3861.261706
914.892205	4237.546032
915.197859	4730.094489
915.503475	5294.171878
915.809050	5763.495740
916.114585	6027.319485
916.420081	6074.976033
916.725536	6005.546742
917.030952	5771.324652
917.336328	5577.726700
917.641665	5369.912694
917.946961	5151.512266
918.252218	4958.678049
918.557435	4741.376592
918.862612	4546.110018
919.167750	4375.953432
919.472848	4190.033157
919.777906	4022.805481
920.082925	3869.506513
920.387904	3718.229048
920.692843	3612.216103
920.997743	3512.565095
921.302603	3422.812392
921.607423	3360.193699
921.912204	3292.175931
922.216946	3248.980804
922.521647	3197.460212
922.826310	3154.985970
923.130932	3119.213942
923.435516	3078.859506
923.740059	3053.865465
924.044564	3022.262472
924.349028	2998.921929
924.653454	2968.727938
924.957840	2944.336315
925.262186	2926.788059
925.566493	2902.726632
925.870761	2878.773589
926.174989	2864.693646
926.479178	2854.555886
926.783328	2838.020901
927.087438	2824.374498
927.391509	2810.324802
927.695541	2800.736527
927.999533	2788.786472
928.303486	2779.092333
928.607400	2777.459000
928.911275	2767.152361
929.215110	2765.299737
929.518906	2760.334200
929.822663	2760.679519
930.126381	2761.501227
930.430060	2766.045827
930.733699	2763.439551
931.037299	2765.738317
931.340861	2768.246291
931.644383	2771.122269
931.947866	2767.477515
932.251309	2765.937442
932.554714	2766.229829
932.858080	2764.667072
933.161407	2761.208840
933.464694	2757.193561
933.767943	2753.891605
934.071153	2749.470513
934.374323	2749.077303
934.677455	2743.872312
934.980548	2743.040522
935.283602	2738.911817
935.586617	2735.806466
935.889593	2741.646643
936.192530	2742.009606
936.495428	2746.828949
936.798287	2756.006369
937.101108	2767.497680
937.403890	2789.605660
937.706632	2815.083651
938.009336	2847.271419
938.312002	2877.838455
938.614628	2901.657907
938.917216	2917.552665
939.219765	2924.723706
939.522275	2940.164761
939.824747	2941.321705
940.127179	2930.420210
940.429573	2926.593974
940.731929	2925.111875
941.034246	2915.899167
941.336524	2913.865061
941.638763	2911.737694
941.940964	2905.506828
942.243126	2887.462018
942.545250	2877.467930
942.847335	2862.420086
943.149381	2845.401151
943.451389	2836.599296
943.753359	2824.296360
944.055290	2816.631286
944.357182	2807.015285
944.659036	2799.859367
944.960851	2795.831485
945.262628	2790.407203
945.564367	2794.621608
945.866067	2791.486010
946.167729	2792.146401
946.469352	2789.104065
946.770937	2786.825463
947.072484	2781.572581
947.373992	2781.746501
947.675462	2776.901952
947.976893	2771.979265
948.278286	2769.473812
948.579641	2764.672113
948.880958	2764.273862
949.182236	2763.721855
949.483476	2757.375043
949.784678	2759.313366
950.085841	2757.511154
950.386967	2761.576844
950.688054	2769.609923
950.989103	2776.821294
951.290114	2785.179527
951.591087	2797.452216
951.892021	2805.686941
952.192917	2819.991215
952.493776	2830.073522
952.794596	2833.395643
953.095378	2835.913699
953.396122	2833.206599
953.696828	2828.135199
953.997496	2823.371308
954.298126	2814.236737
954.598718	2806.657363
954.899272	2796.607822
955.199788	2784.798920
955.500266	2773.045469
955.800706	2757.627100
956.101108	2744.290728
956.401472	2734.760427
956.701798	2720.433467
957.002087	2703.734645
957.302337	2696.404807
957.602550	2687.875175
957.902724	2676.857733
958.202861	2669.976558
958.502960	2659.107831
958.803022	2654.527942
959.103045	2645.214411
959.403031	2642.106539
959.702979	2636.561270
960.002889	2628.031638
960.302762	2624.497789
960.602596	2625.942080
960.902393	2621.223560
961.202153	2618.665174
961.501875	2615.179216
961.801559	2612.157044
962.101205	2607.418360
962.400814	2609.460027
962.700385	2605.507762
962.999918	2604.570108
963.299414	2603.251846
963.598873	2599.526433
963.898293	2597.779674
964.197677	2598.500559
964.497022	2594.941504
964.796331	2595.344796
965.095601	2594.336566
965.394835	2594.674323
965.694030	2593.018304
965.993189	2593.222471
966.292309	2590.134764
966.591393	2589.935638
966.890439	2591.631987
967.189447	2592.809096
967.488419	2590.041502
967.787353	2589.418920
968.086249	2593.053592
968.385108	2595.380084
968.683930	2592.862028
968.982714	2595.617019
969.281462	2594.122317
969.580172	2597.187338
969.878844	2600.143975
970.177480	2600.708584
970.476078	2607.355345
970.774639	2610.679986
971.073162	2607.917434
971.371649	2610.153186
971.670098	2610.616972
971.968510	2611.675614
972.266885	2613.034205
972.565223	2619.444032
972.863524	2617.909001
973.161788	2618.387911
973.460014	2620.696759
973.758204	2623.731534
974.056356	2621.631893
974.354471	2621.672222
974.652550	2621.175669
974.950591	2621.621811
975.248595	2623.209774
975.546563	2621.417644
975.844493	2621.493261
976.142386	2620.981584
976.440243	2614.004627
976.738062	2615.131325
977.035845	2612.668722
977.333590	2609.225613
977.631299	2608.691251
977.928971	2604.688575
978.226606	2602.886362
978.524204	2605.422063
978.821765	2602.795622
979.119290	2599.435693
979.416777	2598.450147
979.714228	2599.188676
980.011642	2601.278234
980.309020	2606.770572
980.606360	2609.081941
980.903664	2619.204577
981.200931	2632.384674
981.498162	2651.248672
981.795356	2681.757735
982.092513	2717.091182
982.389633	2756.586102
982.686717	2797.311063
982.983764	2828.044458
983.280775	2843.064576
983.577749	2842.852847
983.874686	2834.514779
984.171587	2818.168837
984.468451	2803.279790
984.765279	2787.357305
985.062070	2769.078081
985.358824	2751.565113
985.655543	2726.611401
985.952224	2708.944678
986.248869	2684.905936
986.545478	2658.520536
986.842050	2637.690489
987.138586	2620.439660
987.435086	2609.492795
987.731549	2595.725403
988.027975	2592.864549
988.324366	2585.559917
988.620719	2581.418609
988.917037	2578.275449
989.213318	2577.037846
989.509563	2572.336970
989.805772	2568.813204
990.101944	2570.590210
990.398080	2566.595096
990.694180	2567.144582
990.990244	2570.534758
991.286271	2566.897565
991.582262	2571.331260
991.878217	2567.653738
992.174136	2571.406877
992.470019	2572.770509
992.765865	2573.483833
993.061676	2574.360993
993.357450	2578.633371
993.653188	2579.896180
993.948890	2587.067222
994.244556	2594.321442
994.540186	2603.640015
994.835780	2612.978753
995.131337	2629.869138
995.426859	2643.182826
995.722345	2661.666216
996.017795	2677.596262
996.313208	2694.436237
996.608586	2703.187680
996.903928	2703.021322
997.199234	2702.219778
997.494504	2699.074098
997.789738	2691.850125
998.084936	2687.174455
998.380099	2671.940088
998.675225	2660.385763
998.970316	2647.813126
999.265371	2638.179481
999.560390	2623.774383
999.855373	2614.029833
1000.150320	2604.698657
1000.445232	2595.652307
1000.740108	2587.518405
1001.034948	2581.433732
1001.329752	2579.230748
1001.624521	2573.425859
1001.919254	2563.184755
1002.213951	2566.073337
1002.508613	2559.915567
1002.803239	2558.042778
1003.097829	2555.922973
1003.392384	2556.880793
1003.686903	2555.804506
1003.981386	2555.123950
1004.275834	2554.080432
1004.570246	2551.496840
1004.864623	2552.731923
1005.158964	2551.335523
1005.453270	2552.063970
1005.747540	2549.750080
1006.041775	2551.174206
1006.335974	2551.900132
1006.630138	2547.710934
1006.924266	2551.254865
1007.218359	2548.661191
1007.512416	2550.410472
1007.806438	2549.792930
1008.100425	2548.930893
1008.394376	2550.692776
1008.688292	2547.910059
1008.982172	2547.612631
1009.276017	2546.952240
1009.569827	2548.885522
1009.863602	2548.832590
1010.157341	2546.493495
1010.451045	2548.310831
1010.744714	2546.375028
1011.038347	2544.318237
1011.331945	2544.298073
1011.625508	2545.124822
1011.919036	2544.645912
1012.212528	2543.471323
1012.505986	2544.839997
1012.799408	2543.183978
1013.092795	2543.914945
1013.386147	2543.473844
1013.679464	2541.994265
1013.972745	2541.369162
1014.265992	2541.583411
1014.559204	2543.773792
1014.852380	2541.134748
1015.145521	2541.863195
1015.438628	2541.475026
1015.731699	2544.376210
1016.024736	2544.076262
1016.317737	2545.157589
1016.610703	2546.397713
1016.903635	2544.356046
1017.196531	2539.529141
1017.489393	2543.728422
1017.782219	2539.677855
1018.075011	2545.213042
1018.367768	2545.318906
1018.660490	2545.581046
1018.953177	2545.581046
1019.245829	2545.581046
