Dividing Wavelength (nm)	Counts (n)	Blue Motor Position (mm): 16.000000	Red Motor Position (mm): 0.000000	
326.493990	2062.033569
326.888308	2062.033569
327.282561	2062.033569
327.676750	2034.929806
328.070874	2037.062214
328.464933	2041.591690
328.858929	2051.527805
329.252859	2061.002653
329.646726	2076.176526
330.040528	2091.680595
330.434265	2107.323295
330.827938	2131.210803
331.221547	2151.672846
331.615091	2171.655980
332.008571	2191.089628
332.401986	2215.524101
332.795338	2230.957593
333.188625	2252.057343
333.581847	2270.865888
333.975006	2289.608898
334.368100	2307.429377
334.761129	2321.360605
335.154095	2340.925323
335.546996	2378.872609
335.939833	2468.000209
336.332606	2475.924903
336.725315	2490.322438
337.117960	2499.207472
337.510540	2507.810201
337.903056	2517.254803
338.295508	2525.408869
338.687896	2531.314581
339.080220	2535.360107
339.472480	2541.689275
339.864676	2545.271015
340.256807	2546.364946
340.648875	2549.956768
341.040879	2548.207487
341.432818	2553.392314
341.824694	2552.179917
342.216506	2551.474155
342.608253	2552.404248
342.999937	2551.035575
343.391557	2547.353012
343.783113	2548.013403
344.174605	2546.755635
344.566033	2544.640871
344.957397	2545.034081
345.348697	2541.850592
345.739934	2536.857329
346.131106	2539.486291
346.522215	2537.321116
346.913260	2535.707946
347.304241	2531.468336
347.695159	2528.226874
348.086012	2531.029756
348.476802	2529.245187
348.867528	2524.100690
349.258191	2520.264372
349.648789	2521.214629
350.039324	2516.599453
350.429796	2523.163035
350.820203	2522.069105
351.210548	2522.169928
351.600828	2520.788652
351.991045	2521.698580
352.381198	2521.590195
352.771288	2518.908301
353.161314	2516.538959
353.551276	2518.263033
353.941175	2516.962416
354.331010	2517.859741
354.720782	2520.791172
355.110490	2521.900226
355.500135	2519.674557
355.889717	2522.348889
356.279235	2522.351409
356.668689	2517.123733
357.058080	2522.764784
357.447408	2522.550535
357.836672	2520.987777
358.225873	2520.057684
358.615010	2521.837212
359.004084	2521.116327
359.393095	2526.462470
359.782043	2522.684125
360.170927	2523.778056
360.559748	2522.353930
360.948505	2524.619928
361.337199	2527.584127
361.725830	2526.200330
362.114398	2525.033303
362.502903	2526.611184
362.891344	2530.502955
363.279722	2525.676050
363.668037	2528.337779
364.056289	2526.525485
364.444478	2527.422810
364.832603	2530.233253
365.220665	2531.536392
365.608665	2529.683768
365.996601	2531.916999
366.384474	2532.027904
366.772284	2532.232071
367.160031	2529.300640
367.547715	2530.631504
367.935336	2529.880372
368.322893	2533.290713
368.710388	2527.816020
369.097820	2530.548325
369.485189	2525.905423
369.872495	2531.208717
370.259738	2535.397915
370.646918	2531.954807
371.034035	2534.167874
371.421090	2532.098480
371.808081	2535.092926
372.195010	2535.481094
372.581875	2534.460261
372.968678	2534.735004
373.355418	2532.695857
373.742096	2536.355735
374.128710	2536.242309
374.515262	2532.549663
374.901751	2535.728111
375.288177	2536.564943
375.674540	2538.205838
376.060841	2536.446475
376.447079	2533.247863
376.833254	2537.517721
377.219367	2539.710623
377.605417	2538.314223
377.991404	2537.348842
378.377329	2535.997813
378.763191	2539.914789
379.148991	2535.402957
379.534727	2539.259439
379.920402	2539.115766
380.306013	2540.653318
380.691563	2539.030067
381.077049	2541.071734
381.462474	2540.040818
381.847835	2537.926054
382.233134	2541.028884
382.618371	2539.007382
383.003545	2544.749256
383.388657	2540.885211
383.773706	2542.803370
384.158693	2541.598535
384.543618	2542.160623
384.928480	2543.564585
385.313280	2540.416384
385.698017	2542.841179
386.082692	2542.299255
386.467305	2540.693648
386.851856	2544.575336
387.236344	2542.478216
387.620770	2541.744728
388.005133	2542.037115
388.389435	2541.762372
388.773674	2540.522248
389.157851	2546.904349
389.541965	2543.383103
389.926018	2545.326468
390.310008	2543.609955
390.693936	2546.284287
391.077802	2549.195553
391.461606	2546.294369
391.845348	2546.415357
392.229027	2545.591128
392.612645	2547.622713
392.996200	2544.784544
393.379694	2548.348640
393.763125	2545.810419
394.146494	2546.886705
394.529801	2550.672612
394.913047	2547.612631
395.296230	2549.140101
395.679351	2547.962991
396.062410	2547.564740
396.445408	2545.628937
396.828343	2551.327962
397.211217	2548.300749
397.594028	2547.353012
397.976778	2544.126673
398.359466	2549.432488
398.742092	2548.033567
399.124656	2548.809905
399.507158	2547.025337
399.889598	2550.125646
400.271977	2548.656150
400.654294	2552.069011
401.036549	2549.470296
401.418742	2551.471634
401.800874	2548.736808
402.182944	2550.044988
402.564952	2550.017262
402.946898	2550.405430
403.328783	2552.615976
403.710606	2552.684032
404.092367	2552.091696
404.474067	2553.427602
404.855705	2551.864844
405.237282	2551.592622
405.618797	2550.970040
406.000250	2552.437015
406.381642	2552.908363
406.762972	2551.406099
407.144240	2550.758311
407.525447	2552.608415
407.906593	2549.112374
408.287677	2553.964485
408.668700	2553.553631
409.049661	2555.867521
409.430560	2556.953889
409.811399	2552.706717
410.192176	2556.101934
410.572891	2553.309135
410.953545	2555.413817
411.334138	2553.561193
411.714669	2556.651420
412.095139	2558.441030
412.475547	2555.141594
412.855894	2555.275185
413.236180	2557.687377
413.616405	2551.842159
413.996568	2554.395504
414.376670	2558.075546
414.756711	2556.671585
415.136691	2556.684188
415.516609	2557.810885
415.896466	2558.468756
416.276262	2556.721996
416.655997	2559.222408
417.035670	2556.689229
417.415283	2557.846173
417.794834	2553.752757
418.174324	2554.685370
418.553753	2553.654454
418.933121	2559.207285
419.312428	2557.095042
419.691674	2556.202757
420.070859	2556.535473
420.449983	2556.497665
420.829045	2557.173179
421.208047	2557.276523
421.586988	2555.766697
421.965867	2557.959599
422.344686	2560.081925
422.723444	2557.412634
423.102141	2558.617470
423.480777	2557.064795
423.859352	2556.437171
424.237866	2556.472459
424.616319	2557.319373
424.994712	2562.947821
425.373044	2555.456667
425.751314	2556.353992
426.129524	2553.702345
426.507673	2554.521533
426.885762	2553.014227
427.263789	2557.452963
427.641756	2559.666030
428.019662	2557.515978
428.397508	2556.162428
428.775292	2557.304249
429.153016	2560.701987
429.530679	2558.400700
429.908282	2561.541339
430.285824	2560.155022
430.663305	2561.069991
431.040726	2559.729044
431.418086	2555.343241
431.795385	2560.616288
432.172624	2558.856925
432.549802	2559.991184
432.926920	2559.345917
433.303977	2559.819785
433.680974	2561.821123
434.057910	2559.073694
434.434786	2559.736606
434.811601	2558.972871
435.188355	2561.190979
435.565050	2559.373643
435.941683	2556.386759
436.318257	2558.380536
436.694770	2561.561504
437.071222	2560.308777
437.447614	2560.028993
437.823946	2559.877758
438.200218	2556.633776
438.576429	2559.144271
438.952580	2559.860114
439.328670	2559.663509
439.704700	2558.917419
440.080670	2558.400700
440.456580	2557.432799
440.832429	2559.635783
441.208218	2560.301215
441.583947	2559.676112
441.959616	2560.704508
442.335224	2558.844322
442.710773	2560.177707
443.086261	2558.864487
443.461689	2561.001936
443.837057	2561.077553
444.212365	2560.714590
444.587612	2562.743654
444.962800	2557.271482
445.337927	2558.572100
445.712995	2556.752243
446.088002	2560.175187
446.462949	2562.821792
446.837837	2561.851370
447.212664	2558.504044
447.587431	2560.754919
447.962139	2563.280537
448.336786	2560.202913
448.711374	2560.661658
449.085901	2560.344065
449.460369	2561.737944
449.834776	2561.067471
450.209124	2559.781977
450.583412	2562.332800
450.957640	2560.949004
451.331808	2560.492779
451.705917	2561.823644
452.079965	2566.121227
452.453954	2561.526216
452.827883	2562.809189
453.201752	2561.748027
453.575562	2561.480845
453.949311	2561.090156
454.323001	2563.643500
454.696632	2563.230126
455.070202	2560.893551
455.443713	2561.957234
455.817164	2562.388253
456.190556	2564.613923
456.563888	2561.455640
456.937160	2560.520506
457.310373	2561.947152
457.683526	2561.639642
458.056619	2562.955383
458.429653	2563.076371
458.802628	2564.717266
459.175542	2565.541495
459.548398	2562.917574
459.921194	2561.974878
460.293930	2564.288768
460.666607	2564.878583
461.039224	2564.175342
461.411782	2564.865980
461.784280	2562.973027
462.156719	2563.845147
462.529099	2561.652245
462.901419	2565.276834
463.273680	2563.966134
463.645882	2561.483366
464.018024	2564.863460
464.390106	2559.232491
464.762130	2562.254663
465.134094	2566.620302
465.505999	2568.115004
465.877845	2566.509396
466.249631	2567.999057
466.621358	2569.118193
466.993026	2570.239850
467.364634	2570.444017
467.736184	2570.749007
468.107674	2568.840930
468.479105	2569.841599
468.850477	2569.118193
469.221790	2568.485529
469.593043	2566.711042
469.964238	2566.920250
470.335373	2566.574931
470.706449	2568.546022
471.077467	2569.551733
471.448425	2568.432597
471.819324	2573.859399
472.190164	2572.924265
472.560945	2569.445868
472.931667	2570.993503
473.302330	2569.161043
473.672934	2566.642987
474.043479	2567.772205
474.413965	2571.011147
474.784393	2568.311609
475.154761	2572.440314
475.525070	2567.676423
475.895321	2568.767833
476.265513	2570.864953
476.635645	2572.069789
477.005719	2570.602813
477.375734	2571.197669
477.745691	2574.577763
478.115588	2573.947619
478.485427	2576.201015
478.855207	2572.843606
479.224928	2575.308730
479.594591	2577.035326
479.964194	2578.167065
480.333739	2575.354101
480.703226	2577.950295
481.072653	2581.642940
481.442022	2579.399627
481.811333	2578.222517
482.180584	2573.826631
482.549777	2576.538772
482.918912	2574.824780
483.287988	2579.971798
483.657005	2578.835017
484.025964	2579.843248
484.394864	2580.664956
484.763706	2583.588826
485.132489	2581.247210
485.501213	2583.445153
485.869879	2582.056315
486.238487	2583.437591
486.607036	2584.213929
486.975527	2585.874989
487.343959	2584.559248
487.712333	2583.634196
488.080648	2587.125195
488.448905	2587.145360
488.817104	2585.590164
489.185244	2589.083683
489.553326	2587.823395
489.921350	2595.236412
490.289315	2597.114241
490.657222	2597.517534
491.025070	2595.821185
491.392861	2599.717997
491.760593	2599.009715
492.128267	2597.835126
492.495883	2596.988212
492.863440	2598.921495
493.230939	2594.054261
493.598380	2600.214551
493.965763	2599.012236
494.333088	2598.661876
494.700354	2599.165991
495.067563	2597.199941
495.434713	2599.483584
495.801805	2603.503904
496.168839	2598.709767
496.535815	2602.697319
496.902733	2606.589090
497.269593	2605.719491
497.636395	2606.541199
498.003139	2609.061776
498.369825	2606.604213
498.736453	2608.872733
499.103023	2609.462548
499.469535	2609.586056
499.835989	2609.487753
500.202385	2608.003134
500.568723	2609.238216
500.935003	2612.399020
501.301226	2607.718308
501.667390	2615.849690
502.033497	2618.350102
502.399546	2617.573764
502.765537	2617.825822
503.131470	2621.629372
503.497345	2620.517798
503.863163	2621.689866
504.228923	2623.358488
504.594625	2627.628346
504.960269	2625.916874
505.325856	2627.557769
505.691385	2628.671864
506.056856	2629.604478
506.422270	2632.735034
506.787625	2630.804272
507.152924	2633.854171
507.518164	2635.956332
507.883347	2634.869963
508.248472	2635.633698
508.613540	2640.586632
508.978550	2640.221148
509.343503	2641.330202
509.708398	2646.250368
510.073236	2647.823208
510.438016	2647.850934
510.802738	2648.597025
511.167403	2652.153559
511.532010	2653.819660
511.896561	2658.737306
512.261053	2660.811741
512.625488	2659.251504
512.989866	2665.053872
513.354186	2662.253511
513.718449	2664.547236
514.082655	2667.589572
514.446803	2671.070489
514.810894	2673.787671
515.174927	2675.899914
515.538904	2678.879236
515.902822	2686.231759
516.266684	2681.515760
516.630488	2687.819722
516.994235	2690.325176
517.357925	2694.421113
517.721558	2699.933615
518.085133	2701.216589
518.448651	2702.887731
518.812112	2703.220447
519.175516	2707.891077
519.538863	2711.379555
519.902152	2717.930534
520.265385	2726.223232
520.628560	2732.025601
520.991678	2733.706825
521.354739	2737.391909
521.717743	2743.978176
522.080690	2747.953126
522.443580	2759.179776
522.806413	2762.753954
523.169189	2768.755447
523.531908	2776.123094
523.894569	2780.188784
524.257174	2788.816719
524.619722	2796.138995
524.982213	2803.950263
525.344647	2809.349339
525.707025	2820.127326
526.069345	2830.378512
526.431608	2840.491067
526.793815	2848.347705
527.155964	2856.499251
527.518057	2864.522247
527.880093	2876.502549
528.242072	2889.254148
528.603995	2899.432238
528.965860	2908.082858
529.327669	2921.552821
529.689421	2936.179728
530.051117	2949.700103
530.412755	2963.195272
530.774337	2978.719505
531.135862	2991.140908
531.497331	3007.517097
531.858743	3019.935979
532.220098	3044.763662
532.581396	3056.383521
532.942638	3072.469843
533.303824	3093.383070
533.664953	3115.082717
534.026025	3126.536218
534.387040	3158.487051
534.747999	3178.523117
535.108902	3203.403732
535.469748	3215.061400
535.830537	3246.563571
536.191270	3270.693054
536.551947	3292.438071
536.912567	3321.558296
537.273131	3352.543748
537.633638	3371.228785
537.994089	3408.356883
538.354483	3433.855039
538.714821	3476.230978
539.075103	3515.819159
539.435328	3546.492060
539.795497	3574.198242
540.155609	3611.648973
540.515665	3663.116634
540.875665	3684.034902
541.235609	3728.182806
541.595496	3772.280300
541.955328	3825.898012
542.315102	3854.438504
542.674821	3888.481416
543.034483	3932.644445
543.394090	3976.530209
543.753640	4024.005276
544.113134	4107.385960
544.472571	4128.352119
544.831953	4217.290676
545.191278	4243.272783
545.550548	4285.668887
545.909761	4359.478941
546.268918	4426.317079
546.628019	4502.960262
546.987064	4537.769429
547.346053	4566.239345
547.704986	4667.894212
548.063863	4714.666038
548.422684	4786.885608
548.781449	4833.191127
549.140158	4930.089665
549.498811	4985.612934
549.857408	5017.939333
550.215949	5134.788238
550.574434	5203.335327
550.932864	5275.199496
551.291237	5392.849944
551.649555	5457.822856
552.007817	5544.150095
552.366022	5606.667964
552.724173	5696.718095
553.082267	5807.673891
553.440305	5921.422487
553.798288	5958.076716
554.156215	6070.265075
554.514086	6183.375964
554.871902	6239.249593
555.229661	6353.557756
555.587365	6422.261121
555.945014	6529.804056
556.302606	6631.476568
556.660143	6746.114927
557.017625	6869.363577
557.375050	6942.702283
557.732421	7089.072185
558.089735	7205.369083
558.446994	7295.572970
558.804197	7463.403063
559.161345	7564.972231
559.518437	7604.454548
559.875474	7749.206240
560.232455	7892.538846
560.589381	8021.030296
560.946251	8115.977908
561.303065	8326.534302
561.659825	8405.831652
562.016528	8503.420828
562.373177	8579.559895
562.729770	8787.953634
563.086307	8857.443419
563.442789	9060.884223
563.799216	9179.615999
564.155587	9293.679667
564.511904	9427.970964
564.868164	9575.079395
565.224370	9761.145863
565.580520	9868.650989
565.936615	10042.626250
566.292654	10127.441143
566.648638	10331.915384
567.004567	10481.287293
567.360441	10642.853753
567.716260	10740.541232
568.072023	10975.758950
568.427732	11109.074784
568.783385	11179.250166
569.138982	11416.814541
569.494525	11601.671132
569.850013	11673.159735
570.205445	11862.061852
570.560823	11980.223977
570.916145	12117.217333
571.271412	12338.360150
571.626625	12423.827872
571.981782	12606.272271
572.336884	12690.061289
572.691931	12949.181638
573.046923	13035.622303
573.401860	13177.694621
573.756743	13349.862628
574.111570	13555.813927
574.466342	13711.068862
574.821059	13922.270523
575.175722	13973.765910
575.530330	14168.127597
575.884882	14250.777314
576.239380	14396.239808
576.593823	14605.349390
576.948211	14759.212967
577.302544	14810.975535
577.656823	14992.862886
578.011047	15249.810498
578.365216	15373.409508
578.719330	15474.555219
579.073389	15649.536189
579.427394	15858.565113
579.781344	16018.102509
580.135239	16127.074611
580.489080	16329.355950
580.842866	16346.289186
581.196597	16710.373919
581.550273	16888.248512
581.903895	17057.490129
582.257463	17408.495589
582.610975	17399.426553
582.964434	17725.538796
583.317837	17728.465186
583.671186	17909.016631
584.024481	18211.506027
584.377721	18225.059169
584.730906	18507.053753
585.084037	18754.226567
585.437113	18824.540581
585.790135	19062.974555
586.143103	19073.439991
586.496016	19331.549588
586.848874	19569.928109
587.201679	19773.376476
587.554428	19751.785214
587.907124	20067.694161
588.259765	20166.195786
588.612352	20425.749674
588.964884	20368.361179
589.317362	20699.259997
589.669786	20890.919625
590.022155	21008.350783
590.374470	21416.717012
590.726731	21407.128738
591.078937	21278.985128
591.431090	21621.201336
591.783188	21591.171182
592.135232	21671.849808
592.487222	22000.608657
592.839157	22251.789188
593.191038	22264.213112
593.542866	22349.892562
593.894639	22224.529149
594.246358	22562.999780
594.598022	22746.941401
594.949633	22701.059339
595.301190	22870.001008
595.652692	23020.900386
596.004141	23460.907417
596.355535	23052.836096
596.706876	23231.217325
597.058162	23250.454368
597.409395	23707.077042
597.760573	23992.015660
598.111698	23943.781900
598.462768	24059.884715
598.813785	24251.584672
599.164748	24178.538353
599.515657	24518.549056
599.866511	24394.035077
600.217312	24966.909279
600.568060	24495.153061
600.918753	25158.914226
601.269392	25268.120742
601.619978	25262.227633
601.970510	25544.643154
602.320988	25783.059484
602.671412	26120.854600
603.021783	26182.326430
603.372100	26086.950320
603.722363	26311.616903
604.072572	26481.818860
604.422728	26632.209082
604.772830	26643.163509
605.122878	26901.028611
605.472872	26968.728786
605.822813	27280.337629
606.172701	27271.530733
606.522534	27640.701991
606.872314	27924.922245
607.222041	27954.392830
607.571714	28327.778493
607.921333	28123.155538
608.270899	28421.158306
608.620411	28836.504013
608.969870	28794.594380
609.319276	28953.899883
609.668627	29121.707292
610.017926	29546.555573
610.367171	29755.856719
610.716362	29942.465111
611.065500	29976.818054
611.414585	30277.906008
611.763616	30546.138243
612.112594	30597.578177
612.461518	30806.032409
612.810389	31229.416235
613.159207	31215.714379
613.507971	31315.751036
613.856682	31810.026088
614.205340	31819.125371
614.553945	32452.561475
614.902496	32065.239543
615.250994	32495.325583
615.599439	32680.222503
615.947830	32881.772875
616.296169	33012.941178
616.644454	33148.185253
616.992686	33384.771644
617.340864	33854.831514
617.688990	33587.975515
618.037063	34232.655913
618.385082	34197.400603
618.733048	34571.764250
619.080961	34594.804843
619.428821	34713.652566
619.776628	34855.644226
620.124382	34809.888193
620.472083	35008.595354
620.819731	35202.589036
621.167326	34978.073688
621.514868	35095.041060
621.862357	34781.229233
622.209793	34966.194209
622.557176	34742.220785
622.904506	34649.050179
623.251783	34466.336079
623.599007	34322.713606
623.946179	34362.460583
624.293297	34250.146196
624.640363	33899.105448
624.987376	33878.719022
625.334336	33796.510405
625.681243	33555.999476
626.028097	33572.993206
626.374899	33518.145452
626.721647	33572.786518
627.068343	33478.708505
627.414987	33321.384176
627.761577	33188.479196
628.108115	33548.828435
628.454600	33004.033459
628.801032	33271.607823
629.147412	33269.971968
629.493739	33271.640590
629.840014	32941.618933
630.186236	33391.307500
630.532405	32976.032370
630.878521	33262.599281
631.224585	33117.953454
631.570597	32890.332755
631.916556	33100.710187
632.262462	33065.714497
632.608316	33059.380287
632.954117	33019.908053
633.299866	33066.309353
633.645562	33051.921900
633.991206	32653.259892
634.336797	32357.437423
634.682336	32348.620445
635.027823	32199.956818
635.373257	32165.535819
635.718639	31932.556374
636.063968	31907.711047
636.409245	31388.719217
636.754470	31406.196898
637.099642	31284.168207
637.444762	30830.371100
637.789829	31015.467145
638.134845	30743.759035
638.479808	30722.056868
638.824719	30718.500334
639.169577	30318.623408
639.514383	30453.663317
639.859137	30156.356228
640.203839	30351.055671
640.548489	30140.395934
640.893086	30192.176146
641.237632	29987.593520
641.582125	30120.536309
641.926566	29973.344699
642.270955	30040.281140
642.615292	30025.502997
642.959576	29982.383488
643.303809	30029.934171
643.647990	30125.471598
643.992118	30116.755443
644.336195	30035.923062
644.680219	30139.488527
645.024192	30375.114578
645.368112	30883.283050
645.711981	30940.230445
646.055797	31631.102935
646.399562	31477.587198
646.743274	32305.437921
647.086935	32711.903635
647.430544	32700.855946
647.774101	32761.256531
648.117606	33082.052877
648.461059	33253.777262
648.804460	32900.168046
649.147810	32475.231544
649.491108	32182.973170
649.834354	32082.147573
650.177548	31372.252288
650.520690	30948.651692
650.863781	30978.366774
651.206820	30838.131956
651.549807	30486.075415
651.892742	29968.016199
652.235626	29920.561298
652.578458	29828.880353
652.921238	29208.654592
653.263967	29532.500836
653.606644	29272.694890
653.949269	29222.169926
654.291843	28879.996567
654.634365	29241.684232
654.976836	28839.868983
655.319255	28939.436813
655.661622	28841.330918
656.003938	28744.707122
656.346203	28593.170037
656.688416	28846.573717
657.030577	28664.522529
657.372687	28517.829993
657.714746	28690.844913
658.056753	28897.774197
658.398708	28329.928545
658.740612	28420.371886
659.082465	28640.206523
659.424266	28562.998731
659.766016	28587.067720
660.107715	28479.565115
660.449362	28585.971269
660.790958	28586.041846
661.132503	28544.439723
661.473996	28637.101172
661.815438	28721.855571
662.156829	28881.503873
662.498168	28707.959631
662.839456	28694.792137
663.180693	28831.674587
663.521879	28966.575864
663.863013	28944.152812
664.204097	28935.996225
664.545129	29357.809732
664.886110	29307.559510
665.227040	29425.197356
665.567918	29418.023794
665.908746	29519.471974
666.249522	29626.387285
666.590248	29651.648507
666.930922	29764.270405
667.271545	29795.880960
667.612118	29855.729538
667.952639	29685.676296
668.293109	29733.700848
668.633528	29625.242943
668.973896	29592.230948
669.314213	29598.303017
669.654480	29435.466186
669.994695	29426.077037
670.334859	29375.244562
670.674973	29227.563961
671.015035	29427.281873
671.355047	29379.663134
671.695008	29324.064248
672.034918	29245.311343
672.374777	29359.992552
672.714585	29250.486087
673.054342	29371.105775
673.394049	29241.901002
673.733705	29474.353647
674.073310	29176.592854
674.412864	29269.917215
674.752368	28979.501383
675.091820	29219.566170
675.431223	28842.470218
675.770574	28647.407811
676.109875	28496.856272
676.449125	28311.092274
676.788324	28228.578667
677.127473	27771.517413
677.466571	27671.833637
677.805619	27428.124095
678.144616	27375.517134
678.483562	27327.737078
678.822458	27022.527980
679.161303	26972.524775
679.500098	26891.021920
679.838842	26841.366555
680.177535	26944.697606
680.516179	27190.408486
680.854771	27317.616962
681.193314	28098.479090
681.531805	29111.816548
681.870247	29854.975886
682.208638	30593.731776
682.546978	30840.773521
682.885268	30997.276142
683.223508	30548.270651
683.561697	30295.691199
683.899836	30136.017692
684.237925	29733.355529
684.575963	29594.358314
684.913951	29241.051568
685.251889	29413.852239
685.589776	29443.078329
685.927614	29455.691296
686.265401	29645.251283
686.603137	29777.170718
686.940824	30254.656207
687.278460	30597.956263
687.616046	30773.516967
687.953582	31424.362696
688.291068	31344.329337
688.628504	31679.545903
688.965889	31661.876659
689.303224	31413.506571
689.640510	31127.479063
689.977745	30520.065395
690.314930	29776.563258
690.652065	29360.058087
690.989150	28706.172542
691.326185	27857.418674
691.663170	27222.954175
692.000105	26514.636771
692.336990	25914.953713
692.673825	25503.398954
693.010610	25025.487487
693.347345	24519.847153
693.684030	23903.709768
694.020665	23712.055182
694.357251	23047.391650
694.693786	23039.875289
695.030272	22822.409995
695.366707	22342.512313
695.703093	22063.587792
696.039429	22124.300928
696.375716	21895.233418
696.711952	21900.065364
697.048139	21768.266917
697.384276	21597.442378
697.720363	21732.797358
698.056400	21610.168771
698.392388	21454.782765
698.728326	21466.072429
699.064214	21303.152419
699.400053	21309.547123
699.735842	20924.707959
700.071581	20716.215918
700.407270	20474.265739
700.742910	20309.898918
701.078501	20072.286652
701.414042	19854.735658
701.749533	19551.238032
702.084974	19246.149921
702.420366	19486.502054
702.755709	19073.765145
703.091002	18767.699051
703.426246	18838.681018
703.761440	18770.990924
704.096584	18540.922745
704.431679	18473.593094
704.766725	18421.137368
705.101721	18351.405607
705.436668	18478.896388
705.771565	18209.030820
706.106413	18520.828706
706.441212	18595.284028
706.775961	18691.832206
707.110661	18790.164953
707.445311	19147.532349
707.779913	19029.960039
708.114465	19328.015739
708.448967	19645.212701
708.783421	20276.339957
709.117825	20639.252622
709.452180	20879.972759
709.786485	21323.947179
710.120742	22099.833688
710.454949	22216.107901
710.789107	22711.993602
711.123216	23424.999279
711.457275	23638.953410
711.791286	24186.480691
712.125247	24341.803682
712.459159	24074.120933
712.793023	24822.404604
713.126837	23784.068064
713.460602	24047.039855
713.794318	23711.372105
714.127985	23439.641310
714.461602	22551.049724
714.795171	22538.368702
715.128691	21557.503836
715.462162	21027.388701
715.795584	20600.521437
716.128957	20328.926753
716.462281	19955.127716
716.795556	19677.750828
717.128782	19189.323515
717.461960	18608.564947
717.795088	18557.130055
718.128167	18224.618068
718.461198	17768.864992
718.794180	17647.577352
719.127113	17315.748441
719.459997	17117.429448
719.792833	16746.975217
720.125619	16795.670242
720.458357	16450.038653
720.791046	16314.968497
721.123686	16163.413768
721.456278	15942.195335
721.788821	15926.570278
722.121315	15667.182748
722.453761	15773.929181
722.786158	15655.673794
723.118506	15736.614560
723.450805	15626.808147
723.783056	15795.349044
724.115259	15699.788931
724.447412	15689.240317
724.779518	15903.499438
725.111574	15965.644262
725.443582	16225.694703
725.775542	16193.713623
726.107453	16711.029269
726.439315	16624.737318
726.771129	17046.266000
727.102895	17472.029251
727.434612	17742.751816
727.766281	17913.092404
728.097901	18226.735352
728.429473	18303.628072
728.760996	18322.101380
729.092471	18450.227346
729.423897	18345.091562
729.755276	18209.229946
730.086606	18324.745465
730.417887	18915.659437
730.749120	19479.693976
731.080305	19690.126861
731.411442	20097.946125
731.742530	20218.049095
732.073570	20377.964577
732.404562	20700.253104
732.735506	20539.031963
733.066401	20331.074285
733.397249	19817.592436
733.728048	19197.636377
734.058798	18334.190067
734.389501	17571.922235
734.720156	17061.359215
735.050762	16474.979761
735.381320	16105.639625
735.711831	15823.811398
736.042293	15455.532425
736.372707	15492.053064
736.703073	15277.509118
737.033391	15481.121322
737.363661	15483.659543
737.693883	15605.199241
738.024056	15806.308512
738.354182	16017.379103
738.684260	16379.827982
739.014290	16670.831109
739.344272	16902.507416
739.674207	17234.701810
740.004093	17415.349038
740.333931	17465.306872
740.663722	17547.490283
740.993464	17594.952747
741.323159	17438.200588
741.652806	17133.619114
741.982405	16972.740771
742.311956	16607.670492
742.641460	16501.231570
742.970915	16169.899213
743.300323	15819.145810
743.629683	15607.878614
743.958996	15288.536642
744.288260	14974.167767
744.617477	14671.441438
744.946647	14624.639365
745.275768	14314.409278
745.604842	14117.456439
745.933869	13940.045632
746.262847	13908.493050
746.591778	13821.429803
746.920662	13709.503584
747.249498	13721.390625
747.578286	13874.031722
747.907027	14048.566551
748.235720	14319.737778
748.564365	14393.623449
748.892963	14310.583043
749.221514	14415.050874
749.550017	14275.005099
749.878473	14247.132560
750.206881	14017.933979
750.535242	13937.456999
750.863555	13866.953942
751.191821	13760.880504
751.520039	13784.868834
751.848210	13715.555489
752.176334	13761.172891
752.504411	13686.962065
752.832440	13513.279191
753.160421	13624.610553
753.488356	13508.217873
753.816243	13422.394749
754.144082	13252.301177
754.471875	13193.148278
754.799620	13171.670442
755.127318	13147.898881
755.454969	13130.700985
755.782572	13095.717898
756.110129	13119.272689
756.437638	13020.060261
756.765100	13029.220037
757.092515	13050.062688
757.419882	13091.276641
757.747203	13110.753139
758.074477	13191.797249
758.401703	13175.821832
758.728882	13377.873799
759.056014	13415.052309
759.383099	13587.643772
759.710138	13703.587790
760.037129	13835.199714
760.364073	13889.525709
760.690970	13919.805399
761.017820	13941.731898
761.344623	14175.119677
761.671379	14560.281475
761.998088	15279.850734
762.324751	17071.439002
762.651366	20518.648058
762.977935	25013.602967
763.304456	27978.179515
763.630931	29003.973664
763.957359	27790.041133
764.283740	25505.485992
764.610074	23237.435588
764.936362	20590.418965
765.262602	18697.274132
765.588796	16765.940038
765.914943	15465.539115
766.241044	14364.941804
766.567097	13565.624012
766.893104	12845.964013
767.219064	12381.111655
767.544978	11895.764486
767.870845	11507.197389
768.196665	11292.671087
768.522438	11051.608151
768.848165	10850.481236
769.173846	10644.487087
769.499479	10516.603096
769.825066	10343.252939
770.150607	10112.932702
770.476101	10034.792297
770.801548	9909.204552
771.126949	9746.332433
771.452303	9638.885279
771.777611	9438.222151
772.102872	9426.451056
772.428087	9286.211198
772.753256	9131.142785
773.078378	9041.569043
773.403453	8857.156073
773.728482	8741.481757
774.053465	8671.656735
774.378401	8561.371412
774.703291	8438.304244
775.028135	8316.721696
775.352932	8284.077704
775.677683	8178.299173
776.002388	8075.711692
776.327046	8083.059174
776.651658	7985.578382
776.976224	7879.220118
777.300743	7883.552990
777.625216	7792.482025
777.949643	7746.846980
778.274024	7764.624609
778.598359	7673.684714
778.922647	7697.975514
779.246889	7640.760938
779.571086	7649.598081
779.895236	7657.842888
780.219339	7667.579877
780.543397	7673.173037
780.867409	7749.317145
781.191374	7764.387674
781.515294	7725.628763
781.839167	7824.821027
782.162995	7798.622150
782.486776	7735.287614
782.810511	7694.144237
783.134201	7600.081347
783.457844	7591.803773
783.781441	7542.949951
784.104993	7472.025957
784.428498	7449.744057
784.751958	7438.202335
785.075372	7405.326451
785.398739	7352.086825
785.722061	7403.234372
786.045337	7404.988693
786.368568	7561.813948
786.691752	7588.403514
787.014891	7933.571318
787.337983	8295.964745
787.661030	8891.478769
787.984031	9521.623000
788.306987	9932.033417
788.629897	10129.248396
788.952760	10076.815355
789.275579	9857.134473
789.598351	9453.791754
789.921078	9096.378988
790.243759	8686.659209
790.566395	8392.878407
790.888984	8143.379100
791.211529	7932.921009
791.534027	7706.542955
791.856480	7499.964032
792.178888	7425.997702
792.501249	7332.585121
792.823566	7175.974115
793.145836	7176.818508
793.468062	7143.960268
793.790241	7097.805984
794.112375	7166.184194
794.434464	7322.979203
794.756507	7364.982096
795.078505	7528.310440
795.400457	7844.083276
795.722364	8197.001853
796.044226	8483.309145
796.366042	8750.679342
796.687812	8705.923978
797.009538	8786.113612
797.331218	8675.064555
797.652852	8590.743695
797.974442	8434.011702
798.295986	8352.213939
798.617484	8151.744895
798.938938	8008.994541
799.260346	7908.259685
799.581709	7710.056639
799.903026	7626.060933
800.224299	7521.633432
800.545526	7347.638007
800.866708	7252.410610
801.187845	7180.001997
801.508936	7076.829742
801.829983	7037.556633
802.150984	6881.926132
802.471940	6838.365522
802.792851	6824.726680
803.113717	6787.633870
803.434538	6763.065807
803.755314	6701.742691
804.076045	6703.628082
804.396731	6653.367778
804.717372	6684.983375
805.037967	6682.576224
805.358518	6725.972997
805.679024	6806.470141
805.999485	6818.944476
806.319901	6863.359562
806.640272	6882.473097
806.960598	6960.384130
807.280879	6961.742721
807.601115	7048.808489
807.921306	6995.029460
808.241453	7006.596387
808.561554	7028.903493
808.881611	6987.150136
809.201623	6996.821590
809.521590	6940.738753
809.841513	6921.864673
810.161390	6964.754810
810.481223	6827.516958
810.801011	6812.171686
811.120755	6787.737213
811.440453	6712.868517
811.760107	6675.367374
812.079716	6649.302088
812.399281	6585.523930
812.718801	6574.002373
813.038276	6530.789602
813.357707	6467.649150
813.677093	6509.634400
813.996434	6410.991622
814.315731	6457.486184
814.634983	6448.429751
814.954191	6462.182019
815.273354	6567.234624
815.592473	6638.062835
815.911547	6757.046669
816.230577	6842.060687
816.549562	6985.562173
816.868502	7099.676252
817.187399	7192.370468
817.506250	7344.242789
817.825058	7379.455249
818.143821	7648.214284
818.462539	7925.976820
818.781213	8294.338972
819.099843	8846.131070
819.418429	9866.057316
819.736970	10838.997488
820.055466	12025.259125
820.373919	13572.220362
820.692327	15963.355578
821.010691	20145.942951
821.329011	29202.683346
821.647286	42188.126003
821.965517	55532.576952
822.283704	60856.594982
822.601847	62822.445856
822.919945	60144.007721
823.237999	55965.365051
823.556010	49842.656853
823.873976	43133.924602
824.191897	36593.241736
824.509775	31747.465369
824.827609	27225.946100
825.145398	24631.327229
825.463144	23270.515640
825.780845	23581.040634
826.098502	25390.610698
826.416116	29201.738129
826.733685	32844.332226
827.051210	33982.382789
827.368692	32180.162727
827.686129	28203.803917
828.003522	24061.356732
828.320872	20342.197591
828.638177	17479.578379
828.955439	15319.811960
829.272656	13490.346982
829.589830	12010.100376
829.906960	10727.479603
830.224046	9787.561509
830.541088	9039.078713
830.858086	8580.114422
831.175041	8198.158798
831.491952	8083.162517
831.808819	8136.606310
832.125642	8548.851707
832.442421	9440.228530
832.759157	11259.724626
833.075849	14202.205797
833.392497	17434.339064
833.709101	19597.001626
834.025662	19428.296892
834.342179	17717.155357
834.658653	15514.181208
834.975083	13581.009614
835.291469	11950.065275
835.607811	10628.746084
835.924110	9718.404440
836.240366	8841.306685
836.556578	8037.845065
836.872746	7382.394242
837.188871	6885.452419
837.504952	6467.530683
837.820990	6152.844216
838.136984	5934.645433
838.452935	5838.268654
838.768842	5872.845928
839.084706	6302.299304
839.400526	7519.856425
839.716303	9108.349208
840.032037	10200.595847
840.347727	10119.345050
840.663373	9143.120566
840.978977	8096.201462
841.294537	7278.213756
841.610054	6675.949627
841.925527	6244.000880
842.240957	5876.946907
842.556344	5540.185227
842.871687	5262.039564
843.186987	4975.870904
843.502244	4747.985544
843.817458	4583.447324
844.132629	4449.309782
844.447756	4357.507850
844.762840	4279.090181
845.077881	4199.422306
845.392879	4138.908295
845.707833	4089.225204
846.022745	4046.309861
846.337613	4016.226775
846.652438	3969.918736
846.967221	3956.305100
847.281960	3925.322169
847.596656	3906.453130
847.911309	3888.504102
848.225919	3861.455791
848.540485	3844.973738
848.855009	3833.409331
849.169490	3813.327895
849.483928	3799.963796
849.798323	3790.599853
850.112675	3771.317439
850.426984	3778.433028
850.741251	3760.915018
851.055474	3758.933845
851.369654	3768.156636
851.683792	3757.794544
851.997887	3767.322325
852.311938	3765.857870
852.625947	3769.971451
852.939914	3763.874176
853.253837	3769.250566
853.567718	3770.004219
853.881555	3755.190788
854.195350	3771.940022
854.509103	3767.503806
854.822812	3766.213271
855.136479	3757.424019
855.450103	3769.308539
855.763685	3752.594594
856.077224	3760.322683
856.390720	3776.219961
856.704173	3797.042447
857.017584	3808.236329
857.330953	3819.677228
857.644278	3839.874611
857.957561	3846.322247
858.270802	3846.211341
858.584000	3850.135880
858.897155	3846.223944
859.210268	3823.967250
859.523339	3805.806493
859.836367	3801.408087
860.149352	3793.019607
860.462295	3788.091879
860.775195	3779.395888
861.088054	3773.119652
861.400869	3771.035135
861.713642	3772.464302
862.026373	3782.723050
862.339062	3788.946354
862.651708	3802.948159
862.964312	3840.658510
863.276873	3856.578474
863.589392	3908.477153
863.901869	3959.733085
864.214303	4004.301926
864.526696	4036.429199
864.839045	4084.635233
865.151353	4104.026031
865.463619	4115.207311
865.775842	4128.268940
866.088023	4144.214110
866.400162	4133.491576
866.712258	4139.941732
867.024313	4141.776712
867.336325	4140.909633
867.648296	4142.852998
867.960224	4147.808453
868.272110	4159.282119
868.583954	4157.263137
868.895755	4174.004808
869.207515	4168.227646
869.519233	4213.028380
869.830909	4224.615473
870.142542	4250.831993
870.454134	4264.254065
870.765684	4295.005104
871.077191	4331.054395
871.388657	4354.959546
871.700081	4395.208119
872.011463	4437.082463
872.322803	4470.162515
872.634101	4501.394983
872.945357	4541.898134
873.256571	4597.794448
873.567744	4623.738746
873.878874	4642.491838
874.189963	4682.629505
874.501010	4693.231052
874.812015	4689.445145
875.122979	4735.143205
875.433900	4730.132298
875.744780	4744.323146
876.055618	4770.940438
876.366415	4768.961785
876.677169	4794.830466
876.987882	4843.696891
877.298554	4893.233789
877.609183	4970.769256
877.919771	5083.638170
878.230317	5227.807608
878.540822	5445.933294
878.851285	5771.801041
879.161707	6236.630713
879.472087	7000.761252
879.782425	8250.397755
880.092722	10433.691239
880.402977	13746.692176
880.713191	17481.811610
881.023363	21174.784477
881.333494	23358.115770
881.643583	24580.918212
881.953631	24577.994342
882.263637	23745.886365
882.573602	22268.606477
882.883526	20714.696010
883.193408	19043.682059
883.503248	17352.332094
883.813048	15809.207176
884.122806	14372.357342
884.432522	12906.021799
884.742197	11644.231074
885.051831	10562.152442
885.361424	9558.189009
885.670975	8742.585770
885.980485	8050.483237
886.289954	7473.692058
886.599382	6996.065417
886.908768	6628.131762
887.218113	6261.410505
887.527417	5970.125074
887.836680	5706.165217
888.145901	5482.900075
888.455082	5320.975693
888.764221	5170.945914
889.073319	5036.359709
889.382376	4965.995283
889.691392	4902.023041
890.000366	4881.276172
890.309300	4858.427143
890.618193	4862.744891
890.927044	4847.013970
891.235855	4873.880800
891.544625	4905.703083
891.853353	4967.240448
892.162041	5085.407615
892.470687	5272.293271
892.779293	5521.792577
893.087858	5895.452983
893.396381	6473.086034
893.704864	7284.719365
894.013306	8444.905635
894.321707	9612.482236
894.630068	10427.450290
894.938387	10629.454366
895.246665	10387.010154
895.554903	9782.560685
895.863100	9091.121064
896.171256	8526.358078
896.479371	8024.385184
896.787446	7528.350769
897.095480	7094.637618
897.403473	6773.145594
897.711425	6450.153826
898.019336	6184.293454
898.327207	5913.371764
898.635038	5684.551270
898.942827	5436.178662
899.250576	5244.098097
899.558284	5051.967121
899.865952	4931.758287
900.173579	4782.164567
900.481165	4674.107435
900.788711	4576.883742
901.096216	4506.093339
901.403681	4443.842650
901.711105	4416.524638
902.018489	4402.550559
902.325832	4475.012105
902.633135	4601.862659
902.940397	4947.184218
903.247619	5743.898254
903.554800	7189.474325
903.861941	9106.151264
904.169041	10619.417429
904.476101	11236.978940
904.783121	10874.199865
905.090100	10136.172421
905.397039	9305.488570
905.703938	8555.173314
906.010796	7861.558435
906.317614	7304.752911
906.624391	6771.340861
906.931129	6337.085786
907.237826	5944.372340
907.544483	5569.237397
907.851099	5193.868040
908.157675	4839.492569
908.464211	4518.189587
908.770707	4282.079585
909.077163	4084.166406
909.383578	3938.945887
909.689954	3823.208556
909.996289	3752.899584
910.302584	3690.772404
910.608839	3658.778721
910.915054	3622.318576
911.221229	3609.927419
911.527363	3621.333030
911.833458	3636.748878
912.139513	3666.156449
912.445527	3693.381201
912.751502	3778.057462
913.057436	3878.348697
913.363331	4014.215355
913.669186	4220.315368
913.975000	4479.927230
914.280775	4903.353906
914.586510	5486.081043
914.892205	6285.910513
915.197859	7320.589696
915.503475	8535.701857
915.809050	9583.586342
916.114585	10231.626669
916.420081	10489.249795
916.725536	10453.490371
917.030952	10014.310089
917.336328	9600.663251
917.641665	9189.937762
917.946961	8716.341523
918.252218	8288.312273
918.557435	7781.497351
918.862612	7353.823502
919.167750	6975.550441
919.472848	6550.414814
919.777906	6185.899062
920.082925	5820.546478
920.387904	5452.973266
920.692843	5188.509294
920.997743	4943.763795
921.302603	4714.343404
921.607423	4550.896593
921.912204	4387.238054
922.216946	4272.418214
922.521647	4149.434225
922.826310	4040.804921
923.130932	3948.957618
923.435516	3852.517825
923.740059	3780.701547
924.044564	3703.521482
924.349028	3643.753562
924.653454	3577.986669
924.957840	3510.798170
925.262186	3466.244453
925.566493	3403.474525
925.870761	3348.682224
926.174989	3311.012202
926.479178	3273.755555
926.783328	3232.559245
927.087438	3204.689226
927.391509	3168.710511
927.695541	3139.993578
927.999533	3112.100874
928.303486	3092.458018
928.607400	3075.368507
928.911275	3062.785787
929.215110	3047.685010
929.518906	3037.522044
929.822663	3038.056407
930.126381	3035.613968
930.430060	3040.355173
930.733699	3043.175698
931.037299	3051.228942
931.340861	3049.257850
931.644383	3061.180179
931.947866	3059.607339
932.251309	3051.801113
932.554714	3053.207594
932.858080	3046.228117
933.161407	3038.384082
933.464694	3031.880993
933.767943	3023.129550
934.071153	3022.885054
934.374323	3008.459792
934.677455	3001.923936
934.980548	2997.313801
935.283602	2989.235352
935.586617	2989.431957
935.889593	2999.468894
936.192530	3003.017867
936.495428	3013.498426
936.798287	3036.521375
937.101108	3068.958680
937.403890	3123.839201
937.706632	3183.405475
938.009336	3262.347423
938.312002	3339.192252
938.614628	3399.728948
938.917216	3452.900518
939.219765	3483.636433
939.522275	3516.068697
939.824747	3523.017927
940.127179	3517.820498
940.429573	3507.881863
940.731929	3508.166688
941.034246	3492.723113
941.336524	3478.267604
941.638763	3468.639001
941.940964	3449.548151
942.243126	3409.428128
942.545250	3390.324676
942.847335	3349.781196
943.149381	3315.667708
943.451389	3281.745783
943.753359	3249.167327
944.055290	3224.009448
944.357182	3199.685881
944.659036	3186.341947
944.960851	3176.945236
945.262628	3157.766166
945.564367	3161.486538
945.866067	3154.940600
946.167729	3152.949344
946.469352	3151.900784
946.770937	3149.682676
947.072484	3132.094090
947.373992	3134.861684
947.675462	3124.907926
947.976893	3112.209259
948.278286	3103.122579
948.579641	3090.486927
948.880958	3085.980136
949.182236	3092.440374
949.483476	3088.198243
949.784678	3083.835125
950.085841	3087.759663
950.386967	3096.667382
950.688054	3112.302520
950.989103	3133.924029
951.290114	3154.081083
951.591087	3181.814991
951.892021	3209.992520
952.192917	3237.754154
952.493776	3263.229625
952.794596	3268.429576
953.095378	3276.233282
953.396122	3270.463681
953.696828	3263.884975
953.997496	3250.939292
954.298126	3227.510530
954.598718	3207.754248
954.899272	3184.698531
955.199788	3154.738953
955.500266	3125.318780
955.800706	3090.302925
956.101108	3051.869168
956.401472	3020.808099
956.701798	2988.060763
957.002087	2945.067283
957.302337	2919.024682
957.602550	2890.217008
957.902724	2862.745240
958.202861	2837.539471
958.502960	2814.019968
958.803022	2794.498100
959.103045	2774.797270
959.403031	2757.601895
959.702979	2744.938516
960.002889	2730.672051
960.302762	2718.353991
960.602596	2708.301931
960.902393	2698.789273
961.202153	2692.240814
961.501875	2682.639937
961.801559	2675.075686
962.101205	2670.095026
962.400814	2665.585713
962.700385	2659.743016
962.999918	2654.013745
963.299414	2644.254071
963.598873	2644.548978
963.898293	2634.252422
964.197677	2639.185191
964.497022	2635.071609
964.796331	2632.919037
965.095601	2630.539612
965.394835	2629.238994
965.694030	2626.168932
965.993189	2628.258490
966.292309	2621.430247
966.591393	2624.827985
966.890439	2622.909826
967.189447	2623.313118
967.488419	2621.483179
967.787353	2623.582820
968.086249	2625.667337
968.385108	2626.012656
968.683930	2628.412245
968.982714	2634.723770
969.281462	2636.652011
969.580172	2642.613175
969.878844	2650.454690
970.177480	2658.397028
970.476078	2662.424910
970.774639	2671.657783
971.073162	2681.450225
971.371649	2685.581450
971.670098	2690.473890
971.968510	2695.010928
972.266885	2701.438400
972.565223	2702.590303
972.863524	2708.264122
973.161788	2710.426777
973.460014	2713.229658
973.758204	2717.491954
974.056356	2716.055225
974.354471	2719.074876
974.652550	2718.669063
974.950591	2717.955740
975.248595	2718.598487
975.546563	2713.237220
975.844493	2713.232179
976.142386	2705.778833
976.440243	2698.960672
976.738062	2696.006556
977.035845	2687.721420
977.333590	2686.052798
977.631299	2679.055677
977.928971	2673.457475
978.226606	2665.497493
978.524204	2663.448264
978.821765	2658.031544
979.119290	2659.559014
979.416777	2660.368119
979.714228	2665.051351
980.011642	2669.394305
980.309020	2676.124246
980.606360	2688.969106
980.903664	2712.823846
981.200931	2748.338774
981.498162	2796.852318
981.795356	2871.680686
982.092513	2960.621763
982.389633	3063.700756
982.686717	3157.420847
982.983764	3231.445150
983.280775	3281.836524
983.577749	3286.902884
983.874686	3275.078858
984.171587	3242.205493
984.468451	3202.713094
984.765279	3159.696928
985.062070	3112.499125
985.358824	3071.201993
985.655543	3010.153620
985.952224	2958.814509
986.248869	2895.953841
986.545478	2838.386385
986.842050	2785.905453
987.138586	2738.513566
987.435086	2700.248687
987.731549	2671.594769
988.027975	2643.523104
988.324366	2630.050620
988.620719	2616.489916
988.917037	2604.497011
989.213318	2595.722883
989.509563	2586.079156
989.805772	2584.115626
990.101944	2581.816860
990.398080	2578.693865
990.694180	2573.980386
990.990244	2576.556416
991.286271	2574.507187
991.582262	2578.305696
991.878217	2579.984401
992.174136	2583.598908
992.470019	2583.939186
992.765865	2588.458580
993.061676	2593.245156
993.357450	2601.338728
993.653188	2608.726539
993.948890	2627.247738
994.244556	2645.625265
994.540186	2668.549912
994.835780	2699.815148
995.131337	2736.776888
995.426859	2775.329112
995.722345	2824.934066
996.017795	2874.090357
996.313208	2911.397416
996.608586	2937.170315
996.903928	2951.469548
997.199234	2950.877213
997.494504	2949.490895
997.789738	2934.901796
998.084936	2909.113773
998.380099	2880.495143
998.675225	2849.156810
998.970316	2820.679332
999.265371	2785.358488
999.560390	2750.617376
999.855373	2720.562017
1000.150320	2691.308201
1000.445232	2665.242915
1000.740108	2645.355563
1001.034948	2625.997532
1001.329752	2611.176540
1001.624521	2602.523399
1001.919254	2584.904567
1002.213951	2582.414237
1002.508613	2568.198183
1002.803239	2566.559808
1003.097829	2560.588561
1003.392384	2558.766184
1003.686903	2550.811243
1003.981386	2549.775286
1004.275834	2544.081303
1004.570246	2539.498894
1004.864623	2541.222969
1005.158964	2536.880015
1005.453270	2535.758358
1005.747540	2533.870446
1006.041775	2529.706453
1006.335974	2528.264683
1006.630138	2529.542615
1006.924266	2530.933974
1007.218359	2526.205371
1007.512416	2526.366688
1007.806438	2521.847294
1008.100425	2524.839219
1008.394376	2519.787983
1008.688292	2525.267717
1008.982172	2522.285874
1009.276017	2525.749147
1009.569827	2522.263189
1009.863602	2522.245545
1010.157341	2523.954496
1010.451045	2520.753363
1010.744714	2521.580113
1011.038347	2522.124557
1011.331945	2518.502488
1011.625508	2517.136336
1011.919036	2517.088445
1012.212528	2516.632220
1012.505986	2516.100378
1012.799408	2515.553413
1013.092795	2513.365553
1013.386147	2514.363701
1013.679464	2511.076869
1013.972745	2510.534945
1014.265992	2512.896725
1014.559204	2513.090810
1014.852380	2511.301200
1015.145521	2515.346726
1015.438628	2513.783968
1015.731699	2513.501664
1016.024736	2513.237003
1016.317737	2517.431243
1016.610703	2516.690193
1016.903635	2520.317304
1017.196531	2516.806140
1017.489393	2518.177334
1017.782219	2523.805782
1018.075011	2523.780576
1018.367768	2521.247397
1018.660490	2524.781245
1018.953177	2524.781245
1019.245829	2524.781245
