Dividing Wavelength (nm)	Counts (n)	Blue Motor Position (mm): 23.800000	Red Motor Position (mm): 0.000000	
326.493990	2195.205730
326.888308	2195.205730
327.282561	2195.205730
327.676750	2153.689308
328.070874	2151.861890
328.464933	2152.159318
328.858929	2155.463794
329.252859	2160.207520
329.646726	2168.994251
330.040528	2180.357012
330.434265	2194.149609
330.827938	2212.476723
331.221547	2228.222768
331.615091	2245.246744
332.008571	2267.243819
332.401986	2280.572630
332.795338	2300.593572
333.188625	2319.497899
333.581847	2337.648573
333.975006	2354.901923
334.368100	2377.592156
334.761129	2396.728376
335.154095	2409.888308
335.546996	2434.892431
335.939833	2470.732514
336.332606	2485.225832
336.725315	2497.541371
337.117960	2511.671725
337.510540	2520.229083
337.903056	2533.308357
338.295508	2541.984183
338.687896	2550.788558
339.080220	2558.577141
339.472480	2564.084601
339.864676	2571.749676
340.256807	2577.925089
340.648875	2579.462641
341.040879	2580.493557
341.432818	2587.210895
341.824694	2589.854980
342.216506	2587.150401
342.608253	2589.035792
342.999937	2591.359764
343.391557	2590.550659
343.783113	2590.369177
344.174605	2588.730802
344.566033	2591.117789
344.957397	2587.294074
345.348697	2588.796338
345.739934	2583.067066
346.131106	2582.202508
346.522215	2583.878692
346.913260	2580.763259
347.304241	2575.253278
347.695159	2575.129769
348.086012	2574.804615
348.476802	2575.399471
348.867528	2568.614078
349.258191	2565.329766
349.648789	2565.828841
350.039324	2561.717780
350.429796	2564.276165
350.820203	2562.577296
351.210548	2562.267265
351.600828	2558.887172
351.991045	2560.485217
352.381198	2559.189641
352.771288	2559.310629
353.161314	2557.147974
353.551276	2558.446071
353.941175	2557.498334
354.331010	2557.957079
354.720782	2554.297201
355.110490	2555.272664
355.500135	2555.970864
355.889717	2553.790565
356.279235	2555.630586
356.668689	2556.883313
357.058080	2558.471277
357.447408	2556.890875
357.836672	2556.406924
358.225873	2558.337686
358.615010	2558.556976
359.004084	2558.340207
359.393095	2557.155535
359.782043	2560.245763
360.170927	2559.585372
360.559748	2558.940104
360.948505	2561.644683
361.337199	2560.034034
361.725830	2560.588561
362.114398	2560.747357
362.502903	2565.133161
362.891344	2561.291802
363.279722	2563.129303
363.668037	2563.716597
364.056289	2563.719118
364.444478	2563.333469
364.832603	2566.441341
365.220665	2564.349262
365.608665	2566.554767
365.996601	2566.970662
366.384474	2566.413614
366.772284	2566.569890
367.160031	2568.344376
367.547715	2570.164233
367.935336	2567.371434
368.322893	2565.508727
368.710388	2567.711712
369.097820	2566.169118
369.485189	2564.503017
369.872495	2571.406877
370.259738	2568.901424
370.646918	2570.398647
371.034035	2569.786146
371.421090	2572.382341
371.808081	2572.715057
372.195010	2571.542988
372.581875	2572.135324
372.968678	2572.044583
373.355418	2569.176167
373.742096	2574.502146
374.128710	2573.529203
374.515262	2574.623133
374.901751	2571.681620
375.288177	2573.398133
375.674540	2571.832855
376.060841	2574.935685
376.447079	2576.851323
376.833254	2575.044070
377.219367	2574.469378
377.605417	2573.748493
377.991404	2575.709502
378.377329	2575.187743
378.763191	2575.480130
379.148991	2576.405181
379.534727	2576.163206
379.920402	2577.872157
380.306013	2577.242013
380.691563	2578.759400
381.077049	2574.945767
381.462474	2576.347208
381.847835	2577.494071
382.233134	2577.423494
382.618371	2581.456417
383.003545	2581.118660
383.388657	2577.882239
383.773706	2577.501632
384.158693	2579.500450
384.543618	2583.064546
384.928480	2578.202353
385.313280	2576.931982
385.698017	2579.974318
386.082692	2581.854669
386.467305	2581.882395
386.851856	2582.283167
387.236344	2584.818867
387.620770	2576.634554
388.005133	2582.973805
388.389435	2580.186047
388.773674	2580.642271
389.157851	2583.273753
389.541965	2581.663105
389.926018	2581.063207
390.310008	2583.062025
390.693936	2584.954978
391.077802	2584.355081
391.461606	2585.370873
391.845348	2583.641758
392.229027	2584.919690
392.612645	2587.074783
392.996200	2584.634865
393.379694	2584.463466
393.763125	2584.390369
394.146494	2587.362129
394.529801	2587.248703
394.913047	2588.052767
395.296230	2587.105030
395.679351	2586.711820
396.062410	2591.097624
396.445408	2587.306677
396.828343	2587.079825
397.211217	2586.807602
397.594028	2587.178127
397.976778	2589.302973
398.359466	2588.065370
398.742092	2588.486307
399.124656	2586.943713
399.507158	2590.810278
399.889598	2589.570155
400.271977	2592.032758
400.654294	2588.355237
401.036549	2593.104003
401.418742	2591.470670
401.800874	2592.239446
402.182944	2588.977819
402.564952	2592.408324
402.946898	2591.276585
403.328783	2593.635845
403.710606	2594.606267
404.092367	2595.470825
404.474067	2589.650813
404.855705	2592.856987
405.237282	2591.193406
405.618797	2591.379929
406.000250	2595.319591
406.381642	2596.148860
406.762972	2593.272882
407.144240	2587.772983
407.525447	2590.734661
407.906593	2590.520412
408.287677	2594.979313
408.668700	2593.908067
409.049661	2596.103490
409.430560	2595.785897
409.811399	2597.341093
410.192176	2596.353027
410.572891	2598.359406
410.953545	2597.106680
411.334138	2598.598861
411.714669	2599.218923
412.095139	2599.108018
412.475547	2596.315218
412.855894	2597.663727
413.236180	2596.340424
413.616405	2597.210023
413.996568	2599.309664
414.376670	2599.680189
414.756711	2598.608943
415.136691	2603.188832
415.516609	2600.625405
415.896466	2599.602051
416.276262	2601.416866
416.655997	2601.293358
417.035670	2600.063316
417.415283	2600.980806
417.794834	2600.675817
418.174324	2601.346290
418.553753	2601.016094
418.933121	2601.081629
419.312428	2604.529779
419.691674	2600.627926
420.070859	2603.294696
420.449983	2603.781167
420.829045	2602.561208
421.208047	2602.125148
421.586988	2602.324274
421.965867	2605.689244
422.344686	2603.652618
422.723444	2604.681013
423.102141	2601.797473
423.480777	2605.437186
423.859352	2604.554984
424.237866	2606.790736
424.616319	2606.344594
424.994712	2608.991200
425.373044	2606.425252
425.751314	2601.338728
426.129524	2603.425766
426.507673	2605.129676
426.885762	2603.579521
427.263789	2607.604882
427.641756	2607.211672
428.019662	2611.635285
428.397508	2609.507918
428.775292	2610.952209
429.153016	2608.441714
429.530679	2608.968515
429.908282	2609.296190
430.285824	2608.134204
430.663305	2608.635798
431.040726	2610.861468
431.418086	2608.807198
431.795385	2607.617485
432.172624	2609.916252
432.549802	2611.516818
432.926920	2610.979935
433.303977	2613.122425
433.680974	2613.124946
434.057910	2612.719133
434.434786	2613.137549
434.811601	2612.915738
435.188355	2614.677621
435.565050	2612.698968
435.941683	2611.700820
436.318257	2613.631582
436.694770	2615.343054
437.071222	2611.776437
437.447614	2616.416819
437.823946	2617.785493
438.200218	2615.050667
438.576429	2615.537138
438.952580	2617.876233
439.328670	2614.924638
439.704700	2617.354474
440.080670	2614.801130
440.456580	2617.394803
440.832429	2617.767849
441.208218	2617.765328
441.583947	2620.865638
441.959616	2621.263889
442.335224	2619.499485
442.710773	2620.013683
443.086261	2620.243055
443.461689	2621.352109
443.837057	2619.433950
444.212365	2622.967799
444.587612	2622.042747
444.962800	2618.307252
445.337927	2619.519650
445.712995	2619.829681
446.088002	2625.586678
446.462949	2623.671040
446.837837	2626.781432
447.212664	2626.239508
447.587431	2628.926443
447.962139	2628.434930
448.336786	2631.865435
448.711374	2634.844757
449.085901	2632.475415
449.460369	2630.247225
449.834776	2631.192441
450.209124	2633.476084
450.583412	2635.555560
450.957640	2637.919861
451.331808	2637.322484
451.705917	2635.472381
452.079965	2638.010602
452.453954	2638.320633
452.827883	2640.742907
453.201752	2641.607465
453.575562	2642.582928
453.949311	2647.205667
454.323001	2645.804226
454.696632	2649.380924
455.070202	2652.201450
455.443713	2655.107675
455.817164	2658.802841
456.190556	2660.962975
456.563888	2669.467402
456.937160	2669.875735
457.310373	2674.369924
457.683526	2678.617096
458.056619	2682.511387
458.429653	2686.463652
458.802628	2689.909281
459.175542	2700.099973
459.548398	2713.668239
459.921194	2727.796072
460.293930	2738.954667
460.666607	2763.495003
461.039224	2795.962555
461.411782	2819.106492
461.784280	2837.249605
462.156719	2849.668487
462.529099	2864.229860
462.901419	2864.678523
463.273680	2875.333002
463.645882	2893.438306
464.018024	2913.721388
464.390106	2947.441666
464.762130	2997.064264
465.134094	3060.507185
465.505999	3193.301260
465.877845	3409.276893
466.249631	3585.321547
466.621358	3607.515227
466.993026	3589.946806
467.364634	3619.029223
467.736184	3614.847586
468.107674	3639.826503
468.479105	3720.858010
468.850477	3768.378447
469.221790	3810.981238
469.593043	3835.957634
469.964238	3874.441803
470.335373	3918.219183
470.706449	4037.384498
471.077467	4075.838420
471.448425	4344.471426
471.819324	4905.491355
472.190164	5269.596253
472.560945	4990.293645
472.931667	4792.287204
473.302330	4825.505887
473.672934	4858.681721
474.043479	5029.249161
474.413965	5118.066730
474.784393	5185.071227
475.154761	5411.194703
475.525070	5529.104771
475.895321	5586.412608
476.265513	5814.812165
476.635645	6051.937960
477.005719	6157.071223
477.375734	6340.841446
477.745691	6605.549913
478.115588	6845.309711
478.485427	7142.374825
478.855207	7545.969602
479.224928	8168.899941
479.594591	8989.297318
479.964194	9187.044140
480.333739	9488.679059
480.703226	9497.755657
481.072653	9644.175970
481.442022	10049.126818
481.811333	10545.894721
482.180584	10771.652713
482.549777	10644.217385
482.918912	10785.362131
483.287988	11036.635924
483.657005	11160.708802
484.025964	11265.370718
484.394864	11468.153652
484.763706	11574.388408
485.132489	11617.737290
485.501213	11855.982220
485.869879	12082.690471
486.238487	12135.065538
486.607036	12514.130061
486.975527	12564.261815
487.343959	12938.882560
487.712333	13196.369575
488.080648	13197.309751
488.448905	13688.834853
488.817104	13770.372996
489.185244	14314.442046
489.553326	14579.856275
489.921350	15255.829636
490.289315	16692.170313
490.657222	17996.291607
491.025070	18564.112053
491.392861	18726.429645
491.760593	18502.622579
492.128267	18310.307601
492.495883	17893.389054
492.863440	17635.944889
493.230939	17280.278882
493.598380	17432.161286
493.965763	17360.808794
494.333088	17291.354297
494.700354	17448.643338
495.067563	17606.723841
495.434713	17626.051625
495.801805	17875.941621
496.168839	18006.930962
496.535815	18071.624090
496.902733	18402.311179
497.269593	18307.245100
497.636395	18662.142331
498.003139	18830.015274
498.369825	18848.967492
498.736453	19124.857239
499.103023	19197.036480
499.469535	19383.919615
499.835989	19707.818791
500.202385	19905.457227
500.568723	19664.185083
500.935003	20001.788636
501.301226	19833.280507
501.667390	20602.416911
502.033497	20989.872434
502.399546	20870.734845
502.765537	20718.696166
503.131470	21150.118112
503.497345	21402.440465
503.863163	20837.841316
504.228923	21528.847397
504.594625	21805.258904
504.960269	21459.040019
505.325856	22033.988657
505.691385	21628.453036
506.056856	22241.931212
506.422270	22353.827183
506.787625	22065.470662
507.152924	22552.332698
507.518164	22645.508345
507.883347	22547.949415
508.248472	22355.291638
508.613540	23154.869050
508.978550	23040.886041
509.343503	23096.305966
509.708398	23446.151960
510.073236	23657.038549
510.438016	23922.770371
510.802738	23698.998593
511.167403	23981.401511
511.532010	23738.586774
511.896561	24563.180912
512.261053	24592.676703
512.625488	24479.303673
512.989866	24432.332723
513.354186	24337.654812
513.718449	24469.733043
514.082655	24879.591453
514.446803	24676.990001
514.810894	25147.100282
515.174927	24692.582290
515.538904	24751.984726
515.902822	25267.256184
516.266684	25047.998759
516.630488	24990.852239
516.994235	25015.644634
517.357925	25309.939634
517.721558	25540.133842
518.085133	25632.969211
518.448651	25581.741005
518.812112	25325.831871
519.175516	25522.041141
519.538863	25718.797375
519.902152	25510.272567
520.265385	25834.799367
520.628560	25628.490145
520.991678	25651.482848
521.354739	25754.524033
521.717743	25808.421529
522.080690	25621.339269
522.443580	25957.223788
522.806413	25978.550389
523.169189	26080.467396
523.531908	26153.493551
523.894569	25755.502017
524.257174	25827.746792
524.619722	26040.758228
524.982213	25736.665745
525.344647	25813.548382
525.707025	25931.123214
526.069345	25938.984893
526.431608	25891.439251
526.793815	26100.213596
527.155964	25530.724528
527.518057	25721.441461
527.880093	25644.843648
528.242072	25885.140329
528.603995	25583.316366
528.965860	25385.549380
529.327669	25441.927124
529.689421	25441.158348
530.051117	25270.011175
530.412755	25449.342661
530.774337	25261.327787
531.135862	25129.209227
531.497331	25335.314282
531.858743	24873.559713
532.220098	25364.285793
532.581396	25034.677510
532.942638	24990.912733
533.303824	25084.370684
533.664953	25104.280722
534.026025	24775.862151
534.387040	25015.238821
534.747999	25070.263015
535.108902	25246.378246
535.469748	24727.066303
535.830537	24924.742548
536.191270	25029.704412
536.551947	24929.037611
536.912567	24602.350677
537.273131	24887.949687
537.633638	24638.939372
537.994089	24832.174360
538.354483	24390.549119
538.714821	24891.007146
539.075103	24928.467961
539.435328	24721.352155
539.795497	24261.583801
540.155609	24680.826319
540.515665	24969.200484
540.875665	24211.305853
541.235609	24485.443799
541.595496	24458.433297
541.955328	24815.906557
542.315102	24731.600821
542.674821	24304.249606
543.034483	24161.413553
543.394090	24331.854965
543.753640	24125.391988
544.113134	24762.303968
544.472571	24367.518608
544.831953	24650.586958
545.191278	24249.812706
545.550548	24200.865623
545.909761	24397.442897
546.268918	24632.131293
546.628019	24589.039510
546.987064	24294.850375
547.346053	24063.915117
547.704986	24194.236506
548.063863	24354.595610
548.422684	24340.999618
548.781449	23905.859821
549.140158	24294.608399
549.498811	23867.859603
549.857408	23600.680970
550.215949	24051.937336
550.574434	23719.803435
550.932864	23950.471512
551.291237	24090.108952
551.649555	23962.446772
552.007817	24013.264124
552.366022	23885.060020
552.724173	23936.666312
553.082267	23849.141799
553.440305	24331.736497
553.798288	23613.835861
554.156215	24145.319669
554.514086	24217.264497
554.871902	23584.115738
555.229661	23880.235636
555.587365	23739.836980
555.945014	23565.889446
556.302606	23851.667417
556.660143	23766.234982
557.017625	24052.209558
557.375050	23581.063319
557.732421	23961.786381
558.089735	23769.675570
558.446994	23847.170708
558.804197	23855.153375
559.161345	23818.257170
559.518437	23553.906624
559.875474	23768.475775
560.232455	23936.653709
560.589381	23778.623618
560.946251	23742.380242
561.303065	24070.763525
561.659825	24147.202540
562.016528	23758.484208
562.373177	23497.143231
562.729770	23851.692622
563.086307	23736.509819
563.442789	23887.850298
563.799216	23705.695766
564.155587	23728.640578
564.511904	23719.392581
564.868164	23644.760819
565.224370	23632.823367
565.580520	23536.305435
565.936615	23670.810981
566.292654	23336.741278
566.648638	23667.922400
567.004567	23490.814063
567.360441	23429.836266
567.716260	23152.033401
568.072023	23479.592454
568.427732	23232.114650
568.783385	23023.531869
569.138982	23255.326643
569.494525	23295.686121
569.850013	23039.487121
570.205445	23143.642400
570.560823	22947.642339
570.916145	22714.370506
571.271412	22877.151884
571.626625	22627.778607
571.981782	22746.517944
572.336884	22558.752608
572.691931	22684.877236
573.046923	22413.711050
573.401860	22305.711890
573.756743	22306.699956
574.111570	22226.749777
574.466342	22156.166061
574.821059	22242.011870
575.175722	21941.123041
575.530330	21930.725661
575.884882	21967.110189
576.239380	21856.650947
576.593823	21755.364084
576.948211	21745.954770
577.302544	21575.888924
577.656823	21447.836055
578.011047	21549.720295
578.365216	21426.534659
578.719330	21306.161988
579.073389	21214.506249
579.427394	21352.525480
579.781344	21131.302005
580.135239	21024.600943
580.489080	20985.065694
580.842866	20746.752707
581.196597	20936.209351
581.550273	20906.496790
581.903895	20810.921555
582.257463	21130.974330
582.610975	20657.468832
582.964434	20959.065943
583.317837	20671.523568
583.671186	20759.146384
584.024481	20725.179089
584.377721	20496.499748
584.730906	20550.268695
585.084037	20593.405848
585.437113	20485.028603
585.790135	20683.776093
586.143103	20156.983078
586.496016	20173.187867
586.848874	20406.053886
587.201679	20356.396000
587.554428	20015.440081
587.907124	20358.598985
588.259765	20127.411669
588.612352	20210.157168
588.964884	19774.581312
589.317362	19956.730803
589.669786	19994.400825
590.022155	20057.521112
590.374470	20221.459435
590.726731	20033.968842
591.078937	19778.064749
591.431090	19888.821419
591.783188	19622.824937
592.135232	19616.006776
592.487222	19704.158913
592.839157	19722.070132
593.191038	19610.136353
593.542866	19508.930148
593.894639	19217.947186
594.246358	19448.201888
594.598022	19350.075828
594.949633	19101.032746
595.301190	19063.768537
595.652692	19222.123782
596.004141	19475.903028
596.355535	18799.226427
596.706876	18801.356315
597.058162	18704.326706
597.409395	18912.307070
597.760573	19008.517491
598.111698	18792.516651
598.462768	18716.644765
598.813785	18684.109158
599.164748	18505.231376
599.515657	18533.441673
599.866511	18331.515735
600.217312	18682.964817
600.568060	18222.284013
600.918753	18528.239202
601.269392	18433.493236
601.619978	18210.964103
601.970510	18420.615609
602.320988	18370.073000
602.671412	18576.213343
603.021783	18470.449935
603.372100	18222.715032
603.722363	18348.317901
604.072572	18294.022153
604.422728	18422.531247
604.772830	18194.419036
605.122878	18132.821177
605.472872	18133.393348
605.822813	18114.428527
606.172701	18081.469463
606.522534	18282.732489
606.872314	18302.277043
607.222041	18141.532291
607.571714	18357.462554
607.921333	18178.771294
608.270899	18249.357530
608.620411	18440.679401
608.969870	18204.902115
609.319276	18205.222228
609.668627	18247.509947
610.017926	18376.505512
610.367171	18492.573039
610.716362	18520.032204
611.065500	18342.278598
611.414585	18476.489237
611.763616	18468.451118
612.112594	18417.694260
612.461518	18375.991315
612.810389	18582.348427
613.159207	18416.643179
613.507971	18328.422987
613.856682	18613.676677
614.205340	18543.783600
614.553945	18689.195683
614.902496	18429.377134
615.250994	18677.722017
615.599439	18607.844062
615.947830	18596.060365
616.296169	18643.903436
616.644454	18605.817519
616.992686	18579.958920
617.340864	18784.924674
617.688990	18554.438079
618.037063	18726.863184
618.385082	18572.888702
618.733048	18850.222739
619.080961	18709.972798
619.428821	18758.143544
619.776628	18648.332090
620.124382	18566.471313
620.472083	18607.662581
620.819731	18641.614752
621.167326	18331.243513
621.514868	18371.489564
621.862357	18131.762534
622.209793	18144.093197
622.557176	17981.331983
622.904506	17801.871947
623.251783	17711.254686
623.599007	17476.382288
623.946179	17428.486285
624.293297	17361.239813
624.640363	17127.446221
624.987376	17142.100855
625.334336	16935.176613
625.681243	16781.935619
626.028097	16788.600024
626.374899	16718.901031
626.721647	16585.912872
627.068343	16414.075061
627.414987	16339.879359
627.761577	16313.556974
628.108115	16366.592433
628.454600	16085.961481
628.801032	16181.501428
629.147412	16113.947446
629.493739	16135.841177
629.840014	15939.964624
630.186236	16045.637291
630.532405	15803.908923
630.878521	16005.633215
631.224585	15897.654220
631.570597	15721.985132
631.916556	15759.471152
632.262462	15733.988119
632.608316	15649.987372
632.954117	15596.669609
633.299866	15592.520739
633.645562	15511.206928
633.991206	15272.684733
634.336797	15132.018897
634.682336	15100.804073
635.027823	14999.834802
635.373257	14879.925917
635.718639	14767.057003
636.063968	14732.580552
636.409245	14478.186284
636.754470	14503.175284
637.099642	14351.890257
637.444762	14123.891472
637.789829	14167.772195
638.134845	14007.382844
638.479808	14028.243139
638.824719	13979.941323
639.169577	13831.096215
639.514383	13882.931879
639.859137	13695.272407
640.203839	13778.380869
640.548489	13623.156181
640.893086	13603.707409
641.237632	13478.984222
641.582125	13633.160350
641.926566	13464.047283
642.270955	13465.065596
642.615292	13439.239765
642.959576	13456.130151
643.303809	13479.185868
643.647990	13412.945106
643.992118	13477.862565
644.336195	13246.697935
644.680219	13437.571143
645.024192	13372.278118
645.368112	13605.227317
645.711981	13666.996575
646.055797	13838.589890
646.399562	13802.333912
646.743274	14079.743567
647.086935	14353.021996
647.430544	14318.278364
647.774101	14344.008413
648.117606	14504.569163
648.461059	14467.655314
648.804460	14463.123317
649.147810	14188.486296
649.491108	14090.468622
649.834354	14109.015027
650.177548	13817.759843
650.520690	13621.759781
650.863781	13542.626268
651.206820	13575.948295
651.549807	13414.691866
651.892742	13220.536867
652.235626	13158.354234
652.578458	13157.187207
652.921238	12837.129391
653.263967	13042.505998
653.606644	12875.031306
653.949269	12835.702744
654.291843	12651.120896
654.634365	12801.700161
654.976836	12659.479129
655.319255	12670.181499
655.661622	12617.962707
656.003938	12538.899770
656.346203	12470.138432
656.688416	12540.669215
657.030577	12497.295128
657.372687	12415.618353
657.714746	12388.706153
658.056753	12579.990215
658.398708	12397.608831
658.740612	12400.454562
659.082465	12501.096157
659.424266	12463.532000
659.766016	12496.541475
660.107715	12401.518246
660.449362	12477.362405
660.790958	12430.862802
661.132503	12378.873383
661.473996	12437.933020
661.815438	12457.588479
662.156829	12467.960653
662.498168	12450.238477
662.839456	12447.833847
663.180693	12468.328657
663.521879	12552.352089
663.863013	12532.999100
664.204097	12505.703772
664.545129	12628.841517
664.886110	12598.781116
665.227040	12684.881503
665.567918	12691.195548
665.908746	12732.585942
666.249522	12708.832025
666.590248	12763.415118
666.930922	12874.915359
667.271545	12851.894930
667.612118	12943.898508
667.952639	12853.417359
668.293109	12852.026000
668.633528	12805.927169
668.973896	12783.063016
669.314213	12864.578473
669.654480	12601.815891
669.994695	12668.364163
670.334859	12695.384747
670.674973	12651.430927
671.015035	12680.614167
671.355047	12616.783077
671.695008	12588.431627
672.034918	12592.429262
672.374777	12640.910039
672.714585	12552.513406
673.054342	12584.716297
673.394049	12532.578163
673.733705	12628.770940
674.073310	12542.743650
674.412864	12565.653174
674.752368	12434.474789
675.091820	12442.248248
675.431223	12435.011672
675.770574	12303.540900
676.109875	12223.875546
676.449125	12185.426665
676.788324	12125.956173
677.127473	11963.615896
677.466571	11952.457302
677.805619	11853.101201
678.144616	11771.764704
678.483562	11747.849470
678.822458	11610.679674
679.161303	11588.775861
679.500098	11579.515261
679.838842	11527.167920
680.177535	11557.490460
680.516179	11619.224430
680.854771	11557.866026
681.193314	11778.988678
681.531805	11922.480081
681.870247	12330.188439
682.208638	12737.624575
682.546978	13064.513155
682.885268	13117.813275
683.223508	12804.248465
683.561697	12647.579485
683.899836	12552.944425
684.237925	12351.885565
684.575963	12265.959098
684.913951	12201.717154
685.251889	12144.222794
685.589776	12239.351888
685.927614	12163.787512
686.265401	12127.007254
686.603137	12177.738906
686.940824	12325.661483
687.278460	12432.443204
687.616046	12488.127789
687.953582	12661.679593
688.291068	12581.512644
688.628504	12822.835199
688.965889	12830.926251
689.303224	12794.894604
689.640510	12690.172194
689.977745	12391.871998
690.314930	12162.060917
690.652065	12075.973133
690.989150	11792.025102
691.326185	11563.955740
691.663170	11358.984945
692.000105	11113.324477
692.336990	11006.179793
692.673825	10763.682649
693.010610	10643.589762
693.347345	10423.881153
693.684030	10233.093645
694.020665	10169.197020
694.357251	9975.352052
694.693786	9924.920349
695.030272	9753.589173
695.366707	9636.911668
695.703093	9568.364578
696.039429	9558.693125
696.375716	9491.308021
696.711952	9358.851704
697.048139	9399.629597
697.384276	9345.170012
697.720363	9363.451757
698.056400	9305.823807
698.392388	9259.999718
698.728326	9219.178975
699.064214	9154.629520
699.400053	9199.899082
699.735842	9014.679528
700.071581	8971.486922
700.407270	8904.401767
700.742910	8816.645361
701.078501	8733.615036
701.414042	8610.633568
701.749533	8544.183598
702.084974	8408.581601
702.420366	8518.778703
702.755709	8397.904437
703.091002	8269.004654
703.426246	8292.471225
703.761440	8246.480778
704.096584	8202.166516
704.431679	8134.128583
704.766725	8121.969320
705.101721	8069.316988
705.436668	8119.171479
705.771565	8013.166096
706.106413	8087.119823
706.441212	8136.714695
706.775961	8082.124040
707.110661	8120.199875
707.445311	8269.622195
707.779913	8164.093201
708.114465	8290.805124
708.448967	8328.933891
708.783421	8465.599572
709.117825	8653.022110
709.452180	8686.659209
709.786485	8774.375286
710.120742	9056.402638
710.454949	9050.738901
710.789107	9147.934868
711.123216	9368.452581
711.457275	9529.961068
711.791286	9688.805305
712.125247	9679.373307
712.459159	9673.838120
712.793023	9929.868241
713.126837	9504.253704
713.460602	9649.804419
713.794318	9478.695054
714.127985	9517.043112
714.461602	9198.064102
714.795171	9149.081731
715.128691	8896.673678
715.462162	8648.661512
715.795584	8594.146474
716.128957	8451.136501
716.462281	8275.417002
716.795556	8329.236360
717.128782	8124.283209
717.461960	7853.600974
717.795088	7927.080832
718.128167	7837.633119
718.461198	7665.888569
718.794180	7604.736853
719.127113	7601.883560
719.459997	7458.833258
719.792833	7221.450364
720.125619	7283.529653
720.458357	7141.580843
720.791046	7133.351159
721.123686	7131.115408
721.456278	6971.578012
721.788821	6993.161712
722.121315	6883.682974
722.453761	6947.103210
722.786158	6893.785446
723.118506	6905.029740
723.450805	6875.125615
723.783056	6938.671880
724.115259	6843.222673
724.447412	6841.319638
724.779518	6884.867645
725.111574	6885.013839
725.443582	6965.543751
725.775542	6948.615556
726.107453	7137.726881
726.439315	7056.067750
726.771129	7104.835873
727.102895	7274.810977
727.434612	7391.254070
727.766281	7421.422855
728.097901	7505.557192
728.429473	7497.677868
728.760996	7467.597303
729.092471	7445.784231
729.423897	7393.998978
729.755276	7407.295021
730.086606	7331.632343
730.417887	7428.666993
730.749120	7614.430992
731.080305	7810.743605
731.411442	7935.938140
731.742530	7930.193745
732.073570	8034.565794
732.404562	8122.256665
732.735506	7967.089950
733.066401	8117.838094
733.397249	8049.003659
733.728048	7812.180333
734.058798	7478.108109
734.389501	7258.480160
734.720156	7083.899961
735.050762	6846.055802
735.381320	6745.187354
735.711831	6701.341919
736.042293	6596.261587
736.372707	6612.053002
736.703073	6478.318752
737.033391	6509.364698
737.363661	6520.722418
737.693883	6549.900616
738.024056	6632.807432
738.354182	6673.408885
738.684260	6710.042950
739.014290	6819.032697
739.344272	6935.251457
739.674207	6957.722401
740.004093	7026.592124
740.333931	7047.404527
740.663722	7051.308901
740.993464	7131.322095
741.323159	7123.228522
741.652806	6869.096395
741.982405	6876.058229
742.311956	6941.550379
742.641460	6785.879548
742.970915	6582.784063
743.300323	6581.100317
743.629683	6532.944695
743.958996	6397.277163
744.288260	6308.326003
744.617477	6255.633343
744.946647	6260.097284
745.275768	6088.962714
745.604842	6043.562083
745.933869	6031.982552
746.262847	5988.769782
746.591778	5974.367205
746.920662	5940.810764
747.249498	5923.754020
747.578286	5976.567669
747.907027	6047.597526
748.235720	6105.543069
748.564365	6080.009625
748.892963	6101.258088
749.221514	6256.646615
749.550017	6102.558706
749.878473	5975.216639
750.206881	6023.679772
750.535242	5967.554086
750.863555	5898.754938
751.191821	5920.283186
751.520039	5919.204379
751.848210	5822.242826
752.176334	5840.751422
752.504411	5897.421553
752.832440	5821.650490
753.160421	5746.449078
753.488356	5799.625689
753.816243	5833.119115
754.144082	5685.209141
754.471875	5654.495911
754.799620	5697.776738
755.127318	5709.605805
755.454969	5660.333567
755.782572	5626.182271
756.110129	5671.139281
756.437638	5658.559081
756.765100	5600.157314
757.092515	5594.145738
757.419882	5642.452595
757.747203	5629.015399
758.074477	5691.092167
758.401703	5675.565414
758.728882	5624.319564
759.056014	5677.576834
759.383099	5811.399304
759.710138	5823.334236
760.037129	5806.312780
760.364073	5808.863604
760.690970	5891.568774
761.017820	5877.879520
761.344623	5827.669628
761.671379	5926.128404
761.998088	6045.591147
762.324751	6284.309946
762.651366	6868.919955
762.977935	8155.150194
763.304456	9769.869580
763.630931	10686.479898
763.957359	10317.691768
764.283740	9385.161486
764.610074	8564.033142
764.936362	7574.870537
765.262602	6977.884495
765.588796	6439.012876
765.914943	6102.107523
766.241044	5942.668430
766.567097	5745.851701
766.893104	5483.358820
767.219064	5304.851563
767.544978	5239.755143
767.870845	5166.746633
768.196665	5061.764604
768.522438	4988.073017
768.848165	4955.870126
769.173846	4886.856730
769.499479	4850.857850
769.825066	4793.345847
770.150607	4731.049788
770.476101	4706.698494
770.801548	4705.816292
771.126949	4633.921877
771.452303	4577.450871
771.777611	4538.127351
772.102872	4554.228796
772.428087	4513.682796
772.753256	4471.208554
773.078378	4432.157256
773.403453	4362.453222
773.728482	4346.681972
774.053465	4301.745126
774.378401	4288.252478
774.703291	4291.705668
775.028135	4219.972570
775.352932	4173.205786
775.677683	4157.502591
776.002388	4176.858102
776.327046	4188.634237
776.651658	4115.224955
776.976224	4049.939492
777.300743	4054.963002
777.625216	4077.297834
777.949643	4074.890683
778.274024	4030.659599
778.598359	3985.866426
778.922647	4008.901979
779.246889	4004.039786
779.571086	3996.205833
779.895236	3980.482474
780.219339	3963.829022
780.543397	3960.128815
780.867409	4013.086137
781.191374	4025.857900
781.515294	3961.252993
781.839167	3955.019606
782.162995	3974.969972
782.486776	3963.090493
782.810511	3971.907471
783.134201	3970.742965
783.457844	3927.227725
783.781441	3870.464332
784.104993	3877.385837
784.428498	3892.622724
784.751958	3894.530801
785.075372	3869.698077
785.398739	3832.184331
785.722061	3840.250177
786.045337	3884.319944
786.368568	3920.134821
786.691752	3832.391018
787.014891	3877.481619
787.337983	4005.269827
787.661030	4166.294364
787.984031	4323.522911
788.306987	4492.013396
788.629897	4573.576745
788.952760	4532.428326
789.275579	4466.288388
789.598351	4406.565838
789.921078	4264.533849
790.243759	4065.325093
790.566395	4043.509500
790.888984	4043.136455
791.211529	3936.944549
791.534027	3875.263511
791.856480	3864.649362
792.178888	3805.577121
792.501249	3753.224738
792.823566	3763.566665
793.145836	3795.643527
793.468062	3740.770568
793.790241	3695.574103
794.112375	3726.645254
794.434464	3786.834111
794.756507	3812.465858
795.078505	3794.118578
795.400457	3823.866427
795.722364	3961.875575
796.044226	4067.974220
796.366042	4140.213954
796.687812	4120.016571
797.009538	4129.251965
797.331218	4086.102209
797.652852	4061.110689
797.974442	4036.562790
798.295986	4036.842574
798.617484	3960.685863
798.938938	3867.699260
799.260346	3910.569232
799.581709	3910.924633
799.903026	3835.700536
800.224299	3800.558652
800.545526	3790.723361
800.866708	3752.536621
801.187845	3696.955379
801.508936	3730.713466
801.829983	3729.579206
802.150984	3651.164058
802.471940	3640.186945
802.792851	3651.292607
803.113717	3653.641785
803.434538	3655.007938
803.755314	3596.414607
804.076045	3568.413517
804.396731	3587.002772
804.717372	3616.937144
805.037967	3603.217644
805.358518	3591.249944
805.679024	3614.996300
805.999485	3630.094555
806.319901	3631.669916
806.640272	3646.044766
806.960598	3661.286695
807.280879	3636.655617
807.601115	3649.014006
807.921306	3663.593023
808.241453	3706.369734
808.561554	3682.023481
808.881611	3614.472020
809.201623	3652.162206
809.521590	3663.731654
809.841513	3637.129486
810.161390	3662.799041
810.481223	3645.212976
810.801011	3590.314810
811.120755	3579.539344
811.440453	3616.997638
811.760107	3621.393524
812.079716	3579.567070
812.399281	3544.089950
812.718801	3566.455029
813.038276	3543.288407
813.357707	3540.543498
813.677093	3558.923545
813.996434	3508.958149
814.315731	3511.158613
814.634983	3519.300076
814.954191	3529.480686
815.273354	3557.663257
815.592473	3557.602763
815.911547	3561.469328
816.230577	3602.504320
816.549562	3653.356960
816.868502	3695.178372
817.187399	3718.476065
817.506250	3716.109243
817.825058	3689.219728
818.143821	3778.874129
818.462539	3880.952453
818.781213	3928.626645
819.099843	3983.305520
819.418429	4218.419894
819.736970	4459.107264
820.055466	4699.507288
820.373919	5065.888268
820.692327	5467.655626
821.010691	5897.398868
821.329011	7231.343628
821.647286	9919.997662
821.965517	14411.040636
822.283704	18419.458664
822.601847	20643.167078
822.919945	18875.196616
823.237999	16341.369020
823.556010	13876.338050
823.873976	11799.135649
824.191897	9722.691942
824.509775	8369.540385
824.827609	7244.662357
825.145398	6689.666607
825.463144	6575.441622
825.780845	6681.250400
826.098502	6863.382247
826.416116	7710.109571
826.733685	9020.045836
827.051210	10130.707810
827.368692	10204.187669
827.686129	8980.618972
828.003522	7464.494473
828.320872	6462.161854
828.638177	5765.986070
828.955439	5207.088466
829.272656	4712.642015
829.589830	4426.536369
829.906960	4252.261160
830.224046	4069.174014
830.541088	3940.874128
830.858086	3896.524577
831.175041	3821.310562
831.491952	3802.766677
831.808819	3813.761434
832.125642	3880.292062
832.442421	4026.472921
832.759157	4296.204898
833.075849	4836.127599
833.392497	5684.667217
833.709101	6450.592406
834.025662	6802.424615
834.342179	6464.011957
834.658653	5795.991017
834.975083	5160.878729
835.291469	4590.356225
835.607811	4178.153678
835.924110	4037.734858
836.240366	3842.566587
836.556578	3638.659476
836.872746	3526.667723
837.188871	3491.019203
837.504952	3424.710386
837.820990	3340.785257
838.136984	3291.565951
838.452935	3317.996721
838.768842	3313.179898
839.084706	3336.069257
839.400526	3486.996362
839.716303	3818.810150
840.032037	4334.593285
840.347727	4607.138226
840.663373	4342.243236
840.978977	3965.638797
841.294537	3656.895850
841.610054	3427.311621
841.925527	3318.344560
842.240957	3252.532297
842.556344	3200.482383
842.871687	3140.885863
843.186987	3092.395004
843.502244	3056.365877
843.817458	3021.622245
844.132629	2987.239055
844.447756	2998.647186
844.762840	2986.046822
845.077881	2951.555248
845.392879	2933.989347
845.707833	2929.742175
846.022745	2927.382915
846.337613	2929.202772
846.652438	2919.344795
846.967221	2916.637696
847.281960	2902.719070
847.596656	2897.428379
847.911309	2897.572052
848.225919	2888.445043
848.540485	2885.811040
848.855009	2886.720968
849.169490	2873.535830
849.483928	2867.229347
849.798323	2866.495859
850.112675	2865.442258
850.426984	2872.696478
850.741251	2871.899976
851.055474	2862.858666
851.369654	2854.550845
851.683792	2860.391022
851.997887	2869.739841
852.311938	2870.654811
852.625947	2860.033100
852.939914	2861.419417
853.253837	2869.639018
853.567718	2854.611339
853.881555	2849.918024
854.195350	2867.173894
854.509103	2861.845394
854.822812	2855.410362
855.136479	2851.379959
855.450103	2853.991277
855.763685	2845.900225
856.077224	2843.304031
856.390720	2857.320959
856.704173	2867.317567
857.017584	2858.664426
857.330953	2857.706607
857.644278	2864.867566
857.957561	2877.916593
858.270802	2876.253012
858.584000	2876.265615
858.897155	2864.802031
859.210268	2862.566279
859.523339	2861.868080
859.836367	2859.067719
860.149352	2854.964219
860.462295	2852.115967
860.775195	2857.822554
861.088054	2860.683408
861.400869	2842.464678
861.713642	2837.501662
862.026373	2851.553879
862.339062	2855.843901
862.651708	2864.073584
862.964312	2867.982999
863.276873	2861.104345
863.589392	2867.557022
863.901869	2878.992879
864.214303	2898.706311
864.526696	2918.359250
864.839045	2912.188877
865.151353	2913.837335
865.463619	2907.636715
865.775842	2910.689134
866.088023	2929.575817
866.400162	2937.722322
866.712258	2908.087899
867.024313	2896.979716
867.336325	2904.261663
867.648296	2929.873245
867.960224	2920.100968
868.272110	2905.642939
868.583954	2914.386820
868.895755	2925.079108
869.207515	2909.149062
869.519233	2916.993097
869.830909	2928.370981
870.142542	2935.552105
870.454134	2936.673762
870.765684	2938.922116
871.077191	2935.050510
871.388657	2944.943774
871.700081	2960.321814
872.011463	2968.879173
872.322803	2971.503093
872.634101	2967.074440
872.945357	2988.204436
873.256571	3012.215452
873.567744	3002.304543
873.878874	2998.861435
874.189963	3021.665095
874.501010	3023.747091
874.812015	3011.396264
875.122979	3011.071110
875.433900	3006.065244
875.744780	3014.965401
876.055618	3023.369005
876.366415	3019.378932
876.677169	3030.943338
876.987882	3031.676826
877.298554	3020.205681
877.609183	3043.576470
877.919771	3062.120354
878.230317	3092.246290
878.540822	3143.048518
878.851285	3181.958664
879.161707	3222.660940
879.472087	3321.805313
879.782425	3537.854043
880.092722	3969.041575
880.402977	4492.386441
880.713191	5102.539977
881.023363	6234.205918
881.333494	7504.707758
881.643583	8068.792708
881.953631	7781.693956
882.263637	7168.729977
882.573602	6594.691268
882.883526	6018.137023
883.193408	5449.008398
883.503248	4991.722812
883.813048	4689.029250
884.122806	4395.689549
884.432522	4082.976693
884.742197	3848.114377
885.051831	3657.475583
885.361424	3520.293183
885.670975	3447.408181
885.980485	3362.368957
886.289954	3287.107051
886.599382	3245.020978
886.908768	3206.443548
887.218113	3161.302536
887.527417	3103.432610
887.836680	3053.908315
888.145901	3051.496123
888.455082	3039.046993
888.764221	2991.516474
889.073319	2959.474900
889.382376	2959.104376
889.691392	2961.093111
890.000366	2958.776701
890.309300	2950.226904
890.618193	2962.270220
890.927044	2979.906697
891.235855	2980.443580
891.544625	2964.354737
891.853353	2976.284628
892.162041	2994.727689
892.470687	3028.795807
892.779293	3084.921493
893.087858	3127.660396
893.396381	3196.383925
893.704864	3314.692244
894.013306	3548.788306
894.321707	3849.427598
894.630068	4053.964853
894.938387	4053.304462
895.246665	4008.236547
895.554903	3893.653640
895.863100	3696.022765
896.171256	3529.210985
896.479371	3393.185530
896.787446	3272.699433
897.095480	3168.087929
897.403473	3105.595265
897.711425	3069.944225
898.019336	3057.706824
898.327207	3031.066847
898.635038	2995.274654
898.942827	2980.252016
899.250576	2968.296920
899.558284	2940.550409
899.865952	2918.356729
900.173579	2899.253277
900.481165	2891.429406
900.788711	2881.538662
901.096216	2855.997656
901.403681	2845.799402
901.711105	2849.242510
902.018489	2849.212263
902.325832	2848.829135
902.633135	2858.692153
902.940397	2890.985784
903.247619	2969.388329
903.554800	3155.185096
903.861941	3491.175479
904.169041	3908.993871
904.476101	4209.202145
904.783121	4173.379705
905.090100	3937.519240
905.397039	3667.106707
905.703938	3421.221908
906.010796	3235.571335
906.317614	3125.941362
906.624391	3032.445602
906.931129	2964.798359
907.237826	2902.343504
907.544483	2855.428006
907.851099	2825.019766
908.157675	2804.930767
908.464211	2783.369752
908.770707	2767.986672
909.077163	2759.063829
909.383578	2743.872312
909.689954	2733.190107
909.996289	2729.678943
910.302584	2729.051320
910.608839	2730.924108
910.915054	2725.051164
911.221229	2720.914897
911.527363	2723.790876
911.833458	2727.846484
912.139513	2731.297154
912.445527	2735.761096
912.751502	2742.768299
913.057436	2752.946389
913.363331	2765.508944
913.669186	2785.577778
913.975000	2819.681184
914.280775	2878.556819
914.586510	2947.126594
914.892205	3023.676515
915.197859	3146.965494
915.503475	3339.056141
915.809050	3548.006927
916.114585	3695.337168
916.420081	3718.786096
916.725536	3660.800223
917.030952	3546.744118
917.336328	3417.158738
917.641665	3287.815333
917.946961	3189.205322
918.252218	3117.656226
918.557435	3044.037736
918.862612	2985.202429
919.167750	2935.990685
919.472848	2896.410066
919.777906	2869.356714
920.082925	2845.958198
920.387904	2814.662715
920.692843	2796.464150
920.997743	2788.141205
921.302603	2774.207455
921.607423	2763.691608
921.912204	2751.378590
922.216946	2742.296952
922.521647	2733.011146
922.826310	2724.476473
923.130932	2716.077910
923.435516	2707.923844
923.740059	2700.460416
924.044564	2689.359795
924.349028	2689.037161
924.653454	2683.743950
924.957840	2677.374452
925.262186	2671.183915
925.566493	2669.046466
925.870761	2663.410456
926.174989	2659.750578
926.479178	2656.274702
926.783328	2650.989052
927.087438	2648.032416
927.391509	2647.677014
927.695541	2642.819863
927.999533	2642.381282
928.303486	2637.773668
928.607400	2638.275262
928.911275	2636.805766
929.215110	2637.748462
929.518906	2636.289048
929.822663	2634.048255
930.126381	2635.074130
930.430060	2636.437762
930.733699	2637.289717
931.037299	2636.909110
931.340861	2638.454223
931.644383	2637.090591
931.947866	2636.344501
932.251309	2636.778040
932.554714	2635.051445
932.858080	2633.987761
933.161407	2630.728655
933.464694	2630.590023
933.767943	2626.559621
934.071153	2627.542646
934.374323	2630.002729
934.677455	2629.375105
934.980548	2629.362502
935.283602	2628.288737
935.586617	2625.034672
935.889593	2625.165742
936.192530	2626.864611
936.495428	2627.600619
936.798287	2631.041207
937.101108	2632.548512
937.403890	2636.977165
937.706632	2639.810294
938.009336	2647.084679
938.312002	2654.477531
938.614628	2663.317194
938.917216	2671.975376
939.219765	2666.793070
939.522275	2669.091836
939.824747	2667.612257
940.127179	2664.794252
940.429573	2662.669406
940.731929	2662.485404
941.034246	2657.910557
941.336524	2656.675474
941.638763	2648.738177
941.940964	2651.994763
942.243126	2647.815646
942.545250	2645.474030
942.847335	2642.030922
943.149381	2642.164513
943.451389	2637.413225
943.753359	2634.731331
944.055290	2635.404325
944.357182	2634.010446
944.659036	2630.844602
944.960851	2630.214457
945.262628	2628.976854
945.564367	2627.230094
945.866067	2630.877369
946.167729	2630.471556
946.469352	2628.061885
946.770937	2630.632873
947.072484	2628.064405
947.373992	2627.635907
947.675462	2627.663634
947.976893	2622.246914
948.278286	2620.638786
948.579641	2619.633076
948.880958	2617.339351
949.182236	2621.599126
949.483476	2618.246758
949.784678	2622.201543
950.085841	2619.912860
950.386967	2621.173148
950.688054	2620.759773
950.989103	2623.986112
951.290114	2625.069960
951.591087	2624.951493
951.892021	2625.117851
952.192917	2629.460805
952.493776	2632.064561
952.794596	2634.711167
953.095378	2632.369551
953.396122	2631.550363
953.696828	2628.969292
953.997496	2630.763943
954.298126	2624.641462
954.598718	2624.994343
954.899272	2620.870679
955.199788	2617.866151
955.500266	2615.892539
955.800706	2616.200050
956.101108	2613.036726
956.401472	2608.955912
956.701798	2607.962804
957.002087	2608.058586
957.302337	2606.841148
957.602550	2606.216045
957.902724	2602.324274
958.202861	2603.098091
958.502960	2600.350662
958.803022	2601.719335
959.103045	2599.057606
959.403031	2600.600199
959.702979	2596.496700
960.002889	2599.208841
960.302762	2597.903182
960.602596	2597.310846
960.902393	2593.771956
961.202153	2596.322780
961.501875	2594.840681
961.801559	2595.387646
962.101205	2596.005187
962.400814	2595.606936
962.700385	2596.400918
962.999918	2592.045361
963.299414	2591.586616
963.598873	2592.688108
963.898293	2587.102510
964.197677	2592.310022
964.497022	2592.743561
964.796331	2594.109714
965.095601	2590.681729
965.394835	2593.532502
965.694030	2594.361771
965.993189	2591.745413
966.292309	2591.823550
966.591393	2593.794642
966.890439	2591.631987
967.189447	2591.765577
967.488419	2591.437902
967.787353	2591.750454
968.086249	2588.990422
968.385108	2590.520412
968.683930	2591.168200
968.982714	2593.174580
969.281462	2590.603591
969.580172	2593.429158
969.878844	2589.245000
970.177480	2592.078129
970.476078	2593.071236
970.774639	2593.056112
971.073162	2594.258428
971.371649	2591.016966
971.670098	2593.431678
971.968510	2592.541915
972.266885	2595.599375
972.565223	2590.270875
972.863524	2591.077460
973.161788	2594.346648
973.460014	2591.372367
973.758204	2593.363623
974.056356	2592.073087
974.354471	2593.000660
974.652550	2592.345310
974.950591	2590.548138
975.248595	2591.765577
975.546563	2591.395052
975.844493	2592.410845
976.142386	2591.664754
976.440243	2592.335227
976.738062	2592.168869
977.035845	2591.329517
977.333590	2593.043510
977.631299	2590.510330
977.928971	2590.142326
978.226606	2587.203333
978.524204	2587.228539
978.821765	2586.500092
979.119290	2590.074270
979.416777	2588.594691
979.714228	2592.415886
980.011642	2589.693663
980.309020	2590.338931
980.606360	2588.909763
980.903664	2587.331882
981.200931	2591.027048
981.498162	2592.365474
981.795356	2589.660895
982.092513	2594.679364
982.389633	2596.368151
982.686717	2597.575507
982.983764	2602.341918
983.280775	2606.493308
983.577749	2606.848709
983.874686	2607.993051
984.171587	2604.628081
984.468451	2603.289655
984.765279	2602.190683
985.062070	2595.503593
985.358824	2595.743048
985.655543	2594.215578
985.952224	2590.588468
986.248869	2591.372367
986.545478	2591.266503
986.842050	2588.819023
987.138586	2589.134095
987.435086	2589.839856
987.731549	2587.959506
988.027975	2589.643251
988.324366	2591.107707
988.620719	2583.669484
988.917037	2587.165524
989.213318	2586.762232
989.509563	2586.051429
989.805772	2588.196440
990.101944	2587.077304
990.398080	2586.868096
990.694180	2589.091245
990.990244	2585.320462
991.286271	2585.965730
991.582262	2584.816347
991.878217	2587.135277
992.174136	2588.224167
992.470019	2589.091245
992.765865	2583.782910
993.061676	2582.764597
993.357450	2584.770976
993.653188	2581.645461
993.948890	2588.561924
994.244556	2588.135946
994.540186	2587.609146
994.835780	2586.603436
995.131337	2587.352047
995.426859	2589.098807
995.722345	2590.139805
996.017795	2589.693663
996.313208	2592.118458
996.608586	2592.294898
996.903928	2591.339600
997.199234	2591.271544
997.494504	2590.222984
997.789738	2590.830443
998.084936	2591.495875
998.380099	2588.324990
998.675225	2588.783735
998.970316	2588.062850
999.265371	2589.187027
999.560390	2586.600915
999.855373	2587.835998
1000.150320	2587.064701
1000.445232	2586.898343
1000.740108	2585.070925
1001.034948	2587.462952
1001.329752	2584.677715
1001.624521	2584.294587
1001.919254	2583.987077
1002.213951	2581.012796
1002.508613	2585.872468
1002.803239	2583.828280
1003.097829	2583.861048
1003.392384	2582.247879
1003.686903	2585.754001
1003.981386	2587.266347
1004.275834	2582.850297
1004.570246	2582.283167
1004.864623	2584.844073
1005.158964	2584.251737
1005.453270	2584.740729
1005.747540	2585.023034
1006.041775	2583.364494
1006.335974	2584.826429
1006.630138	2585.199474
1006.924266	2585.779207
1007.218359	2585.227201
1007.512416	2582.250399
1007.806438	2579.923907
1008.100425	2580.914493
1008.394376	2578.114132
1008.688292	2582.608321
1008.982172	2585.481779
1009.276017	2585.338106
1009.569827	2583.172930
1009.863602	2584.695359
1010.157341	2583.369535
1010.451045	2584.420616
1010.744714	2583.271233
1011.038347	2585.282653
1011.331945	2584.879361
1011.625508	2583.677046
1011.919036	2584.471027
1012.212528	2584.370204
1012.505986	2583.329206
1012.799408	2581.983218
1013.092795	2583.172930
1013.386147	2582.789803
1013.679464	2581.668146
1013.972745	2581.433732
1014.265992	2583.402303
1014.559204	2583.941706
1014.852380	2582.923393
1015.145521	2584.617221
1015.438628	2581.988259
1015.731699	2584.281984
1016.024736	2582.890626
1016.317737	2581.907601
1016.610703	2583.119998
1016.903635	2584.879361
1017.196531	2584.264340
1017.489393	2584.092941
1017.782219	2584.770976
1018.075011	2582.777200
1018.367768	2584.236614
1018.660490	2580.662436
1018.953177	2580.662436
1019.245829	2580.662436
