Dividing Wavelength (nm)	Counts (n)	Blue Motor Position (mm): 28.000000	Red Motor Position (mm): 0.000000	
326.493990	2052.528474
326.888308	2052.528474
327.282561	2052.528474
327.676750	2029.029135
328.070874	2033.167922
328.464933	2038.176309
328.858929	2046.317772
329.252859	2054.209698
329.646726	2066.459702
330.040528	2085.076683
330.434265	2101.281473
330.827938	2125.917591
331.221547	2147.312248
331.615091	2166.387974
332.008571	2184.853721
332.401986	2204.922554
332.795338	2225.291337
333.188625	2250.131622
333.581847	2264.582090
333.975006	2282.841149
334.368100	2301.485856
334.761129	2315.878351
335.154095	2332.592296
335.546996	2383.429812
335.939833	2489.014259
336.332606	2496.018942
336.725315	2509.705675
337.117960	2519.384690
337.510540	2529.850126
337.903056	2536.607792
338.295508	2546.001983
338.687896	2553.982129
339.080220	2558.932542
339.472480	2563.283058
339.864676	2568.414952
340.256807	2569.592062
340.648875	2569.793708
341.040879	2572.102557
341.432818	2574.071127
341.824694	2573.514080
342.216506	2574.615572
342.608253	2573.478792
342.999937	2570.474264
343.391557	2570.396126
343.783113	2570.570046
344.174605	2570.262535
344.566033	2568.475446
344.957397	2562.395815
345.348697	2563.315825
345.739934	2560.515464
346.131106	2560.870866
346.522215	2557.263920
346.913260	2556.404403
347.304241	2555.421378
347.695159	2553.099927
348.086012	2553.576316
348.476802	2549.442570
348.867528	2544.877805
349.258191	2543.083154
349.648789	2544.333361
350.039324	2541.565767
350.429796	2543.715819
350.820203	2543.284801
351.210548	2546.007024
351.600828	2541.543082
351.991045	2540.862526
352.381198	2537.520241
352.771288	2541.139790
353.161314	2539.924872
353.551276	2538.541075
353.941175	2538.841023
354.331010	2540.791950
354.720782	2544.383772
355.110490	2542.483257
355.500135	2543.491488
355.889717	2539.113246
356.279235	2542.011909
356.668689	2542.112732
357.058080	2541.094419
357.447408	2543.781354
357.836672	2542.231199
358.225873	2541.812784
358.615010	2544.058618
359.004084	2543.834286
359.393095	2544.940820
359.782043	2545.737322
360.170927	2543.665408
360.559748	2548.396531
360.948505	2547.529452
361.337199	2547.889895
361.725830	2547.421067
362.114398	2551.380894
362.502903	2550.662529
362.891344	2551.635472
363.279722	2547.486602
363.668037	2549.389638
364.056289	2551.053219
364.444478	2550.765873
364.832603	2553.478014
365.220665	2551.325441
365.608665	2552.472303
365.996601	2553.752757
366.384474	2554.501368
366.772284	2549.606407
367.160031	2553.031872
367.547715	2554.997922
367.935336	2552.605894
368.322893	2552.205122
368.710388	2550.957437
369.097820	2555.328117
369.485189	2550.912066
369.872495	2557.014383
370.259738	2554.385421
370.646918	2557.306770
371.034035	2555.572613
371.421090	2556.318704
371.808081	2558.181410
372.195010	2557.142932
372.581875	2558.740978
372.968678	2558.544373
373.355418	2559.116544
373.742096	2558.057902
374.128710	2560.041596
374.515262	2561.216185
374.901751	2559.343396
375.288177	2562.053016
375.674540	2560.497820
376.060841	2563.439334
376.447079	2560.457491
376.833254	2566.380847
377.219367	2562.163922
377.605417	2565.468398
377.991404	2562.985630
378.377329	2565.208779
378.763191	2560.719631
379.148991	2563.792214
379.534727	2563.018397
379.920402	2563.792214
380.306013	2563.066288
380.691563	2564.568552
381.077049	2564.417317
381.462474	2564.772719
381.847835	2567.109294
382.233134	2565.496124
382.618371	2565.347410
383.003545	2565.551577
383.388657	2566.789180
383.773706	2568.387226
384.158693	2566.549726
384.543618	2567.124417
384.928480	2567.416804
385.313280	2568.513255
385.698017	2567.641135
386.082692	2569.319840
386.467305	2570.184397
386.851856	2569.047617
387.236344	2572.934347
387.620770	2567.681465
388.005133	2568.440158
388.389435	2567.925961
388.773674	2566.658110
389.157851	2573.567012
389.541965	2569.879408
389.926018	2574.101374
390.310008	2572.838565
390.693936	2571.023750
391.077802	2573.004923
391.461606	2572.541137
391.845348	2574.837382
392.229027	2573.483833
392.612645	2570.343194
392.996200	2573.738411
393.379694	2575.850654
393.763125	2574.711354
394.146494	2574.076168
394.529801	2576.858885
394.913047	2575.548185
395.296230	2576.125397
395.679351	2574.678586
396.062410	2576.435428
396.445408	2575.971642
396.828343	2577.468865
397.211217	2578.066242
397.594028	2579.513053
397.976778	2576.934502
398.359466	2577.403330
398.742092	2578.351067
399.124656	2576.836200
399.507158	2577.383165
399.889598	2578.015830
400.271977	2578.683783
400.654294	2581.297621
401.036549	2580.153279
401.418742	2580.420460
401.800874	2581.607652
402.182944	2578.693865
402.564952	2582.139494
402.946898	2581.887436
403.328783	2585.713672
403.710606	2583.684607
404.092367	2583.019175
404.474067	2583.298959
404.855705	2586.003538
405.237282	2584.632344
405.618797	2585.454053
406.000250	2583.619072
406.381642	2583.314083
406.762972	2584.319793
407.144240	2581.900039
407.525447	2588.277099
407.906593	2581.695872
408.287677	2585.212077
408.668700	2585.196954
409.049661	2590.379260
409.430560	2588.279619
409.811399	2586.633682
410.192176	2589.255082
410.572891	2589.532346
410.953545	2587.246183
411.334138	2589.290371
411.714669	2590.958992
412.095139	2590.706935
412.475547	2593.222471
412.855894	2592.045361
413.236180	2590.502768
413.616405	2592.821699
413.996568	2590.848087
414.376670	2591.455546
414.756711	2590.969075
415.136691	2594.949066
415.516609	2594.313880
415.896466	2593.484611
416.276262	2593.408993
416.655997	2596.531988
417.035670	2595.105342
417.415283	2596.700867
417.794834	2594.260948
418.174324	2595.034765
418.553753	2597.585589
418.933121	2596.378233
419.312428	2596.161463
419.691674	2597.434355
420.070859	2595.533840
420.449983	2597.497369
420.829045	2598.361927
421.208047	2599.292020
421.586988	2599.080291
421.965867	2597.986361
422.344686	2601.968873
422.723444	2599.102977
423.102141	2603.592124
423.480777	2600.441403
423.859352	2603.105653
424.237866	2604.527258
424.616319	2605.467433
424.994712	2604.617999
425.373044	2607.327619
425.751314	2605.480036
426.129524	2601.903337
426.507673	2603.856785
426.885762	2603.813935
427.263789	2611.342898
427.641756	2609.293669
428.019662	2611.352980
428.397508	2613.235851
428.775292	2611.141252
429.153016	2614.438167
429.530679	2613.477827
429.908282	2615.219545
430.285824	2616.305914
430.663305	2615.637961
431.040726	2615.736264
431.418086	2619.852366
431.795385	2620.129629
432.172624	2619.892695
432.549802	2622.143570
432.926920	2622.811523
433.303977	2626.708335
433.680974	2625.914353
434.057910	2629.075157
434.434786	2632.588841
434.811601	2632.629170
435.188355	2635.936167
435.565050	2634.746455
435.941683	2642.393885
436.318257	2646.255409
436.694770	2652.849238
437.071222	2655.752943
437.447614	2655.911739
437.823946	2659.354847
438.200218	2665.252997
438.576429	2670.770540
438.952580	2678.866633
439.328670	2685.732685
439.704700	2691.146884
440.080670	2696.997143
440.456580	2710.293186
440.832429	2718.671584
441.208218	2726.961762
441.583947	2734.856208
441.959616	2747.186871
442.335224	2761.244128
442.710773	2774.018412
443.086261	2794.634211
443.461689	2802.236271
443.837057	2822.864672
444.212365	2844.854185
444.587612	2863.955117
444.962800	2878.125801
445.337927	2906.804925
445.712995	2907.089750
446.088002	2961.614870
446.462949	2993.535456
446.837837	3021.912111
447.212664	3057.477452
447.587431	3154.686021
447.962139	3261.132505
448.336786	3352.450487
448.711374	3362.923484
449.085901	3312.804332
449.460369	3352.992411
449.834776	3396.595871
450.209124	3541.957542
450.583412	3571.397881
450.957640	3640.507059
451.331808	3649.170282
451.705917	3648.149448
452.079965	3693.620656
452.453954	3776.358593
452.827883	3834.195751
453.201752	3886.371693
453.575562	3951.936940
453.949311	4077.706167
454.323001	4164.141791
454.696632	4224.126481
455.070202	4407.974841
455.443713	4498.090507
455.817164	4614.021922
456.190556	4765.753091
456.563888	4813.918795
456.937160	4944.446871
457.310373	4920.715640
457.683526	5011.257283
458.056619	5114.202686
458.429653	5232.831118
458.802628	5373.479311
459.175542	5498.835163
459.548398	5760.770996
459.921194	6048.537702
460.293930	6271.563389
460.666607	6664.450755
461.039224	7032.114708
461.411782	7251.334324
461.784280	7236.858651
462.156719	7330.873649
462.529099	7428.036849
462.901419	7332.859864
463.273680	7316.274468
463.645882	7535.267232
464.018024	7663.685585
464.390106	7973.882905
464.762130	8644.852920
465.134094	9552.006034
465.505999	10741.108362
465.877845	11856.650173
466.249631	12473.947023
466.621358	12351.111748
466.993026	12131.723253
467.364634	11969.451032
467.736184	11786.333639
468.107674	11666.089517
468.479105	11740.746485
468.850477	11760.112077
469.221790	11672.300218
469.593043	11469.282871
469.964238	11414.009139
470.335373	11618.432969
470.706449	12283.416614
471.077467	13170.626923
471.448425	14783.783551
471.819324	15886.339350
472.190164	15710.266970
472.560945	14769.507003
472.931667	13986.663702
473.302330	13953.223208
473.672934	13788.437971
474.043479	14216.101737
474.413965	14209.800295
474.784393	14226.932656
475.154761	14788.620538
475.525070	15010.461554
475.895321	15015.175033
476.265513	15515.938051
476.635645	16070.197793
477.005719	16234.761219
477.375734	16641.504196
477.745691	17227.208135
478.115588	17883.480666
478.485427	18998.362086
478.855207	20612.388313
479.224928	22121.104836
479.594591	23179.195138
479.964194	22893.417167
480.333739	23343.166228
480.703226	23715.372261
481.072653	24266.685448
481.442022	24809.559744
481.811333	25180.961713
482.180584	24894.755244
482.549777	24848.076680
482.918912	24805.118488
483.287988	24872.317068
483.657005	24839.584857
484.025964	24654.728266
484.394864	24936.727891
484.763706	25002.015875
485.132489	24675.021430
485.501213	24844.225239
485.869879	25109.019406
486.238487	25163.665514
486.607036	25503.169581
486.975527	25350.152918
487.343959	25732.398408
487.712333	26114.469979
488.080648	26165.284810
488.448905	26629.975851
488.817104	26656.623390
489.185244	27561.205516
489.553326	28729.029133
489.921350	30607.239548
490.289315	32882.778586
490.657222	33592.991463
491.025070	34054.546906
491.392861	33748.649691
491.760593	33074.362596
492.128267	32195.876004
492.495883	31381.787631
492.863440	30673.979384
493.230939	29907.902960
493.598380	29497.240486
493.965763	29436.355950
494.333088	29054.518793
494.700354	28938.960423
495.067563	28978.886362
495.434713	28953.231930
495.801805	29277.020200
496.168839	29171.758388
496.535815	29105.515105
496.902733	29289.055955
497.269593	29154.661314
497.636395	29355.170688
498.003139	29677.953248
498.369825	29484.483846
498.736453	29919.172460
499.103023	29800.876743
499.469535	29936.390521
499.835989	30093.268708
500.202385	29998.058956
500.568723	30099.403792
500.935003	30448.596957
501.301226	30370.930420
501.667390	31082.068349
502.033497	31290.830092
502.399546	31114.856014
502.765537	30753.435530
503.131470	31235.765568
503.497345	31682.371470
503.863163	30710.689066
504.228923	31489.570021
504.594625	31884.945196
504.960269	31410.529769
505.325856	32087.229056
505.691385	31793.758285
506.056856	32106.965173
506.422270	32617.777731
506.787625	32182.723633
507.152924	32652.027330
507.518164	32869.530433
507.883347	32441.518828
508.248472	32622.660088
508.613540	33299.379539
508.978550	33563.949376
509.343503	33421.471244
509.708398	33792.343892
510.073236	34384.603851
510.438016	34503.796893
510.802738	34209.033066
511.167403	34786.219975
511.532010	35038.486876
511.896561	35526.863778
512.261053	36276.120392
512.625488	36079.286019
512.989866	36023.351897
513.354186	36085.975630
513.718449	36048.638324
514.082655	36941.061187
514.446803	36657.967631
514.810894	37265.943388
515.174927	37296.565877
515.538904	37296.933881
515.902822	37955.747154
516.266684	37651.831112
516.630488	38023.225518
516.994235	38048.837101
517.357925	38646.039912
517.721558	38901.097090
518.085133	39280.564905
518.448651	39472.874842
518.812112	39388.982480
519.175516	39540.454030
519.538863	39981.063479
519.902152	40038.167149
520.265385	40592.280697
520.628560	40618.182146
520.991678	40576.055744
521.354739	40815.926447
521.717743	41186.763806
522.080690	41091.123035
522.443580	41770.342899
522.806413	41797.489512
523.169189	41935.007148
523.531908	42172.095134
523.894569	42054.618605
524.257174	42237.388158
524.619722	42604.240486
524.982213	42720.592837
525.344647	42752.929318
525.707025	42906.903801
526.069345	43346.031151
526.431608	43255.620577
526.793815	43643.776820
527.155964	43206.078637
527.518057	43474.089061
527.880093	43318.226667
528.242072	43971.605575
528.603995	43686.072101
528.965860	43621.908295
529.327669	43855.800189
529.689421	43899.995985
530.051117	43860.304460
530.412755	44154.952341
530.774337	44220.149583
531.135862	44152.068801
531.497331	44299.787211
531.858743	44289.611642
532.220098	44713.348349
532.581396	44444.170899
532.942638	44205.673910
533.303824	44465.101769
533.664953	44524.935224
534.026025	44198.107138
534.387040	44783.228824
534.747999	44850.941602
535.108902	45165.915415
535.469748	44498.980844
535.830537	44749.609369
536.191270	45003.078584
536.551947	44736.749386
536.912567	45013.665008
537.273131	45178.356983
537.633638	44794.561338
537.994089	44994.329662
538.354483	44759.774856
538.714821	45393.251289
539.075103	45681.471699
539.435328	45540.268979
539.795497	45302.591178
540.155609	45422.502584
540.515665	46014.991917
540.875665	45317.797819
541.235609	45603.618639
541.595496	45717.846144
541.955328	46290.107847
542.315102	45727.016003
542.674821	45620.945085
543.034483	45504.335635
543.394090	45530.549635
543.753640	45511.264701
544.113134	46568.714776
544.472571	45683.594024
544.831953	46810.990109
545.191278	46065.668116
545.550548	45755.165806
545.909761	46398.117088
546.268918	46541.923563
546.628019	46974.023545
546.987064	46399.281595
547.346053	45693.494851
547.704986	46588.150944
548.063863	46249.602175
548.422684	46456.740666
548.781449	46041.536112
549.140158	46594.389372
549.498811	46355.819287
549.857408	45746.638694
550.215949	46585.988289
550.574434	46398.996770
550.932864	46343.390322
551.291237	47057.661328
551.649555	46818.219123
552.007817	46983.977303
552.366022	46660.420926
552.724173	46732.186792
553.082267	47129.061711
553.440305	47475.235225
553.798288	46734.553614
554.156215	47132.945920
554.514086	47329.722319
554.871902	46949.904144
555.229661	47120.484187
555.587365	46804.050961
555.945014	46935.388142
556.302606	46941.011549
556.660143	47043.546097
557.017625	47270.942465
557.375050	46961.466031
557.732421	47386.321874
558.089735	47434.921118
558.446994	47294.033470
558.804197	47772.837222
559.161345	47623.747617
559.518437	46989.386461
559.875474	47255.007378
560.232455	47478.900144
560.589381	47527.353194
560.946251	47322.122780
561.303065	47986.226743
561.659825	47672.833332
562.016528	47476.969382
562.373177	47071.305211
562.729770	47687.881176
563.086307	47219.741986
563.442789	47744.510978
563.799216	47602.836911
564.155587	47498.071652
564.511904	47464.968915
564.868164	47518.722738
565.224370	47820.816403
565.580520	47548.972182
565.936615	47758.293493
566.292654	47405.314421
566.648638	47773.875699
567.004567	47706.954382
567.360441	47803.038774
567.716260	47531.701189
568.072023	47892.433555
568.427732	47839.214094
568.783385	47357.312554
569.138982	47749.511803
569.494525	47895.375069
569.850013	47502.986777
570.205445	47619.150085
570.560823	47396.555416
570.916145	47272.369112
571.271412	47500.861930
571.626625	47153.667583
571.981782	47219.159733
572.336884	46826.915114
572.691931	47153.584404
573.046923	46819.983527
573.401860	46652.307189
573.756743	46673.558173
574.111570	46814.559246
574.466342	46722.500215
574.821059	46865.611011
575.175722	46375.744447
575.530330	46477.313615
575.884882	46122.862527
576.239380	46013.262801
576.593823	46110.441123
576.948211	46039.915381
577.302544	45591.875271
577.656823	45573.094453
578.011047	45834.516088
578.365216	45658.030333
578.719330	45385.240896
579.073389	45365.456887
579.427394	45415.608807
579.781344	45342.098701
580.135239	45098.474859
580.489080	45154.620710
580.842866	44649.663453
581.196597	45144.306509
581.550273	45147.386654
581.903895	45072.089460
582.257463	45516.028591
582.610975	44946.438700
582.964434	45288.241534
583.317837	44775.130210
583.671186	44748.291107
584.024481	45015.923444
584.377721	44560.556017
584.730906	44766.756854
585.084037	44886.935441
585.437113	44600.696205
585.790135	44724.030554
586.143103	44269.119352
586.496016	44442.172081
586.848874	44548.162341
587.201679	44567.805197
587.554428	44065.154267
587.907124	44361.203589
588.259765	44124.571827
588.612352	44280.308193
588.964884	43746.802881
589.317362	44042.252305
589.669786	44046.111309
590.022155	43880.953026
590.374470	44334.208210
590.726731	43914.310341
591.078937	43265.148358
591.431090	43590.448974
591.783188	43125.226092
592.135232	42914.644492
592.487222	43183.441336
592.839157	43331.958770
593.191038	42983.083197
593.542866	42790.248980
593.894639	42196.103629
594.246358	42480.225580
594.598022	42474.990342
594.949633	42064.993300
595.301190	42035.510112
595.652692	41964.669297
596.004141	42454.077115
596.355535	41364.131763
596.706876	41376.338917
597.058162	41092.569846
597.409395	41593.037956
597.760573	41816.688747
598.111698	41410.747312
598.462768	41335.399707
598.813785	41362.266536
599.164748	40959.387603
599.515657	41222.656821
599.866511	40737.803686
600.217312	41415.619588
600.568060	40374.212985
600.918753	41192.603983
601.269392	41123.633436
601.619978	40832.905053
601.970510	41034.586495
602.320988	41170.438029
602.671412	41421.003540
603.021783	41310.340131
603.372100	40867.610877
603.722363	40985.778043
604.072572	41024.337829
604.422728	41013.302743
604.772830	40796.880968
605.122878	40957.713940
605.472872	40816.932157
605.822813	41062.269991
606.172701	40828.516728
606.522534	41145.295274
606.872314	41347.740451
607.222041	41167.950220
607.571714	41518.524661
607.921333	41018.777436
608.270899	41241.485531
608.620411	41625.066927
608.969870	41354.180525
609.319276	41363.804088
609.668627	41397.700806
610.017926	41810.289002
610.367171	41935.576798
610.716362	41987.984634
611.065500	41876.698642
611.414585	42096.379524
611.763616	42269.301183
612.112594	42172.364836
612.461518	42293.370172
612.810389	42672.933768
613.159207	42468.951040
613.507971	42459.962662
613.856682	42945.178761
614.205340	42779.012248
614.553945	43466.940705
614.902496	42782.893937
615.250994	43213.862179
615.599439	43273.337712
615.947830	43379.108682
616.296169	43392.036721
616.644454	43436.315695
616.992686	43593.957617
617.340864	44045.942430
617.688990	43562.561311
618.037063	44247.986835
618.385082	44073.028550
618.733048	44408.882822
619.080961	44266.634063
619.428821	44289.530984
619.776628	44308.110156
620.124382	44126.578206
620.472083	44220.499944
620.819731	44327.062374
621.167326	43884.663316
621.514868	43853.019993
621.862357	43340.196015
622.209793	43411.838373
622.557176	42988.252900
622.904506	42747.416817
623.251783	42372.080228
623.599007	42065.104205
623.946179	41979.991884
624.293297	41708.387118
624.640363	41177.510768
624.987376	41032.877544
625.334336	40816.468371
625.681243	40419.245612
626.028097	40325.485192
626.374899	40140.986523
626.721647	40118.984407
627.068343	39904.790821
627.414987	39614.087643
627.761577	39354.097696
628.108115	39681.011481
628.454600	38956.411151
628.801032	39177.397692
629.147412	39082.291283
629.493739	38979.623144
629.840014	38546.517452
630.186236	38980.109615
630.532405	38430.253321
630.878521	38655.290429
631.224585	38434.147613
631.570597	38090.051054
631.916556	38266.047817
632.262462	38144.432501
632.608316	38077.874147
632.954117	37942.468754
633.299866	37891.792555
633.645562	37810.335071
633.991206	37281.301263
634.336797	36865.615278
634.682336	36775.887781
635.027823	36517.631990
635.373257	36392.268576
635.718639	36064.533083
636.063968	35971.821222
636.409245	35324.779044
636.754470	35277.054440
637.099642	35056.246861
637.444762	34494.735419
637.789829	34633.541069
638.134845	34253.168368
638.479808	34174.112993
638.824719	34122.804129
639.169577	33598.806434
639.514383	33719.496698
639.859137	33326.029599
640.203839	33493.494209
640.548489	33208.220354
640.893086	33197.250804
641.237632	32919.223607
641.582125	33016.099461
641.926566	32828.220698
642.270955	32845.403471
642.615292	32787.170582
642.959576	32678.062369
643.303809	32682.276774
643.647990	32769.839095
643.992118	32719.916549
644.336195	32584.475868
644.680219	32656.841632
645.024192	32868.476832
645.368112	33398.743202
645.711981	33417.791202
646.055797	34142.242818
646.399562	33964.610201
646.743274	34843.265672
647.086935	35232.760342
647.430544	35185.590265
647.774101	35215.713680
648.117606	35493.829097
648.461059	35627.757431
648.804460	35217.019339
649.147810	34705.518664
649.491108	34360.572671
649.834354	34212.685382
650.177548	33388.751635
650.520690	32889.427867
650.863781	32875.718450
651.206820	32712.495970
651.549807	32289.833029
651.892742	31717.747767
652.235626	31614.925873
652.578458	31493.270228
652.921238	30814.385601
653.263967	31127.242129
653.606644	30829.239361
653.949269	30736.739229
654.291843	30342.894043
654.634365	30717.126620
654.976836	30252.349879
655.319255	30327.659676
655.661622	30212.479393
656.003938	30076.151470
656.346203	29896.668749
656.688416	30138.392076
657.030577	29903.711241
657.372687	29728.889067
657.714746	29881.310874
658.056753	30067.382383
658.398708	29464.916607
658.740612	29522.448775
659.082465	29741.028165
659.424266	29627.690424
659.766016	29634.937082
660.107715	29493.235289
660.449362	29599.757390
660.790958	29594.444014
661.132503	29507.647948
661.473996	29585.022098
661.815438	29675.165490
662.156829	29795.530600
662.498168	29593.599621
662.839456	29560.756503
663.180693	29697.984273
663.521879	29791.001123
663.863013	29753.053837
664.204097	29711.131602
664.545129	30132.703134
664.886110	30073.462014
665.227040	30168.167651
665.567918	30170.857107
665.908746	30252.007081
666.249522	30350.143222
666.590248	30358.519100
666.930922	30450.414293
667.271545	30456.040221
667.612118	30494.821817
667.952639	30312.241307
668.293109	30352.154643
668.633528	30216.353520
668.973896	30180.762974
669.314213	30151.325156
669.654480	29967.927979
669.994695	29945.560379
670.334859	29867.419974
670.674973	29705.109944
671.015035	29896.593132
671.355047	29821.684106
671.695008	29761.621278
672.034918	29681.882828
672.374777	29768.499933
672.714585	29651.320832
673.054342	29781.732962
673.394049	29622.866039
673.733705	29853.768530
674.073310	29564.839838
674.412864	29626.349477
674.752368	29320.180039
675.091820	29542.568020
675.431223	29131.552665
675.770574	28934.607387
676.109875	28781.464695
676.449125	28581.088912
676.788324	28469.376943
677.127473	27992.526639
677.466571	27905.884328
677.805619	27627.889899
678.144616	27554.596563
678.483562	27507.164346
678.822458	27189.768259
679.161303	27137.756154
679.500098	27056.258341
679.838842	26985.064645
680.177535	27085.161796
680.516179	27318.436149
680.854771	27461.609960
681.193314	28240.881603
681.531805	29265.322203
681.870247	30027.708502
682.208638	30736.477089
682.546978	31006.186381
682.885268	31118.072270
683.223508	30675.834528
683.561697	30410.760577
683.899836	30242.280174
684.237925	29827.078141
684.575963	29689.989003
684.913951	29324.535596
685.251889	29485.882766
685.589776	29532.304231
685.927614	29546.817713
686.265401	29731.777648
686.603137	29845.397694
686.940824	30354.536588
687.278460	30696.420080
687.616046	30862.589114
687.953582	31531.809849
688.291068	31434.301330
688.628504	31766.649480
688.965889	31751.246234
689.303224	31470.859778
689.640510	31164.148416
689.977745	30532.733815
690.314930	29787.111873
690.652065	29338.872638
690.989150	28665.800461
691.326185	27837.077619
691.663170	27194.728754
692.000105	26454.228625
692.336990	25844.128022
692.673825	25435.978562
693.010610	24948.975374
693.347345	24454.629746
693.684030	23836.649819
694.020665	23637.620024
694.357251	22953.926137
694.693786	22971.436585
695.030272	22750.729828
695.366707	22251.176688
695.703093	21984.953353
696.039429	22047.209083
696.375716	21814.827014
696.711952	21823.679280
697.048139	21680.507990
697.384276	21531.030217
697.720363	21646.465078
698.056400	21542.811393
698.392388	21376.687730
698.728326	21370.303109
699.064214	21219.890202
699.400053	21212.305786
699.735842	20830.592137
700.071581	20631.277517
700.407270	20379.050946
700.742910	20209.784123
701.078501	19953.237283
701.414042	19752.385111
701.749533	19445.426733
702.084974	19143.070928
702.420366	19371.551144
702.755709	18964.969483
703.091002	18675.982818
703.426246	18731.730418
703.761440	18670.994597
704.096584	18433.364687
704.431679	18373.405203
704.766725	18315.026121
705.101721	18252.730062
705.436668	18375.981232
705.771565	18101.616434
706.106413	18413.684022
706.441212	18489.056834
706.775961	18591.367051
707.110661	18673.789917
707.445311	19054.626404
707.779913	18928.456406
708.114465	19218.017762
708.448967	19536.482574
708.783421	20165.154788
709.117825	20541.363497
709.452180	20778.872419
709.786485	21224.391952
710.120742	21997.049602
710.454949	22098.467535
710.789107	22615.359724
711.123216	23329.487057
711.457275	23539.972874
711.791286	24087.535443
712.125247	24232.093051
712.459159	23958.895280
712.793023	24698.971952
713.126837	23667.382997
713.460602	23917.320884
713.794318	23561.917017
714.127985	23284.053658
714.461602	22381.818190
714.795171	22364.910160
715.128691	21387.218701
715.462162	20864.085563
715.795584	20444.543096
716.128957	20173.727270
716.462281	19793.457912
716.795556	19520.797024
717.128782	19040.029743
717.461960	18442.010266
717.795088	18406.596160
718.128167	18064.080003
718.461198	17625.113970
718.794180	17496.834249
719.127113	17166.507602
719.459997	16967.800441
719.792833	16609.762571
720.125619	16649.791853
720.458357	16313.335163
720.791046	16182.618044
721.123686	16023.652819
721.456278	15814.255891
721.788821	15801.025383
722.121315	15545.718667
722.453761	15658.736295
722.786158	15540.604416
723.118506	15617.056035
723.450805	15511.363203
723.783056	15684.599935
724.115259	15580.951291
724.447412	15573.190435
724.779518	15792.195802
725.111574	15848.989441
725.443582	16112.261180
725.775542	16069.522278
726.107453	16594.102227
726.439315	16520.183788
726.771129	16935.400945
727.102895	17358.220162
727.434612	17628.857027
727.766281	17795.023540
728.097901	18108.159852
728.429473	18178.211726
728.760996	18188.190690
729.092471	18317.881934
729.423897	18215.617087
729.755276	18080.637673
730.086606	18196.201083
730.417887	18773.745915
730.749120	19333.223251
731.080305	19551.716941
731.411442	19951.349371
731.742530	20052.038857
732.073570	20221.890454
732.404562	20538.200173
732.735506	20373.732528
733.066401	20156.723458
733.397249	19655.836933
733.728048	19024.152629
734.058798	18166.992638
734.389501	17410.627997
734.720156	16895.908546
735.050762	16331.442988
735.381320	15943.180880
735.711831	15681.461817
736.042293	15322.524101
736.372707	15360.189082
736.703073	15156.798689
737.033391	15356.100706
737.363661	15360.236973
737.693883	15480.886908
738.024056	15685.615727
738.354182	15916.142652
738.684260	16279.347704
739.014290	16552.716874
739.344272	16786.066844
739.674207	17132.250441
740.004093	17295.530893
740.333931	17350.260180
740.663722	17426.553002
740.993464	17463.497098
741.323159	17291.155172
741.652806	16999.209350
741.982405	16817.037173
742.311956	16470.573793
742.641460	16350.218765
742.970915	16019.196439
743.300323	15671.765157
743.629683	15456.875892
743.958996	15142.244878
744.288260	14829.917671
744.617477	14530.226116
744.946647	14491.212626
745.275768	14184.733157
745.604842	13981.829236
745.933869	13808.211897
746.262847	13786.454277
746.591778	13702.014950
746.920662	13587.018669
747.249498	13593.834309
747.578286	13752.970933
747.907027	13934.429787
748.235720	14199.443244
748.564365	14276.777065
748.892963	14198.944170
749.221514	14291.719045
749.550017	14164.681968
749.878473	14139.324964
750.206881	13903.252771
750.535242	13833.342049
750.863555	13752.106375
751.191821	13654.098783
751.520039	13680.118698
751.848210	13609.144293
752.176334	13645.775838
752.504411	13580.427361
752.832440	13395.202765
753.160421	13509.405065
753.488356	13400.553950
753.816243	13309.477944
754.144082	13156.380622
754.471875	13095.019698
754.799620	13064.387127
755.127318	13043.632696
755.454969	13020.115713
755.782572	12998.111077
756.110129	13011.873427
756.437638	12919.073346
756.765100	12925.039552
757.092515	12957.159264
757.419882	12991.819717
757.747203	13005.017458
758.074477	13099.012292
758.401703	13088.660282
758.728882	13281.255044
759.056014	13319.177124
759.383099	13494.029545
759.710138	13612.216877
760.037129	13728.115524
760.364073	13804.612513
760.690970	13829.402387
761.017820	13847.192619
761.344623	14067.750662
761.671379	14449.106388
761.998088	15160.282126
762.324751	16947.887883
762.651366	20383.499764
762.977935	24874.157090
763.304456	27807.397825
763.630931	28818.761672
763.957359	27586.817098
764.283740	25300.585773
764.610074	23037.954610
764.936362	20399.724718
765.262602	18527.843472
765.588796	16607.703260
765.914943	15330.070708
766.241044	14235.918513
766.567097	13452.823154
766.893104	12733.228689
767.219064	12273.702310
767.544978	11797.734208
767.870845	11412.040569
768.196665	11197.794051
768.522438	10968.542538
768.848165	10764.577454
769.173846	10564.297453
769.499479	10427.415002
769.825066	10262.591957
770.150607	10032.985043
770.476101	9953.387744
770.801548	9830.814609
771.126949	9668.030710
771.452303	9561.236387
771.777611	9361.256334
772.102872	9351.431125
772.428087	9206.949136
772.753256	9051.979025
773.078378	8964.520047
773.403453	8783.764435
773.728482	8672.367538
774.053465	8602.640818
774.378401	8497.512596
774.703291	8381.238382
775.028135	8251.721058
775.352932	8219.061943
775.677683	8115.463711
776.002388	8007.552771
776.327046	8017.980398
776.651658	7923.983043
776.976224	7822.486972
777.300743	7827.384453
777.625216	7737.835917
777.949643	7692.072322
778.274024	7704.239147
778.598359	7620.561035
778.922647	7639.939230
779.246889	7587.239008
779.571086	7604.933458
779.895236	7606.639888
780.219339	7619.192361
780.543397	7619.416693
780.867409	7699.351749
781.191374	7716.196764
781.515294	7680.137391
781.839167	7773.829756
782.162995	7741.200887
782.486776	7686.033020
782.810511	7637.090978
783.134201	7549.384983
783.457844	7544.651340
783.781441	7491.928433
784.104993	7421.158194
784.428498	7402.188332
784.751958	7389.935808
785.075372	7359.777105
785.398739	7304.521018
785.722061	7353.150508
786.045337	7357.732917
786.368568	7509.448963
786.691752	7533.540637
787.014891	7881.261785
787.337983	8247.022703
787.661030	8846.433539
787.984031	9469.626018
788.306987	9876.283296
788.629897	10074.302340
788.952760	10018.491726
789.275579	9794.064598
789.598351	9390.684070
789.921078	9031.310294
790.243759	8624.647975
790.566395	8333.478491
790.888984	8082.081190
791.211529	7872.684262
791.534027	7655.410531
791.856480	7450.855632
792.178888	7378.711679
792.501249	7283.741382
792.823566	7125.776826
793.145836	7129.988710
793.468062	7099.416632
793.790241	7061.887762
794.112375	7124.869418
794.434464	7281.515712
794.756507	7317.527195
795.078505	7489.790983
795.400457	7795.741131
795.722364	8147.543093
796.044226	8441.901107
796.366042	8714.075524
796.687812	8659.973861
797.009538	8735.465140
797.331218	8623.866597
797.652852	8539.452475
797.974442	8380.988845
798.295986	8293.141698
798.617484	8099.730269
798.938938	7963.261194
799.260346	7864.986420
799.581709	7658.006725
799.903026	7577.161741
800.224299	7472.459496
800.545526	7299.852909
800.866708	7210.984929
801.187845	7139.224104
801.508936	7033.082609
801.829983	6993.202041
802.150984	6843.797365
802.471940	6800.277084
802.792851	6785.856863
803.113717	6750.596513
803.434538	6723.621298
803.755314	6672.398134
804.076045	6668.677763
804.396731	6619.546677
804.717372	6649.642366
805.037967	6655.701833
805.358518	6694.117945
805.679024	6785.551873
805.999485	6792.851464
806.319901	6833.389903
806.640272	6851.046544
806.960598	6935.173319
807.280879	6939.851510
807.601115	7013.580906
807.921306	6961.009233
808.241453	6979.094372
808.561554	6997.391240
808.881611	6960.492515
809.201623	6969.380069
809.521590	6907.489823
809.841513	6893.089767
810.161390	6924.604540
810.481223	6799.916641
810.801011	6776.170286
811.120755	6751.032572
811.440453	6673.282857
811.760107	6640.777497
812.079716	6612.647858
812.399281	6551.077726
812.718801	6536.208842
813.038276	6492.023129
813.357707	6430.097595
813.677093	6469.650488
813.996434	6380.452312
814.315731	6421.943529
814.634983	6415.148053
814.954191	6419.496048
815.273354	6529.783892
815.592473	6595.863336
815.911547	6724.558953
816.230577	6806.339071
816.549562	6951.214271
816.868502	7045.090638
817.187399	7145.079404
817.506250	7305.781306
817.825058	7330.538413
818.143821	7601.596214
818.462539	7876.092082
818.781213	8242.818380
819.099843	8802.036097
819.418429	9799.254466
819.736970	10773.308732
820.055466	11957.334618
820.373919	13493.028876
820.692327	15844.649008
821.010691	19991.476956
821.329011	29014.010601
821.647286	42071.803899
821.965517	55511.320927
822.283704	60859.975075
822.601847	62821.311597
822.919945	60068.284549
823.237999	55831.890421
823.556010	49603.990986
823.873976	42867.789488
824.191897	36345.141350
824.509775	31509.301097
824.827609	26997.533939
825.145398	24420.206227
825.463144	23062.961253
825.780845	23389.161716
826.098502	25191.880852
826.416116	29012.962041
826.733685	32691.340768
827.051210	33864.379460
827.368692	32058.779304
827.686129	28069.573113
828.003522	23935.090951
828.320872	20209.859740
828.638177	17351.104573
828.955439	15212.049735
829.272656	13396.969690
829.589830	11919.588979
829.906960	10654.778602
830.224046	9714.084171
830.541088	8967.249832
830.858086	8510.236468
831.175041	8137.599417
831.491952	8028.135802
831.808819	8070.229437
832.125642	8479.119946
832.442421	9369.622129
832.759157	11178.501555
833.075849	14125.822233
833.392497	17356.125563
833.709101	19540.913748
834.025662	19367.513180
834.342179	17643.052916
834.658653	15439.801504
834.975083	13503.693437
835.291469	11885.553629
835.607811	10569.406662
835.924110	9657.338423
836.240366	8786.718551
836.556578	7984.270202
836.872746	7339.191553
837.188871	6843.124371
837.504952	6428.255053
837.820990	6116.245439
838.136984	5900.761318
838.452935	5807.321011
838.768842	5837.746895
839.084706	6263.686586
839.400526	7482.362843
839.716303	9075.410308
840.032037	10164.357512
840.347727	10081.697713
840.663373	9097.467877
840.978977	8051.347795
841.294537	7243.795278
841.610054	6647.111706
841.925527	6213.015428
842.240957	5848.003122
842.556344	5519.675293
842.871687	5234.507302
843.186987	4958.057987
843.502244	4732.824274
843.817458	4570.756219
844.132629	4430.213891
844.447756	4342.346579
844.762840	4267.470321
845.077881	4187.494936
845.392879	4128.493272
845.707833	4083.531220
846.022745	4033.283519
846.337613	4006.131865
846.652438	3966.412614
846.967221	3948.203966
847.281960	3916.048966
847.596656	3898.271337
847.911309	3878.154613
848.225919	3854.073021
848.540485	3836.996112
848.855009	3822.671673
849.169490	3804.238694
849.483928	3792.018938
849.798323	3787.212197
850.112675	3767.087911
850.426984	3772.368520
850.741251	3756.720778
851.055474	3753.013010
851.369654	3756.940068
851.683792	3753.658277
851.997887	3758.071807
852.311938	3758.989298
852.625947	3763.899381
852.939914	3755.485696
853.253837	3765.613374
853.567718	3764.615225
853.881555	3753.043257
854.195350	3766.833333
854.509103	3763.433075
854.822812	3761.298146
855.136479	3751.979573
855.450103	3763.760750
855.763685	3751.036877
856.077224	3755.208432
856.390720	3770.450361
856.704173	3791.224956
857.017584	3806.008139
857.330953	3815.583811
857.644278	3837.661544
857.957561	3841.389478
858.270802	3838.498376
858.584000	3849.276363
858.897155	3839.148685
859.210268	3821.020696
859.523339	3799.005977
859.836367	3796.402221
860.149352	3789.999955
860.462295	3782.957463
860.775195	3769.212758
861.088054	3770.641925
861.400869	3763.889299
861.713642	3764.569855
862.026373	3778.604427
862.339062	3784.217752
862.651708	3801.834064
862.964312	3836.517202
863.276873	3851.376003
863.589392	3906.133017
863.901869	3951.483237
864.214303	3999.535515
864.526696	4032.950803
864.839045	4076.995364
865.151353	4101.570989
865.463619	4115.950881
865.775842	4119.164616
866.088023	4139.135147
866.400162	4125.302221
866.712258	4135.654231
867.024313	4137.151453
867.336325	4132.508551
867.648296	4141.648163
867.960224	4140.713028
868.272110	4152.037981
868.583954	4151.445645
868.895755	4168.351154
869.207515	4165.039116
869.519233	4204.055127
869.830909	4218.971901
870.142542	4246.138679
870.454134	4258.643261
870.765684	4286.304072
871.077191	4324.241275
871.388657	4346.460161
871.700081	4387.520359
872.011463	4429.130043
872.322803	4465.920384
872.634101	4497.541021
872.945357	4536.118451
873.256571	4590.888067
873.567744	4620.993838
873.878874	4637.828771
874.189963	4676.640614
874.501010	4687.300134
874.812015	4684.151934
875.122979	4726.747163
875.433900	4724.768510
875.744780	4734.447526
876.055618	4766.758801
876.366415	4762.877113
876.677169	4785.267397
876.987882	4829.039736
877.298554	4882.087798
877.609183	4962.423626
877.919771	5068.754163
878.230317	5217.765630
878.540822	5434.711686
878.851285	5752.180870
879.161707	6211.578699
879.472087	6975.900801
879.782425	8217.358033
880.092722	10393.500640
880.402977	13722.464391
880.713191	17483.528123
881.023363	21218.823997
881.333494	23441.773718
881.643583	24659.071220
881.953631	24632.280008
882.263637	23781.918012
882.573602	22286.305968
882.883526	20713.385310
883.193408	19027.691519
883.503248	17319.120973
883.813048	15771.993378
884.122806	14341.117311
884.432522	12863.718957
884.742197	11603.755649
885.051831	10522.639878
885.361424	9522.076704
885.670975	8703.786529
885.980485	8020.712703
886.289954	7447.682225
886.599382	6977.004814
886.908768	6604.634944
887.218113	6239.141208
887.527417	5953.093536
887.836680	5686.482032
888.145901	5471.471780
888.455082	5300.904339
888.764221	5153.798429
889.073319	5025.553996
889.382376	4951.627995
889.691392	4892.946444
890.000366	4871.796283
890.309300	4852.902038
890.618193	4857.512173
890.927044	4843.959031
891.235855	4867.586919
891.544625	4897.017175
891.853353	4957.914314
892.162041	5072.487138
892.470687	5260.479327
892.779293	5512.574827
893.087858	5882.013267
893.396381	6462.940712
893.704864	7264.345542
894.013306	8422.643900
894.321707	9617.349470
894.630068	10432.579664
894.938387	10645.785184
895.246665	10404.074460
895.554903	9784.884657
895.863100	9087.519160
896.171256	8524.878500
896.479371	8009.271805
896.787446	7512.718151
897.095480	7086.536484
897.403473	6761.855930
897.711425	6449.153157
898.019336	6177.727351
898.327207	5911.098204
898.635038	5674.257234
898.942827	5431.387045
899.250576	5238.691460
899.558284	5043.818096
899.865952	4920.012399
900.173579	4772.893885
900.481165	4663.894057
900.788711	4570.844439
901.096216	4498.939941
901.403681	4438.892237
901.711105	4410.210593
902.018489	4398.832708
902.325832	4467.185713
902.633135	4593.801854
902.940397	4935.995377
903.247619	5737.586729
903.554800	7184.123140
903.861941	9109.123025
904.169041	10632.592484
904.476101	11242.662841
904.783121	10883.836030
905.090100	10131.829467
905.397039	9294.728227
905.703938	8544.909524
906.010796	7847.324738
906.317614	7295.096581
906.624391	6760.046155
906.931129	6336.755590
907.237826	5935.774652
907.544483	5561.146345
907.851099	5183.886556
908.157675	4832.011497
908.464211	4512.273793
908.770707	4278.805356
909.077163	4077.449068
909.383578	3935.389353
909.689954	3820.587156
909.996289	3752.468565
910.302584	3687.084800
910.608839	3655.315448
910.915054	3621.166672
911.221229	3613.032770
911.527363	3623.354533
911.833458	3639.113180
912.139513	3663.701408
912.445527	3694.608722
912.751502	3775.466309
913.057436	3875.152606
913.363331	4013.925489
913.669186	4216.539544
913.975000	4473.489676
914.280775	4894.115991
914.586510	5477.800948
914.892205	6275.729902
915.197859	7314.704148
915.503475	8548.725678
915.809050	9607.342780
916.114585	10262.009703
916.420081	10524.298417
916.725536	10481.267128
917.030952	10036.042503
917.336328	9621.952044
917.641665	9206.064413
917.946961	8716.475113
918.252218	8302.931619
918.557435	7786.702342
918.862612	7356.737289
919.167750	6980.962120
919.472848	6555.758437
919.777906	6178.327248
920.082925	5821.630326
920.387904	5454.173060
920.692843	5186.034087
920.997743	4944.459474
921.302603	4710.988516
921.607423	4550.223599
921.912204	4385.866861
922.216946	4263.823047
922.521647	4147.886590
922.826310	4042.536557
923.130932	3948.700520
923.435516	3849.420036
923.740059	3781.341774
924.044564	3702.339331
924.349028	3644.187101
924.653454	3579.592276
924.957840	3514.831093
925.262186	3464.608598
925.566493	3405.130544
925.870761	3352.027030
926.174989	3311.644867
926.479178	3274.572222
926.783328	3231.205696
927.087438	3205.001778
927.391509	3171.125224
927.695541	3142.836789
927.999533	3114.039198
928.303486	3094.018255
928.607400	3079.149372
928.911275	3069.558577
929.215110	3050.934034
929.518906	3041.698640
929.822663	3041.282745
930.126381	3038.807538
930.430060	3044.980431
930.733699	3049.272974
931.037299	3059.181362
931.340861	3055.657595
931.644383	3065.160170
931.947866	3064.807289
932.251309	3055.254303
932.554714	3056.048285
932.858080	3049.091492
933.161407	3043.226110
933.464694	3034.083977
933.767943	3030.542567
934.071153	3025.597195
934.374323	3012.812829
934.677455	3008.071623
934.980548	3000.144409
935.283602	2996.252638
935.586617	2990.893892
935.889593	3003.905110
936.192530	3008.419463
936.495428	3022.786752
936.798287	3041.118908
937.101108	3075.623085
937.403890	3128.116620
937.706632	3189.177596
938.009336	3272.903600
938.312002	3343.704085
938.614628	3410.527100
938.917216	3462.254379
939.219765	3492.967609
939.522275	3522.826363
939.824747	3529.160573
940.127179	3524.058925
940.429573	3520.850231
940.731929	3519.068183
941.034246	3506.341790
941.336524	3487.094665
941.638763	3472.432469
941.940964	3459.385963
942.243126	3414.764189
942.545250	3394.551683
942.847335	3355.565920
943.149381	3321.870848
943.451389	3289.312555
943.753359	3252.784355
944.055290	3227.235787
944.357182	3205.594113
944.659036	3188.010569
944.960851	3178.389527
945.262628	3163.266065
945.564367	3165.164060
945.866067	3161.524347
946.167729	3155.835404
946.469352	3156.548728
946.770937	3152.820794
947.072484	3138.077940
947.373992	3139.101294
947.675462	3132.489821
947.976893	3116.355608
948.278286	3106.812704
948.579641	3102.459667
948.880958	3093.625045
949.182236	3098.686364
949.483476	3092.649582
949.784678	3091.396855
950.085841	3091.038933
950.386967	3101.401025
950.688054	3119.171092
950.989103	3142.720843
951.290114	3161.151301
951.591087	3188.199612
951.892021	3218.577605
952.192917	3245.898138
952.493776	3270.617436
952.794596	3278.060700
953.095378	3282.708644
953.396122	3277.004578
953.696828	3272.588528
953.997496	3260.144439
954.298126	3236.380440
954.598718	3218.267574
954.899272	3189.517874
955.199788	3162.774553
955.500266	3130.732979
955.800706	3091.699325
956.101108	3054.853531
956.401472	3023.946217
956.701798	2992.131495
957.002087	2949.780762
957.302337	2922.868562
957.602550	2894.685991
957.902724	2867.914944
958.202861	2842.656242
958.502960	2818.214208
958.803022	2800.118986
959.103045	2776.642333
959.403031	2762.711104
959.702979	2747.897673
960.002889	2734.735221
960.302762	2722.729713
960.602596	2708.858978
960.902393	2701.929912
961.202153	2694.423634
961.501875	2686.032633
961.801559	2681.228414
962.101205	2672.910510
962.400814	2666.659479
962.700385	2660.826864
962.999918	2656.330155
963.299414	2652.226656
963.598873	2647.931593
963.898293	2638.865077
964.197677	2641.549492
964.497022	2642.691313
964.796331	2638.124028
965.095601	2634.257463
965.394835	2632.477936
965.694030	2630.887452
965.993189	2628.160187
966.292309	2627.605660
966.591393	2625.463170
966.890439	2624.984260
967.189447	2626.899899
967.488419	2629.402832
967.787353	2627.177162
968.086249	2629.803603
968.385108	2634.272586
968.683930	2630.728655
968.982714	2637.188894
969.281462	2642.305665
969.580172	2645.960502
969.878844	2652.952582
970.177480	2664.305260
970.476078	2666.324242
970.774639	2677.941582
971.073162	2683.751511
971.371649	2690.362985
971.670098	2696.525795
971.968510	2698.514530
972.266885	2704.878987
972.565223	2707.838144
972.863524	2710.691437
973.161788	2714.394165
973.460014	2718.628734
973.758204	2720.362891
974.056356	2722.326421
974.354471	2723.639641
974.652550	2723.906822
974.950591	2720.418344
975.248595	2722.633931
975.546563	2716.703013
975.844493	2713.413661
976.142386	2710.404092
976.440243	2703.903524
976.738062	2700.349510
977.035845	2692.578572
977.333590	2683.794361
977.631299	2681.936696
977.928971	2675.378155
978.226606	2671.289779
978.524204	2667.544202
978.821765	2662.906340
979.119290	2666.609068
979.416777	2662.281237
979.714228	2666.767864
980.011642	2672.081240
980.309020	2679.194308
980.606360	2692.926411
980.903664	2717.701162
981.200931	2752.056625
981.498162	2800.756692
981.795356	2874.402909
982.092513	2964.223667
982.389633	3067.171591
982.686717	3166.142043
982.983764	3238.659042
983.280775	3288.765590
983.577749	3295.346817
983.874686	3278.917696
984.171587	3247.957450
984.468451	3207.726522
984.765279	3165.615243
985.062070	3116.148921
985.358824	3073.329360
985.655543	3017.944723
985.952224	2965.267186
986.248869	2902.146899
986.545478	2844.846624
986.842050	2787.168262
987.138586	2743.673187
987.435086	2702.363451
987.731549	2673.089471
988.027975	2646.671304
988.324366	2631.081536
988.620719	2616.958743
988.917037	2606.130345
989.213318	2599.337390
989.509563	2589.081163
989.805772	2585.300297
990.101944	2580.854000
990.398080	2578.943402
990.694180	2576.478278
990.990244	2580.112950
991.286271	2575.749831
991.582262	2577.312589
991.878217	2581.095975
992.174136	2582.678897
992.470019	2588.052767
992.765865	2588.844228
993.061676	2596.148860
993.357450	2604.411312
993.653188	2611.030347
993.948890	2628.079529
994.244556	2647.611479
994.540186	2667.864315
994.835780	2701.801363
995.131337	2741.145048
995.426859	2782.232972
995.722345	2829.135868
996.017795	2878.791233
996.313208	2919.266657
996.608586	2945.231120
996.903928	2957.549180
997.199234	2958.673357
997.494504	2954.141360
997.789738	2937.734924
998.084936	2916.027716
998.380099	2882.224259
998.675225	2854.308869
998.970316	2824.369457
999.265371	2785.464352
999.560390	2748.250554
999.855373	2719.556307
1000.150320	2693.065043
1000.445232	2667.203924
1000.740108	2646.295738
1001.034948	2627.681278
1001.329752	2613.167796
1001.624521	2600.711105
1001.919254	2591.682398
1002.213951	2583.480441
1002.508613	2572.538616
1002.803239	2566.537123
1003.097829	2563.106617
1003.392384	2557.100083
1003.686903	2550.274360
1003.981386	2546.531304
1004.275834	2542.972249
1004.570246	2542.594162
1004.864623	2539.022505
1005.158964	2537.484953
1005.453270	2533.633512
1005.747540	2535.085364
1006.041775	2530.868439
1006.335974	2530.525640
1006.630138	2528.370547
1006.924266	2528.849457
1007.218359	2526.800228
1007.512416	2525.955834
1007.806438	2525.728982
1008.100425	2526.069260
1008.394376	2520.334948
1008.688292	2528.007584
1008.982172	2524.390556
1009.276017	2524.110772
1009.569827	2523.745288
1009.863602	2523.800741
1010.157341	2522.366533
1010.451045	2518.656243
1010.744714	2519.188085
1011.038347	2521.809485
1011.331945	2518.628517
1011.625508	2517.035513
1011.919036	2517.721109
1012.212528	2514.567868
1012.505986	2516.465862
1012.799408	2514.857734
1013.092795	2516.604494
1013.386147	2515.003928
1013.679464	2515.142559
1013.972745	2512.682476
1014.265992	2514.109123
1014.559204	2514.149452
1014.852380	2513.307579
1015.145521	2511.649040
1015.438628	2513.741118
1015.731699	2514.643485
1016.024736	2515.099709
1016.317737	2513.605007
1016.610703	2516.508712
1016.903635	2518.416789
1017.196531	2519.311593
1017.489393	2522.006090
1017.782219	2521.688498
1018.075011	2524.836698
1018.367768	2522.633714
1018.660490	2526.507841
1018.953177	2526.507841
1019.245829	2526.507841
