Dividing Wavelength (nm)	Counts (n)	Blue Motor Position (mm): 18.500000	Red Motor Position (mm): 0.000000	
326.493990	2101.780547
326.888308	2101.780547
327.282561	2101.780547
327.676750	2077.976218
328.070874	2081.978894
328.464933	2086.470563
328.858929	2096.636049
329.252859	2106.615013
329.646726	2122.368619
330.040528	2140.554582
330.434265	2160.588127
330.827938	2178.774089
331.221547	2198.532892
331.615091	2219.385625
332.008571	2239.053687
332.401986	2260.302150
332.795338	2281.603546
333.188625	2301.929478
333.581847	2320.876655
333.975006	2337.222596
334.368100	2354.380163
334.761129	2372.855992
335.154095	2388.818806
335.546996	2426.158632
335.939833	2488.681543
336.332606	2503.517658
336.725315	2513.763804
337.117960	2517.935358
337.510540	2528.347862
337.903056	2539.859337
338.295508	2543.539379
338.687896	2552.316028
339.080220	2560.853222
339.472480	2565.579303
339.864676	2566.053172
340.256807	2571.177505
340.648875	2573.461147
341.040879	2575.001220
341.432818	2571.885787
341.824694	2577.242013
342.216506	2574.981055
342.608253	2575.545665
342.999937	2570.244891
343.391557	2571.784964
343.783113	2571.542988
344.174605	2569.312278
344.566033	2564.913871
344.957397	2564.714746
345.348697	2562.418500
345.739934	2561.546380
346.131106	2561.281720
346.522215	2558.035217
346.913260	2559.212326
347.304241	2557.168138
347.695159	2553.931717
348.086012	2553.984650
348.476802	2549.568599
348.867528	2550.647406
349.258191	2548.073897
349.648789	2547.804195
350.039324	2546.662374
350.429796	2547.426108
350.820203	2546.170861
351.210548	2545.823022
351.600828	2545.434853
351.991045	2542.722712
352.381198	2543.534338
352.771288	2544.839997
353.161314	2541.018802
353.551276	2542.765562
353.941175	2539.972763
354.331010	2539.279604
354.720782	2547.577343
355.110490	2546.153217
355.500135	2543.771272
355.889717	2541.699358
356.279235	2540.454193
356.668689	2546.574153
357.058080	2546.188505
357.447408	2544.071221
357.836672	2541.701878
358.225873	2543.942671
358.615010	2541.021322
359.004084	2546.143135
359.393095	2547.567261
359.782043	2548.174720
360.170927	2545.817980
360.559748	2546.543907
360.948505	2551.988353
361.337199	2551.650595
361.725830	2551.348126
362.114398	2552.736964
362.502903	2551.874927
362.891344	2551.136398
363.279722	2555.549928
363.668037	2551.585060
364.056289	2553.490617
364.444478	2553.823333
364.832603	2552.116902
365.220665	2555.537325
365.608665	2554.798796
365.996601	2550.302087
366.384474	2556.049002
366.772284	2552.968857
367.160031	2557.478169
367.547715	2556.298539
367.935336	2555.895247
368.322893	2557.826009
368.710388	2557.248797
369.097820	2558.940104
369.485189	2556.427089
369.872495	2558.234342
370.259738	2559.842470
370.646918	2558.740978
371.034035	2559.355999
371.421090	2559.746688
371.808081	2560.018911
372.195010	2561.246432
372.581875	2560.775084
372.968678	2560.656617
373.355418	2559.502192
373.742096	2564.192986
374.128710	2564.795404
374.515262	2562.287430
374.901751	2562.184086
375.288177	2560.074363
375.674540	2562.612584
376.060841	2564.553429
376.447079	2566.428738
376.833254	2564.480332
377.219367	2559.996226
377.605417	2562.458829
377.991404	2561.145609
378.377329	2563.908161
378.763191	2558.229301
379.148991	2565.120558
379.534727	2564.240877
379.920402	2566.637946
380.306013	2565.591906
380.691563	2568.014181
381.077049	2563.925805
381.462474	2566.297668
381.847835	2567.772205
382.233134	2571.205231
382.618371	2565.725497
383.003545	2568.329253
383.388657	2567.784808
383.773706	2568.092319
384.158693	2569.876887
384.543618	2568.477967
384.928480	2567.225240
385.313280	2571.868143
385.698017	2568.689695
386.082692	2570.234809
386.467305	2571.525344
386.851856	2570.847309
387.236344	2569.637432
387.620770	2572.462999
388.005133	2572.117680
388.389435	2574.623133
388.773674	2573.864440
389.157851	2572.170612
389.541965	2574.023236
389.926018	2571.936198
390.310008	2574.527352
390.693936	2571.648853
391.077802	2574.797053
391.461606	2574.247567
391.845348	2574.539954
392.229027	2575.074317
392.612645	2574.124059
392.996200	2576.969791
393.379694	2575.691858
393.763125	2576.664801
394.146494	2574.587845
394.529801	2575.449883
394.913047	2577.350398
395.296230	2576.851323
395.679351	2578.804771
396.062410	2578.056159
396.445408	2576.483319
396.828343	2579.150090
397.211217	2574.829821
397.594028	2577.640264
397.976778	2573.902248
398.359466	2576.143041
398.742092	2576.092630
399.124656	2578.393917
399.507158	2580.296952
399.889598	2579.641602
400.271977	2579.439956
400.654294	2582.210070
401.036549	2581.617734
401.418742	2580.828794
401.800874	2582.404154
402.182944	2580.803588
402.564952	2583.034299
402.946898	2580.848958
403.328783	2581.690831
403.710606	2583.041860
404.092367	2581.285018
404.474067	2583.888774
404.855705	2582.477251
405.237282	2582.772159
405.618797	2582.759556
406.000250	2584.370204
406.381642	2585.885071
406.762972	2584.239134
407.144240	2584.897005
407.525447	2586.449680
407.906593	2583.626634
408.287677	2584.791141
408.668700	2584.425657
409.049661	2587.878847
409.430560	2585.905236
409.811399	2586.754670
410.192176	2585.771645
410.572891	2586.386666
410.953545	2585.988415
411.334138	2589.204671
411.714669	2587.578899
412.095139	2587.475555
412.475547	2587.198292
412.855894	2586.621080
413.236180	2586.490010
413.616405	2588.430854
413.996568	2586.091758
414.376670	2590.086873
414.756711	2587.062181
415.136691	2590.222984
415.516609	2588.912284
415.896466	2590.396904
416.276262	2590.843046
416.655997	2586.590833
417.035670	2587.651996
417.415283	2588.730802
417.794834	2588.400607
418.174324	2585.572520
418.553753	2593.038468
418.933121	2587.914136
419.312428	2587.689804
419.691674	2592.463777
420.070859	2591.286667
420.449983	2592.201637
420.829045	2592.549477
421.208047	2593.154415
421.586988	2591.574013
421.965867	2592.693149
422.344686	2592.957810
422.723444	2593.282964
423.102141	2593.101483
423.480777	2592.788931
423.859352	2591.379929
424.237866	2594.911257
424.616319	2595.342276
424.994712	2595.526278
425.373044	2593.645928
425.751314	2595.009560
426.129524	2592.972933
426.507673	2595.934611
426.885762	2596.761361
427.263789	2597.018459
427.641756	2594.243304
428.019662	2596.466453
428.397508	2593.456884
428.775292	2597.031062
429.153016	2598.412338
429.530679	2598.142637
429.908282	2596.700867
430.285824	2596.393356
430.663305	2596.940322
431.040726	2599.259252
431.418086	2598.588779
431.795385	2598.409818
432.172624	2599.564242
432.549802	2600.222113
432.926920	2594.951586
433.303977	2600.905189
433.680974	2598.528285
434.057910	2602.314192
434.434786	2600.960642
434.811601	2602.949377
435.188355	2600.935436
435.565050	2602.563729
435.941683	2602.225971
436.318257	2600.864860
436.694770	2600.491814
437.071222	2601.069027
437.447614	2600.504417
437.823946	2602.558687
438.200218	2602.291506
438.576429	2601.651280
438.952580	2604.953236
439.328670	2602.891404
439.704700	2604.005499
440.080670	2605.074223
440.456580	2604.998606
440.832429	2605.137238
441.208218	2604.290324
441.583947	2603.352669
441.959616	2605.681682
442.335224	2604.726384
442.710773	2606.755448
443.086261	2605.661518
443.461689	2608.093874
443.837057	2606.553802
444.212365	2607.564553
444.587612	2609.765017
444.962800	2605.757300
445.337927	2609.575974
445.712995	2607.529265
446.088002	2610.087651
446.462949	2609.016406
446.837837	2609.838114
447.212664	2609.739811
447.587431	2613.566047
447.962139	2614.654936
448.336786	2618.400513
448.711374	2618.264402
449.085901	2610.841303
449.460369	2610.564040
449.834776	2614.717951
450.209124	2616.252982
450.583412	2615.191819
450.957640	2616.353805
451.331808	2615.159052
451.705917	2614.392796
452.079965	2618.123250
452.453954	2616.563013
452.827883	2613.871037
453.201752	2615.244751
453.575562	2614.962447
453.949311	2620.187603
454.323001	2618.178703
454.696632	2617.724999
455.070202	2620.180041
455.443713	2622.998046
455.817164	2620.076697
456.190556	2619.159207
456.563888	2622.922428
456.937160	2618.203908
457.310373	2624.366719
457.683526	2625.102727
458.056619	2623.923097
458.429653	2624.649024
458.802628	2624.117182
459.175542	2626.146246
459.548398	2630.650517
459.921194	2631.041207
460.293930	2634.234778
460.666607	2638.028246
461.039224	2639.959008
461.411782	2638.807104
461.784280	2643.805408
462.156719	2643.742394
462.529099	2641.650315
462.901419	2642.673669
463.273680	2642.479585
463.645882	2641.630150
464.018024	2642.590490
464.390106	2645.015285
464.762130	2650.048877
465.134094	2657.038437
465.505999	2669.573266
465.877845	2677.465192
466.249631	2678.997703
466.621358	2679.852179
466.993026	2680.399144
467.364634	2679.232117
467.736184	2674.884122
468.107674	2675.524348
468.479105	2672.071158
468.850477	2672.862619
469.221790	2671.700633
469.593043	2668.973369
469.964238	2669.779953
470.335373	2669.459840
470.706449	2675.995696
471.077467	2683.086079
471.448425	2697.554191
471.819324	2705.264635
472.190164	2701.859336
472.560945	2693.816175
472.931667	2692.339117
473.302330	2687.676050
473.672934	2688.545649
474.043479	2691.983716
474.413965	2688.659075
474.784393	2690.766277
475.154761	2695.242822
475.525070	2694.408511
475.895321	2696.682071
476.265513	2698.408666
476.635645	2709.365614
477.005719	2710.220090
477.375734	2712.702858
477.745691	2718.686707
478.115588	2724.171483
478.485427	2731.450909
478.855207	2747.660739
479.224928	2756.838160
479.594591	2765.919798
479.964194	2764.382247
480.333739	2769.332660
480.703226	2773.438679
481.072653	2779.248609
481.442022	2783.949485
481.811333	2790.508026
482.180584	2786.555762
482.549777	2788.988118
482.918912	2788.158849
483.287988	2792.766463
483.657005	2793.184879
484.025964	2792.852163
484.394864	2801.313740
484.763706	2803.501600
485.132489	2802.107721
485.501213	2805.389512
485.869879	2813.805719
486.238487	2813.662046
486.607036	2820.918787
486.975527	2824.268634
487.343959	2825.607060
487.712333	2835.843123
488.080648	2838.225068
488.448905	2847.014320
488.817104	2852.680577
489.185244	2864.217257
489.553326	2884.591081
489.921350	2910.570667
490.289315	2936.756941
490.657222	2953.382666
491.025070	2963.195272
491.392861	2964.551342
491.760593	2963.666620
492.128267	2961.677885
492.495883	2960.682257
492.863440	2957.339972
493.230939	2958.189406
493.598380	2960.999849
493.965763	2966.063688
494.333088	2973.201962
494.700354	2979.808394
495.067563	2990.793069
495.434713	3000.950994
495.801805	3016.881040
496.168839	3028.526105
496.535815	3042.565719
496.902733	3056.144067
497.269593	3072.613516
497.636395	3084.046853
498.003139	3109.285390
498.369825	3121.817698
498.736453	3145.498518
499.103023	3159.351609
499.469535	3179.397757
499.835989	3201.919112
500.202385	3217.849158
500.568723	3246.354363
500.935003	3278.131276
501.301226	3301.270172
501.667390	3339.109073
502.033497	3373.094012
502.399546	3389.868451
502.765537	3409.090371
503.131470	3448.000517
503.497345	3489.101044
503.863163	3493.605315
504.228923	3545.332595
504.594625	3597.740430
504.960269	3620.528966
505.325856	3678.512318
505.691385	3708.552553
506.056856	3754.850510
506.422270	3813.983245
506.787625	3850.902135
507.152924	3904.532450
507.518164	3960.784165
507.883347	3987.693845
508.248472	4051.172054
508.613540	4130.429075
508.978550	4201.781566
509.343503	4252.117487
509.708398	4323.361594
510.073236	4411.884256
510.438016	4487.559537
510.802738	4530.686608
511.167403	4636.631497
511.532010	4722.000917
511.896561	4818.652439
512.261053	4948.207572
512.625488	5004.693701
512.989866	5081.354528
513.354186	5160.238503
513.718449	5247.626905
514.082655	5385.227720
514.446803	5461.737312
514.810894	5602.493889
515.174927	5695.772879
515.538904	5789.616478
515.902822	5946.217402
516.266684	6012.778277
516.630488	6161.172202
516.994235	6258.088385
517.357925	6425.495022
517.721558	6564.073820
518.085133	6711.804834
518.448651	6848.835998
518.812112	6950.977337
519.175516	7089.488080
519.538863	7258.265911
519.902152	7392.080819
520.265385	7583.223729
520.628560	7728.845019
520.991678	7842.409613
521.354739	8016.982250
521.717743	8203.893111
522.080690	8341.534255
522.443580	8562.175476
522.806413	8720.838232
523.169189	8872.768527
523.531908	9060.417917
523.894569	9203.995019
524.257174	9386.888081
524.619722	9604.338252
524.982213	9769.015104
525.344647	9921.714175
525.707025	10106.220406
526.069345	10343.946098
526.431608	10507.065233
526.793815	10739.044010
527.155964	10839.983033
527.518057	11050.700743
527.880093	11190.738956
528.242072	11483.970272
528.603995	11617.835592
528.965860	11799.085237
529.327669	12019.121521
529.689421	12181.711335
530.051117	12366.167154
530.412755	12611.613373
530.774337	12835.564112
531.135862	12996.187877
531.497331	13241.608890
531.858743	13414.381835
532.220098	13709.037277
532.581396	13845.342516
532.942638	13962.440958
533.303824	14257.209826
533.664953	14468.751765
534.026025	14592.186937
534.387040	14949.650116
534.747999	15154.497402
535.108902	15419.213432
535.469748	15488.342774
535.830537	15744.483801
536.191270	16027.416040
536.551947	16137.983668
536.912567	16463.647247
537.273131	16749.876401
537.633638	16794.389789
537.994089	17138.635062
538.354483	17224.438021
538.714821	17664.329106
539.075103	18044.858083
539.435328	18181.957303
539.795497	18390.192245
540.155609	18625.450292
540.515665	19051.175735
540.875665	19063.138393
541.235609	19438.308624
541.595496	19675.270581
541.955328	20190.829385
542.315102	20167.783750
542.674821	20314.037705
543.034483	20578.978066
543.394090	20803.914351
543.753640	21030.685615
544.113134	21728.560269
544.472571	21518.213083
544.831953	22336.478052
545.191278	22205.433258
545.550548	22335.772291
545.909761	22787.948667
546.268918	23147.655159
546.628019	23541.565879
546.987064	23572.586619
547.346053	23449.731179
547.704986	24148.057016
548.063863	24157.972966
548.422684	24489.086032
548.781449	24644.943386
549.140158	25102.110505
549.498811	25272.630054
549.857408	25206.469951
550.215949	25901.992906
550.574434	26097.758554
550.932864	26207.799381
551.291237	26846.047266
551.649555	26863.237601
552.007817	27237.916319
552.366022	27268.107790
552.724173	27610.114790
553.082267	28078.853878
553.440305	28489.334871
553.798288	28302.444174
554.156215	28749.246681
554.514086	29107.057698
554.871902	29167.261678
555.229661	29420.259546
555.587365	29533.680466
555.945014	29820.655711
556.302606	29998.782361
556.660143	30363.409019
557.017625	30644.453346
557.375050	30734.989948
557.732421	31185.512826
558.089735	31388.590668
558.446994	31561.068706
558.804197	32092.055961
559.161345	32255.890940
559.518437	31950.026492
559.875474	32385.035219
560.232455	32720.319841
560.589381	33066.591658
560.946251	33049.842424
561.303065	33732.545725
561.659825	33814.681244
562.016528	33768.597537
562.373177	33762.654016
562.729770	34316.240764
563.086307	34176.431924
563.442789	34695.721182
563.799216	34945.848112
564.155587	34978.177032
564.511904	35174.968554
564.868164	35434.020848
565.224370	35809.773332
565.580520	35792.603162
565.936615	36126.917361
566.292654	36088.556701
566.648638	36471.117264
567.004567	36622.737527
567.360441	36833.364497
567.716260	36891.282313
568.072023	37293.450444
568.427732	37449.224618
568.783385	37236.981959
569.138982	37728.244922
569.494525	37845.376131
569.850013	37817.014600
570.205445	37969.877508
570.560823	38081.309693
570.916145	38141.223807
571.271412	38316.837442
571.626625	38250.205991
571.981782	38447.675549
572.336884	38325.992177
572.691931	38752.425902
573.046923	38566.704753
573.401860	38580.719161
573.756743	38706.659787
574.111570	38940.536557
574.466342	38943.286507
574.821059	39172.928709
575.175722	38892.146522
575.530330	39047.179647
575.884882	38916.419678
576.239380	39024.139053
576.593823	39134.031166
576.948211	39182.927837
577.302544	38877.360818
577.656823	39017.777117
578.011047	39352.295483
578.365216	39222.836132
578.719330	39150.712344
579.073389	39121.347623
579.427394	39301.130292
579.781344	39385.491481
580.135239	39179.973721
580.489080	39350.021923
580.842866	38999.376905
581.196597	39490.536524
581.550273	39551.594980
581.903895	39532.778873
582.257463	39983.516000
582.610975	39530.638903
582.964434	39884.202749
583.317837	39643.986727
583.671186	39592.042678
584.024481	39890.146269
584.377721	39539.103001
584.730906	39894.408565
585.084037	40008.421821
585.437113	39847.790495
585.790135	39946.556781
586.143103	39677.591058
586.496016	39859.697700
586.848874	39970.378753
587.201679	40062.805788
587.554428	39668.277527
587.907124	39915.304147
588.259765	39774.565214
588.612352	40062.077342
588.964884	39562.352802
589.317362	39909.925236
589.669786	39922.865878
590.022155	39768.886355
590.374470	40231.770142
590.726731	39876.212520
591.078937	39489.518211
591.431090	39661.471969
591.783188	39395.301567
592.135232	39160.048561
592.487222	39452.637130
592.839157	39593.066032
593.191038	39343.092857
593.542866	39170.473667
593.894639	38665.685288
594.246358	39001.642904
594.598022	39039.373420
594.949633	38698.553611
595.301190	38726.408507
595.652692	38622.568299
596.004141	38993.892130
596.355535	38104.675441
596.706876	38102.049000
597.058162	38011.555247
597.409395	38492.803958
597.760573	38625.338413
598.111698	38273.249105
598.462768	38333.082560
598.813785	38418.444418
599.164748	37930.233874
599.515657	38343.106895
599.866511	37885.828870
600.217312	38531.177221
600.568060	37575.424863
600.918753	38354.323462
601.269392	38334.098353
601.619978	38032.234060
601.970510	38283.003738
602.320988	38494.134823
602.671412	38836.257770
603.021783	38617.489337
603.372100	38328.137188
603.722363	38447.985580
604.072572	38569.623581
604.422728	38625.542580
604.772830	38449.951630
605.122878	38602.307902
605.472872	38563.629649
605.822813	38847.885191
606.172701	38708.840086
606.522534	39002.121813
606.872314	39275.367475
607.222041	39052.838342
607.571714	39457.693407
607.921333	38950.235737
608.270899	39249.370245
608.620411	39633.954831
608.969870	39440.394688
609.319276	39474.336777
609.668627	39552.446935
610.017926	40041.547243
610.367171	40228.750491
610.716362	40312.070682
611.065500	40290.930603
611.414585	40499.473055
611.763616	40806.290281
612.112594	40764.884764
612.461518	40994.098468
612.810389	41318.882366
613.159207	41193.357635
613.507971	41306.886940
613.856682	41769.445573
614.205340	41685.197810
614.553945	42393.237950
614.902496	41856.125693
615.250994	42336.650998
615.599439	42414.163780
615.947830	42637.839776
616.296169	42719.652662
616.644454	42839.995086
616.992686	43033.461968
617.340864	43549.003128
617.688990	43277.554637
618.037063	43880.990835
618.385082	43857.698184
618.733048	44173.934806
619.080961	44199.906830
619.428821	44218.032299
619.776628	44330.293754
620.124382	44187.006517
620.472083	44340.681051
620.819731	44463.551615
621.167326	44141.351308
621.514868	44150.511084
621.862357	43714.158890
622.209793	43763.468936
622.557176	43432.945684
622.904506	43194.355434
623.251783	42855.862118
623.599007	42657.631346
623.946179	42447.780714
624.293297	42413.470621
624.640363	41827.035715
624.987376	41826.932371
625.334336	41596.786054
625.681243	41263.003696
626.028097	41211.110058
626.374899	41084.796387
626.721647	41068.382390
627.068343	40977.445016
627.414987	40750.577969
627.761577	40526.723012
628.108115	40860.293642
628.454600	40309.267800
628.801032	40502.205361
629.147412	40469.372326
629.493739	40468.603550
629.840014	40119.143203
630.186236	40479.636115
630.532405	40069.177807
630.878521	40282.048090
631.224585	40175.551194
631.570597	39893.367567
631.916556	40048.443541
632.262462	39994.694759
632.608316	39998.213484
632.954117	39918.464951
633.299866	39895.714224
633.645562	39827.837608
633.991206	39354.906801
634.336797	38907.844675
634.682336	38905.828213
635.027823	38677.728605
635.373257	38487.851024
635.718639	38269.652242
636.063968	38115.526525
636.409245	37549.888899
636.754470	37612.058928
637.099642	37370.063379
637.444762	36889.343990
637.789829	37037.478295
638.134845	36701.298869
638.479808	36641.777965
638.824719	36559.730666
639.169577	36172.638106
639.514383	36245.681905
639.859137	35937.387621
640.203839	36183.264858
640.548489	35815.550494
640.893086	35905.202374
641.237632	35638.593391
641.582125	35763.394716
641.926566	35687.890835
642.270955	35662.571639
642.615292	35683.862953
642.959576	35647.561604
643.303809	35661.150034
643.647990	35817.940001
643.992118	35776.942817
644.336195	35770.711951
644.680219	35853.248242
645.024192	36171.440832
645.368112	36679.561413
645.711981	36679.127874
646.055797	37553.531132
646.399562	37465.384037
646.743274	38442.573901
647.086935	38860.714928
647.430544	38749.340716
647.774101	38849.939461
648.117606	39116.964339
648.461059	39412.776726
648.804460	39009.285293
649.147810	38392.580778
649.491108	38145.889394
649.834354	37774.381562
650.177548	36948.685932
650.520690	36510.909612
650.863781	36537.133694
651.206820	36373.202932
651.549807	35935.114060
651.892742	35451.059947
652.235626	35263.990290
652.578458	35136.623017
652.921238	34525.138618
653.263967	34850.613154
653.606644	34557.913679
653.949269	34486.515818
654.291843	34075.487859
654.634365	34479.957276
654.976836	34079.142696
655.319255	34098.052064
655.661622	34083.228551
656.003938	33868.654358
656.346203	33740.941767
656.688416	33962.697083
657.030577	33742.030656
657.372687	33594.725620
657.714746	33861.397617
658.056753	33986.876978
658.398708	33426.754374
658.740612	33486.590349
659.082465	33760.803913
659.424266	33591.247224
659.766016	33717.850761
660.107715	33594.554221
660.449362	33703.498596
660.790958	33683.817932
661.132503	33696.181362
661.473996	33731.189654
661.815438	33859.809654
662.156829	34055.151845
662.498168	33815.502953
662.839456	33835.725541
663.180693	33982.710464
663.521879	34152.793953
663.863013	34121.014520
664.204097	34096.391004
664.545129	34566.551697
664.886110	34500.394114
665.227040	34588.503401
665.567918	34715.379161
665.908746	34775.225219
666.249522	34931.695072
666.590248	34938.112461
666.930922	35039.986619
667.271545	35002.155280
667.612118	35072.807051
667.952639	34861.025657
668.293109	34919.533289
668.633528	34800.635155
668.973896	34737.668623
669.314213	34783.669152
669.654480	34516.447668
669.994695	34542.444899
670.334859	34433.553455
670.674973	34316.414684
671.015035	34493.346581
671.355047	34430.687559
671.695008	34367.650451
672.034918	34275.203251
672.374777	34362.326992
672.714585	34178.347562
673.054342	34417.275569
673.394049	34167.345244
673.733705	34450.479129
674.073310	34102.573979
674.412864	34166.969678
674.752368	33780.550112
675.091820	34090.329016
675.431223	33669.004501
675.770574	33367.646845
676.109875	33237.133892
676.449125	32959.814978
676.788324	32881.248595
677.127473	32346.974508
677.466571	32258.489655
677.805619	31916.691862
678.144616	31919.567841
678.483562	31839.511797
678.822458	31514.367456
679.161303	31435.105394
679.500098	31360.471112
679.838842	31245.910891
680.177535	31396.444786
680.516179	31696.963090
680.854771	31936.153237
681.193314	32815.053204
681.531805	33933.213895
681.870247	34681.220303
682.208638	35388.516872
682.546978	35601.777845
682.885268	35679.376326
683.223508	35170.348337
683.561697	34825.667004
683.899836	34617.900890
684.237925	34126.164058
684.575963	33968.965758
684.913951	33503.059799
685.251889	33654.932120
685.589776	33651.625123
685.927614	33633.033348
686.265401	33775.806387
686.603137	33873.214082
686.940824	34382.554622
687.278460	34753.215541
687.616046	34878.957042
687.953582	35470.632227
688.291068	35326.850958
688.628504	35606.090552
688.965889	35516.234505
689.303224	35135.680322
689.640510	34800.430988
689.977745	34047.648087
690.314930	33237.206989
690.652065	32747.282452
690.989150	32006.169823
691.326185	31087.979102
691.663170	30402.856048
692.000105	29660.533541
692.336990	28983.105808
692.673825	28529.916159
693.010610	28003.997784
693.347345	27426.163086
693.684030	26761.350841
694.020665	26474.466337
694.357251	25801.227803
694.693786	25753.535967
695.030272	25527.291503
695.366707	24959.861746
695.703093	24684.955024
696.039429	24678.744323
696.375716	24416.193468
696.711952	24378.667119
697.048139	24209.276788
697.384276	24030.915724
697.720363	24158.731659
698.056400	23951.567963
698.392388	23737.026537
698.728326	23697.322409
699.064214	23491.219876
699.400053	23427.908024
699.735842	23060.531417
700.071581	22798.159524
700.407270	22496.832115
700.742910	22308.973517
701.078501	22033.509747
701.414042	21757.609918
701.749533	21459.097993
702.084974	21099.953590
702.420366	21308.501083
702.755709	20867.258969
703.091002	20568.646221
703.426246	20587.326217
703.761440	20494.765591
704.096584	20222.918849
704.431679	20170.755510
704.766725	20073.720860
705.101721	20017.499392
705.436668	20111.688310
705.771565	19776.038205
706.106413	20121.415217
706.441212	20124.704570
706.775961	20255.608212
707.110661	20322.400979
707.445311	20678.256029
707.779913	20507.822180
708.114465	20755.975498
708.448967	21043.452338
708.783421	21720.570040
709.117825	21993.724961
709.452180	22202.577444
709.786485	22610.984003
710.120742	23403.468511
710.454949	23414.606940
710.789107	23877.594071
711.123216	24570.334309
711.457275	24688.355282
711.791286	25213.794748
712.125247	25274.764983
712.459159	24962.314267
712.793023	25640.357022
713.126837	24516.590568
713.460602	24797.730677
713.794318	24411.505195
714.127985	24037.421333
714.461602	23134.354074
714.795171	23090.357404
715.128691	22079.386768
715.462162	21536.116741
715.795584	21120.760952
716.128957	20862.212774
716.462281	20471.712395
716.795556	20228.459077
717.128782	19724.678930
717.461960	19168.654784
717.795088	19097.362786
718.128167	18696.802784
718.461198	18232.431856
718.794180	18085.744362
719.127113	17719.491932
719.459997	17532.573509
719.792833	17165.776634
720.125619	17133.188095
720.458357	16819.441803
720.791046	16644.629712
721.123686	16474.500852
721.456278	16244.460399
721.788821	16204.877259
722.121315	15936.914726
722.453761	16017.303486
722.786158	15932.390290
723.118506	15943.190963
723.450805	15801.448840
723.783056	15966.140815
724.115259	15859.860689
724.447412	15790.524659
724.779518	16035.764191
725.111574	16050.285235
725.443582	16250.532468
725.775542	16250.381234
726.107453	16701.272116
726.439315	16592.249602
726.771129	16991.622413
727.102895	17351.281014
727.434612	17556.955049
727.766281	17673.897216
728.097901	17933.882123
728.429473	17969.535683
728.760996	17942.114327
729.092471	18040.184934
729.423897	17913.248680
729.755276	17790.234444
730.086606	17907.461435
730.417887	18441.029761
730.749120	18956.545715
731.080305	19120.814234
731.411442	19446.981929
731.742530	19511.463328
732.073570	19607.774572
732.404562	19885.199350
732.735506	19703.140600
733.066401	19403.179343
733.397249	18875.650319
733.728048	18238.750942
734.058798	17412.548677
734.389501	16719.140486
734.720156	16271.947290
735.050762	15747.148051
735.381320	15394.962961
735.711831	15161.948227
736.042293	14809.984948
736.372707	14814.847141
736.703073	14608.721922
737.033391	14799.607733
737.363661	14763.946611
737.693883	14857.039078
738.024056	15026.232804
738.354182	15206.607809
738.684260	15482.300952
739.014290	15708.227823
739.344272	15875.863832
739.674207	16144.476674
740.004093	16259.109992
740.333931	16244.800677
740.663722	16289.029240
740.993464	16281.046573
741.323159	16099.353306
741.652806	15832.000753
741.982405	15617.633247
742.311956	15284.748215
742.641460	15176.123952
742.970915	14868.542991
743.300323	14537.676941
743.629683	14326.495445
743.958996	14054.147108
744.288260	13774.194191
744.617477	13483.962361
744.946647	13418.008945
745.275768	13145.539621
745.604842	12960.229326
745.933869	12779.690484
746.262847	12731.189543
746.591778	12655.859581
746.920662	12558.865260
747.249498	12562.570508
747.578286	12673.465810
747.907027	12819.601299
748.235720	13034.924103
748.564365	13061.160788
748.892963	12954.033748
749.221514	13014.845187
749.550017	12869.329761
749.878473	12823.548522
750.206881	12604.674225
750.535242	12509.484637
750.863555	12426.224941
751.191821	12315.143116
751.520039	12339.015500
751.848210	12247.896644
752.176334	12285.201182
752.504411	12188.070751
752.832440	12022.942715
753.160421	12083.512179
753.488356	11961.496091
753.816243	11874.725230
754.144082	11725.822149
754.471875	11668.373159
754.799620	11615.864501
755.127318	11582.930643
755.454969	11544.360775
755.782572	11495.292704
756.110129	11515.290961
756.437638	11420.068606
756.765100	11424.005747
757.092515	11422.896693
757.419882	11430.874319
757.747203	11435.572675
758.074477	11500.787562
758.401703	11460.057559
758.728882	11623.547219
759.056014	11660.725729
759.383099	11779.081939
759.710138	11880.005839
760.037129	11959.222531
760.364073	11971.966567
760.690970	11956.835544
761.017820	11960.170268
761.344623	12151.550112
761.671379	12492.004437
761.998088	13154.797700
762.324751	14771.820893
762.651366	17694.999486
762.977935	21261.819999
763.304456	23344.028266
763.630931	23722.573549
763.957359	22516.253160
764.283740	20627.035386
764.610074	18760.041538
764.936362	16666.591498
765.262602	15168.700853
765.588796	13712.679511
765.914943	12717.772512
766.241044	11874.102648
766.567097	11250.595096
766.893104	10711.126100
767.219064	10356.057470
767.544978	9977.673503
767.870845	9666.848560
768.196665	9483.685797
768.522438	9280.565105
768.848165	9120.400086
769.173846	8957.706928
769.499479	8836.623453
769.825066	8679.752828
770.150607	8496.834561
770.476101	8438.168133
770.801548	8328.765012
771.126949	8190.037499
771.452303	8102.855785
771.777611	7934.856812
772.102872	7918.727641
772.428087	7798.266749
772.753256	7677.337030
773.078378	7587.579286
773.403453	7441.597553
773.728482	7340.691297
774.053465	7273.563292
774.378401	7190.689243
774.703291	7091.134017
775.028135	6997.325705
775.352932	6965.654656
775.677683	6877.840277
776.002388	6789.085722
776.327046	6788.090094
776.651658	6703.048349
776.976224	6631.305168
777.300743	6613.136850
777.625216	6542.779986
777.949643	6505.258678
778.274024	6509.170614
778.598359	6440.447084
778.922647	6443.398679
779.246889	6400.470734
779.571086	6409.406179
779.895236	6418.671820
780.219339	6413.512199
780.543397	6412.440954
780.867409	6460.261339
781.191374	6455.144568
781.515294	6426.810763
781.839167	6470.341126
782.162995	6444.598474
782.486776	6395.537965
782.810511	6355.793508
783.134201	6276.665037
783.457844	6272.551455
783.781441	6223.758127
784.104993	6177.366909
784.428498	6151.563763
784.751958	6130.370752
785.075372	6109.694459
785.398739	6063.451955
785.722061	6096.279949
786.045337	6092.249547
786.368568	6207.497885
786.691752	6227.516307
787.014891	6485.499876
787.337983	6765.404902
787.661030	7194.442382
787.984031	7614.869572
788.306987	7854.084925
788.629897	7928.608302
788.952760	7843.261568
789.275579	7668.537696
789.598351	7364.493104
789.921078	7112.546317
790.243759	6835.066086
790.566395	6634.902032
790.888984	6444.961437
791.211529	6311.396066
791.534027	6148.715511
791.856480	6014.358678
792.178888	5951.939112
792.501249	5893.262601
792.823566	5787.216889
793.145836	5782.271517
793.468062	5763.561275
793.790241	5729.478033
794.112375	5765.774341
794.434464	5864.109609
794.756507	5894.356532
795.078505	6014.953535
795.400457	6227.057562
795.722364	6458.658252
796.044226	6645.886706
796.366042	6800.393030
796.687812	6746.722386
797.009538	6766.791219
797.331218	6684.643097
797.652852	6614.024093
797.974442	6491.433314
798.295986	6421.119300
798.617484	6295.450896
798.938938	6189.500966
799.260346	6129.143231
799.581709	5987.547302
799.903026	5935.452018
800.224299	5863.807139
800.545526	5751.026446
800.866708	5688.455644
801.187845	5637.429085
801.508936	5558.998813
801.829983	5533.596439
802.150984	5427.885963
802.471940	5398.238938
802.792851	5382.777719
803.113717	5360.790726
803.434538	5338.481100
803.755314	5302.877951
804.076045	5294.575171
804.396731	5259.098050
804.717372	5271.584988
805.037967	5273.167911
805.358518	5298.396365
805.679024	5356.036918
805.999485	5365.100913
806.319901	5383.733018
806.640272	5393.439759
806.960598	5443.740392
807.280879	5436.092962
807.601115	5466.894412
807.921306	5430.829997
808.241453	5424.881436
808.561554	5443.715187
808.881611	5406.390483
809.201623	5409.246297
809.521590	5357.624882
809.841513	5336.169731
810.161390	5358.668401
810.481223	5272.300832
810.801011	5255.178553
811.120755	5236.483434
811.440453	5182.472512
811.760107	5155.630888
812.079716	5125.147031
812.399281	5078.284465
812.718801	5070.909257
813.038276	5036.463053
813.357707	5003.234287
813.677093	5028.336713
813.996434	4959.948419
814.315731	4986.026308
814.634983	4986.356504
814.954191	4996.968133
815.273354	5052.148603
815.592473	5092.679480
815.911547	5168.059853
816.230577	5216.880907
816.549562	5302.041119
816.868502	5356.006671
817.187399	5410.710752
817.506250	5492.657229
817.825058	5522.417680
818.143821	5670.020144
818.462539	5842.818295
818.781213	6078.240180
819.099843	6436.825015
819.418429	7068.501756
819.736970	7679.789551
820.055466	8382.642344
820.373919	9307.394126
820.692327	10805.909874
821.010691	13617.467238
821.329011	19976.073710
821.647286	29398.948068
821.965517	39266.502606
822.283704	44152.293132
822.601847	45252.371204
822.919945	40689.063290
823.237999	35746.738744
823.556010	30746.256927
823.873976	26229.004994
824.191897	22182.511131
824.509775	19232.006964
824.827609	16569.398052
825.145398	15094.028762
825.463144	14414.193877
825.780845	14773.182005
826.098502	16073.290540
826.416116	18473.199884
826.733685	20582.350598
827.051210	20914.333264
827.368692	19426.928219
827.686129	16934.738033
828.003522	14558.862390
828.320872	12420.929208
828.638177	10847.401091
828.955439	9641.385692
829.272656	8610.507539
829.589830	7794.443034
829.906960	7087.542194
830.224046	6568.930972
830.541088	6178.319687
830.858086	5926.675369
831.175041	5737.770732
831.491952	5678.398542
831.808819	5725.319082
832.125642	5986.133258
832.442421	6550.094701
832.759157	7688.946807
833.075849	9435.101676
833.392497	11205.456605
833.709101	12203.524408
834.025662	11876.542566
834.342179	10823.359828
834.658653	9563.089011
834.975083	8504.731528
835.291469	7637.055690
835.607811	6919.823006
835.924110	6418.666779
836.240366	5937.758346
836.556578	5500.287015
836.872746	5157.271784
837.188871	4896.598760
837.504952	4680.771840
837.820990	4521.168909
838.136984	4409.608175
838.452935	4364.620918
838.768842	4408.143719
839.084706	4707.006005
839.400526	5463.229493
839.716303	6328.833417
840.032037	6843.666295
840.347727	6649.178579
840.663373	6057.180760
840.978977	5500.801213
841.294537	5081.510803
841.610054	4765.322072
841.925527	4530.152245
842.240957	4330.333510
842.556344	4152.229544
842.871687	3996.480576
843.186987	3851.335674
843.502244	3734.862335
843.817458	3650.110457
844.132629	3580.751742
844.447756	3532.800286
844.762840	3490.000890
845.077881	3448.199642
845.392879	3417.015065
845.707833	3391.272413
846.022745	3367.026983
846.337613	3350.048377
846.652438	3331.829647
846.967221	3319.516629
847.281960	3302.069195
847.596656	3293.824388
847.911309	3278.955505
848.225919	3267.756582
848.540485	3259.753750
848.855009	3252.396186
849.169490	3241.930750
849.483928	3234.563104
849.798323	3227.266034
850.112675	3214.005279
850.426984	3218.494426
850.741251	3209.997561
851.055474	3205.689895
851.369654	3206.468754
851.683792	3207.003116
851.997887	3209.228785
852.311938	3207.701316
852.625947	3209.246429
852.939914	3201.535985
853.253837	3209.052345
853.567718	3204.860626
853.881555	3197.611446
854.195350	3205.384906
854.509103	3201.994730
854.822812	3202.065306
855.136479	3194.793441
855.450103	3198.483566
855.763685	3193.422247
856.077224	3195.637835
856.390720	3204.384237
856.704173	3212.354301
857.017584	3217.382852
857.330953	3221.693038
857.644278	3231.145202
857.957561	3232.556725
858.270802	3232.889441
858.584000	3228.662433
858.897155	3224.276630
859.210268	3215.310937
859.523339	3198.324770
859.836367	3200.769729
860.149352	3195.421065
860.462295	3191.277237
860.775195	3182.351874
861.088054	3179.710309
861.400869	3179.881708
861.713642	3176.489012
862.026373	3182.898839
862.339062	3188.522246
862.651708	3197.838298
862.964312	3215.351267
863.276873	3223.674212
863.589392	3249.646236
863.901869	3273.753034
864.214303	3297.779173
864.526696	3313.845331
864.839045	3331.491890
865.151353	3343.333560
865.463619	3346.532172
865.775842	3343.008406
866.088023	3350.950743
866.400162	3343.101667
866.712258	3343.822552
867.024313	3348.538551
867.336325	3342.416070
867.648296	3342.398426
867.960224	3339.671162
868.272110	3344.097295
868.583954	3343.197449
868.895755	3350.923017
869.207515	3347.956298
869.519233	3367.974720
869.830909	3376.133828
870.142542	3386.778224
870.454134	3388.981208
870.765684	3404.109711
871.077191	3422.933379
871.388657	3434.865790
871.700081	3452.623255
872.011463	3471.184783
872.322803	3489.189264
872.634101	3507.748272
872.945357	3526.927342
873.256571	3552.428019
873.567744	3568.705904
873.878874	3575.385433
874.189963	3589.735078
874.501010	3591.905294
874.812015	3588.187443
875.122979	3605.042541
875.433900	3599.835029
875.744780	3600.946604
876.055618	3610.708798
876.366415	3609.808952
876.677169	3619.145169
876.987882	3634.525730
877.298554	3655.043226
877.609183	3693.303063
877.919771	3741.201586
878.230317	3809.438645
878.540822	3912.189963
878.851285	4063.757294
879.161707	4287.173671
879.472087	4669.600643
879.782425	5308.821471
880.092722	6505.107444
880.402977	8418.157273
880.713191	10707.246932
881.023363	12937.488681
881.333494	14129.598058
881.643583	14500.700078
881.953631	14069.157144
882.263637	13272.783385
882.573602	12279.550049
882.883526	11376.971782
883.193408	10466.678029
883.503248	9590.815357
883.813048	8805.481726
884.122806	8063.617964
884.432522	7326.271076
884.742197	6694.904365
885.051831	6156.836810
885.361424	5675.739333
885.670975	5299.465090
885.980485	4991.080065
886.289954	4731.322010
886.599382	4523.608828
886.908768	4348.098536
887.218113	4190.312941
887.527417	4059.076583
887.836680	3942.540230
888.145901	3848.144624
888.455082	3772.683592
888.764221	3704.300340
889.073319	3649.200528
889.382376	3617.378245
889.691392	3593.084924
890.000366	3587.519491
890.309300	3583.267277
890.618193	3585.931527
890.927044	3579.675455
891.235855	3589.183071
891.544625	3606.403653
891.853353	3630.795276
892.162041	3692.526725
892.470687	3786.100623
892.779293	3903.708222
893.087858	4082.349070
893.396381	4357.102037
893.704864	4771.903299
894.013306	5326.470551
894.321707	5864.999372
894.630068	6181.344379
894.938387	6197.397933
895.246665	6010.023286
895.554903	5707.725455
895.863100	5386.825765
896.171256	5128.121312
896.479371	4897.614552
896.787446	4687.458931
897.095480	4498.793748
897.403473	4355.042725
897.711425	4213.552660
898.019336	4097.709466
898.327207	3977.974500
898.635038	3883.561250
898.942827	3776.948408
899.250576	3695.503527
899.558284	3612.475723
899.865952	3561.892785
900.173579	3498.646469
900.481165	3451.262143
900.788711	3415.230496
901.096216	3385.207904
901.403681	3358.346116
901.711105	3346.985876
902.018489	3343.746935
902.325832	3379.587018
902.633135	3444.504477
902.940397	3618.204994
903.247619	4037.744941
903.554800	4787.268736
903.861941	5705.512388
904.169041	6346.099369
904.476101	6500.358677
904.783121	6224.257201
905.090100	5839.501216
905.397039	5447.070074
905.703938	5105.950317
906.010796	4800.630314
906.317614	4559.605187
906.624391	4330.578006
906.931129	4143.384840
907.237826	3971.141216
907.544483	3805.859425
907.851099	3637.058909
908.157675	3481.257009
908.464211	3347.036288
908.770707	3248.930393
909.077163	3177.330884
909.383578	3117.764611
909.689954	3075.761717
909.996289	3048.547048
910.302584	3026.585261
910.608839	3013.563961
910.915054	3003.660614
911.221229	2997.843122
911.527363	3004.991478
911.833458	3013.372397
912.139513	3028.145498
912.445527	3039.591438
912.751502	3071.559915
913.057436	3117.207563
913.363331	3171.669669
913.669186	3262.261724
913.975000	3378.929147
914.280775	3568.118610
914.586510	3835.352696
914.892205	4205.093604
915.197859	4689.908931
915.503475	5242.008539
915.809050	5701.217325
916.114585	5961.290452
916.420081	6006.625548
916.725536	5935.704076
917.030952	5703.894178
917.336328	5509.300598
917.641665	5309.847346
917.946961	5096.180561
918.252218	4904.717538
918.557435	4687.020350
918.862612	4495.176720
919.167750	4330.938448
919.472848	4147.465654
919.777906	3987.930779
920.082925	3835.219105
920.387904	3691.647044
920.692843	3581.437338
920.997743	3489.635406
921.302603	3400.744741
921.607423	3338.398270
921.912204	3275.956018
922.216946	3227.218143
922.521647	3183.967563
922.826310	3139.728918
923.130932	3104.287086
923.435516	3068.966241
923.740059	3039.931716
924.044564	3010.647653
924.349028	2984.083293
924.653454	2959.482462
924.957840	2931.045313
925.262186	2915.518559
925.566493	2890.332955
925.870761	2867.635160
926.174989	2854.795341
926.479178	2842.731860
926.783328	2824.787872
927.087438	2815.602890
927.391509	2799.836682
927.695541	2792.312759
927.999533	2782.447221
928.303486	2774.409102
928.607400	2768.233688
928.911275	2764.563728
929.215110	2757.652306
929.518906	2753.049733
929.822663	2755.789600
930.126381	2753.677356
930.430060	2757.911926
930.733699	2760.177924
931.037299	2760.561052
931.340861	2760.205651
931.644383	2764.929212
931.947866	2765.692947
932.251309	2760.707245
932.554714	2760.059457
932.858080	2760.160280
933.161407	2753.541245
933.464694	2750.768611
933.767943	2746.816346
934.071153	2744.792323
934.374323	2740.104050
934.677455	2739.095819
934.980548	2735.682958
935.283602	2732.615416
935.586617	2729.772205
935.889593	2733.893348
936.192530	2737.558267
936.495428	2739.214286
936.798287	2751.605442
937.101108	2762.953079
937.403890	2784.473765
937.706632	2806.755665
938.009336	2840.644822
938.312002	2869.316384
938.614628	2889.170969
938.917216	2906.631005
939.219765	2914.941347
939.522275	2927.314859
939.824747	2930.994902
940.127179	2921.908222
940.429573	2917.048550
940.731929	2914.671646
941.034246	2904.715367
941.336524	2902.703946
941.638763	2899.197824
941.940964	2891.830178
942.243126	2876.636140
942.545250	2867.161291
942.847335	2851.047243
943.149381	2838.124245
943.451389	2825.564210
943.753359	2813.309165
944.055290	2804.464461
944.357182	2799.186373
944.659036	2794.989612
944.960851	2789.870320
945.262628	2783.783127
945.564367	2786.026441
945.866067	2784.554424
946.167729	2782.613579
946.469352	2783.876388
946.770937	2780.599638
947.072484	2772.929523
947.373992	2773.748710
947.675462	2768.896600
947.976893	2765.342586
948.278286	2760.745054
948.579641	2758.232039
948.880958	2755.434198
949.182236	2755.479569
949.483476	2752.873292
949.784678	2753.047212
950.085841	2752.603591
950.386967	2755.398910
950.688054	2759.537698
950.989103	2771.059255
951.290114	2775.981942
951.591087	2785.640792
951.892021	2799.269552
952.192917	2811.174237
952.493776	2818.667912
952.794596	2821.498520
953.095378	2823.300732
953.396122	2823.593119
953.696828	2822.516833
953.997496	2814.682880
954.298126	2806.564101
954.598718	2797.104376
954.899272	2787.921914
955.199788	2780.057714
955.500266	2763.895775
955.800706	2753.042171
956.101108	2737.754872
956.401472	2725.572924
956.701798	2713.504401
957.002087	2699.815148
957.302337	2691.867769
957.602550	2683.507015
957.902724	2675.163906
958.202861	2663.100425
958.502960	2656.138591
958.803022	2649.897643
959.103045	2643.326499
959.403031	2638.769296
959.702979	2635.028759
960.002889	2627.630866
960.302762	2625.644652
960.602596	2622.007459
960.902393	2616.459669
961.202153	2614.886829
961.501875	2611.799122
961.801559	2610.490943
962.101205	2607.282249
962.400814	2604.728904
962.700385	2604.313009
962.999918	2602.243615
963.299414	2600.096084
963.598873	2597.550301
963.898293	2595.327152
964.197677	2597.129365
964.497022	2598.644232
964.796331	2592.793972
965.095601	2593.426637
965.394835	2594.081987
965.694030	2591.770618
965.993189	2593.313211
966.292309	2590.444795
966.591393	2588.594691
966.890439	2589.124012
967.189447	2591.722727
967.488419	2587.155442
967.787353	2589.832295
968.086249	2588.521595
968.385108	2590.497727
968.683930	2590.792634
968.982714	2592.652820
969.281462	2593.756833
969.580172	2596.892431
969.878844	2595.135588
970.177480	2601.535333
970.476078	2601.926023
970.774639	2607.917434
971.073162	2610.627054
971.371649	2609.747373
971.670098	2608.855089
971.968510	2609.230655
972.266885	2609.492795
972.565223	2614.899432
972.863524	2617.394803
973.161788	2617.654423
973.460014	2616.313476
973.758204	2620.152314
974.056356	2617.833384
974.354471	2619.870010
974.652550	2619.020575
974.950591	2621.072325
975.248595	2618.937396
975.546563	2617.041922
975.844493	2614.405399
976.142386	2614.831377
976.440243	2611.824328
976.738062	2607.879625
977.035845	2608.245109
977.333590	2608.134204
977.631299	2605.820314
977.928971	2604.413832
978.226606	2600.075919
978.524204	2601.568101
978.821765	2598.838316
979.119290	2598.165322
979.416777	2600.098604
979.714228	2601.356372
980.011642	2596.776484
980.309020	2604.471805
980.606360	2605.880808
980.903664	2613.402209
981.200931	2631.061371
981.498162	2645.171561
981.795356	2673.475119
982.092513	2712.778475
982.389633	2748.313569
982.686717	2789.893006
982.983764	2819.386276
983.280775	2833.136023
983.577749	2835.207937
983.874686	2825.551607
984.171587	2807.587456
984.468451	2792.784107
984.765279	2776.997734
985.062070	2759.908222
985.358824	2742.493557
985.655543	2720.962788
985.952224	2700.558718
986.248869	2678.700275
986.545478	2654.613642
986.842050	2635.961373
987.138586	2617.682149
987.435086	2605.646394
987.731549	2595.001998
988.027975	2591.727768
988.324366	2585.776686
988.620719	2580.859041
988.917037	2577.229410
989.213318	2575.286045
989.509563	2571.122052
989.805772	2573.761096
990.101944	2570.141548
990.398080	2569.450910
990.694180	2566.723645
990.990244	2567.598286
991.286271	2567.870508
991.582262	2569.118193
991.878217	2568.362020
992.174136	2570.381003
992.470019	2570.897721
992.765865	2570.885118
993.061676	2574.842424
993.357450	2579.553382
993.653188	2579.800398
993.948890	2585.358271
994.244556	2593.340938
994.540186	2602.861157
994.835780	2611.738629
995.131337	2625.001904
995.426859	2644.639719
995.722345	2656.970382
996.017795	2676.950995
996.313208	2685.589012
996.608586	2696.349355
996.903928	2701.793801
997.199234	2698.060827
997.494504	2693.606967
997.789738	2686.463652
998.084936	2677.482837
998.380099	2666.329284
998.675225	2656.224291
998.970316	2647.074597
999.265371	2632.785446
999.560390	2619.197016
999.855373	2608.978597
1000.150320	2601.358893
1000.445232	2595.246494
1000.740108	2586.490010
1001.034948	2583.195616
1001.329752	2573.781261
1001.624521	2572.387382
1001.919254	2568.097360
1002.213951	2564.946639
1002.508613	2560.603685
1002.803239	2562.090825
1003.097829	2556.411965
1003.392384	2558.995557
1003.686903	2559.333314
1003.981386	2556.369115
1004.275834	2555.305432
1004.570246	2556.485062
1004.864623	2554.655123
1005.158964	2550.705379
1005.453270	2553.581357
1005.747540	2554.176213
1006.041775	2552.961295
1006.335974	2551.645554
1006.630138	2550.586912
1006.924266	2552.336192
1007.218359	2549.659340
1007.512416	2550.556665
1007.806438	2549.382076
1008.100425	2552.545400
1008.394376	2550.022303
1008.688292	2555.136553
1008.982172	2549.187992
1009.276017	2549.162786
1009.569827	2549.971891
1009.863602	2549.916438
1010.157341	2549.049360
1010.451045	2546.415357
1010.744714	2545.303783
1011.038347	2548.676315
1011.331945	2550.556665
1011.625508	2546.995090
1011.919036	2546.256561
1012.212528	2546.987528
1012.505986	2545.603731
1012.799408	2541.245654
1013.092795	2545.656663
1013.386147	2545.228165
1013.679464	2544.567774
1013.972745	2543.836807
1014.265992	2546.710265
1014.559204	2546.622044
1014.852380	2543.509132
1015.145521	2543.627599
1015.438628	2543.105840
1015.731699	2545.875954
1016.024736	2542.483257
1016.317737	2544.358566
1016.610703	2546.541386
1016.903635	2542.281611
1017.196531	2541.719522
1017.489393	2543.519214
1017.782219	2542.926879
1018.075011	2543.783875
1018.367768	2546.644730
1018.660490	2547.416026
1018.953177	2547.416026
1019.245829	2547.416026
