Dividing Wavelength (nm)	Counts (n)	Blue Motor Position (mm): 10.400000	Red Motor Position (mm): 0.000000	
326.493990	2139.327061
326.888308	2139.327061
327.282561	2139.327061
327.676750	2107.363625
328.070874	2106.214242
328.464933	2109.385127
328.858929	2116.866200
329.252859	2124.296860
329.646726	2137.096350
330.040528	2149.396765
330.434265	2165.115083
330.827938	2180.871209
331.221547	2200.284693
331.615091	2220.487117
332.008571	2240.891187
332.401986	2256.980030
332.795338	2280.169337
333.188625	2297.740279
333.581847	2316.122847
333.975006	2334.291165
334.368100	2355.491738
334.761129	2371.832638
335.154095	2387.124978
335.546996	2406.765313
335.939833	2420.681418
336.332606	2438.060796
336.725315	2452.856583
337.117960	2458.810186
337.510540	2468.199335
337.903056	2479.940182
338.295508	2486.685246
338.687896	2494.357882
339.080220	2504.732577
339.472480	2510.305572
339.864676	2513.123577
340.256807	2521.917870
340.648875	2522.699249
341.040879	2524.788807
341.432818	2526.626308
341.824694	2530.291227
342.216506	2526.868283
342.608253	2528.814168
342.999937	2528.340300
343.391557	2528.098325
343.783113	2526.124713
344.174605	2529.217461
344.566033	2527.029600
344.957397	2523.087418
345.348697	2519.306552
345.739934	2520.478621
346.131106	2519.656913
346.522215	2515.240862
346.913260	2513.632734
347.304241	2511.391941
347.695159	2509.073010
348.086012	2507.875736
348.476802	2504.825838
348.867528	2507.243071
349.258191	2501.997751
349.648789	2504.944305
350.039324	2501.173522
350.429796	2499.676299
350.820203	2494.955259
351.210548	2497.811072
351.600828	2494.962820
351.991045	2492.774960
352.381198	2496.845691
352.771288	2497.140599
353.161314	2496.616319
353.551276	2493.589106
353.941175	2496.732265
354.331010	2494.446102
354.720782	2493.735299
355.110490	2494.798983
355.500135	2495.592965
355.889717	2492.313694
356.279235	2495.081288
356.668689	2494.433499
357.058080	2496.472646
357.447408	2492.805207
357.836672	2493.324445
358.225873	2496.603716
358.615010	2492.260762
359.004084	2497.828716
359.393095	2497.879128
359.782043	2496.878459
360.170927	2500.271155
360.559748	2498.136227
360.948505	2500.077071
361.337199	2502.862308
361.725830	2500.301402
362.114398	2501.017246
362.502903	2500.936588
362.891344	2504.508245
363.279722	2502.953049
363.668037	2501.987668
364.056289	2503.232833
364.444478	2503.673934
364.832603	2504.062103
365.220665	2505.544202
365.608665	2504.414984
365.996601	2508.707526
366.384474	2506.300375
366.772284	2508.992352
367.160031	2504.621671
367.547715	2509.529234
367.935336	2506.844820
368.322893	2511.023937
368.710388	2510.416477
369.097820	2510.867661
369.485189	2510.366066
369.872495	2509.536796
370.259738	2508.344563
370.646918	2508.999913
371.034035	2510.247599
371.421090	2512.609379
371.808081	2510.323216
372.195010	2508.929337
372.581875	2510.005623
372.968678	2513.191633
373.355418	2509.680469
373.742096	2510.618124
374.128710	2510.439163
374.515262	2512.947137
374.901751	2509.073010
375.288177	2513.599966
375.674540	2507.769872
376.060841	2512.266581
376.447079	2515.132477
376.833254	2512.803464
377.219367	2510.257681
377.605417	2509.057887
377.991404	2509.448576
378.377329	2512.569050
378.763191	2510.930675
379.148991	2516.463342
379.534727	2515.344205
379.920402	2511.391941
380.306013	2515.528207
380.691563	2515.311438
381.077049	2514.484689
381.462474	2516.760770
381.847835	2514.935872
382.233134	2519.087262
382.618371	2515.782786
383.003545	2514.789678
383.388657	2517.801768
383.773706	2519.241017
384.158693	2513.821777
384.543618	2514.252796
384.928480	2515.137518
385.313280	2516.733043
385.698017	2517.942920
386.082692	2517.113650
386.467305	2522.338806
386.851856	2517.358146
387.236344	2518.951151
387.620770	2517.932838
388.005133	2514.822446
388.389435	2518.527694
388.773674	2520.297139
389.157851	2517.947961
389.541965	2518.779752
389.926018	2522.298477
390.310008	2520.367715
390.693936	2519.845956
391.077802	2518.767149
391.461606	2521.438960
391.845348	2519.064577
392.229027	2522.427027
392.612645	2520.798734
392.996200	2522.825278
393.379694	2521.731347
393.763125	2522.943745
394.146494	2520.375277
394.529801	2523.369722
394.913047	2523.495751
395.296230	2523.147912
395.679351	2524.864424
396.062410	2523.551204
396.445408	2523.082377
396.828343	2523.778056
397.211217	2522.134640
397.594028	2519.745133
397.976778	2518.192457
398.359466	2523.097500
398.742092	2519.261182
399.124656	2523.841070
399.507158	2525.071112
399.889598	2524.118334
400.271977	2523.248735
400.654294	2524.962727
401.036549	2525.507172
401.418742	2526.288550
401.800874	2525.607995
402.182944	2526.890968
402.564952	2525.169414
402.946898	2527.967255
403.328783	2524.924918
403.710606	2527.241328
404.092367	2525.963396
404.474067	2526.858201
404.855705	2527.145547
405.237282	2528.105886
405.618797	2527.987419
406.000250	2523.914167
406.381642	2527.982378
406.762972	2525.103879
407.144240	2529.474560
407.525447	2530.757533
407.906593	2527.798376
408.287677	2528.569673
408.668700	2528.000022
409.049661	2531.624612
409.430560	2530.263500
409.811399	2528.728469
410.192176	2529.756864
410.572891	2527.279137
410.953545	2531.329704
411.334138	2529.943387
411.714669	2528.995650
412.095139	2531.097811
412.475547	2532.804242
412.855894	2529.517409
413.236180	2528.748633
413.616405	2528.168901
413.996568	2529.197296
414.376670	2533.734335
414.756711	2529.966072
415.136691	2530.412214
415.516609	2531.102852
415.896466	2531.387678
416.276262	2530.818027
416.655997	2529.809796
417.035670	2525.325690
417.415283	2533.280631
417.794834	2527.997502
418.174324	2533.782226
418.553753	2531.962369
418.933121	2532.751310
419.312428	2530.109745
419.691674	2532.635363
420.070859	2534.966897
420.449983	2529.600588
420.829045	2528.872142
421.208047	2533.086546
421.586988	2531.506145
421.965867	2534.523275
422.344686	2531.891793
422.723444	2533.038655
423.102141	2533.484798
423.480777	2533.880528
423.859352	2533.941022
424.237866	2534.989582
424.616319	2531.992616
424.994712	2536.378420
425.373044	2536.161650
425.751314	2534.719880
426.129524	2532.930271
426.507673	2534.750127
426.885762	2536.060827
427.263789	2536.794315
427.641756	2534.114942
428.019662	2537.018646
428.397508	2536.312885
428.775292	2536.592669
429.153016	2535.954963
429.530679	2535.735673
429.908282	2533.951104
430.285824	2537.827752
430.663305	2531.732997
431.040726	2534.263656
431.418086	2537.162319
431.795385	2538.208359
432.172624	2536.476722
432.549802	2536.121321
432.926920	2536.822041
433.303977	2536.852288
433.680974	2537.119469
434.057910	2538.241126
434.434786	2537.873122
434.811601	2540.267670
435.188355	2536.411187
435.565050	2537.825231
435.941683	2537.777340
436.318257	2535.216434
436.694770	2533.948584
437.071222	2534.493028
437.447614	2534.198121
437.823946	2534.044366
438.200218	2541.064172
438.576429	2537.220292
438.952580	2537.530323
439.328670	2537.278266
439.704700	2539.829090
440.080670	2538.480581
440.456580	2535.090405
440.832429	2538.989737
441.208218	2538.906558
441.583947	2539.115766
441.959616	2538.220962
442.335224	2541.938813
442.710773	2538.430169
443.086261	2540.058462
443.461689	2537.918492
443.837057	2543.153731
444.212365	2538.634336
444.587612	2539.970242
444.962800	2540.076106
445.337927	2539.206507
445.712995	2539.566950
446.088002	2540.282793
446.462949	2538.576363
446.837837	2539.952598
447.212664	2540.456713
447.587431	2540.958308
447.962139	2539.287166
448.336786	2541.812784
448.711374	2537.903369
449.085901	2542.110212
449.460369	2542.427804
449.834776	2541.338915
450.209124	2536.338091
450.583412	2542.155582
450.957640	2539.788760
451.331808	2541.752290
451.705917	2539.836651
452.079965	2544.477033
452.453954	2542.130376
452.827883	2543.478885
453.201752	2543.027702
453.575562	2543.506611
453.949311	2542.168185
454.323001	2539.829090
454.696632	2541.351518
455.070202	2542.770603
455.443713	2541.918648
455.817164	2539.937474
456.190556	2536.880015
456.563888	2540.343287
456.937160	2537.847916
457.310373	2543.267157
457.683526	2542.415202
458.056619	2544.212373
458.429653	2541.936292
458.802628	2544.683721
459.175542	2541.913607
459.548398	2543.751107
459.921194	2543.352856
460.293930	2543.670449
460.666607	2541.356559
461.039224	2539.277083
461.411782	2541.863195
461.784280	2543.413350
462.156719	2543.539379
462.529099	2542.442928
462.901419	2542.851261
463.273680	2545.195398
463.645882	2545.144986
464.018024	2543.284801
464.390106	2546.576674
464.762130	2543.894780
465.134094	2541.510314
465.505999	2545.071890
465.877845	2545.777651
466.249631	2543.133566
466.621358	2545.893598
466.993026	2547.153886
467.364634	2546.997610
467.736184	2544.839997
468.107674	2545.439894
468.479105	2548.325954
468.850477	2546.160779
469.221790	2544.227496
469.593043	2542.135418
469.964238	2543.746066
470.335373	2546.415357
470.706449	2545.883515
471.077467	2544.005686
471.448425	2546.062476
471.819324	2546.690100
472.190164	2546.150697
472.560945	2546.165820
472.931667	2544.678680
473.302330	2547.405944
473.672934	2546.682538
474.043479	2544.741694
474.413965	2546.816129
474.784393	2540.222300
475.154761	2543.463762
475.525070	2539.161137
475.895321	2543.660367
476.265513	2542.430325
476.635645	2544.111550
477.005719	2545.636499
477.375734	2546.470810
477.745691	2545.500388
478.115588	2547.310162
478.485427	2547.320244
478.855207	2545.760007
479.224928	2546.490974
479.594591	2546.150697
479.964194	2546.680018
480.333739	2547.252189
480.703226	2547.479041
481.072653	2544.860161
481.442022	2546.110367
481.811333	2549.424926
482.180584	2547.463917
482.549777	2548.963660
482.918912	2547.917621
483.287988	2548.885522
483.657005	2546.178423
484.025964	2548.146993
484.394864	2550.481048
484.763706	2546.755635
485.132489	2547.940306
485.501213	2550.397869
485.869879	2548.416695
486.238487	2546.191026
486.607036	2547.489123
486.975527	2547.847045
487.343959	2546.380069
487.712333	2546.427960
488.080648	2546.158258
488.448905	2548.091541
488.817104	2547.247147
489.185244	2545.192877
489.553326	2550.135729
489.921350	2547.698331
490.289315	2550.191181
490.657222	2551.453990
491.025070	2549.785368
491.392861	2552.426933
491.760593	2547.942827
492.128267	2548.910728
492.495883	2548.305790
492.863440	2549.571119
493.230939	2549.397200
493.598380	2550.957437
493.965763	2544.182126
494.333088	2545.455017
494.700354	2544.356046
495.067563	2544.587939
495.434713	2548.220090
495.801805	2549.187992
496.168839	2547.345450
496.535815	2550.644885
496.902733	2548.699000
497.269593	2548.663712
497.636395	2551.602704
498.003139	2547.433670
498.369825	2549.026675
498.736453	2547.826880
499.103023	2548.207487
499.469535	2548.583053
499.835989	2550.483568
500.202385	2547.045501
500.568723	2549.233362
500.935003	2551.610266
501.301226	2550.881819
501.667390	2550.959957
502.033497	2552.270657
502.399546	2550.309648
502.765537	2551.214536
503.131470	2549.843342
503.497345	2547.247147
503.863163	2550.831408
504.228923	2551.877447
504.594625	2552.361398
504.960269	2549.528270
505.325856	2551.133877
505.691385	2549.971891
506.056856	2550.985163
506.422270	2551.141439
506.787625	2549.482899
507.152924	2551.552293
507.518164	2548.419216
507.883347	2549.124977
508.248472	2549.530790
508.613540	2549.225800
508.978550	2552.429454
509.343503	2553.455328
509.708398	2551.879968
510.073236	2549.714792
510.438016	2552.560524
510.802738	2552.187478
511.167403	2550.947354
511.532010	2550.589433
511.896561	2550.405430
512.261053	2553.558672
512.625488	2545.886036
512.989866	2547.166489
513.354186	2553.160421
513.718449	2544.179605
514.082655	2549.699669
514.446803	2552.868034
514.810894	2554.629917
515.174927	2552.999104
515.538904	2553.455328
515.902822	2552.880637
516.266684	2549.079607
516.630488	2552.220246
516.994235	2551.007848
517.357925	2550.418033
517.721558	2553.543549
518.085133	2556.543035
518.448651	2555.373487
518.812112	2552.805020
519.175516	2550.866696
519.538863	2553.162942
519.902152	2550.377704
520.265385	2552.119423
520.628560	2552.835267
520.991678	2551.648075
521.354739	2550.919628
521.717743	2551.290153
522.080690	2555.151677
522.443580	2552.744526
522.806413	2553.793086
523.169189	2551.930379
523.531908	2552.772252
523.894569	2554.856769
524.257174	2553.951882
524.619722	2557.044630
524.982213	2555.297870
525.344647	2554.410627
525.707025	2555.000442
526.069345	2553.188147
526.431608	2554.619835
526.793815	2553.780483
527.155964	2556.157387
527.518057	2554.995401
527.880093	2558.292316
528.242072	2553.861141
528.603995	2555.955741
528.965860	2554.372818
529.327669	2557.422717
529.689421	2556.598488
530.051117	2557.619322
530.412755	2555.108827
530.774337	2557.198385
531.135862	2559.882800
531.497331	2552.666388
531.858743	2551.695966
532.220098	2557.271482
532.581396	2553.029351
532.942638	2557.006821
533.303824	2558.556976
533.664953	2558.932542
534.026025	2558.635114
534.387040	2559.562686
534.747999	2558.466235
535.108902	2563.900599
535.469748	2558.927501
535.830537	2558.335165
536.191270	2560.485217
536.551947	2561.584189
536.912567	2561.231308
537.273131	2561.206102
537.633638	2561.120403
537.994089	2559.449260
538.354483	2561.511092
538.714821	2561.364899
539.075103	2561.097718
539.435328	2563.116700
539.795497	2561.856411
540.155609	2561.168294
540.515665	2562.872204
540.875665	2561.972358
541.235609	2562.731052
541.595496	2563.598130
541.955328	2562.473953
542.315102	2565.279355
542.674821	2565.370096
543.034483	2562.174004
543.394090	2562.615105
543.753640	2565.785991
544.113134	2567.038718
544.472571	2564.298850
544.831953	2566.902606
545.191278	2565.387740
545.550548	2562.534447
545.909761	2563.575445
546.268918	2562.053016
546.628019	2563.242729
546.987064	2567.983934
547.346053	2566.902606
547.704986	2565.289437
548.063863	2564.833213
548.422684	2565.808676
548.781449	2566.017884
549.140158	2567.676423
549.498811	2567.681465
549.857408	2567.542833
550.215949	2563.051165
550.574434	2563.570404
550.932864	2568.636763
551.291237	2562.799107
551.649555	2566.262380
552.007817	2566.854715
552.366022	2568.533420
552.724173	2566.706001
553.082267	2569.917216
553.440305	2565.816238
553.798288	2566.597617
554.156215	2567.794891
554.514086	2569.110632
554.871902	2564.205589
555.229661	2567.484860
555.587365	2570.171795
555.945014	2567.983934
556.302606	2567.000909
556.660143	2566.615261
557.017625	2565.559139
557.375050	2569.221537
557.732421	2567.149623
558.089735	2567.210117
558.446994	2567.079047
558.804197	2568.851012
559.161345	2567.691547
559.518437	2568.689695
559.875474	2568.082236
560.232455	2567.356310
560.589381	2565.644838
560.946251	2567.527709
561.303065	2566.955538
561.659825	2563.787173
562.016528	2565.357493
562.373177	2564.240877
562.729770	2567.804973
563.086307	2567.003429
563.442789	2566.348079
563.799216	2570.023081
564.155587	2568.810683
564.511904	2565.975034
564.868164	2566.365723
565.224370	2566.267421
565.580520	2566.940415
565.936615	2565.112997
566.292654	2567.394119
566.648638	2565.450754
567.004567	2568.172977
567.360441	2566.942936
567.716260	2564.911351
568.072023	2566.670713
568.427732	2559.313149
568.783385	2559.953376
569.138982	2561.165773
569.494525	2560.535629
569.850013	2560.580999
570.205445	2566.564849
570.560823	2562.287430
570.916145	2566.353121
571.271412	2565.735579
571.626625	2566.365723
571.981782	2562.345403
572.336884	2564.903789
572.691931	2564.699622
573.046923	2565.904458
573.401860	2565.833882
573.756743	2564.019066
574.111570	2564.003943
574.466342	2564.356824
574.821059	2564.802966
575.175722	2563.923284
575.530330	2563.310784
575.884882	2563.280537
576.239380	2562.950342
576.593823	2564.946639
576.948211	2564.465208
577.302544	2563.545198
577.656823	2562.738613
578.011047	2566.718604
578.365216	2562.521844
578.719330	2563.421690
579.073389	2565.138203
579.427394	2562.463870
579.781344	2564.913871
580.135239	2564.470250
580.489080	2562.305074
580.842866	2564.046793
581.196597	2567.220199
581.550273	2563.220043
581.903895	2564.823130
582.257463	2560.523026
582.610975	2564.311453
582.964434	2563.320867
583.317837	2564.593758
583.671186	2564.828172
584.024481	2560.457491
584.377721	2564.533264
584.730906	2564.823130
585.084037	2565.629715
585.437113	2563.048644
585.790135	2566.033007
586.143103	2563.335990
586.496016	2565.027297
586.848874	2558.141081
587.201679	2563.358675
587.554428	2561.203582
587.907124	2563.298181
588.259765	2560.943962
588.612352	2564.319015
588.964884	2564.760116
589.317362	2564.235836
589.669786	2563.774570
590.022155	2568.293965
590.374470	2565.884293
590.726731	2564.893707
591.078937	2562.652914
591.431090	2566.252297
591.783188	2562.947821
592.135232	2565.997719
592.487222	2563.860270
592.839157	2562.433623
593.191038	2565.213820
593.542866	2565.135682
593.894639	2565.912020
594.246358	2565.581824
594.598022	2565.380178
594.949633	2564.981927
595.301190	2564.472770
595.652692	2567.121897
596.004141	2567.273131
596.355535	2567.142061
596.706876	2567.822617
597.058162	2561.475804
597.409395	2564.878583
597.760573	2567.867987
598.111698	2565.513768
598.462768	2567.409242
598.813785	2565.871690
599.164748	2565.080229
599.515657	2568.921588
599.866511	2567.119376
600.217312	2569.090467
600.568060	2565.695250
600.918753	2568.137689
601.269392	2568.498132
601.619978	2566.789180
601.970510	2570.696075
602.320988	2569.589541
602.671412	2567.734397
603.021783	2565.785991
603.372100	2570.078533
603.722363	2571.263204
604.072572	2569.428224
604.422728	2570.418811
604.772830	2568.639284
605.122878	2564.616443
605.472872	2567.373954
605.822813	2564.233315
606.172701	2572.273956
606.522534	2571.795046
606.872314	2574.426528
607.222041	2574.678586
607.571714	2574.166909
607.921333	2573.637588
608.270899	2575.953998
608.620411	2574.749162
608.969870	2578.991293
609.319276	2577.945254
609.668627	2578.961046
610.017926	2581.728640
610.367171	2586.064032
610.716362	2584.776017
611.065500	2581.045563
611.414585	2583.404823
611.763616	2583.155286
612.112594	2583.745101
612.461518	2585.665781
612.810389	2584.405492
613.159207	2585.638055
613.507971	2581.484144
613.856682	2586.535380
614.205340	2585.406162
614.553945	2589.474373
614.902496	2588.582088
615.250994	2589.517222
615.599439	2589.552511
615.947830	2593.466967
616.296169	2590.923704
616.644454	2595.397728
616.992686	2594.061823
617.340864	2599.150867
617.688990	2596.219437
618.037063	2597.900661
618.385082	2599.710436
618.733048	2604.948194
619.080961	2605.079264
619.428821	2607.998092
619.776628	2611.214349
620.124382	2611.652929
620.472083	2613.122425
620.819731	2613.286263
621.167326	2612.560337
621.514868	2611.884822
621.862357	2611.584873
622.209793	2613.611417
622.557176	2614.831377
622.904506	2614.602004
623.251783	2612.252826
623.599007	2615.718620
623.946179	2613.656788
624.293297	2616.678959
624.640363	2619.554938
624.987376	2621.904115
625.334336	2621.097531
625.681243	2624.593571
626.028097	2625.816051
626.374899	2627.945938
626.721647	2628.659262
627.068343	2627.882924
627.414987	2630.514406
627.761577	2633.816362
628.108115	2634.479274
628.454600	2635.832823
628.801032	2642.668628
629.147412	2639.701909
629.493739	2647.127529
629.840014	2648.110554
630.186236	2652.153559
630.532405	2650.313538
630.878521	2653.474341
631.224585	2657.293015
631.570597	2658.575989
631.916556	2665.091680
632.262462	2666.321722
632.608316	2673.253308
632.954117	2672.610561
633.299866	2674.304389
633.645562	2676.106602
633.991206	2679.804288
634.336797	2679.022909
634.682336	2680.094154
635.027823	2679.668177
635.373257	2684.001048
635.718639	2681.266222
636.063968	2686.173786
636.409245	2684.600946
636.754470	2688.477593
637.099642	2688.706966
637.444762	2688.908612
637.789829	2696.407328
638.134845	2698.958152
638.479808	2698.580065
638.824719	2704.243802
639.169577	2701.463605
639.514383	2705.972917
639.859137	2705.688092
640.203839	2710.736808
640.548489	2716.115719
640.893086	2715.586398
641.237632	2716.904660
641.582125	2719.924311
641.926566	2724.022769
642.270955	2728.101062
642.615292	2736.282855
642.959576	2741.729822
643.303809	2743.040522
643.647990	2748.716861
643.992118	2752.036461
644.336195	2750.788775
644.680219	2759.152049
645.024192	2762.358223
645.368112	2773.330295
645.711981	2778.111829
646.055797	2788.733540
646.399562	2796.506999
646.743274	2817.576502
647.086935	2824.107317
647.430544	2826.254848
647.774101	2837.481498
648.117606	2842.263032
648.461059	2843.833352
648.804460	2852.161338
649.147810	2842.603310
649.491108	2847.382324
649.834354	2851.150587
650.177548	2849.255113
650.520690	2849.786954
650.863781	2850.170082
651.206820	2860.701053
651.549807	2855.120495
651.892742	2855.637213
652.235626	2859.881865
652.578458	2864.376054
652.921238	2862.606609
653.263967	2871.627753
653.606644	2868.557691
653.949269	2877.725029
654.291843	2874.523896
654.634365	2884.664177
654.976836	2891.252965
655.319255	2890.635424
655.661622	2897.188924
656.003938	2906.421797
656.346203	2901.355438
656.688416	2912.816501
657.030577	2907.732497
657.372687	2914.772469
657.714746	2916.385638
658.056753	2925.013573
658.398708	2925.474838
658.740612	2924.204468
659.082465	2940.741973
659.424266	2943.446552
659.766016	2948.437294
660.107715	2959.868110
660.449362	2964.236270
660.790958	2969.113587
661.132503	2976.607262
661.473996	2989.641165
661.815438	2990.651916
662.156829	2994.158039
662.498168	3000.401508
662.839456	2995.206599
663.180693	3011.698734
663.521879	3012.109588
663.863013	3017.244003
664.204097	3040.168650
664.545129	3044.282232
664.886110	3053.182389
665.227040	3068.590675
665.567918	3064.567835
665.908746	3079.197263
666.249522	3083.779672
666.590248	3087.222780
666.930922	3100.067640
667.271545	3111.425360
667.612118	3117.797378
667.952639	3113.214969
668.293109	3135.322949
668.633528	3128.890437
668.973896	3130.866569
669.314213	3137.657004
669.654480	3148.117398
669.994695	3146.897439
670.334859	3147.542706
670.674973	3162.338493
671.015035	3167.349400
671.355047	3172.899710
671.695008	3177.366172
672.034918	3174.046573
672.374777	3188.983512
672.714585	3192.245138
673.054342	3198.980120
673.394049	3206.887169
673.733705	3222.280333
674.073310	3234.943711
674.412864	3216.780434
674.752368	3234.222826
675.091820	3239.410173
675.431223	3224.553893
675.770574	3238.596027
676.109875	3228.705283
676.449125	3238.051582
676.788324	3235.578897
677.127473	3230.386508
677.466571	3234.923547
677.805619	3243.140627
678.144616	3252.759149
678.483562	3249.159765
678.822458	3249.563057
679.161303	3254.735281
679.500098	3259.794079
679.838842	3255.504057
680.177535	3270.022580
680.516179	3275.756893
680.854771	3286.814664
681.193314	3315.319868
681.531805	3345.052593
681.870247	3401.460584
682.208638	3432.667847
682.546978	3440.774023
682.885268	3443.834003
683.223508	3428.793721
683.561697	3421.544541
683.899836	3421.635282
684.237925	3419.880961
684.575963	3410.751431
684.913951	3404.848240
685.251889	3442.951801
685.589776	3427.193154
685.927614	3422.822474
686.265401	3457.924028
686.603137	3455.358081
686.940824	3492.372753
687.278460	3503.120493
687.616046	3512.633150
687.953582	3536.472767
688.291068	3533.984957
688.628504	3576.086154
688.965889	3561.988567
689.303224	3547.601114
689.640510	3544.304199
689.977745	3528.243083
690.314930	3501.945904
690.652065	3491.132629
690.989150	3463.648258
691.326185	3450.879016
691.663170	3446.485650
692.000105	3420.674942
692.336990	3401.261459
692.673825	3409.465937
693.010610	3387.078173
693.347345	3355.354191
693.684030	3376.781616
694.020665	3364.108155
694.357251	3330.975171
694.693786	3347.646267
695.030272	3340.588652
695.366707	3332.147240
695.703093	3327.476611
696.039429	3338.463805
696.375716	3347.288345
696.711952	3335.827282
697.048139	3333.868794
697.384276	3330.720593
697.720363	3343.683920
698.056400	3359.331662
698.392388	3340.739886
698.728326	3337.248887
699.064214	3330.697908
699.400053	3336.535564
699.735842	3335.335769
700.071581	3327.088442
700.407270	3320.852534
700.742910	3318.241217
701.078501	3297.557363
701.414042	3309.146975
701.749533	3305.378713
702.084974	3270.471243
702.420366	3308.335349
702.755709	3288.095117
703.091002	3263.406066
703.426246	3301.086170
703.761440	3273.732869
704.096584	3262.163421
704.431679	3280.684621
704.766725	3280.750156
705.101721	3281.370217
705.436668	3300.629946
705.771565	3271.862601
706.106413	3290.887916
706.441212	3316.570074
706.775961	3325.508040
707.110661	3304.761171
707.445311	3319.987977
707.779913	3346.156606
708.114465	3350.048377
708.448967	3355.200436
708.783421	3392.086559
709.117825	3414.139086
709.452180	3412.523397
709.786485	3434.326387
710.120742	3480.415136
710.454949	3469.939618
710.789107	3504.111080
711.123216	3539.338663
711.457275	3532.555790
711.791286	3574.384764
712.125247	3590.113164
712.459159	3534.060575
712.793023	3567.934608
713.126837	3580.469437
713.460602	3578.573963
713.794318	3530.839277
714.127985	3551.218142
714.461602	3519.657998
714.795171	3506.253570
715.128691	3481.990497
715.462162	3462.322435
715.795584	3444.766617
716.128957	3444.741411
716.462281	3419.991866
716.795556	3414.665887
717.128782	3402.839340
717.461960	3375.042418
717.795088	3385.046588
718.128167	3367.889020
718.461198	3336.606140
718.794180	3339.577900
719.127113	3339.855164
719.459997	3328.290757
719.792833	3312.821976
720.125619	3305.971048
720.458357	3295.487969
720.791046	3302.913588
721.123686	3288.931948
721.456278	3267.300357
721.788821	3279.688993
722.121315	3272.626336
722.453761	3253.255702
722.786158	3269.221037
723.118506	3287.699386
723.450805	3255.632607
723.783056	3268.346397
724.115259	3291.248358
724.447412	3295.230870
724.779518	3286.970939
725.111574	3291.427319
725.443582	3313.520176
725.775542	3308.118580
726.107453	3334.519103
726.439315	3338.841892
726.771129	3344.767768
727.102895	3362.220243
727.434612	3394.791138
727.766281	3403.575348
728.097901	3399.313053
728.429473	3404.820513
728.760996	3415.651433
729.092471	3410.723705
729.423897	3409.728077
729.755276	3425.736261
730.086606	3420.485899
730.417887	3438.011470
730.749120	3481.272132
731.080305	3527.474307
731.411442	3544.732697
731.742530	3522.370139
732.073570	3529.828526
732.404562	3572.184301
732.735506	3566.313877
733.066401	3541.743293
733.397249	3514.067358
733.728048	3476.672079
734.058798	3439.387705
734.389501	3405.163312
734.720156	3365.713763
735.050762	3345.685258
735.381320	3351.969057
735.711831	3315.912204
736.042293	3300.753454
736.372707	3320.812205
736.703073	3304.574649
737.033391	3294.315901
737.363661	3310.563539
737.693883	3332.623629
738.024056	3335.199658
738.354182	3326.773370
738.684260	3370.999412
739.014290	3380.418808
739.344272	3374.255998
739.674207	3402.317581
740.004093	3405.712798
740.333931	3402.635173
740.663722	3407.313364
740.993464	3407.648601
741.323159	3393.886251
741.652806	3383.723285
741.982405	3369.030842
742.311956	3356.312011
742.641460	3355.497864
742.970915	3344.664425
743.300323	3320.184582
743.629683	3300.128351
743.958996	3296.476035
744.288260	3290.466980
744.617477	3268.885800
744.946647	3261.813061
745.275768	3247.854106
745.604842	3252.504571
745.933869	3216.984601
746.262847	3217.138356
746.591778	3251.972729
746.920662	3230.696539
747.249498	3206.115873
747.578286	3246.414857
747.907027	3255.839294
748.235720	3245.026019
748.564365	3269.079884
748.892963	3275.784619
749.221514	3259.239552
749.550017	3243.979979
749.878473	3246.800505
750.206881	3226.991291
750.535242	3227.883575
750.863555	3231.785428
751.191821	3231.556056
751.520039	3215.036195
751.848210	3202.461036
752.176334	3232.927250
752.504411	3238.074268
752.832440	3209.332129
753.160421	3192.570292
753.488356	3206.239381
753.816243	3218.955692
754.144082	3182.359435
754.471875	3174.265863
754.799620	3193.760005
755.127318	3187.342616
755.454969	3186.757842
755.782572	3193.399562
756.110129	3174.528003
756.437638	3169.466684
756.765100	3184.128880
757.092515	3189.933769
757.419882	3197.664378
757.747203	3174.953980
758.074477	3177.330884
758.401703	3192.192206
758.728882	3207.023281
759.056014	3213.498643
759.383099	3213.080227
759.710138	3207.282900
760.037129	3221.650188
760.364073	3252.877616
760.690970	3238.366655
761.017820	3222.280333
761.344623	3238.596027
761.671379	3273.964762
761.998088	3316.005465
762.324751	3407.802356
762.651366	3577.681679
762.977935	3890.109709
763.304456	4201.060681
763.630931	4287.113177
763.957359	4038.135630
764.283740	3806.822286
764.610074	3683.472813
764.936362	3543.084240
765.262602	3423.760128
765.588796	3347.026205
765.914943	3284.772996
766.241044	3219.711865
766.567097	3204.366592
766.893104	3170.394257
767.219064	3146.935247
767.544978	3129.475211
767.870845	3086.874940
768.196665	3073.057138
768.522438	3084.777820
768.848165	3083.141966
769.173846	3053.260527
769.499479	3038.610933
769.825066	3031.409645
770.150607	3016.472706
770.476101	3035.568597
770.801548	3035.278731
771.126949	2995.919922
771.452303	2982.316368
771.777611	2993.389263
772.102872	2997.162567
772.428087	2977.280256
772.753256	2972.712970
773.078378	2966.136785
773.403453	2939.811880
773.728482	2933.029007
774.053465	2950.647840
774.378401	2940.356324
774.703291	2916.786410
775.028135	2917.146852
775.352932	2915.606780
775.677683	2905.743762
776.002388	2905.274935
776.327046	2906.593197
776.651658	2896.732700
776.976224	2889.720455
777.300743	2889.995198
777.625216	2881.894063
777.949643	2877.049514
778.274024	2879.073538
778.598359	2874.221427
778.922647	2875.945502
779.246889	2876.071531
779.571086	2864.857484
779.895236	2857.015969
780.219339	2865.348996
780.543397	2877.967004
780.867409	2880.676625
781.191374	2873.399719
781.515294	2873.124976
781.839167	2873.099770
782.162995	2867.632639
782.486776	2876.116901
782.810511	2878.108157
783.134201	2864.706249
783.457844	2873.745038
783.781441	2863.952597
784.104993	2846.802591
784.428498	2852.131091
784.751958	2863.045189
785.075372	2855.357429
785.398739	2843.984586
785.722061	2859.584437
786.045337	2866.884028
786.368568	2855.533870
786.691752	2847.352077
787.014891	2890.743809
787.337983	2911.266346
787.661030	2928.847370
787.984031	2983.538848
788.306987	3024.853625
788.629897	3020.021679
788.952760	3007.849813
789.275579	2996.325735
789.598351	2953.100361
789.921078	2914.404464
790.243759	2910.124525
790.566395	2893.634911
790.888984	2872.787219
791.211529	2865.837988
791.534027	2856.884899
791.856480	2847.188240
792.178888	2835.664162
792.501249	2827.386587
792.823566	2827.353820
793.145836	2822.549600
793.468062	2820.616318
793.790241	2819.918118
794.112375	2825.491113
794.434464	2834.396312
794.756507	2841.259843
795.078505	2843.278825
795.400457	2851.937007
795.722364	2883.141749
796.044226	2904.533885
796.366042	2902.782084
796.687812	2895.427041
797.009538	2914.349012
797.331218	2908.188722
797.652852	2890.819426
797.974442	2879.030688
798.295986	2876.613455
798.617484	2876.094216
798.938938	2860.416227
799.260346	2848.032633
799.581709	2844.357632
799.903026	2838.479646
800.224299	2833.998061
800.545526	2826.499344
800.866708	2812.943682
801.187845	2803.730973
801.508936	2805.071920
801.829983	2814.367807
802.150984	2799.950107
802.471940	2788.375618
802.792851	2789.633386
803.113717	2791.458284
803.434538	2793.736885
803.755314	2788.352933
804.076045	2780.554268
804.396731	2782.059052
804.717372	2781.305400
805.037967	2779.011675
805.358518	2783.243724
805.679024	2795.743265
805.999485	2791.097841
806.319901	2792.831998
806.640272	2785.159362
806.960598	2790.049281
807.280879	2799.831640
807.601115	2803.937660
807.921306	2794.677061
808.241453	2789.648510
808.561554	2798.125210
808.881611	2799.239305
809.201623	2794.326700
809.521590	2795.360137
809.841513	2791.158335
810.161390	2793.774694
810.481223	2790.472738
810.801011	2781.285235
811.120755	2776.475975
811.440453	2783.168106
811.760107	2781.154165
812.079716	2781.370935
812.399281	2771.696961
812.718801	2763.258069
813.038276	2761.642379
813.357707	2767.376692
813.677093	2774.325922
813.996434	2767.573297
814.315731	2766.129006
814.634983	2759.976278
814.954191	2762.748913
815.273354	2776.712909
815.592473	2781.915380
815.911547	2785.257665
816.230577	2792.804272
816.549562	2798.906589
816.868502	2795.949952
817.187399	2805.757517
817.506250	2823.925835
817.825058	2815.930565
818.143821	2828.155363
818.462539	2841.274966
818.781213	2865.356558
819.099843	2896.984757
819.418429	2946.753549
819.736970	3001.417300
820.055466	3066.244018
820.373919	3161.831857
820.692327	3286.981022
821.010691	3430.164914
821.329011	3807.565856
821.647286	4532.841701
821.965517	5626.391478
822.283704	6208.274223
822.601847	6217.592796
822.919945	5739.338530
823.237999	5364.498495
823.556010	4888.364035
823.873976	4425.160134
824.191897	4080.337649
824.509775	3831.201306
824.827609	3596.487703
825.145398	3489.809326
825.463144	3483.797750
825.780845	3565.983681
826.098502	3653.014161
826.416116	3899.224115
826.733685	4164.814785
827.051210	4217.502404
827.368692	4127.648878
827.686129	3900.660844
828.003522	3614.870271
828.320872	3389.442474
828.638177	3215.832697
828.955439	3100.327259
829.272656	3026.658358
829.589830	2968.223823
829.906960	2923.279416
830.224046	2884.646533
830.541088	2856.758870
830.858086	2843.079699
831.175041	2827.379026
831.491952	2826.532112
831.808819	2840.455779
832.125642	2863.776156
832.442421	2904.690161
832.759157	2972.798670
833.075849	3134.637352
833.392497	3383.874519
833.709101	3564.496541
834.025662	3514.102647
834.342179	3372.874722
834.658653	3220.125239
834.975083	3084.124991
835.291469	3002.370078
835.607811	2926.437699
835.924110	2873.666900
836.240366	2829.062771
836.556578	2790.533232
836.872746	2769.698143
837.188871	2748.479927
837.504952	2734.039542
837.820990	2727.314642
838.136984	2715.689742
838.452935	2707.689430
838.768842	2707.621375
839.084706	2723.130485
839.400526	2793.298305
839.716303	2913.229876
840.032037	2978.177581
840.347727	2967.694502
840.663373	2914.475041
840.978977	2849.398786
841.294537	2782.238013
841.610054	2742.856520
841.925527	2723.369939
842.240957	2704.069882
842.556344	2684.686645
842.871687	2670.299192
843.186987	2661.222595
843.502244	2656.436019
843.817458	2652.297232
844.132629	2639.744759
844.447756	2632.447689
844.762840	2627.764457
845.077881	2629.584313
845.392879	2629.813686
845.707833	2624.643982
846.022745	2616.782303
846.337613	2622.251955
846.652438	2619.499485
846.967221	2619.927983
847.281960	2618.932355
847.596656	2615.587550
847.911309	2616.431943
848.225919	2613.165275
848.540485	2612.303238
848.855009	2612.487240
849.169490	2612.411623
849.483928	2612.396499
849.798323	2613.417333
850.112675	2608.275356
850.426984	2607.884667
850.741251	2606.503390
851.055474	2609.228134
851.369654	2612.353649
851.683792	2613.074534
851.997887	2610.130501
852.311938	2607.851899
852.625947	2610.223762
852.939914	2611.693258
853.253837	2611.675614
853.567718	2608.275356
853.881555	2608.383741
854.195350	2610.085130
854.509103	2611.816767
854.822812	2607.297372
855.136479	2606.468102
855.450103	2607.846858
855.763685	2611.839452
856.077224	2608.497167
856.390720	2606.208483
856.704173	2608.875253
857.017584	2611.632764
857.330953	2612.663680
857.644278	2615.574947
857.957561	2613.056890
858.270802	2610.710233
858.584000	2610.432970
858.897155	2614.896912
859.210268	2615.703496
859.523339	2610.422887
859.836367	2607.360387
860.149352	2605.744697
860.462295	2609.197887
860.775195	2607.110849
861.088054	2603.380396
861.400869	2604.454161
861.713642	2601.938626
862.026373	2603.697988
862.339062	2607.962804
862.651708	2612.104112
862.964312	2612.353649
863.276873	2611.816767
863.589392	2612.295676
863.901869	2614.065121
864.214303	2622.748509
864.526696	2625.044754
864.839045	2622.471245
865.151353	2626.907461
865.463619	2627.474590
865.775842	2628.755043
866.088023	2628.082049
866.400162	2629.506175
866.712258	2628.150105
867.024313	2626.050464
867.336325	2621.697428
867.648296	2624.114661
867.960224	2630.090949
868.272110	2627.106586
868.583954	2622.130967
868.895755	2624.076853
869.207515	2628.417286
869.519233	2636.294089
869.830909	2631.467184
870.142542	2628.223202
870.454134	2625.569034
870.765684	2634.126393
871.077191	2632.987092
871.388657	2636.800725
871.700081	2635.366517
872.011463	2636.382309
872.322803	2638.141672
872.634101	2641.254584
872.945357	2646.671304
873.256571	2652.060298
873.567744	2649.847231
873.878874	2644.392703
874.189963	2644.866571
874.501010	2653.000473
874.812015	2658.913746
875.122979	2656.138591
875.433900	2650.308497
875.744780	2646.288177
876.055618	2654.500216
876.366415	2657.406441
876.677169	2660.020280
876.987882	2653.494506
877.298554	2651.110040
877.609183	2660.053047
877.919771	2665.162257
878.230317	2672.401353
878.540822	2683.355781
878.851285	2694.479087
879.161707	2718.119578
879.472087	2750.902201
879.782425	2793.338634
880.092722	2898.839902
880.402977	3069.157805
880.713191	3299.853608
881.023363	3544.097512
881.333494	3701.908312
881.643583	3857.836242
881.953631	3866.373436
882.263637	3707.667831
882.573602	3516.207328
882.883526	3402.970410
883.193408	3306.311326
883.503248	3218.151628
883.813048	3112.753704
884.122806	3009.407529
884.432522	2933.817948
884.742197	2877.099926
885.051831	2841.534586
885.361424	2813.248671
885.670975	2781.575102
885.980485	2750.811460
886.289954	2735.536764
886.599382	2723.621997
886.908768	2716.753425
887.218113	2699.888245
887.527417	2685.190761
887.836680	2679.413598
888.145901	2674.286745
888.455082	2665.976403
888.764221	2653.950730
889.073319	2649.632982
889.382376	2647.543424
889.691392	2647.543424
890.000366	2649.590132
890.309300	2647.561068
890.618193	2651.755308
890.927044	2652.151038
891.235855	2652.410658
891.544625	2649.801861
891.853353	2649.214566
892.162041	2658.936432
892.470687	2677.896211
892.779293	2687.250072
893.087858	2693.501103
893.396381	2715.261243
893.704864	2752.248189
894.013306	2814.609783
894.321707	2902.265366
894.630068	2943.968311
894.938387	2961.236784
895.246665	2956.336782
895.554903	2916.100813
895.863100	2878.763507
896.171256	2826.320383
896.479371	2767.159922
896.787446	2733.759757
897.095480	2718.621172
897.403473	2713.514484
897.711425	2699.149716
898.019336	2682.765966
898.327207	2669.848009
898.635038	2669.500169
898.942827	2665.447082
899.250576	2658.507933
899.558284	2645.143835
899.865952	2644.561581
900.173579	2644.538896
900.481165	2640.231230
900.788711	2634.068420
901.096216	2626.191617
901.403681	2624.283540
901.711105	2626.446195
902.018489	2624.389404
902.325832	2627.444343
902.633135	2625.357306
902.940397	2641.554533
903.247619	2673.399502
903.554800	2737.099522
903.861941	2851.563961
904.169041	2961.075467
904.476101	3015.615710
904.783121	3013.195956
905.090100	2961.703090
905.397039	2889.349930
905.703938	2825.155877
906.010796	2772.823659
906.317614	2724.176524
906.624391	2692.772656
906.931129	2669.855571
907.237826	2649.285142
907.544483	2632.508182
907.851099	2618.755915
908.157675	2611.002620
908.464211	2603.705550
908.770707	2595.385126
909.077163	2594.757502
909.383578	2587.326841
909.689954	2590.255752
909.996289	2584.670153
910.302584	2585.244845
910.608839	2582.971284
910.915054	2583.997159
911.221229	2585.897674
911.527363	2589.008066
911.833458	2587.989753
912.139513	2587.503282
912.445527	2589.151739
912.751502	2592.284816
913.057436	2597.293202
913.363331	2603.173708
913.669186	2613.296345
913.975000	2626.244549
914.280775	2640.412712
914.586510	2655.929383
914.892205	2687.378622
915.197859	2751.393714
915.503475	2825.894406
915.809050	2884.606204
916.114585	2895.079201
916.420081	2904.634708
916.725536	2914.296080
917.030952	2895.638769
917.336328	2850.142356
917.641665	2805.989410
917.946961	2760.704725
918.252218	2730.946794
918.557435	2710.033567
918.862612	2689.206040
919.167750	2677.772703
919.472848	2659.803510
919.777906	2643.495377
920.082925	2632.523306
920.387904	2625.029631
920.692843	2621.994856
920.997743	2618.284567
921.302603	2613.404730
921.607423	2603.140941
921.912204	2599.445775
922.216946	2597.653645
922.521647	2595.667430
922.826310	2593.464446
923.130932	2586.522777
923.435516	2580.886767
923.740059	2580.501119
924.044564	2582.162179
924.349028	2578.209914
924.653454	2571.570715
924.957840	2568.707339
925.262186	2569.902093
925.566493	2568.276321
925.870761	2562.584858
926.174989	2567.046279
926.479178	2562.577296
926.783328	2564.828172
927.087438	2561.072512
927.391509	2559.489590
927.695541	2558.831719
927.999533	2560.235680
928.303486	2557.316852
928.607400	2555.491955
928.911275	2558.015052
929.215110	2558.070505
929.518906	2557.692418
929.822663	2555.557490
930.126381	2554.947510
930.430060	2556.422047
930.733699	2555.189485
931.037299	2558.425906
931.340861	2559.834909
931.644383	2558.703170
931.947866	2556.641338
932.251309	2556.714434
932.554714	2556.895916
932.858080	2558.690567
933.161407	2559.381205
933.464694	2555.965823
933.767943	2555.537325
934.071153	2553.367108
934.374323	2555.575134
934.677455	2557.634445
934.980548	2553.137736
935.283602	2554.622356
935.586617	2553.120092
935.889593	2555.897767
936.192530	2551.179247
936.495428	2556.805175
936.798287	2554.849207
937.101108	2557.463046
937.403890	2557.200906
937.706632	2562.478994
938.009336	2563.220043
938.312002	2567.268090
938.614628	2569.773543
938.917216	2573.307392
939.219765	2573.400654
939.522275	2574.393761
939.824747	2575.127249
940.127179	2568.530899
940.429573	2566.423697
940.731929	2567.943605
941.034246	2566.030487
941.336524	2563.925805
941.638763	2564.215671
941.940964	2564.636608
942.243126	2564.744992
942.545250	2563.434293
942.847335	2560.815413
943.149381	2560.155022
943.451389	2558.168807
943.753359	2561.019580
944.055290	2557.153015
944.357182	2560.565876
944.659036	2558.309960
944.960851	2559.434137
945.262628	2558.592264
945.564367	2559.222408
945.866067	2559.361040
946.167729	2557.455484
946.469352	2558.244425
946.770937	2556.822819
947.072484	2555.824671
947.373992	2556.041440
947.675462	2557.216029
947.976893	2556.749722
948.278286	2554.390463
948.579641	2557.747871
948.880958	2556.593447
949.182236	2555.244938
949.483476	2555.325597
949.784678	2556.941286
950.085841	2554.173693
950.386967	2553.921635
950.688054	2555.383570
950.989103	2556.588406
951.290114	2554.980278
951.591087	2557.158056
951.892021	2559.194682
952.192917	2559.454302
952.493776	2561.362378
952.794596	2560.767522
953.095378	2563.341031
953.396122	2562.305074
953.696828	2560.596123
953.997496	2558.914898
954.298126	2558.733417
954.598718	2558.831719
954.899272	2554.788714
955.199788	2555.877603
955.500266	2556.666543
955.800706	2549.505584
956.101108	2548.986346
956.401472	2547.315203
956.701798	2547.161448
957.002087	2544.323278
957.302337	2548.247817
957.602550	2549.608928
957.902724	2546.135573
958.202861	2546.327137
958.502960	2546.831252
958.803022	2544.832435
959.103045	2546.972405
959.403031	2546.422919
959.702979	2543.862013
960.002889	2544.300593
960.302762	2544.522404
960.602596	2545.505429
960.902393	2543.264636
961.202153	2542.087527
961.501875	2543.879657
961.801559	2544.046015
962.101205	2542.800850
962.400814	2545.359235
962.700385	2542.052238
962.999918	2539.763555
963.299414	2543.685572
963.598873	2542.717671
963.898293	2539.864378
964.197677	2541.722043
964.497022	2542.226158
964.796331	2543.574667
965.095601	2542.173226
965.394835	2543.183977
965.694030	2540.509645
965.993189	2542.178267
966.292309	2540.849923
966.591393	2540.812115
966.890439	2541.704399
967.189447	2541.049049
967.488419	2539.171219
967.787353	2543.191539
968.086249	2542.074924
968.385108	2543.216745
968.683930	2544.187167
968.982714	2542.745397
969.281462	2542.085006
969.580172	2543.688093
969.878844	2541.094419
970.177480	2543.554502
970.476078	2539.571991
970.774639	2545.467620
971.073162	2540.870088
971.371649	2539.284645
971.670098	2538.334388
971.968510	2542.440407
972.266885	2539.713143
972.565223	2541.527958
972.863524	2541.795140
973.161788	2543.065510
973.460014	2542.107691
973.758204	2542.886549
974.056356	2542.251364
974.354471	2544.214893
974.652550	2541.555685
974.950591	2545.054246
975.248595	2541.616179
975.546563	2541.447300
975.844493	2545.528114
976.142386	2543.176416
976.440243	2546.526262
976.738062	2543.370500
977.035845	2542.977290
977.333590	2541.409491
977.631299	2541.117104
977.928971	2541.825387
978.226606	2541.633823
978.524204	2542.110212
978.821765	2541.659028
979.119290	2541.056611
979.416777	2542.889070
979.714228	2542.117773
980.011642	2543.186498
980.309020	2545.235727
980.606360	2542.291693
980.903664	2544.098947
981.200931	2544.411498
981.498162	2544.502239
981.795356	2543.007537
982.092513	2549.394679
982.389633	2549.366953
982.686717	2555.439023
982.983764	2555.091183
983.280775	2557.387428
983.577749	2556.568241
983.874686	2552.946172
984.171587	2553.949362
984.468451	2552.474824
984.765279	2548.532642
985.062070	2546.503577
985.358824	2543.413350
985.655543	2545.018957
985.952224	2544.973587
986.248869	2541.623740
986.545478	2537.457227
986.842050	2538.339429
987.138586	2537.845396
987.435086	2538.160468
987.731549	2535.234078
988.027975	2541.863195
988.324366	2541.701878
988.620719	2543.476364
988.917037	2539.682896
989.213318	2543.307486
989.509563	2541.195242
989.805772	2540.156765
990.101944	2542.339584
990.398080	2539.393030
990.694180	2540.060983
990.990244	2539.778678
991.286271	2544.857641
991.582262	2540.045859
991.878217	2539.251877
992.174136	2541.764893
992.470019	2537.623585
992.765865	2544.214893
993.061676	2541.553164
993.357450	2540.867567
993.653188	2538.556198
993.948890	2538.737680
994.244556	2542.420243
994.540186	2542.500901
994.835780	2539.972763
995.131337	2543.665408
995.426859	2543.304965
995.722345	2543.098278
996.017795	2543.350336
996.313208	2543.463762
996.608586	2544.169523
996.903928	2543.022661
997.199234	2543.695655
997.494504	2541.628782
997.789738	2544.577857
998.084936	2542.606765
998.380099	2540.890252
998.675225	2542.095088
998.970316	2539.740869
999.265371	2541.384286
999.560390	2540.454193
999.855373	2540.673483
1000.150320	2539.564429
1000.445232	2540.330684
1000.740108	2538.523431
1001.034948	2538.551157
1001.329752	2541.734646
1001.624521	2540.363452
1001.919254	2536.156609
1002.213951	2535.740714
1002.508613	2533.368851
1002.803239	2538.788091
1003.097829	2533.116793
1003.392384	2539.556867
1003.686903	2540.504604
1003.981386	2541.603576
1004.275834	2539.851775
1004.570246	2539.844213
1004.864623	2537.154758
1005.158964	2541.293545
1005.453270	2536.690971
1005.747540	2540.862526
1006.041775	2539.897145
1006.335974	2540.378575
1006.630138	2539.072917
1006.924266	2539.045190
1007.218359	2538.021836
1007.512416	2539.879501
1007.806438	2539.251877
1008.100425	2539.289686
1008.394376	2538.573842
1008.688292	2541.810263
1008.982172	2539.004861
1009.276017	2541.895963
1009.569827	2538.944367
1009.863602	2541.167516
1010.157341	2538.117618
1010.451045	2537.895807
1010.744714	2541.293545
1011.038347	2538.649460
1011.331945	2537.366486
1011.625508	2541.694317
1011.919036	2537.336239
1012.212528	2537.426980
1012.505986	2535.176105
1012.799408	2537.815149
1013.092795	2537.479912
1013.386147	2538.437731
1013.679464	2536.620395
1013.972745	2541.830428
1014.265992	2538.735159
1014.559204	2541.152392
1014.852380	2536.910262
1015.145521	2542.599204
1015.438628	2538.868750
1015.731699	2538.881353
1016.024736	2537.351363
1016.317737	2540.393699
1016.610703	2538.268852
1016.903635	2535.851619
1017.196531	2534.717360
1017.489393	2536.822041
1017.782219	2536.678368
1018.075011	2535.712987
1018.367768	2534.886238
1018.660490	2537.500077
1018.953177	2537.500077
1019.245829	2537.500077
