Dividing Wavelength (nm)	Counts (n)	Blue Motor Position (mm): 19.600000	Red Motor Position (mm): 0.000000	
326.493990	2135.435290
326.888308	2135.435290
327.282561	2135.435290
327.676750	2103.219796
328.070874	2100.600917
328.464933	2105.206011
328.858929	2110.499222
329.252859	2119.714452
329.646726	2130.005967
330.040528	2143.523821
330.434265	2161.180463
330.827938	2177.266784
331.221547	2196.841585
331.615091	2215.042671
332.008571	2233.805845
332.401986	2255.129926
332.795338	2272.995775
333.188625	2293.034362
333.581847	2312.468010
333.975006	2329.509631
334.368100	2348.610563
334.761129	2365.626977
335.154095	2381.325130
335.546996	2403.652401
335.939833	2424.001018
336.332606	2438.025508
336.725315	2452.085286
337.117960	2459.427727
337.510540	2467.392750
337.903056	2479.478916
338.295508	2485.235914
338.687896	2496.177738
339.080220	2504.513286
339.472480	2511.633916
339.864676	2515.518125
340.256807	2521.859897
340.648875	2522.686646
341.040879	2526.064219
341.432818	2528.042872
341.824694	2526.550690
342.216506	2531.002029
342.608253	2528.171421
342.999937	2527.405166
343.391557	2525.053468
343.783113	2529.124199
344.174605	2524.627490
344.566033	2522.490041
344.957397	2523.311749
345.348697	2518.593229
345.739934	2520.745802
346.131106	2518.663805
346.522215	2516.004597
346.913260	2513.657939
347.304241	2513.952847
347.695159	2509.466220
348.086012	2508.576456
348.476802	2508.279028
348.867528	2505.796260
349.258191	2503.535302
349.648789	2504.107473
350.039324	2500.283758
350.429796	2499.295692
350.820203	2498.700836
351.210548	2500.112359
351.600828	2496.533140
351.991045	2497.070023
352.381198	2497.362410
352.771288	2496.444920
353.161314	2498.247132
353.551276	2496.384426
353.941175	2497.105311
354.331010	2495.235043
354.720782	2495.492142
355.110490	2494.199086
355.500135	2492.129692
355.889717	2494.083139
356.279235	2495.013232
356.668689	2495.845022
357.058080	2496.150012
357.447408	2491.620535
357.836672	2495.154384
358.225873	2493.266472
358.615010	2491.497027
359.004084	2495.996257
359.393095	2497.450630
359.782043	2497.826196
360.170927	2501.193687
360.559748	2499.996413
360.948505	2501.599499
361.337199	2500.737462
361.725830	2502.643018
362.114398	2501.511279
362.502903	2499.348624
362.891344	2502.668224
363.279722	2503.310971
363.668037	2504.190653
364.056289	2500.498007
364.444478	2505.541682
364.832603	2508.384893
365.220665	2504.243585
365.608665	2504.672083
365.996601	2507.238030
366.384474	2506.083606
366.772284	2506.295334
367.160031	2510.098885
367.547715	2504.828358
367.935336	2505.327433
368.322893	2507.653925
368.710388	2506.854902
369.097820	2511.018895
369.485189	2508.894049
369.872495	2508.657115
370.259738	2508.916734
370.646918	2508.914214
371.034035	2510.320696
371.421090	2511.764986
371.808081	2511.124760
372.195010	2512.327075
372.581875	2509.378000
372.968678	2510.240037
373.355418	2512.314472
373.742096	2510.308093
374.128710	2508.964625
374.515262	2513.042919
374.901751	2510.918072
375.288177	2511.003772
375.674540	2512.019564
376.060841	2512.707682
376.447079	2512.742970
376.833254	2513.978053
377.219367	2510.948319
377.605417	2511.724657
377.991404	2510.756755
378.377329	2511.712054
378.763191	2510.187105
379.148991	2512.586694
379.534727	2514.159534
379.920402	2513.574760
380.306013	2513.965450
380.691563	2519.034330
381.077049	2516.304545
381.462474	2516.854031
381.847835	2514.363701
382.233134	2516.859072
382.618371	2517.784124
383.003545	2517.287570
383.388657	2516.175996
383.773706	2515.235821
384.158693	2517.834535
384.543618	2513.806653
384.928480	2517.098527
385.313280	2517.988291
385.698017	2517.622807
386.082692	2519.669515
386.467305	2517.199350
386.851856	2521.562469
387.236344	2519.256141
387.620770	2521.433919
388.005133	2518.663805
388.389435	2519.850997
388.773674	2518.305883
389.157851	2522.139681
389.541965	2519.561131
389.926018	2518.903260
390.310008	2519.813188
390.693936	2520.697911
391.077802	2519.717406
391.461606	2518.605832
391.845348	2521.355781
392.229027	2520.251769
392.612645	2522.580782
392.996200	2522.401821
393.379694	2521.663292
393.763125	2523.982223
394.146494	2520.460977
394.529801	2522.094310
394.913047	2523.352078
395.296230	2524.123375
395.679351	2525.431554
396.062410	2522.870648
396.445408	2523.263858
396.828343	2524.246883
397.211217	2520.629855
397.594028	2522.288395
397.976778	2520.886954
398.359466	2522.485000
398.742092	2523.059691
399.124656	2523.503313
399.507158	2524.183869
399.889598	2525.348375
400.271977	2523.024403
400.654294	2525.905423
401.036549	2525.020700
401.418742	2523.195803
401.800874	2526.807789
402.182944	2526.328880
402.564952	2522.830319
402.946898	2526.008766
403.328783	2526.737213
403.710606	2529.950949
404.092367	2528.305012
404.474067	2526.407018
404.855705	2526.764939
405.237282	2531.117976
405.618797	2526.064219
406.000250	2527.309384
406.381642	2526.154960
406.762972	2532.463964
407.144240	2529.535053
407.525447	2528.647810
407.906593	2529.298119
408.287677	2528.294930
408.668700	2527.634538
409.049661	2529.824920
409.430560	2529.817358
409.811399	2529.409025
410.192176	2528.305012
410.572891	2529.895496
410.953545	2530.611340
411.334138	2533.167205
411.714669	2529.519930
412.095139	2532.688295
412.475547	2530.460105
412.855894	2531.644776
413.236180	2530.513037
413.616405	2529.852646
413.996568	2528.980527
414.376670	2529.973634
414.756711	2530.812986
415.136691	2531.402801
415.516609	2533.217616
415.896466	2531.034797
416.276262	2531.208717
416.655997	2529.666123
417.035670	2528.219312
417.415283	2533.071423
417.794834	2527.448016
418.174324	2532.660569
418.553753	2532.532019
418.933121	2533.726773
419.312428	2533.943542
419.691674	2530.278624
420.070859	2535.208872
420.449983	2532.952956
420.829045	2533.366330
421.208047	2535.143337
421.586988	2531.065044
421.965867	2533.152081
422.344686	2531.533871
422.723444	2535.387833
423.102141	2532.678213
423.480777	2533.454551
423.859352	2536.207021
424.237866	2535.564273
424.616319	2535.118131
424.994712	2535.410518
425.373044	2536.262473
425.751314	2536.675848
426.129524	2536.920344
426.507673	2533.502442
426.885762	2535.997813
427.263789	2534.392205
427.641756	2538.021836
428.019662	2536.506969
428.397508	2536.325488
428.775292	2535.985210
429.153016	2537.517721
429.530679	2537.001002
429.908282	2537.139634
430.285824	2538.475540
430.663305	2536.335570
431.040726	2537.124511
431.418086	2537.474871
431.795385	2538.125180
432.172624	2535.314736
432.549802	2535.934798
432.926920	2538.543595
433.303977	2538.498225
433.680974	2537.069058
434.057910	2539.012423
434.434786	2537.941177
434.811601	2539.806404
435.188355	2538.359593
435.565050	2539.892104
435.941683	2537.784902
436.318257	2535.539068
436.694770	2537.003523
437.071222	2536.234747
437.447614	2532.698377
437.823946	2536.658204
438.200218	2538.034439
438.576429	2538.956970
438.952580	2540.307999
439.328670	2541.069213
439.704700	2540.779347
440.080670	2542.420243
440.456580	2541.154913
440.832429	2541.485109
441.208218	2538.841023
441.583947	2541.404450
441.959616	2540.060983
442.335224	2540.227341
442.710773	2539.902186
443.086261	2539.627443
443.461689	2541.404450
443.837057	2541.527958
444.212365	2542.505942
444.587612	2542.644574
444.962800	2541.719522
445.337927	2541.681714
445.712995	2540.345808
446.088002	2544.121632
446.462949	2542.062321
446.837837	2541.979142
447.212664	2541.976621
447.587431	2540.867567
447.962139	2543.511653
448.336786	2544.925696
448.711374	2543.756148
449.085901	2543.856972
449.460369	2541.255736
449.834776	2543.501570
450.209124	2540.038298
450.583412	2542.334543
450.957640	2542.314378
451.331808	2543.312527
451.705917	2541.863195
452.079965	2542.488298
452.453954	2544.008206
452.827883	2542.944523
453.201752	2544.890408
453.575562	2544.333361
453.949311	2546.327137
454.323001	2541.943854
454.696632	2543.768751
455.070202	2542.969728
455.443713	2544.771941
455.817164	2543.156251
456.190556	2541.714481
456.563888	2540.590304
456.937160	2541.946374
457.310373	2542.256405
457.683526	2542.878988
458.056619	2546.460727
458.429653	2544.096426
458.802628	2547.688248
459.175542	2545.659184
459.548398	2546.717826
459.921194	2547.055584
460.293930	2547.277394
460.666607	2545.878474
461.039224	2550.337375
461.411782	2548.744370
461.784280	2547.504246
462.156719	2547.486602
462.529099	2547.201777
462.901419	2547.632796
463.273680	2548.303269
463.645882	2544.744215
464.018024	2548.341078
464.390106	2550.244113
464.762130	2548.562889
465.134094	2546.886705
465.505999	2549.127498
465.877845	2549.271171
466.249631	2550.256716
466.621358	2552.699155
466.993026	2552.069011
467.364634	2555.587737
467.736184	2549.079607
468.107674	2548.073897
468.479105	2548.867878
468.850477	2552.026161
469.221790	2550.239072
469.593043	2549.593805
469.964238	2548.215049
470.335373	2550.932231
470.706449	2553.092365
471.077467	2550.347457
471.448425	2549.845862
471.819324	2551.784186
472.190164	2551.804351
472.560945	2551.842159
472.931667	2552.041285
473.302330	2549.303938
473.672934	2553.785524
474.043479	2551.663198
474.413965	2549.384597
474.784393	2546.853938
475.154761	2552.300904
475.525070	2547.347971
475.895321	2551.504402
476.265513	2552.091696
476.635645	2554.075390
477.005719	2553.740154
477.375734	2554.748384
477.745691	2552.447098
478.115588	2555.088662
478.485427	2555.801986
478.855207	2555.476831
479.224928	2557.760474
479.594591	2556.396842
479.964194	2557.823488
480.333739	2557.584033
480.703226	2559.867676
481.072653	2559.570248
481.442022	2557.644527
481.811333	2559.900444
482.180584	2557.710062
482.549777	2557.982285
482.918912	2562.554611
483.287988	2564.019066
483.657005	2563.431772
484.025964	2560.132337
484.394864	2561.347255
484.763706	2563.857749
485.132489	2560.560835
485.501213	2564.364385
485.869879	2562.151319
486.238487	2561.659806
486.607036	2565.332287
486.975527	2567.479818
487.343959	2567.515107
487.712333	2571.099367
488.080648	2570.869994
488.448905	2567.026115
488.817104	2568.793039
489.185244	2576.223700
489.553326	2576.085068
489.921350	2580.579257
490.289315	2584.574371
490.657222	2587.664598
491.025070	2590.157449
491.392861	2593.222471
491.760593	2596.138778
492.128267	2594.432347
492.495883	2599.551639
492.863440	2598.878645
493.230939	2599.813779
493.598380	2605.674121
493.965763	2604.786877
494.333088	2608.035901
494.700354	2611.720985
495.067563	2617.644340
495.434713	2619.325565
495.801805	2628.901237
496.168839	2635.270735
496.535815	2639.795170
496.902733	2643.780202
497.269593	2650.905873
497.636395	2655.533653
498.003139	2666.679644
498.369825	2668.870025
498.736453	2678.864113
499.103023	2685.659588
499.469535	2696.324149
499.835989	2702.260108
500.202385	2711.379555
500.568723	2717.658312
500.935003	2733.532906
501.301226	2741.356776
501.667390	2755.799682
502.033497	2770.718977
502.399546	2777.277518
502.765537	2785.769342
503.131470	2801.104532
503.497345	2817.004331
503.863163	2820.848211
504.228923	2841.247240
504.594625	2856.864734
504.960269	2865.747247
505.325856	2891.220198
505.691385	2899.948956
506.056856	2918.528128
506.422270	2939.635439
506.787625	2954.121195
507.152924	2977.638178
507.518164	2997.444871
507.883347	3010.072962
508.248472	3028.573996
508.613540	3061.623801
508.978550	3081.196081
509.343503	3095.356682
509.708398	3128.656023
510.073236	3160.775735
510.438016	3184.252389
510.802738	3208.371789
511.167403	3238.006212
511.532010	3263.020417
511.896561	3299.084832
512.261053	3337.914320
512.625488	3352.735312
512.989866	3382.964591
513.354186	3413.521545
513.718449	3435.800924
514.082655	3487.324037
514.446803	3514.677338
514.810894	3560.440933
515.174927	3585.684511
515.538904	3611.011267
515.902822	3674.103828
516.266684	3693.129143
516.630488	3730.751274
516.994235	3772.368520
517.357925	3826.994463
517.721558	3874.882904
518.085133	3925.980039
518.448651	3963.405565
518.812112	3985.122856
519.175516	4037.908778
519.538863	4098.972275
519.902152	4125.340030
520.265385	4213.666086
520.628560	4229.908684
520.991678	4288.943116
521.354739	4342.001260
521.717743	4369.825909
522.080690	4414.898866
522.443580	4506.746168
522.806413	4544.562384
523.169189	4601.260241
523.531908	4664.995549
523.894569	4682.248898
524.257174	4736.237135
524.619722	4822.521524
524.982213	4853.852296
525.344647	4935.962609
525.707025	4965.299604
526.069345	5045.401018
526.431608	5090.847020
526.793815	5174.290719
527.155964	5174.169732
527.518057	5241.590123
527.880093	5285.611999
528.242072	5359.343915
528.603995	5401.119957
528.965860	5430.676242
529.327669	5509.025855
529.689421	5542.325197
530.051117	5595.945430
530.412755	5702.603642
530.774337	5708.718562
531.135862	5775.604591
531.497331	5831.528631
531.858743	5841.812585
532.220098	5961.960925
532.581396	5969.285722
532.942638	6020.531571
533.303824	6065.223921
533.664953	6138.217308
534.026025	6155.178270
534.387040	6259.414208
534.747999	6310.052598
535.108902	6398.789509
535.469748	6351.281675
535.830537	6452.684485
536.191270	6502.264233
536.551947	6574.579585
536.912567	6629.999510
537.273131	6650.380895
537.633638	6695.330343
537.994089	6754.274034
538.354483	6782.078518
538.714821	6907.575523
539.075103	6972.649257
539.435328	7017.162646
539.795497	6973.914587
540.155609	7126.512834
540.515665	7221.914150
540.875665	7132.441231
541.235609	7233.123156
541.595496	7280.724251
541.955328	7434.948271
542.315102	7419.449243
542.674821	7448.433357
543.034483	7499.076789
543.394090	7556.732465
543.753640	7569.592449
544.113134	7764.274248
544.472571	7722.684729
544.831953	7872.757359
545.191278	7803.683469
545.550548	7870.098150
545.909761	8005.115373
546.268918	8051.849390
546.628019	8156.160946
546.987064	8123.665668
547.346053	8105.192360
547.704986	8237.031136
548.063863	8272.399871
548.422684	8302.603944
548.781449	8305.469840
549.140158	8417.219618
549.498811	8383.564875
549.857408	8318.748239
550.215949	8539.462558
550.574434	8473.045356
550.932864	8593.458357
551.291237	8670.156992
551.649555	8688.589971
552.007817	8737.622754
552.366022	8743.641891
552.724173	8782.920042
553.082267	8810.795102
553.440305	8970.753434
553.798288	8847.499743
554.156215	9006.611161
554.514086	9037.334473
554.871902	8949.815001
555.229661	9015.919652
555.587365	9033.929174
555.945014	8977.185946
556.302606	9121.030230
556.660143	9065.880007
557.017625	9241.128159
557.375050	9181.660187
557.732421	9332.683074
558.089735	9295.121437
558.446994	9317.736053
558.804197	9391.364626
559.161345	9424.832846
559.518437	9323.311569
559.875474	9434.259804
560.232455	9484.709151
560.589381	9469.832706
560.946251	9508.936936
561.303065	9618.645047
561.659825	9598.445143
562.016528	9564.634124
562.373177	9481.661773
562.729770	9612.250343
563.086307	9557.657167
563.442789	9659.962344
563.799216	9590.197816
564.155587	9654.689297
564.511904	9639.901072
564.868164	9650.933637
565.224370	9689.072487
565.580520	9647.331733
565.936615	9663.052571
566.292654	9572.994878
566.648638	9707.828099
567.004567	9686.685500
567.360441	9699.442140
567.716260	9633.120720
568.072023	9731.818951
568.427732	9709.201814
568.783385	9643.855857
569.138982	9725.910718
569.494525	9757.685111
569.850013	9650.681579
570.205445	9745.704809
570.560823	9658.833125
570.916145	9602.888920
571.271412	9683.633082
571.626625	9643.881063
571.981782	9630.973188
572.336884	9625.248958
572.691931	9639.422162
573.046923	9607.136092
573.401860	9566.254855
573.756743	9521.650726
574.111570	9578.887987
574.466342	9568.838447
574.821059	9602.989743
575.175722	9507.500207
575.530330	9529.502323
575.884882	9531.677581
576.239380	9469.086615
576.593823	9455.805695
576.948211	9485.777875
577.302544	9377.773675
577.656823	9402.321573
578.011047	9408.817100
578.365216	9389.980829
578.719330	9317.824273
579.073389	9339.201286
579.427394	9294.148494
579.781344	9273.903220
580.135239	9233.465605
580.489080	9248.296679
580.842866	9155.846959
581.196597	9167.088732
581.550273	9209.920896
581.903895	9182.736474
582.257463	9252.138039
582.610975	9141.436821
582.964434	9164.147219
583.317837	9100.316129
583.671186	9080.882481
584.024481	9082.102440
584.377721	9004.801387
584.730906	8991.603646
585.084037	9017.991566
585.437113	8956.232390
585.790135	8986.323038
586.143103	8889.013645
586.496016	8864.811065
586.848874	8921.544211
587.201679	8921.158562
587.554428	8807.745204
587.907124	8856.891412
588.259765	8828.867638
588.612352	8835.406015
588.964884	8712.479999
589.317362	8734.174604
589.669786	8732.972289
590.022155	8779.376110
590.374470	8797.594840
590.726731	8737.602589
591.078937	8596.278882
591.431090	8705.815593
591.783188	8581.616686
592.135232	8577.457734
592.487222	8572.487157
592.839157	8627.060168
593.191038	8564.691012
593.542866	8512.021037
593.894639	8410.761900
594.246358	8470.791960
594.598022	8481.867375
594.949633	8382.846511
595.301190	8360.471349
595.652692	8390.496462
596.004141	8503.561981
596.355535	8276.505891
596.706876	8256.192561
597.058162	8198.776340
597.409395	8271.981455
597.760573	8336.520827
598.111698	8247.965398
598.462768	8234.964262
598.813785	8196.601082
599.164748	8170.747524
599.515657	8157.320411
599.866511	8073.687669
600.217312	8193.150412
600.568060	8051.622538
600.918753	8152.284298
601.269392	8133.753017
601.619978	8042.956795
601.970510	8106.611444
602.320988	8105.779654
602.671412	8160.632449
603.021783	8097.867563
603.372100	8072.772699
603.722363	8071.860250
604.072572	8048.302938
604.422728	8063.585196
604.772830	7991.476532
605.122878	7998.418201
605.472872	7996.905854
605.822813	8022.998867
606.172701	7964.186245
606.522534	8044.423771
606.872314	8041.963687
607.222041	8015.278340
607.571714	8070.151299
607.921333	8026.126903
608.270899	8035.695013
608.620411	8124.857901
608.969870	8033.746607
609.319276	8020.132971
609.668627	8040.166516
610.017926	8076.558606
610.367171	8123.779094
610.716362	8093.070905
611.065500	8090.772139
611.414585	8114.047146
611.763616	8104.249664
612.112594	8083.265861
612.461518	8102.109694
612.810389	8164.322574
613.159207	8098.885876
613.507971	8055.869710
613.856682	8172.398502
614.205340	8122.554093
614.553945	8204.523255
614.902496	8095.089887
615.250994	8156.715472
615.599439	8137.851475
615.947830	8153.542066
616.296169	8127.418807
616.644454	8140.220817
616.992686	8138.993296
617.340864	8191.199485
617.688990	8099.664734
618.037063	8186.727982
618.385082	8135.885425
618.733048	8219.462714
619.080961	8163.284096
619.428821	8175.488729
619.776628	8186.259155
620.124382	8131.234960
620.472083	8117.782641
620.819731	8142.116291
621.167326	8034.820372
621.514868	8047.456025
621.862357	7936.575846
622.209793	7949.365253
622.557176	7886.050881
622.904506	7855.496448
623.251783	7791.892210
623.599007	7746.630210
623.946179	7753.423165
624.293297	7716.806744
624.640363	7628.959597
624.987376	7612.389324
625.334336	7558.872435
625.681243	7510.951227
626.028097	7495.573187
626.374899	7472.129301
626.721647	7469.449928
627.068343	7399.294710
627.414987	7374.318313
627.761577	7330.596386
628.108115	7366.849844
628.454600	7261.971159
628.801032	7310.431771
629.147412	7270.369721
629.493739	7257.141733
629.840014	7197.010850
630.186236	7253.895230
630.532405	7135.609596
630.878521	7188.138419
631.224585	7139.430791
631.570597	7066.124852
631.916556	7101.667507
632.262462	7097.349759
632.608316	7062.895993
632.954117	7036.024123
633.299866	7021.601382
633.645562	7015.297419
633.991206	6932.579646
634.336797	6882.427727
634.682336	6838.211766
635.027823	6802.732126
635.373257	6795.777854
635.718639	6730.363842
636.063968	6742.230718
636.409245	6637.505788
636.754470	6630.264170
637.099642	6591.333860
637.444762	6541.144132
637.789829	6544.133536
638.134845	6492.547409
638.479808	6474.913453
638.824719	6480.564586
639.169577	6410.762249
639.514383	6429.946360
639.859137	6355.470874
640.203839	6369.117277
640.548489	6356.378282
640.893086	6329.546740
641.237632	6301.901053
641.582125	6319.913095
641.926566	6289.784639
642.270955	6304.547658
642.615292	6300.179499
642.959576	6313.442774
643.303809	6305.971784
643.647990	6310.034954
643.992118	6301.825435
644.336195	6245.740078
644.680219	6272.596825
645.024192	6265.251864
645.368112	6355.934660
645.711981	6382.816613
646.055797	6453.715401
646.399562	6412.040182
646.743274	6544.347785
647.086935	6592.770588
647.430544	6587.555515
647.774101	6615.763291
648.117606	6616.516944
648.461059	6609.015707
648.804460	6561.719601
649.147810	6477.088711
649.491108	6445.374812
649.834354	6422.868580
650.177548	6338.310786
650.520690	6252.608650
650.863781	6232.864971
651.206820	6251.706284
651.549807	6174.382546
651.892742	6118.710563
652.235626	6121.878928
652.578458	6108.507268
652.921238	6015.714749
653.263967	6055.892745
653.606644	5997.269167
653.949269	6002.902656
654.291843	5941.203974
654.634365	5985.871118
654.976836	5943.628769
655.319255	5940.331855
655.661622	5923.741418
656.003938	5919.438793
656.346203	5875.053954
656.688416	5906.407410
657.030577	5862.473754
657.372687	5833.116595
657.714746	5816.422814
658.056753	5861.321851
658.398708	5801.871523
658.740612	5796.013703
659.082465	5844.519685
659.424266	5833.459393
659.766016	5834.805381
660.107715	5809.997863
660.449362	5819.538247
660.790958	5819.444986
661.132503	5810.207071
661.473996	5845.452298
661.815438	5827.576367
662.156829	5825.093598
662.498168	5819.427342
662.839456	5795.340708
663.180693	5829.376059
663.521879	5831.125339
663.863013	5823.641746
664.204097	5836.453839
664.545129	5876.987236
664.886110	5872.026741
665.227040	5908.444036
665.567918	5871.983891
665.908746	5901.033540
666.249522	5905.154683
666.590248	5893.497015
666.930922	5919.630357
667.271545	5933.564106
667.612118	5931.189722
667.952639	5903.823819
668.293109	5923.728815
668.633528	5889.824534
668.973896	5889.910234
669.314213	5881.811620
669.654480	5862.766141
669.994695	5856.769689
670.334859	5847.105797
670.674973	5842.120096
671.015035	5845.946331
671.355047	5842.485579
671.695008	5827.220965
672.034918	5801.160721
672.374777	5811.573224
672.714585	5799.275329
673.054342	5804.124919
673.394049	5794.150996
673.733705	5827.651984
674.073310	5813.788811
674.412864	5770.780207
674.752368	5763.553713
675.091820	5762.931130
675.431223	5703.221184
675.770574	5707.120516
676.109875	5660.043701
676.449125	5661.961860
676.788324	5626.688907
677.127473	5575.614456
677.466571	5566.522735
677.805619	5552.410025
678.144616	5541.662285
678.483562	5520.300396
678.822458	5486.663297
679.161303	5483.593234
679.500098	5474.536801
679.838842	5459.982990
680.177535	5466.221418
680.516179	5477.264065
680.854771	5488.445345
681.193314	5567.152880
681.531805	5676.924005
681.870247	5825.995965
682.208638	5927.418939
682.546978	5937.942348
682.885268	5910.881434
683.223508	5828.907231
683.561697	5778.949397
683.899836	5745.566876
684.237925	5703.057346
684.575963	5669.392521
684.913951	5627.001458
685.251889	5688.349780
685.589776	5656.517414
685.927614	5630.318537
686.265401	5699.604156
686.603137	5683.336352
686.940824	5754.582980
687.278460	5782.725221
687.616046	5793.571263
687.953582	5857.997210
688.291068	5841.119427
688.628504	5904.721144
688.965889	5865.221183
689.303224	5812.894006
689.640510	5763.102530
689.977745	5686.323236
690.314930	5590.959729
690.652065	5531.796747
690.989150	5443.614363
691.326185	5362.850038
691.663170	5313.580321
692.000105	5238.250359
692.336990	5160.238503
692.673825	5136.151870
693.010610	5068.098813
693.347345	5002.962065
693.684030	4990.321371
694.020665	4944.802273
694.357251	4853.869940
694.693786	4867.281929
695.030272	4836.155325
695.366707	4797.222494
695.703093	4765.440539
696.039429	4787.097336
696.375716	4774.875059
696.711952	4748.842540
697.048139	4731.085076
697.384276	4711.474987
697.720363	4725.494436
698.056400	4731.937031
698.392388	4686.430535
698.728326	4667.097710
699.064214	4640.971930
699.400053	4637.561590
699.735842	4604.602526
700.071581	4576.712342
700.407270	4549.744690
700.742910	4537.202299
701.078501	4478.188032
701.414042	4480.789267
701.749533	4450.875060
702.084974	4385.733270
702.420366	4442.486580
702.755709	4384.604052
703.091002	4328.193540
703.426246	4379.192373
703.761440	4331.883665
704.096584	4296.018376
704.431679	4319.532838
704.766725	4305.838543
705.101721	4292.086276
705.436668	4318.529648
705.771565	4269.186834
706.106413	4290.218528
706.441212	4328.574147
706.775961	4336.652596
707.110661	4316.679545
707.445311	4345.519986
707.779913	4361.928942
708.114465	4378.176580
708.448967	4402.232967
708.783421	4461.736226
709.117825	4505.937063
709.452180	4505.828678
709.786485	4552.424063
710.120742	4635.754336
710.454949	4620.262870
710.789107	4686.657387
711.123216	4755.517028
711.457275	4750.004526
711.791286	4820.933561
712.125247	4839.726982
712.459159	4743.821551
712.793023	4819.317871
713.126837	4781.133651
713.460602	4775.301036
713.794318	4690.982697
714.127985	4704.601374
714.461602	4614.561325
714.795171	4585.738528
715.128691	4522.766955
715.462162	4460.695228
715.795584	4416.670831
716.128957	4398.368922
716.462281	4347.337322
716.795556	4318.615348
717.128782	4284.867343
717.461960	4216.978124
717.795088	4224.320565
718.128167	4183.146941
718.461198	4126.648209
718.794180	4122.824494
719.127113	4102.586782
719.459997	4081.305551
719.792833	4039.731155
720.125619	4030.223539
720.458357	3996.732633
720.791046	3998.963344
721.123686	3973.858398
721.456278	3933.377932
721.788821	3947.452834
722.121315	3921.059873
722.453761	3898.546080
722.786158	3912.525200
723.118506	3930.534722
723.450805	3885.098802
723.783056	3906.937081
724.115259	3921.624482
724.447412	3927.447015
724.779518	3917.561312
725.111574	3927.441974
725.443582	3952.425932
725.775542	3938.933284
726.107453	3988.114781
726.439315	3989.954802
726.771129	4003.616329
727.102895	4040.162174
727.434612	4086.145059
727.766281	4096.373560
728.097901	4097.631328
728.429473	4102.606947
728.760996	4111.008029
729.092471	4106.171042
729.423897	4089.719237
729.755276	4095.612346
730.086606	4097.654013
730.417887	4133.814209
730.749120	4197.433571
731.080305	4261.234414
731.411442	4284.600162
731.742530	4256.016820
732.073570	4259.545628
732.404562	4312.515552
732.735506	4305.800735
733.066401	4266.366309
733.397249	4208.791291
733.728048	4127.774907
734.058798	4046.216600
734.389501	3979.443996
734.720156	3915.423863
735.050762	3872.967265
735.381320	3862.521995
735.711831	3814.225220
736.042293	3785.064666
736.372707	3804.911688
736.703073	3778.785909
737.033391	3768.932973
737.363661	3786.776138
737.693883	3811.762617
738.024056	3820.977846
738.354182	3818.119512
738.684260	3878.527658
739.014290	3898.838467
739.344272	3897.986512
739.674207	3936.226184
740.004093	3939.341617
740.333931	3936.601750
740.663722	3936.926905
740.993464	3935.026390
741.323159	3909.760127
741.652806	3884.934965
741.982405	3852.437166
742.311956	3822.853155
742.641460	3814.683965
742.970915	3791.333341
743.300323	3750.643667
743.629683	3718.667628
743.958996	3707.093139
744.288260	3681.504242
744.617477	3649.676918
744.946647	3634.971872
745.275768	3609.355248
745.604842	3606.575052
745.933869	3561.494534
746.262847	3552.687638
746.591778	3590.818926
746.920662	3557.660736
747.249498	3531.179555
747.578286	3575.710588
747.907027	3594.519133
748.235720	3589.185592
748.564365	3614.812297
748.892963	3613.688120
749.221514	3595.008125
749.550017	3576.010536
749.878473	3572.244794
750.206881	3543.679096
750.535242	3542.252450
750.863555	3543.182543
751.191821	3536.603837
751.520039	3522.022299
751.848210	3494.026251
752.176334	3530.529246
752.504411	3534.030328
752.832440	3492.965088
753.160421	3477.839106
753.488356	3485.786485
753.816243	3499.102693
754.144082	3458.223977
754.471875	3443.090433
754.799620	3464.316211
755.127318	3450.546299
755.454969	3454.110395
755.782572	3459.282619
756.110129	3435.821089
756.437638	3423.906322
756.765100	3439.256635
757.092515	3449.767441
757.419882	3457.127526
757.747203	3430.663989
758.074477	3431.089966
758.401703	3445.313582
758.728882	3468.253352
759.056014	3474.897593
759.383099	3478.628047
759.710138	3472.089670
760.037129	3492.513905
760.364073	3521.891229
760.690970	3505.935977
761.017820	3484.427894
761.344623	3504.070750
761.671379	3547.991803
761.998088	3597.838732
762.324751	3725.997466
762.651366	3967.993015
762.977935	4436.444757
763.304456	4873.187641
763.630931	4958.970436
763.957359	4604.017752
764.283740	4268.781021
764.610074	4080.657763
764.936362	3883.939337
765.262602	3728.719689
765.588796	3621.149028
765.914943	3531.527395
766.241044	3446.349539
766.567097	3414.411309
766.893104	3369.083774
767.219064	3337.372396
767.544978	3315.329950
767.870845	3257.346599
768.196665	3239.390009
768.522438	3248.706061
768.848165	3241.948394
769.173846	3207.862633
769.499479	3190.878985
769.825066	3173.560101
770.150607	3159.775066
770.476101	3172.700585
770.801548	3166.961231
771.126949	3124.189561
771.452303	3107.238681
771.777611	3113.918210
772.102872	3118.044395
772.428087	3096.808534
772.753256	3082.416040
773.078378	3077.725246
773.403453	3043.384906
773.728482	3032.122968
774.053465	3054.805640
774.378401	3041.305430
774.703291	3011.098836
775.028135	3011.061028
775.352932	3004.867970
775.677683	2994.107627
776.002388	2988.348109
776.327046	2993.109479
776.651658	2980.294866
776.976224	2970.983855
777.300743	2972.566777
777.625216	2961.566979
777.949643	2956.450208
778.274024	2955.774693
778.598359	2948.749846
778.922647	2952.361832
779.246889	2949.604321
779.571086	2938.659976
779.895236	2932.071188
780.219339	2943.277673
780.543397	2950.559620
780.867409	2957.526494
781.191374	2949.884105
781.515294	2944.258178
781.839167	2945.226079
782.162995	2936.550253
782.486776	2947.386213
782.810511	2943.098712
783.134201	2931.957762
783.457844	2939.645522
783.781441	2929.318718
784.104993	2908.879360
784.428498	2909.668300
784.751958	2922.377049
785.075372	2915.460586
785.398739	2901.158833
785.722061	2919.480906
786.045337	2929.474994
786.368568	2913.988569
786.691752	2907.866088
787.014891	2953.627162
787.337983	2986.016575
787.661030	3008.583301
787.984031	3077.863878
788.306987	3121.459776
788.629897	3114.213118
788.952760	3098.293154
789.275579	3084.273705
789.598351	3021.705424
789.921078	2980.587253
790.243759	2973.307827
790.566395	2958.328038
790.888984	2931.751075
791.211529	2915.329516
791.534027	2908.773496
791.856480	2896.248749
792.178888	2881.274001
792.501249	2873.119935
792.823566	2872.961139
793.145836	2868.053575
793.468062	2864.116434
793.790241	2862.639376
794.112375	2869.938967
794.434464	2880.777448
794.756507	2884.704507
795.078505	2890.252296
795.400457	2903.066909
795.722364	2942.105605
796.044226	2962.139150
796.366042	2969.100984
796.687812	2956.619087
797.009538	2973.181798
797.331218	2961.178810
797.652852	2949.125412
797.974442	2929.754778
798.295986	2925.517688
798.617484	2921.192378
798.938938	2911.178126
799.260346	2892.122564
799.581709	2884.898591
799.903026	2880.719474
800.224299	2873.777806
800.545526	2866.773122
800.866708	2848.864423
801.187845	2837.630212
801.508936	2840.362517
801.829983	2847.011799
802.150984	2835.984275
802.471940	2823.633448
802.792851	2823.683860
803.113717	2822.763849
803.434538	2829.418172
803.755314	2818.982984
804.076045	2813.707416
804.396731	2814.826552
804.717372	2816.686738
805.037967	2811.580049
805.358518	2815.292859
805.679024	2825.269303
805.999485	2822.849549
806.319901	2830.549911
806.640272	2819.368632
806.960598	2824.407265
807.280879	2830.567555
807.601115	2843.329236
807.921306	2828.702328
808.241453	2823.512461
808.561554	2829.508913
808.881611	2832.490756
809.201623	2829.622339
809.521590	2826.325424
809.841513	2818.773776
810.161390	2826.209478
810.481223	2821.490958
810.801011	2811.353197
811.120755	2809.518217
811.440453	2812.502581
811.760107	2806.201138
812.079716	2807.801705
812.399281	2798.246197
812.718801	2793.320990
813.038276	2787.160700
813.357707	2794.656896
813.677093	2798.054634
813.996434	2795.491207
814.315731	2787.352264
814.634983	2784.950154
814.954191	2785.373611
815.273354	2802.405149
815.592473	2806.347332
815.911547	2809.200625
816.230577	2819.366112
816.549562	2828.614108
816.868502	2824.477842
817.187399	2835.880932
817.506250	2851.856348
817.825058	2845.570029
818.143821	2856.267358
818.462539	2873.412322
818.781213	2897.947618
819.099843	2934.846343
819.418429	2991.501351
819.736970	3050.008982
820.055466	3120.572533
820.373919	3223.792679
820.692327	3362.923484
821.010691	3528.255686
821.329011	3960.668219
821.647286	4851.876163
821.965517	6203.931269
822.283704	6922.451968
822.601847	6896.099336
822.919945	6278.200068
823.237999	5778.384788
823.556010	5206.100400
823.873976	4668.428575
824.191897	4269.075929
824.509775	3980.033811
824.827609	3717.735015
825.145398	3599.207406
825.463144	3585.888677
825.780845	3677.753624
826.098502	3781.674490
826.416116	4061.284608
826.733685	4365.845918
827.051210	4427.307666
827.368692	4307.302998
827.686129	4047.602917
828.003522	3731.986357
828.320872	3481.078048
828.638177	3287.727112
828.955439	3155.094355
829.272656	3076.469999
829.589830	3008.721932
829.906960	2963.429686
830.224046	2916.219280
830.541088	2884.984291
830.858086	2870.347300
831.175041	2849.595391
831.491952	2853.930783
831.808819	2864.355889
832.125642	2887.930845
832.442421	2933.207968
832.759157	3012.704444
833.075849	3186.193233
833.392497	3464.240594
833.709101	3660.593536
834.025662	3611.434724
834.342179	3452.867751
834.658653	3281.009775
834.975083	3133.888741
835.291469	3040.728218
835.607811	2957.607153
835.924110	2901.604975
836.240366	2851.236286
836.556578	2807.794143
836.872746	2787.556431
837.188871	2766.602875
837.504952	2748.671491
837.820990	2742.687641
838.136984	2728.080898
838.452935	2719.636965
838.768842	2718.222921
839.084706	2738.281672
839.400526	2814.088023
839.716303	2941.883794
840.032037	3023.288346
840.347727	3005.306551
840.663373	2947.900411
840.978977	2875.212014
841.294537	2803.592341
841.610054	2757.334713
841.925527	2735.831672
842.240957	2715.155379
842.556344	2690.713345
842.871687	2678.412929
843.186987	2672.688699
843.502244	2666.533450
843.817458	2661.973727
844.132629	2648.080307
844.447756	2640.379944
844.762840	2633.385343
845.077881	2638.209727
845.392879	2634.433903
845.707833	2632.011629
846.022745	2622.264558
846.337613	2625.669857
846.652438	2626.935187
846.967221	2626.118520
847.281960	2625.566514
847.596656	2620.721965
847.911309	2621.074846
848.225919	2618.675256
848.540485	2615.824484
848.855009	2617.364556
849.169490	2616.550410
849.483928	2616.074021
849.798323	2617.997221
850.112675	2614.095368
850.426984	2613.971860
850.741251	2610.748042
851.055474	2611.743670
851.369654	2614.503702
851.683792	2615.395986
851.997887	2611.529421
852.311938	2610.090171
852.625947	2614.380193
852.939914	2616.620986
853.253837	2616.512601
853.567718	2614.387755
853.881555	2612.025974
854.195350	2616.215173
854.509103	2613.855913
854.822812	2610.765686
855.136479	2608.187136
855.450103	2614.173506
855.763685	2615.708537
856.077224	2614.465893
856.390720	2610.180912
856.704173	2610.896756
857.017584	2617.598970
857.330953	2617.261213
857.644278	2618.415637
857.957561	2622.677932
858.270802	2616.315996
858.584000	2616.016048
858.897155	2622.042747
859.210268	2620.479989
859.523339	2618.498816
859.836367	2609.714605
860.149352	2612.104112
860.462295	2612.792230
860.775195	2610.831221
861.088054	2609.497836
861.400869	2608.890377
861.713642	2607.677979
862.026373	2609.011364
862.339062	2611.912548
862.651708	2615.222066
862.964312	2614.914556
863.276873	2615.345574
863.589392	2615.685852
863.901869	2621.725154
864.214303	2626.811679
864.526696	2629.165897
864.839045	2631.242853
865.151353	2632.311577
865.463619	2632.238481
865.775842	2632.515744
866.088023	2630.070785
866.400162	2633.350055
866.712258	2631.126906
867.024313	2628.702111
867.336325	2628.316463
867.648296	2631.202524
867.960224	2634.234778
868.272110	2633.140847
868.583954	2625.344703
868.895755	2626.201699
869.207515	2632.351907
869.519233	2638.592855
869.830909	2636.190745
870.142542	2633.377782
870.454134	2632.828296
870.765684	2638.746610
871.077191	2638.668472
871.388657	2644.932106
871.700081	2643.177785
872.011463	2639.210397
872.322803	2642.464461
872.634101	2647.137611
872.945357	2652.511481
873.256571	2661.323418
873.567744	2655.203457
873.878874	2655.021976
874.189963	2656.176400
874.501010	2659.939621
874.812015	2666.228461
875.122979	2662.717297
875.433900	2654.777480
875.744780	2653.439053
876.055618	2661.197389
876.366415	2667.390447
876.677169	2663.707884
876.987882	2658.036586
877.298554	2657.925680
877.609183	2668.791887
877.919771	2673.099553
878.230317	2679.438804
878.540822	2689.137984
878.851285	2702.852443
879.161707	2727.912019
879.472087	2765.519027
879.782425	2809.926551
880.092722	2921.600712
880.402977	3102.910851
880.713191	3356.304449
881.023363	3638.644352
881.333494	3827.170903
881.643583	3993.309690
881.953631	3994.844721
882.263637	3816.687824
882.573602	3601.526337
882.883526	3475.731904
883.193408	3364.435830
883.503248	3269.087446
883.813048	3157.057884
884.122806	3043.276521
884.432522	2962.613019
884.742197	2899.202865
885.051831	2864.587782
885.361424	2831.802638
885.670975	2796.504479
885.980485	2767.822834
886.289954	2750.551841
886.599382	2735.299830
886.908768	2725.900599
887.218113	2706.048535
887.527417	2691.983716
887.836680	2685.130267
888.145901	2683.045750
888.455082	2671.458658
888.764221	2662.785352
889.073319	2656.186482
889.382376	2656.451143
889.691392	2652.902170
890.000366	2660.292502
890.309300	2653.980977
890.618193	2655.344609
890.927044	2658.207985
891.235855	2658.207985
891.544625	2656.582213
891.853353	2656.909888
892.162041	2666.490601
892.470687	2685.715041
892.779293	2695.187369
893.087858	2702.701209
893.396381	2729.326063
893.704864	2767.104470
894.013306	2832.276507
894.321707	2923.317224
894.630068	2971.440079
894.938387	2992.045795
895.246665	2982.853251
895.554903	2941.455296
895.863100	2899.908627
896.171256	2843.195646
896.479371	2784.015020
896.787446	2748.177457
897.095480	2730.974520
897.403473	2724.272306
897.711425	2711.442569
898.019336	2692.845753
898.327207	2680.384021
898.635038	2677.465192
898.942827	2674.352280
899.250576	2666.084788
899.558284	2653.285298
899.865952	2651.183137
900.173579	2650.351347
900.481165	2646.827580
900.788711	2638.981024
901.096216	2633.531537
901.403681	2630.189252
901.711105	2631.441978
902.018489	2630.937863
902.325832	2632.999695
902.633135	2632.344345
902.940397	2648.992756
903.247619	2684.923580
903.554800	2749.281470
903.861941	2872.691437
904.169041	2993.099397
904.476101	3048.249620
904.783121	3045.650905
905.090100	2987.695280
905.397039	2917.219949
905.703938	2848.057839
906.010796	2787.528704
906.317614	2736.431569
906.624391	2704.533668
906.931129	2676.756910
907.237826	2653.633138
907.544483	2638.834831
907.851099	2625.390073
908.157675	2616.643671
908.464211	2610.049842
908.770707	2598.208172
909.077163	2596.292533
909.383578	2593.280444
909.689954	2593.267841
909.996289	2587.558734
910.302584	2588.685432
910.608839	2584.783579
910.915054	2587.967068
911.221229	2589.940679
911.527363	2590.757346
911.833458	2589.272727
912.139513	2591.712645
912.445527	2589.156780
912.751502	2599.130703
913.057436	2601.636156
913.363331	2608.870212
913.669186	2618.927314
913.975000	2630.567338
914.280775	2649.890081
914.586510	2666.016732
914.892205	2697.075281
915.197859	2764.115065
915.503475	2843.573732
915.809050	2908.125707
916.114585	2916.481420
916.420081	2928.370981
916.725536	2942.473609
917.030952	2917.151893
917.336328	2871.390819
917.641665	2826.706032
917.946961	2776.450769
918.252218	2744.883063
918.557435	2718.850545
918.862612	2701.461085
919.167750	2683.872499
919.472848	2669.646363
919.777906	2652.536687
920.082925	2639.737197
920.387904	2630.469036
920.692843	2627.978706
920.997743	2625.493417
921.302603	2614.932200
921.607423	2610.188474
921.912204	2603.289655
922.216946	2601.394181
922.521647	2599.453337
922.826310	2596.998295
923.130932	2589.983529
923.435516	2583.780389
923.740059	2584.166038
924.044564	2582.361305
924.349028	2581.779051
924.653454	2574.776889
924.957840	2570.418811
925.262186	2570.000395
925.566493	2570.345714
925.870761	2565.803635
926.174989	2568.646846
926.479178	2567.716753
926.783328	2564.979406
927.087438	2563.303223
927.391509	2564.452606
927.695541	2563.177194
927.999533	2560.366750
928.303486	2562.358006
928.607400	2559.608057
928.911275	2558.040258
929.215110	2559.164435
929.518906	2558.924980
929.822663	2558.756102
930.126381	2558.945145
930.430060	2558.524209
930.733699	2559.756771
931.037299	2560.628890
931.340861	2555.922973
931.644383	2558.970351
931.947866	2557.999929
932.251309	2559.106462
932.554714	2558.035217
932.858080	2559.280382
933.161407	2560.197872
933.464694	2558.136040
933.767943	2554.216543
934.071153	2556.492624
934.374323	2556.432130
934.677455	2554.415668
934.980548	2554.496327
935.283602	2554.418189
935.586617	2552.253013
935.889593	2555.817109
936.192530	2552.686552
936.495428	2553.551110
936.798287	2556.558159
937.101108	2557.682336
937.403890	2561.120403
937.706632	2563.976217
938.009336	2569.345045
938.312002	2570.232288
938.614628	2571.913513
938.917216	2576.470716
939.219765	2576.450552
939.522275	2578.545151
939.824747	2577.927610
940.127179	2570.292782
940.429573	2569.125755
940.731929	2568.810683
941.034246	2564.999571
941.336524	2567.462174
941.638763	2567.550395
941.940964	2568.934191
942.243126	2563.749365
942.545250	2564.802966
942.847335	2563.706515
943.149381	2559.976061
943.451389	2561.390105
943.753359	2557.901626
944.055290	2556.795093
944.357182	2558.378015
944.659036	2561.281720
944.960851	2557.248797
945.262628	2554.375339
945.564367	2557.909188
945.866067	2558.433468
946.167729	2559.335834
946.469352	2555.128992
946.770937	2559.572769
947.072484	2559.532439
947.373992	2557.631924
947.675462	2557.347099
947.976893	2556.459856
948.278286	2555.330638
948.579641	2556.129661
948.880958	2555.484393
949.182236	2556.464897
949.483476	2553.883827
949.784678	2555.020607
950.085841	2554.735782
950.386967	2555.176883
950.688054	2557.856256
950.989103	2558.246945
951.290114	2559.300546
951.591087	2558.451112
951.892021	2557.800803
952.192917	2557.578992
952.493776	2558.330124
952.794596	2562.327759
953.095378	2563.630897
953.396122	2564.838254
953.696828	2559.101421
953.997496	2559.078736
954.298126	2559.285423
954.598718	2558.115875
954.899272	2554.637479
955.199788	2557.536142
955.500266	2554.234187
955.800706	2550.939793
956.101108	2547.973074
956.401472	2551.000287
956.701798	2547.552137
957.002087	2543.204142
957.302337	2546.455686
957.602550	2549.903836
957.902724	2545.651622
958.202861	2547.935265
958.502960	2546.168341
958.803022	2548.290666
959.103045	2545.112219
959.403031	2541.890922
959.702979	2545.255892
960.002889	2544.330840
960.302762	2543.534338
960.602596	2542.783206
960.902393	2543.698175
961.202153	2543.693134
961.501875	2543.181457
961.801559	2545.455017
962.101205	2542.440407
962.400814	2541.666590
962.700385	2542.994934
962.999918	2538.162988
963.299414	2543.882177
963.598873	2542.163144
963.898293	2543.501570
964.197677	2543.834286
964.497022	2539.816487
964.796331	2541.228010
965.095601	2541.482588
965.394835	2540.829759
965.694030	2540.101312
965.993189	2541.283463
966.292309	2541.961498
966.591393	2539.783719
966.890439	2539.955118
967.189447	2539.740869
967.488419	2540.260108
967.787353	2541.510314
968.086249	2538.921682
968.385108	2541.686755
968.683930	2542.700027
968.982714	2542.669780
969.281462	2543.181457
969.580172	2539.549306
969.878844	2540.260108
970.177480	2541.976621
970.476078	2540.277752
970.774639	2542.992414
971.073162	2538.904038
971.371649	2540.015612
971.670098	2536.121321
971.968510	2540.318082
972.266885	2538.702392
972.565223	2542.513504
972.863524	2543.814122
973.161788	2542.894111
973.460014	2541.570808
973.758204	2543.930068
974.056356	2541.797660
974.354471	2541.454862
974.652550	2541.399409
974.950591	2543.307486
975.248595	2541.109543
975.546563	2541.933771
975.844493	2541.086858
976.142386	2541.094419
976.440243	2540.156765
976.738062	2539.682896
977.035845	2541.021322
977.333590	2539.496373
977.631299	2541.732125
977.928971	2539.380427
978.226606	2540.076106
978.524204	2538.888914
978.821765	2540.915458
979.119290	2540.660880
979.416777	2537.941178
979.714228	2541.868236
980.011642	2541.134748
980.309020	2542.637012
980.606360	2541.454862
980.903664	2541.255736
981.200931	2542.692465
981.498162	2541.752290
981.795356	2546.133052
982.092513	2544.986190
982.389633	2550.478527
982.686717	2550.637323
982.983764	2555.655792
983.280775	2554.082952
983.577749	2554.955072
983.874686	2556.520350
984.171587	2547.836963
984.468451	2551.063301
984.765279	2545.898639
985.062070	2543.988042
985.358824	2541.051569
985.655543	2544.315717
985.952224	2541.694317
986.248869	2540.439069
986.545478	2535.760878
986.842050	2539.897145
987.138586	2534.470343
987.435086	2537.197607
987.731549	2535.332380
988.027975	2539.259439
988.324366	2540.300438
988.620719	2538.689789
988.917037	2536.698533
989.213318	2538.954449
989.509563	2537.084181
989.805772	2538.553678
990.101944	2536.464119
990.398080	2536.832124
990.694180	2538.099974
990.990244	2537.237937
991.286271	2535.866743
991.582262	2538.904038
991.878217	2536.310364
992.174136	2537.893287
992.470019	2538.261291
992.765865	2537.709284
993.061676	2535.871784
993.357450	2539.947557
993.653188	2538.725077
993.948890	2539.284645
994.244556	2539.231713
994.540186	2538.987217
994.835780	2537.573173
995.131337	2540.746580
995.426859	2539.007382
995.722345	2536.874973
996.017795	2542.942002
996.313208	2540.948226
996.608586	2540.232382
996.903928	2539.138452
997.199234	2541.008720
997.494504	2539.529141
997.789738	2537.734490
998.084936	2541.621220
998.380099	2538.720036
998.675225	2539.501415
998.970316	2538.772968
999.265371	2536.065868
999.560390	2538.185673
999.855373	2537.991589
1000.150320	2536.968235
1000.445232	2539.728267
1000.740108	2535.569315
1001.034948	2537.399253
1001.329752	2535.602082
1001.624521	2536.469161
1001.919254	2531.591844
1002.213951	2535.289531
1002.508613	2532.844571
1002.803239	2535.503780
1003.097829	2530.709642
1003.392384	2536.111239
1003.686903	2536.350693
1003.981386	2534.145189
1004.275834	2536.549819
1004.570246	2537.129552
1004.864623	2538.379758
1005.158964	2536.459078
1005.453270	2533.971269
1005.747540	2535.264325
1006.041775	2534.288862
1006.335974	2536.688451
1006.630138	2535.781043
1006.924266	2538.215920
1007.218359	2534.210724
1007.512416	2537.190046
1007.806438	2536.761548
1008.100425	2536.544778
1008.394376	2537.510159
1008.688292	2536.078471
1008.982172	2537.570653
1009.276017	2534.142668
1009.569827	2535.385313
1009.863602	2535.670138
1010.157341	2534.414890
1010.451045	2534.614016
1010.744714	2535.498738
1011.038347	2534.866074
1011.331945	2536.854809
1011.625508	2534.818183
1011.919036	2534.452699
1012.212528	2535.014788
1012.505986	2533.736855
1012.799408	2535.418080
1013.092795	2537.305992
1013.386147	2538.069727
1013.679464	2537.351362
1013.972745	2534.442617
1014.265992	2535.385313
1014.559204	2535.796167
1014.852380	2536.640560
1015.145521	2535.753317
1015.438628	2533.706608
1015.731699	2534.586290
1016.024736	2535.763399
1016.317737	2534.908923
1016.610703	2536.774150
1016.903635	2532.524458
1017.196531	2530.961700
1017.489393	2532.012781
1017.782219	2529.104035
1018.075011	2533.073943
1018.367768	2532.519417
1018.660490	2535.186187
1018.953177	2535.186187
1019.245829	2535.186187
