Dividing Wavelength (nm)	Counts (n)	Blue Motor Position (mm): 19.500000	Red Motor Position (mm): 0.000000	
326.493990	2155.393218
326.888308	2155.393218
327.282561	2155.393218
327.676750	2131.069651
328.070874	2132.309774
328.464933	2140.753707
328.858929	2147.319810
329.252859	2159.731131
329.646726	2171.169509
330.040528	2188.954700
330.434265	2207.417926
330.827938	2225.566079
331.221547	2246.292783
331.615091	2264.955135
332.008571	2284.658485
332.401986	2307.585653
332.795338	2325.239773
333.188625	2344.318020
333.581847	2364.606144
333.975006	2382.905532
334.368100	2403.019736
334.761129	2421.588826
335.154095	2436.329160
335.546996	2458.326235
335.939833	2488.376553
336.332606	2504.329284
336.725315	2510.958402
337.117960	2520.723117
337.510540	2528.075639
337.903056	2536.373379
338.295508	2542.957126
338.687896	2552.063970
339.080220	2560.011349
339.472480	2566.474108
339.864676	2566.703481
340.256807	2573.002402
340.648875	2576.841241
341.040879	2575.961560
341.432818	2576.132959
341.824694	2579.429874
342.216506	2575.943916
342.608253	2579.215625
342.999937	2577.589852
343.391557	2575.427197
343.783113	2573.808987
344.174605	2572.127762
344.566033	2572.936868
344.957397	2571.356466
345.348697	2569.075344
345.739934	2565.672565
346.131106	2566.665672
346.522215	2561.100238
346.913260	2560.046637
347.304241	2563.005794
347.695159	2557.891544
348.086012	2555.633107
348.476802	2556.374157
348.867528	2553.500699
349.258191	2552.868034
349.648789	2551.446429
350.039324	2550.193702
350.429796	2551.547252
350.820203	2546.944678
351.210548	2549.666901
351.600828	2544.850079
351.991045	2544.837476
352.381198	2544.807229
352.771288	2545.452497
353.161314	2543.609955
353.551276	2545.608773
353.941175	2542.765562
354.331010	2544.456869
354.720782	2541.918648
355.110490	2546.443083
355.500135	2545.676828
355.889717	2545.303783
356.279235	2544.857641
356.668689	2548.215049
357.058080	2543.370500
357.447408	2543.614996
357.836672	2544.706406
358.225873	2543.904863
358.615010	2546.745553
359.004084	2549.528270
359.393095	2548.550286
359.782043	2549.959288
360.170927	2551.305276
360.559748	2551.670760
360.948505	2552.880637
361.337199	2552.757129
361.725830	2550.846531
362.114398	2553.475493
362.502903	2554.710576
362.891344	2554.312325
363.279722	2551.711089
363.668037	2556.840463
364.056289	2553.949362
364.444478	2556.709393
364.832603	2554.697973
365.220665	2555.544887
365.608665	2555.812068
365.996601	2557.536142
366.384474	2554.624876
366.772284	2557.745350
367.160031	2557.029507
367.547715	2559.139229
367.935336	2561.604354
368.322893	2557.576472
368.710388	2558.095711
369.097820	2563.572924
369.485189	2560.742316
369.872495	2559.842470
370.259738	2559.023283
370.646918	2560.961607
371.034035	2559.482028
371.421090	2562.718449
371.808081	2558.446071
372.195010	2561.513613
372.581875	2561.087635
372.968678	2560.696946
373.355418	2561.611915
373.742096	2561.992522
374.128710	2564.853377
374.515262	2562.877245
374.901751	2561.932029
375.288177	2563.615774
375.674540	2564.059396
376.060841	2564.452606
376.447079	2561.059909
376.833254	2565.964952
377.219367	2561.566545
377.605417	2560.601164
377.991404	2561.667368
378.377329	2560.616287
378.763191	2561.654765
379.148991	2567.315981
379.534727	2565.607030
379.920402	2564.505538
380.306013	2568.477967
380.691563	2567.126938
381.077049	2567.880590
381.462474	2566.418656
381.847835	2568.147771
382.233134	2568.787998
382.618371	2568.364541
383.003545	2567.631053
383.388657	2564.404715
383.773706	2567.023594
384.158693	2566.388409
384.543618	2567.883111
384.928480	2570.267577
385.313280	2567.298337
385.698017	2570.360838
386.082692	2570.892680
386.467305	2568.959397
386.851856	2567.527709
387.236344	2568.603996
387.620770	2570.365879
388.005133	2571.265725
388.389435	2568.540981
388.773674	2571.868143
389.157851	2571.691703
389.541965	2572.513411
389.926018	2571.142217
390.310008	2573.118349
390.693936	2571.820252
391.077802	2573.130952
391.461606	2570.340673
391.845348	2573.254460
392.229027	2572.490725
392.612645	2572.256312
392.996200	2573.740932
393.379694	2573.168761
393.763125	2571.515262
394.146494	2573.561971
394.529801	2574.063565
394.913047	2575.664132
395.296230	2573.680438
395.679351	2575.979204
396.062410	2578.076324
396.445408	2575.517938
396.828343	2575.568350
397.211217	2571.532906
397.594028	2573.057855
397.976778	2573.685479
398.359466	2573.322516
398.742092	2570.020560
399.124656	2574.005592
399.507158	2576.672362
399.889598	2574.981055
400.271977	2578.083886
400.654294	2577.436097
401.036549	2577.526838
401.418742	2577.695717
401.800874	2575.956519
402.182944	2576.821077
402.564952	2575.215469
402.946898	2577.983062
403.328783	2577.763772
403.710606	2579.228227
404.092367	2576.911817
404.474067	2579.137487
404.855705	2579.833166
405.237282	2577.433577
405.618797	2578.575398
406.000250	2578.898032
406.381642	2580.211252
406.762972	2579.669328
407.144240	2578.734194
407.525447	2582.620924
407.906593	2579.923907
408.287677	2581.549679
408.668700	2582.073959
409.049661	2581.547158
409.430560	2580.687642
409.811399	2580.329720
410.192176	2582.721747
410.572891	2579.749987
410.953545	2582.991449
411.334138	2582.779720
411.714669	2587.024372
412.095139	2582.588157
412.475547	2580.241499
412.855894	2582.691500
413.236180	2581.418609
413.616405	2583.820719
413.996568	2580.387693
414.376670	2583.175451
414.756711	2582.063877
415.136691	2583.873651
415.516609	2584.859196
415.896466	2580.773341
416.276262	2584.944896
416.655997	2578.567836
417.035670	2581.723599
417.415283	2580.601942
417.794834	2578.832497
418.174324	2582.527663
418.553753	2582.068918
418.933121	2588.188878
419.312428	2585.118816
419.691674	2582.983887
420.070859	2588.491348
420.449983	2585.824577
420.829045	2585.887592
421.208047	2585.181830
421.586988	2584.816347
421.965867	2587.024372
422.344686	2588.531677
422.723444	2586.028744
423.102141	2585.963209
423.480777	2586.089238
423.859352	2587.916656
424.237866	2585.517067
424.616319	2587.359609
424.994712	2587.301635
425.373044	2587.077304
425.751314	2589.935638
426.129524	2586.497571
426.507673	2590.081832
426.885762	2588.577047
427.263789	2588.138467
427.641756	2589.015628
428.019662	2588.337592
428.397508	2586.046388
428.775292	2588.032603
429.153016	2586.313569
429.530679	2589.295412
429.908282	2585.345668
430.285824	2590.167531
430.663305	2589.411358
431.040726	2588.882037
431.418086	2586.789958
431.795385	2589.880186
432.172624	2588.529156
432.549802	2589.618046
432.926920	2586.273240
433.303977	2590.895978
433.680974	2591.684919
434.057910	2588.511512
434.434786	2591.347161
434.811601	2590.412027
435.188355	2590.691811
435.565050	2590.051585
435.941683	2591.619384
436.318257	2590.470001
436.694770	2589.091245
437.071222	2588.531677
437.447614	2587.283991
437.823946	2589.280288
438.200218	2594.712132
438.576429	2592.587285
438.952580	2591.324476
439.328670	2590.414548
439.704700	2591.339600
440.080670	2590.729620
440.456580	2589.318097
440.832429	2593.663572
441.208218	2593.469487
441.583947	2592.945207
441.959616	2593.028386
442.335224	2591.591657
442.710773	2593.136771
443.086261	2593.005701
443.461689	2593.560228
443.837057	2595.362440
444.212365	2593.761874
444.587612	2591.657192
444.962800	2594.276072
445.337927	2594.704570
445.712995	2594.681885
446.088002	2595.329673
446.462949	2591.556369
446.837837	2594.787749
447.212664	2595.027204
447.587431	2596.821854
447.962139	2597.230188
448.336786	2599.007195
448.711374	2593.509816
449.085901	2595.317070
449.460369	2596.035434
449.834776	2596.605085
450.209124	2595.498552
450.583412	2598.308995
450.957640	2596.259766
451.331808	2596.398397
451.705917	2596.025352
452.079965	2597.880497
452.453954	2595.448140
452.827883	2595.385126
453.201752	2598.500559
453.575562	2598.452668
453.949311	2598.124993
454.323001	2599.289499
454.696632	2594.220619
455.070202	2600.902668
455.443713	2600.196907
455.817164	2593.938314
456.190556	2594.941504
456.563888	2595.405290
456.937160	2592.761205
457.310373	2598.969386
457.683526	2595.496031
458.056619	2600.156578
458.429653	2599.581886
458.802628	2602.273862
459.175542	2600.184304
459.548398	2600.169181
459.921194	2600.958121
460.293930	2602.684716
460.666607	2600.753954
461.039224	2600.796804
461.411782	2602.737648
461.784280	2601.043821
462.156719	2602.684716
462.529099	2603.077926
462.901419	2601.686568
463.273680	2603.549274
463.645882	2604.209665
464.018024	2603.604727
464.390106	2603.410642
464.762130	2604.933071
465.134094	2604.580190
465.505999	2606.024481
465.877845	2607.995572
466.249631	2609.840634
466.621358	2607.897269
466.993026	2611.042949
467.364634	2612.101592
467.736184	2610.619492
468.107674	2609.497836
468.479105	2608.383741
468.850477	2607.632609
469.221790	2610.319544
469.593043	2606.853751
469.964238	2607.141096
470.335373	2608.920624
470.706449	2611.264760
471.077467	2612.212497
471.448425	2613.976901
471.819324	2616.598301
472.190164	2616.436984
472.560945	2610.614451
472.931667	2610.473299
473.302330	2612.136880
473.672934	2614.692745
474.043479	2612.822477
474.413965	2614.057559
474.784393	2608.965994
475.154761	2611.128649
475.525070	2608.880294
475.895321	2609.084461
476.265513	2610.322064
476.635645	2615.605194
477.005719	2618.357664
477.375734	2617.427571
477.745691	2614.168465
478.115588	2617.122581
478.485427	2616.074021
478.855207	2621.379835
479.224928	2620.205247
479.594591	2622.685494
479.964194	2625.221195
480.333739	2623.371091
480.703226	2626.441154
481.072653	2626.481483
481.442022	2627.308232
481.811333	2626.259672
482.180584	2628.281175
482.549777	2627.681278
482.918912	2628.568521
483.287988	2632.188069
483.657005	2631.225209
484.025964	2629.468367
484.394864	2628.951648
484.763706	2630.680764
485.132489	2630.209416
485.501213	2633.864253
485.869879	2630.544653
486.238487	2628.865949
486.607036	2635.699233
486.975527	2634.161681
487.343959	2636.294089
487.712333	2637.690489
488.080648	2637.067906
488.448905	2641.186529
488.817104	2643.666777
489.185244	2643.777682
489.553326	2647.316572
489.921350	2651.752787
490.289315	2657.318221
490.657222	2660.473983
491.025070	2662.172852
491.392861	2662.364416
491.760593	2666.498162
492.128267	2663.828871
492.495883	2668.050838
492.863440	2666.135199
493.230939	2666.457833
493.598380	2667.508914
493.965763	2665.747030
494.333088	2666.304078
494.700354	2671.211641
495.067563	2674.657270
495.434713	2676.603155
495.801805	2684.938703
496.168839	2683.887622
496.535815	2686.478776
496.902733	2692.311391
497.269593	2696.951773
497.636395	2699.618543
498.003139	2704.483257
498.369825	2707.588607
498.736453	2715.765359
499.103023	2720.776266
499.469535	2721.482027
499.835989	2727.254148
500.202385	2731.924777
500.568723	2740.461972
500.935003	2746.748290
501.301226	2753.541245
501.667390	2763.739499
502.033497	2770.623195
502.399546	2777.164092
502.765537	2781.086110
503.131470	2792.191772
503.497345	2800.108904
503.863163	2805.790284
504.228923	2815.988538
504.594625	2828.379695
504.960269	2835.691888
505.325856	2852.791482
505.691385	2859.223994
506.056856	2871.479039
506.422270	2883.575288
506.787625	2896.505848
507.152924	2910.817683
507.518164	2924.494334
507.883347	2935.176539
508.248472	2951.885443
508.613540	2966.270376
508.978550	2987.196205
509.343503	3004.406705
509.708398	3019.446987
510.073236	3044.751059
510.438016	3061.810323
510.802738	3074.216603
511.167403	3100.483535
511.532010	3123.168727
511.896561	3147.436842
512.261053	3179.725432
512.625488	3193.369315
512.989866	3211.464537
513.354186	3236.075450
513.718449	3256.245107
514.082655	3289.539407
514.446803	3317.454797
514.810894	3345.952439
515.174927	3374.288765
515.538904	3398.216602
515.902822	3437.451902
516.266684	3458.642393
516.630488	3495.334431
516.994235	3520.409130
517.357925	3563.906726
517.721558	3599.053651
518.085133	3640.161740
518.448651	3675.071730
518.812112	3705.381667
519.175516	3741.793922
519.538863	3786.947537
519.902152	3823.581602
520.265385	3870.955845
520.628560	3911.090991
520.991678	3942.323460
521.354739	3990.834483
521.717743	4038.496072
522.080690	4079.263884
522.443580	4138.807472
522.806413	4185.503680
523.169189	4228.008169
523.531908	4280.098412
523.894569	4318.784226
524.257174	4365.301473
524.619722	4431.935445
524.982213	4481.636181
525.344647	4524.042367
525.707025	4575.908278
526.069345	4640.387157
526.431608	4691.234755
526.793815	4758.592132
527.155964	4791.215959
527.518057	4846.895503
527.880093	4891.481988
528.242072	4971.018793
528.603995	5009.167725
528.965860	5068.549997
529.327669	5126.984532
529.689421	5175.404814
530.051117	5240.896964
530.412755	5303.409793
530.774337	5365.705851
531.135862	5414.002626
531.497331	5485.579449
531.858743	5531.761459
532.220098	5614.612822
532.581396	5659.227034
532.942638	5702.565834
533.303824	5777.384118
533.664953	5837.215053
534.026025	5881.998143
534.387040	5975.781249
534.747999	6030.583632
535.108902	6110.001970
535.469748	6140.609335
535.830537	6208.826229
536.191270	6281.328104
536.551947	6326.867367
536.912567	6410.363998
537.273131	6495.060424
537.633638	6513.090111
537.994089	6595.185301
538.354483	6632.313399
538.714821	6742.969247
539.075103	6844.180493
539.435328	6881.711883
539.795497	6942.283867
540.155609	7003.985069
540.515665	7117.116123
540.875665	7122.963862
541.235609	7228.543267
541.595496	7277.641585
541.955328	7416.558141
542.315102	7424.881086
542.674821	7467.662838
543.034483	7536.461986
543.394090	7610.602235
543.753640	7661.774988
544.113134	7845.207453
544.472571	7802.624826
544.831953	8002.007502
545.191278	7981.011096
545.550548	8010.890015
545.909761	8133.440465
546.268918	8223.646872
546.628019	8325.634456
546.987064	8333.559149
547.346053	8319.912746
547.704986	8484.561872
548.063863	8493.194848
548.422684	8576.361283
548.781449	8624.037996
549.140158	8744.153568
549.498811	8774.012323
549.857408	8763.347762
550.215949	8942.170092
550.574434	8988.069797
550.932864	9017.913428
551.291237	9197.817085
551.649555	9195.329276
552.007817	9293.714955
552.366022	9302.436151
552.724173	9385.837000
553.082267	9503.578190
553.440305	9617.281415
553.798288	9567.373992
554.156215	9677.316516
554.514086	9760.813147
554.871902	9782.787537
555.229661	9851.755562
555.587365	9884.623885
555.945014	9944.999264
556.302606	9988.048198
556.660143	10083.701571
557.017625	10165.597636
557.375050	10194.228869
557.732421	10318.901645
558.089735	10368.862000
558.446994	10405.803576
558.804197	10534.179079
559.161345	10585.203118
559.518437	10498.059212
559.875474	10621.307862
560.232455	10692.861999
560.589381	10780.706626
560.946251	10779.645463
561.303065	10955.496032
561.659825	10968.824843
562.016528	10950.717018
562.373177	10950.601072
562.729770	11100.237642
563.086307	11052.956660
563.442789	11176.500217
563.799216	11244.270969
564.155587	11243.582851
564.511904	11312.891155
564.868164	11359.521828
565.224370	11447.913419
565.580520	11455.316354
565.936615	11543.319777
566.292654	11519.165088
566.648638	11626.700461
567.004567	11658.696665
567.360441	11703.338603
567.716260	11712.795807
568.072023	11814.120479
568.427732	11835.837770
568.783385	11792.524176
569.138982	11912.881724
569.494525	11940.953389
569.850013	11938.727720
570.205445	11967.195115
570.560823	12004.166938
570.916145	11991.034732
571.271412	12036.899150
571.626625	12027.691482
571.981782	12049.870038
572.336884	12035.938810
572.691931	12132.570167
573.046923	12070.435426
573.401860	12072.714027
573.756743	12098.736463
574.111570	12148.480049
574.466342	12149.750420
574.821059	12219.151985
575.175722	12138.896815
575.530330	12172.065087
575.884882	12143.207002
576.239380	12158.615289
576.593823	12167.628872
576.948211	12176.609687
577.302544	12099.417019
577.656823	12133.089406
578.011047	12206.775952
578.365216	12172.095334
578.719330	12134.294242
579.073389	12129.908438
579.427394	12150.030204
579.781344	12162.686020
580.135239	12114.409411
580.489080	12143.330510
580.842866	12047.916591
581.196597	12152.664207
581.550273	12156.492963
581.903895	12140.341106
582.257463	12246.951428
582.610975	12125.136986
582.964434	12188.819362
583.317837	12122.883590
583.671186	12099.742173
584.024481	12163.550578
584.377721	12070.836197
584.730906	12146.282106
585.084037	12166.456803
585.437113	12112.639966
585.790135	12145.586427
586.143103	12060.385885
586.496016	12088.187849
586.848874	12106.880447
587.201679	12110.550407
587.554428	11990.364258
587.907124	12054.586038
588.259765	11999.463541
588.612352	12077.175448
588.964884	11950.929832
589.317362	12008.124243
589.669786	12001.792554
590.022155	11969.133439
590.374470	12077.359450
590.726731	11969.577061
591.078937	11863.251564
591.431090	11886.660162
591.783188	11827.169506
592.135232	11758.579566
592.487222	11830.206801
592.839157	11847.838236
593.191038	11784.647373
593.542866	11737.066442
593.894639	11603.823705
594.246358	11665.605566
594.598022	11680.035869
594.949633	11592.087899
595.301190	11574.358161
595.652692	11535.553879
596.004141	11632.386883
596.355535	11409.968654
596.706876	11393.274873
597.058162	11370.574558
597.409395	11468.133487
597.760573	11496.195070
598.111698	11391.419729
598.462768	11396.750749
598.813785	11409.020917
599.164748	11292.444235
599.515657	11363.879905
599.866511	11248.928995
600.217312	11381.672658
600.568060	11158.180664
600.918753	11312.737400
601.269392	11309.989971
601.619978	11220.547299
601.970510	11268.667633
602.320988	11303.164248
602.671412	11369.031965
603.021783	11292.862651
603.372100	11232.555327
603.722363	11246.204251
604.072572	11248.908830
604.422728	11263.613876
604.772830	11208.551873
605.122878	11207.583972
605.472872	11185.997751
605.822813	11248.145095
606.172701	11205.678415
606.522534	11251.646177
606.872314	11305.087449
607.222041	11234.622200
607.571714	11317.284520
607.921333	11180.447440
608.270899	11233.777807
608.620411	11302.108127
608.969870	11253.168605
609.319276	11234.642365
609.668627	11249.551577
610.017926	11326.887918
610.367171	11361.598783
610.716362	11353.260715
611.065500	11332.198774
611.414585	11348.569921
611.763616	11412.597616
612.112594	11375.419107
612.461518	11404.188972
612.810389	11452.117742
613.159207	11385.261959
613.507971	11383.837833
613.856682	11484.237453
614.205340	11445.307143
614.553945	11574.637945
614.902496	11454.945829
615.250994	11518.207269
615.599439	11507.585557
615.947830	11543.639890
616.296169	11506.587409
616.644454	11524.044925
616.992686	11543.715507
617.340864	11625.301541
617.688990	11514.244922
618.037063	11652.188535
618.385082	11624.394133
618.733048	11664.814105
619.080961	11650.351034
619.428821	11634.461318
619.776628	11638.544652
620.124382	11590.419277
620.472083	11609.784869
620.819731	11630.483847
621.167326	11549.167515
621.514868	11528.339988
621.862357	11439.023345
622.209793	11440.331524
622.557176	11357.485202
622.904506	11296.363732
623.251783	11220.317926
623.599007	11158.946919
623.946179	11111.605443
624.293297	11084.685682
624.640363	10951.518562
624.987376	10938.708990
625.334336	10876.027283
625.681243	10797.821343
626.028097	10759.475806
626.374899	10728.906249
626.721647	10701.651251
627.068343	10659.459314
627.414987	10601.864131
627.761577	10525.160455
628.108115	10578.397560
628.454600	10447.463671
628.801032	10464.260796
629.147412	10448.577766
629.493739	10422.542727
629.840014	10348.251243
630.186236	10388.608200
630.532405	10276.714749
630.878521	10320.136728
631.224585	10271.550087
631.570597	10206.824192
631.916556	10208.991888
632.262462	10200.124499
632.608316	10176.849492
632.954117	10148.251026
633.299866	10133.034303
633.645562	10113.099060
633.991206	10011.217341
634.336797	9915.868957
634.682336	9903.014015
635.027823	9843.477988
635.373257	9813.765427
635.718639	9744.767154
636.063968	9715.382268
636.409245	9593.953475
636.754470	9587.715047
637.099642	9533.338641
637.444762	9432.001367
637.789829	9438.436400
638.134845	9371.300833
638.479808	9343.602213
638.824719	9312.405033
639.169577	9223.128719
639.514383	9227.950583
639.859137	9163.882558
640.203839	9198.396818
640.548489	9111.270556
640.893086	9124.269171
641.237632	9058.252741
641.582125	9064.660048
641.926566	9045.687665
642.270955	9032.114358
642.615292	9026.342237
642.959576	8998.499945
643.303809	8993.267227
643.647990	9014.440073
643.992118	8990.688677
644.336195	8965.656827
644.680219	8963.768915
645.024192	8998.444492
645.368112	9065.905213
645.711981	9049.108088
646.055797	9187.031537
646.399562	9153.462493
646.743274	9300.442375
647.086935	9368.881079
647.430544	9349.762503
647.774101	9374.363334
648.117606	9395.165656
648.461059	9459.705028
648.804460	9392.108196
649.147810	9282.271536
649.491108	9243.126976
649.834354	9180.379734
650.177548	9034.221561
650.520690	8947.763252
650.863781	8939.009288
651.206820	8915.275536
651.549807	8817.837594
651.892742	8732.997495
652.235626	8693.966361
652.578458	8657.216350
652.921238	8548.481182
653.263967	8588.772604
653.606644	8519.325669
653.949269	8501.353955
654.291843	8418.976460
654.634365	8486.202767
654.976836	8408.692506
655.319255	8400.445179
655.661622	8391.413952
656.003938	8351.598918
656.346203	8319.718662
656.688416	8343.767486
657.030577	8307.655180
657.372687	8267.532637
657.714746	8305.553019
658.056753	8324.434661
658.398708	8222.258034
658.740612	8213.209163
659.082465	8251.738702
659.424266	8215.487765
659.766016	8230.013849
660.107715	8198.221813
660.449362	8220.730565
660.790958	8218.875420
661.132503	8211.570788
661.473996	8208.467958
661.815438	8223.674598
662.156829	8252.295749
662.498168	8202.511835
662.839456	8195.640742
663.180693	8210.769245
663.521879	8233.335970
663.863013	8215.596149
664.204097	8217.889874
664.545129	8289.824619
664.886110	8285.862272
665.227040	8282.451932
665.567918	8295.145557
665.908746	8310.085017
666.249522	8332.815579
666.590248	8324.837953
666.930922	8339.822783
667.271545	8327.424065
667.612118	8344.153134
667.952639	8308.124008
668.293109	8314.372518
668.633528	8292.980382
668.973896	8278.141745
669.314213	8279.454966
669.654480	8235.559119
669.994695	8228.748520
670.334859	8221.769042
670.674973	8195.365999
671.015035	8223.672078
671.355047	8208.478040
671.695008	8192.966410
672.034918	8167.211155
672.374777	8177.868154
672.714585	8152.155749
673.054342	8183.242024
673.394049	8149.478896
673.733705	8185.838218
674.073310	8134.471381
674.412864	8144.851117
674.752368	8080.871313
675.091820	8141.627299
675.431223	8064.051503
675.770574	8014.456632
676.109875	7982.097465
676.449125	7935.620547
676.788324	7925.523116
677.127473	7839.667225
677.466571	7836.559353
677.805619	7774.119622
678.144616	7769.088550
678.483562	7751.585664
678.822458	7701.766461
679.161303	7687.598298
679.500098	7667.368148
679.838842	7643.780589
680.177535	7659.561921
680.516179	7696.989968
680.854771	7706.041360
681.193314	7829.000143
681.531805	7985.064184
681.870247	8109.507587
682.208638	8259.875124
682.546978	8331.456988
682.885268	8365.497380
683.223508	8293.063561
683.561697	8240.847289
683.899836	8207.681538
684.237925	8118.337168
684.575963	8089.935307
684.913951	8016.707507
685.251889	8032.420783
685.589776	8027.011625
685.927614	8008.674428
686.265401	8036.095784
686.603137	8036.446145
686.940824	8114.906663
687.278460	8164.811566
687.616046	8168.385744
687.953582	8281.688197
688.291068	8265.160774
688.628504	8315.297570
688.965889	8324.565731
689.303224	8280.606869
689.640510	8236.602638
689.977745	8126.481152
690.314930	8009.440683
690.652065	7936.094416
690.989150	7825.640214
691.326185	7675.497009
691.663170	7560.299082
692.000105	7443.843387
692.336990	7330.034297
692.673825	7251.311639
693.010610	7155.590210
693.347345	7061.313071
693.684030	6947.047757
694.020665	6897.122690
694.357251	6785.690505
694.693786	6774.337827
695.030272	6737.454224
695.366707	6643.731613
695.703093	6592.231185
696.039429	6591.149858
696.375716	6548.315173
696.711952	6532.695158
697.048139	6503.045612
697.384276	6466.991279
697.720363	6490.054558
698.056400	6462.814683
698.392388	6430.571463
698.728326	6435.040446
699.064214	6408.443319
699.400053	6395.802625
699.735842	6342.943607
700.071581	6297.923582
700.407270	6249.649493
700.742910	6224.965483
701.078501	6181.755233
701.414042	6136.644468
701.749533	6079.124903
702.084974	6024.662797
702.420366	6060.833076
702.755709	5991.885215
703.091002	5944.407628
703.426246	5949.347958
703.761440	5934.584939
704.096584	5885.199276
704.431679	5874.562441
704.766725	5858.884453
705.101721	5843.415672
705.436668	5858.650039
705.771565	5807.487369
706.106413	5859.660790
706.441212	5860.802612
706.775961	5869.213777
707.110661	5886.116766
707.445311	5944.984840
707.779913	5912.744140
708.114465	5947.724707
708.448967	5992.177602
708.783421	6111.499193
709.117825	6150.484956
709.452180	6185.112642
709.786485	6248.684112
710.120742	6378.186313
710.454949	6381.304267
710.789107	6455.731862
711.123216	6577.145532
711.457275	6606.890860
711.791286	6716.213323
712.125247	6741.603094
712.459159	6709.702673
712.793023	6834.451066
713.126837	6662.416649
713.460602	6724.105249
713.794318	6679.186048
714.127985	6628.812318
714.461602	6479.269010
714.795171	6486.024156
715.128691	6317.891593
715.462162	6228.159054
715.795584	6156.183980
716.128957	6115.143947
716.462281	6048.613319
716.795556	6005.546742
717.128782	5924.358959
717.461960	5824.556716
717.795088	5817.244522
718.128167	5745.476135
718.461198	5662.647457
718.794180	5642.069467
719.127113	5582.200724
719.459997	5549.488677
719.792833	5484.455271
720.125619	5479.252801
720.458357	5420.999747
720.791046	5393.127208
721.123686	5365.897415
721.456278	5318.936547
721.788821	5308.448426
722.121315	5267.723465
722.453761	5281.347183
722.786158	5263.458648
723.118506	5265.270943
723.450805	5239.636676
723.783056	5265.732209
724.115259	5245.071040
724.447412	5232.851283
724.779518	5279.910454
725.111574	5281.833654
725.443582	5323.828986
725.775542	5312.758612
726.107453	5395.541920
726.439315	5368.912025
726.771129	5435.634217
727.102895	5503.657026
727.434612	5545.463315
727.766281	5572.909877
728.097901	5629.882477
728.429473	5645.613398
728.760996	5647.997864
729.092471	5673.856462
729.423897	5661.944216
729.755276	5633.396162
730.086606	5647.229088
730.417887	5742.915229
730.749120	5831.238765
731.080305	5866.436101
731.411442	5946.066167
731.742530	5968.756401
732.073570	5988.081664
732.404562	6056.641356
732.735506	6048.910747
733.066401	6020.831520
733.397249	5959.752900
733.728048	5863.844948
734.058798	5716.746599
734.389501	5595.179174
734.720156	5510.228170
735.050762	5406.365278
735.381320	5331.952806
735.711831	5275.267551
736.042293	5195.145973
736.372707	5190.513152
736.703073	5143.466584
737.033391	5174.676368
737.363661	5155.310775
737.693883	5173.539587
738.024056	5199.670408
738.354182	5226.721240
738.684260	5271.748826
739.014290	5309.151667
739.344272	5341.241132
739.674207	5395.458741
740.004093	5431.198002
740.333931	5439.044557
740.663722	5452.822031
740.993464	5465.371983
741.323159	5447.992606
741.652806	5406.312346
741.982405	5368.828846
742.311956	5320.935364
742.641460	5308.150998
742.970915	5258.379686
743.300323	5194.480540
743.629683	5160.856044
743.958996	5112.924753
744.288260	5061.462134
744.617477	4998.601467
744.946647	4987.659642
745.275768	4940.567703
745.604842	4900.054471
745.933869	4870.951889
746.262847	4856.055280
746.591778	4848.662428
746.920662	4818.465916
747.249498	4821.233510
747.578286	4835.081559
747.907027	4862.177761
748.235720	4899.562958
748.564365	4914.837654
748.892963	4896.790323
749.221514	4914.883025
749.550017	4888.311103
749.878473	4890.972832
750.206881	4845.776367
750.535242	4833.228935
750.863555	4818.095391
751.191821	4798.737361
751.520039	4805.800017
751.848210	4786.676400
752.176334	4797.920694
752.504411	4776.647024
752.832440	4748.512345
753.160421	4758.254375
753.488356	4736.337958
753.816243	4722.051328
754.144082	4687.519424
754.471875	4676.025594
754.799620	4669.131816
755.127318	4660.168644
755.454969	4655.682017
755.782572	4646.557529
756.110129	4648.100122
756.437638	4632.447339
756.765100	4628.379128
757.092515	4630.435919
757.419882	4636.986898
757.747203	4634.531856
758.074477	4645.612312
758.401703	4639.439420
758.728882	4665.734078
759.056014	4679.771171
759.383099	4700.981826
759.710138	4724.201380
760.037129	4750.478395
760.364073	4759.678501
760.690970	4758.697996
761.017820	4754.816308
761.344623	4792.798881
761.671379	4853.506977
761.998088	4942.899237
762.324751	5175.956821
762.651366	5630.734432
762.977935	6324.167829
763.304456	6878.155349
763.630931	7179.122316
763.957359	7110.098837
764.283740	6816.038251
764.610074	6493.734601
764.936362	6097.691472
765.262602	5782.447958
765.588796	5440.355257
765.914943	5187.818656
766.241044	4966.615345
766.567097	4792.998007
766.893104	4647.722035
767.219064	4549.091860
767.544978	4453.645174
767.870845	4369.067215
768.196665	4320.331861
768.522438	4270.704222
768.848165	4231.247110
769.173846	4189.902087
769.499479	4163.801513
769.825066	4125.813898
770.150607	4081.991148
770.476101	4072.085281
770.801548	4046.703071
771.126949	4017.512270
771.452303	3997.816482
771.777611	3961.336172
772.102872	3962.379691
772.428087	3933.382974
772.753256	3908.819952
773.078378	3890.994432
773.403453	3857.569061
773.728482	3833.376564
774.053465	3818.732012
774.378401	3798.383394
774.703291	3776.834982
775.028135	3756.047784
775.352932	3742.741659
775.677683	3725.611818
776.002388	3706.190773
776.327046	3708.620609
776.651658	3687.210828
776.976224	3667.799866
777.300743	3665.095287
777.625216	3652.958709
777.949643	3639.924805
778.274024	3645.124756
778.598359	3623.089872
778.922647	3626.394348
779.246889	3618.336064
779.571086	3613.889766
779.895236	3616.107874
780.219339	3613.002523
780.543397	3617.768934
780.867409	3632.058085
781.191374	3630.797796
781.515294	3622.157259
781.839167	3638.115031
782.162995	3635.889362
782.486776	3629.839977
782.810511	3622.492495
783.134201	3606.698560
783.457844	3601.962396
783.781441	3598.393259
784.104993	3586.037391
784.428498	3585.117381
784.751958	3581.938933
785.075372	3577.427101
785.398739	3565.741706
785.722061	3577.868202
786.045337	3571.365113
786.368568	3597.352261
786.691752	3591.711210
787.014891	3640.643170
787.337983	3682.588090
787.661030	3772.277779
787.984031	3869.877038
788.306987	3944.531485
788.629897	3989.183506
788.952760	4001.499044
789.275579	3982.899707
789.598351	3933.148560
789.921078	3883.987228
790.243759	3820.824091
790.566395	3778.556536
790.888984	3725.011921
791.211529	3690.721992
791.534027	3646.616937
791.856480	3606.154116
792.178888	3587.799275
792.501249	3568.842016
792.823566	3538.151471
793.145836	3533.402704
793.468062	3522.145807
793.790241	3506.354393
794.112375	3512.582739
794.434464	3534.267262
794.756507	3536.538302
795.078505	3554.464645
795.400457	3589.069645
795.722364	3638.155360
796.044226	3686.860468
796.366042	3729.274216
796.687812	3726.166345
797.009538	3750.721805
797.331218	3741.229313
797.652852	3738.408787
797.974442	3709.525496
798.295986	3703.871842
798.617484	3678.028367
798.938938	3652.454593
799.260346	3632.481542
799.581709	3597.316973
799.903026	3590.035026
800.224299	3567.284299
800.545526	3539.252963
800.866708	3523.995911
801.187845	3508.189373
801.508936	3487.054336
801.829983	3476.261225
802.150984	3448.113943
802.471940	3437.068775
802.792851	3434.696912
803.113717	3428.836570
803.434538	3419.097061
803.755314	3407.646080
804.076045	3405.480905
804.396731	3391.453894
804.717372	3393.702249
805.037967	3389.812998
805.358518	3393.929101
805.679024	3407.051224
805.999485	3402.224319
806.319901	3409.702871
806.640272	3413.171185
806.960598	3424.743153
807.280879	3421.647885
807.601115	3434.417128
807.921306	3425.338010
808.241453	3425.632917
808.561554	3432.604833
808.881611	3429.537291
809.201623	3431.503341
809.521590	3422.653595
809.841513	3421.552103
810.161390	3429.547373
810.481223	3404.336563
810.801011	3405.082653
811.120755	3402.758682
811.440453	3387.133625
811.760107	3386.949623
812.079716	3378.127604
812.399281	3369.784494
812.718801	3366.719473
813.038276	3358.885520
813.357707	3351.434694
813.677093	3363.246118
813.996434	3344.195597
814.315731	3348.528469
814.634983	3351.366639
814.954191	3349.261957
815.273354	3370.462529
815.592473	3378.135166
815.911547	3397.283988
816.230577	3412.248654
816.549562	3441.086574
816.868502	3456.240283
817.187399	3478.310454
817.506250	3504.451358
817.825058	3511.219107
818.143821	3554.058832
818.462539	3600.686984
818.781213	3657.059687
819.099843	3737.803848
819.418429	3892.836973
819.736970	4042.707957
820.055466	4230.667378
820.373919	4462.091627
820.692327	4797.787103
821.010691	5311.732738
821.329011	6382.587241
821.647286	8109.938606
821.965517	10259.761349
822.283704	11869.119467
822.601847	12939.830297
822.919945	12529.273687
823.237999	11859.006913
823.556010	10969.775101
823.873976	10022.328044
824.191897	9057.836846
824.509775	8304.330539
824.827609	7510.038778
825.145398	6958.612164
825.463144	6582.582417
825.780845	6456.170443
826.098502	6515.318301
826.416116	6892.043728
826.733685	7389.797176
827.051210	7666.445617
827.368692	7576.614776
827.686129	7134.074565
828.003522	6594.524910
828.320872	6038.694849
828.638177	5579.939766
828.955439	5211.796904
829.272656	4879.027818
829.589830	4599.727730
829.906960	4336.829037
830.224046	4131.013848
830.541088	3962.606542
830.858086	3844.847709
831.175041	3748.609562
831.491952	3706.417625
831.808819	3685.764017
832.125642	3723.696179
832.442421	3823.601766
832.759157	4043.111249
833.075849	4415.314761
833.392497	4875.249473
833.709101	5259.385396
834.025662	5365.022775
834.342179	5237.433692
834.658653	4969.065346
834.975083	4701.773287
835.291469	4458.497285
835.607811	4242.945108
835.924110	4081.827310
836.240366	3923.091458
836.556578	3763.095317
836.872746	3628.930049
837.188871	3511.519055
837.504952	3418.940785
837.820990	3347.053932
838.136984	3295.011580
838.452935	3261.356837
838.768842	3251.498860
839.084706	3281.402985
839.400526	3418.096392
839.716303	3643.781288
840.032037	3850.113194
840.347727	3918.325047
840.663373	3823.140501
840.978977	3676.115249
841.294537	3546.318140
841.610054	3441.842747
841.925527	3365.323073
842.240957	3299.941828
842.556344	3237.613002
842.871687	3179.455731
843.186987	3117.525156
843.502244	3066.808627
843.817458	3030.998791
844.132629	2993.782473
844.447756	2972.838999
844.762840	2951.575412
845.077881	2932.449275
845.392879	2920.665578
845.707833	2910.222827
846.022745	2896.997360
846.337613	2893.834036
846.652438	2885.299363
846.967221	2882.095709
847.281960	2874.294524
847.596656	2869.066847
847.911309	2862.778008
848.225919	2860.350692
848.540485	2856.075794
848.855009	2854.129908
849.169490	2849.527335
849.483928	2845.567509
849.798323	2843.593897
850.112675	2837.657938
850.426984	2841.768999
850.741251	2837.806652
851.055474	2834.199707
851.369654	2834.668534
851.683792	2833.526713
851.997887	2834.003102
852.311938	2833.872032
852.625947	2834.913030
852.939914	2830.857422
853.253837	2834.260201
853.567718	2835.306240
853.881555	2831.863132
854.195350	2834.923112
854.509103	2831.600992
854.822812	2832.049655
855.136479	2830.633090
855.450103	2834.378668
855.763685	2830.514623
856.077224	2828.213337
856.390720	2831.689212
856.704173	2836.748010
857.017584	2835.369254
857.330953	2836.589214
857.644278	2840.594410
857.957561	2846.144721
858.270802	2843.288907
858.584000	2844.345029
858.897155	2844.773527
859.210268	2838.270438
859.523339	2838.088957
859.836367	2835.729697
860.149352	2835.976713
860.462295	2839.455110
860.775195	2829.380364
861.088054	2830.126454
861.400869	2826.559838
861.713642	2825.380208
862.026373	2829.332473
862.339062	2830.249963
862.651708	2834.325736
862.964312	2837.670541
863.276873	2842.542816
863.589392	2847.825946
863.901869	2854.253417
864.214303	2862.780528
864.526696	2867.867053
864.839045	2876.147148
865.151353	2881.367263
865.463619	2884.613766
865.775842	2886.927655
866.088023	2890.106103
866.400162	2892.109962
866.712258	2889.680125
867.024313	2894.171793
867.336325	2895.124572
867.648296	2897.592216
867.960224	2897.622463
868.272110	2897.483832
868.583954	2895.106928
868.895755	2900.455592
869.207515	2900.327042
869.519233	2909.953126
869.830909	2908.256777
870.142542	2915.251378
870.454134	2913.802047
870.765684	2923.786052
871.077191	2926.130188
871.388657	2933.399532
871.700081	2936.230140
872.011463	2945.268929
872.322803	2948.691872
872.634101	2952.394600
872.945357	2963.167546
873.256571	2972.723053
873.567744	2976.362766
873.878874	2981.224959
874.189963	2991.425733
874.501010	2994.049654
874.812015	2992.108810
875.122979	3000.172135
875.433900	2999.259687
875.744780	3003.630367
876.055618	3012.996831
876.366415	3011.832324
876.677169	3019.512522
876.987882	3024.271371
877.298554	3037.796787
877.609183	3048.534445
877.919771	3064.774522
878.230317	3089.004828
878.540822	3126.450519
878.851285	3173.867612
879.161707	3241.923189
879.472087	3346.441431
879.782425	3509.381606
880.092722	3785.341929
880.402977	4198.673695
880.713191	4734.717227
881.023363	5325.858051
881.333494	5763.921717
881.643583	6042.251383
881.953631	6123.913034
882.263637	6061.158230
882.573602	5922.602117
882.883526	5758.071458
883.193408	5557.932609
883.503248	5341.220967
883.813048	5124.819356
884.122806	4909.204165
884.432522	4669.761960
884.742197	4449.158547
885.051831	4241.127772
885.361424	4048.298596
885.670975	3883.531003
885.980485	3736.881317
886.289954	3613.821711
886.599382	3513.991741
886.908768	3430.028803
887.218113	3348.525948
887.527417	3289.088224
887.836680	3235.730131
888.145901	3185.878161
888.455082	3150.766524
888.764221	3118.568675
889.073319	3088.649427
889.382376	3069.329204
889.691392	3050.709703
890.000366	3045.303065
890.309300	3034.653628
890.618193	3032.463246
890.927044	3028.531146
891.235855	3029.231867
891.544625	3032.884183
891.853353	3038.018598
892.162041	3049.877912
892.470687	3076.021336
892.779293	3112.630195
893.087858	3159.331445
893.396381	3234.563104
893.704864	3338.794001
894.013306	3496.599760
894.321707	3682.026002
894.630068	3832.121316
894.938387	3907.715939
895.246665	3913.586362
895.554903	3857.006972
895.863100	3770.263838
896.171256	3693.963454
896.479371	3624.508957
896.787446	3547.205383
897.095480	3475.439517
897.403473	3424.009666
897.711425	3364.274513
898.019336	3316.517142
898.327207	3263.075870
898.635038	3217.466031
898.942827	3165.358144
899.250576	3125.293574
899.558284	3083.908221
899.865952	3058.377298
900.173579	3030.421579
900.481165	3010.478774
900.788711	2989.132008
901.096216	2977.088692
901.403681	2961.713173
901.711105	2954.610187
902.018489	2948.132304
902.325832	2957.304684
902.633135	2966.174594
902.940397	3004.724297
903.247619	3092.853749
903.554800	3267.703649
903.861941	3538.960576
904.169041	3800.225936
904.476101	3966.946976
904.783121	3991.691480
905.090100	3924.140018
905.397039	3818.452228
905.703938	3714.044890
906.010796	3612.871453
906.317614	3524.943648
906.624391	3443.529013
906.931129	3373.749362
907.237826	3307.430462
907.544483	3242.495360
907.851099	3169.501972
908.157675	3096.359871
908.464211	3025.408152
908.770707	2970.394040
909.077163	2921.840166
909.383578	2885.712737
909.689954	2856.660568
909.996289	2841.121211
910.302584	2827.822647
910.608839	2815.580205
910.915054	2810.344967
911.221229	2804.015798
911.527363	2803.335242
911.833458	2804.759368
912.139513	2807.279945
912.445527	2810.660039
912.751502	2822.237049
913.057436	2839.064420
913.363331	2854.555886
913.669186	2883.666029
913.975000	2921.910743
914.280775	2980.171358
914.586510	3060.827298
914.892205	3168.972651
915.197859	3316.665856
915.503475	3494.001046
915.809050	3669.960000
916.114585	3800.077222
916.420081	3871.525495
916.725536	3901.550608
917.030952	3864.092314
917.336328	3826.608815
917.641665	3781.535858
917.946961	3719.920355
918.252218	3660.558248
918.557435	3585.818101
918.862612	3524.898278
919.167750	3466.665389
919.472848	3393.240983
919.777906	3325.593740
920.082925	3255.604880
920.387904	3185.169879
920.692843	3131.282465
920.997743	3080.502922
921.302603	3030.943338
921.607423	2998.811024
921.912204	2962.955817
922.216946	2935.123607
922.521647	2914.006213
922.826310	2889.987636
923.130932	2872.799822
923.435516	2852.017665
923.740059	2841.206911
924.044564	2823.514981
924.349028	2815.121460
924.653454	2796.585137
924.957840	2783.286573
925.262186	2773.345418
925.566493	2762.990888
925.870761	2749.304155
926.174989	2745.225862
926.479178	2738.483319
926.783328	2732.116341
927.087438	2725.638459
927.391509	2717.161758
927.695541	2710.913248
927.999533	2708.518700
928.303486	2702.860005
928.607400	2699.505117
928.911275	2694.816844
929.215110	2693.707790
929.518906	2693.002029
929.822663	2690.978005
930.126381	2687.335772
930.430060	2689.357274
930.733699	2690.249559
931.037299	2688.870803
931.340861	2690.819209
931.644383	2691.018335
931.947866	2689.773170
932.251309	2691.038499
932.554714	2691.729137
932.858080	2690.020186
933.161407	2686.388035
933.464694	2685.072294
933.767943	2687.386183
934.071153	2685.873837
934.374323	2683.018023
934.677455	2682.463497
934.980548	2681.611542
935.283602	2680.089113
935.586617	2677.835717
935.889593	2680.222704
936.192530	2679.650533
936.495428	2680.016016
936.798287	2684.928621
937.101108	2691.497244
937.403890	2691.247707
937.706632	2704.460571
938.009336	2714.615976
938.312002	2728.406052
938.614628	2736.101373
938.917216	2748.474886
939.219765	2755.338417
939.522275	2762.708583
939.824747	2765.024994
940.127179	2762.786721
940.429573	2763.527771
940.731929	2763.686567
941.034246	2762.065836
941.336524	2763.810076
941.638763	2762.786721
941.940964	2764.467946
942.243126	2755.585433
942.545250	2750.622417
942.847335	2747.544793
943.149381	2741.427352
943.451389	2735.352762
943.753359	2729.351268
944.055290	2723.649723
944.357182	2721.439177
944.659036	2716.667725
944.960851	2715.951882
945.262628	2711.951726
945.564367	2708.710264
945.866067	2709.350491
946.167729	2705.683051
946.469352	2707.200438
946.770937	2704.652135
947.072484	2701.012422
947.373992	2700.599047
947.675462	2702.522248
947.976893	2699.432020
948.278286	2698.829602
948.579641	2697.554191
948.880958	2697.171063
949.182236	2696.155270
949.483476	2693.816175
949.784678	2694.867256
950.085841	2695.378933
950.386967	2694.083356
950.688054	2696.409849
950.989103	2699.008563
951.290114	2702.013091
951.591087	2705.551981
951.892021	2710.436859
952.192917	2717.612942
952.493776	2719.851214
952.794596	2721.388766
953.095378	2721.933211
953.396122	2723.548900
953.696828	2725.305742
953.997496	2721.419013
954.298126	2718.207798
954.598718	2716.887016
954.899272	2710.920810
955.199788	2710.615820
955.500266	2705.826724
955.800706	2696.006556
956.101108	2688.167562
956.401472	2684.172448
956.701798	2679.947961
957.002087	2671.564522
957.302337	2665.258038
957.602550	2663.090342
957.902724	2656.375525
958.202861	2653.232366
958.502960	2645.849596
958.803022	2644.697692
959.103045	2638.698719
959.403031	2636.364665
959.702979	2631.320991
960.002889	2629.075157
960.302762	2626.486524
960.602596	2624.359157
960.902393	2624.210443
961.202153	2621.647017
961.501875	2621.382356
961.801559	2619.832201
962.101205	2616.086624
962.400814	2615.832046
962.700385	2616.636110
962.999918	2614.113012
963.299414	2612.298197
963.598873	2612.706530
963.898293	2610.914400
964.197677	2612.925820
964.497022	2608.736622
964.796331	2608.950871
965.095601	2607.677979
965.394835	2608.315685
965.694030	2609.775099
965.993189	2608.608072
966.292309	2607.625047
966.591393	2605.777464
966.890439	2607.065479
967.189447	2605.928699
967.488419	2604.920468
967.787353	2607.864502
968.086249	2604.837289
968.385108	2605.714450
968.683930	2605.953905
968.982714	2607.743514
969.281462	2608.887856
969.580172	2610.185953
969.878844	2608.368617
970.177480	2611.168978
970.476078	2611.274842
970.774639	2613.104781
971.073162	2615.090996
971.371649	2611.768876
971.670098	2614.155862
971.968510	2615.443877
972.266885	2613.881119
972.565223	2620.575771
972.863524	2619.181892
973.161788	2623.330762
973.460014	2621.964609
973.758204	2623.338324
974.056356	2621.339506
974.354471	2624.255814
974.652550	2623.852521
974.950591	2623.842439
975.248595	2622.080556
975.546563	2624.548201
975.844493	2622.007459
976.142386	2623.343365
976.440243	2621.430247
976.738062	2621.785648
977.035845	2622.907305
977.333590	2617.767849
977.631299	2618.854217
977.928971	2617.820781
978.226606	2616.210132
978.524204	2615.663167
978.821765	2611.756273
979.119290	2613.412292
979.416777	2612.570419
979.714228	2614.728033
980.011642	2613.477827
980.309020	2616.815071
980.606360	2616.575616
980.903664	2620.752212
981.200931	2627.570372
981.498162	2634.050776
981.795356	2645.433701
982.092513	2659.768222
982.389633	2673.817918
982.686717	2695.013449
982.983764	2710.000799
983.280775	2723.921946
983.577749	2726.833212
983.874686	2731.042576
984.171587	2722.880947
984.468451	2717.922973
984.765279	2712.105481
985.062070	2707.936447
985.358824	2699.915971
985.655543	2689.626976
985.952224	2683.297807
986.248869	2668.965807
986.545478	2654.414517
986.842050	2641.977990
987.138586	2631.202524
987.435086	2621.228601
987.731549	2617.349433
988.027975	2615.756428
988.324366	2608.076230
988.620719	2606.367279
988.917037	2603.486260
989.213318	2598.699684
989.509563	2597.451999
989.805772	2599.929726
990.101944	2598.044334
990.398080	2595.690115
990.694180	2597.809921
990.990244	2597.215064
991.286271	2595.611977
991.582262	2597.073912
991.878217	2596.264807
992.174136	2600.045672
992.470019	2597.114241
992.765865	2598.808069
993.061676	2599.662545
993.357450	2601.031218
993.653188	2603.846702
993.948890	2604.628081
994.244556	2604.963318
994.540186	2609.467589
994.835780	2617.755246
995.131337	2624.901081
995.426859	2631.391567
995.722345	2640.450520
996.017795	2646.789771
996.313208	2656.685556
996.608586	2662.026659
996.903928	2666.147802
997.199234	2668.118893
997.494504	2669.414470
997.789738	2665.573111
998.084936	2667.355158
998.380099	2659.453150
998.675225	2651.316727
998.970316	2649.171717
999.265371	2641.703247
999.560390	2633.791156
999.855373	2628.951648
1000.150320	2623.187089
1000.445232	2618.561830
1000.740108	2614.811212
1001.034948	2609.931375
1001.329752	2604.129007
1001.624521	2601.215220
1001.919254	2596.491659
1002.213951	2595.503593
1002.508613	2592.393201
1002.803239	2591.715166
1003.097829	2589.010587
1003.392384	2590.875813
1003.686903	2589.555031
1003.981386	2592.310022
1004.275834	2590.185175
1004.570246	2589.905391
1004.864623	2587.679722
1005.158964	2587.246183
1005.453270	2586.333734
1005.747540	2588.093097
1006.041775	2588.302304
1006.335974	2586.328693
1006.630138	2584.760894
1006.924266	2587.720051
1007.218359	2587.528487
1007.512416	2585.201995
1007.806438	2584.009762
1008.100425	2586.822726
1008.394376	2584.009762
1008.688292	2585.663260
1008.982172	2584.745770
1009.276017	2583.472879
1009.569827	2581.383321
1009.863602	2585.552355
1010.157341	2586.053950
1010.451045	2582.822570
1010.744714	2585.844742
1011.038347	2583.140163
1011.331945	2583.462797
1011.625508	2580.596901
1011.919036	2583.503126
1012.212528	2582.855338
1012.505986	2583.301480
1012.799408	2582.436922
1013.092795	2583.127560
1013.386147	2581.698393
1013.679464	2582.749473
1013.972745	2581.254771
1014.265992	2581.680749
1014.559204	2582.789803
1014.852380	2582.399113
1015.145521	2581.448856
1015.438628	2580.233938
1015.731699	2583.064546
1016.024736	2581.408527
1016.317737	2586.172417
1016.610703	2585.219639
1016.903635	2577.489029
1017.196531	2578.872826
1017.489393	2579.054308
1017.782219	2579.432394
1018.075011	2580.954823
1018.367768	2585.310380
1018.660490	2582.908270
1018.953177	2582.908270
1019.245829	2582.908270
