Dividing Wavelength (nm)	Counts (n)	Blue Motor Position (mm): 6.000000	Red Motor Position (mm): 0.000000	
326.493990	2063.329146
326.888308	2063.329146
327.282561	2063.329146
327.676750	2039.791998
328.070874	2040.631351
328.464933	2047.759542
328.858929	2057.700698
329.252859	2065.060782
329.646726	2077.837587
330.040528	2096.971286
330.434265	2113.322268
330.827938	2137.000568
331.221547	2158.324649
331.615091	2175.779644
332.008571	2197.151616
332.401986	2217.230532
332.795338	2233.460526
333.188625	2254.298136
333.581847	2274.016609
333.975006	2290.833898
334.368100	2309.481126
334.761129	2327.571307
335.154095	2344.557475
335.546996	2361.011801
335.939833	2373.375231
336.332606	2385.771428
336.725315	2399.122924
337.117960	2408.766651
337.510540	2419.373239
337.903056	2430.284817
338.295508	2435.610796
338.687896	2442.786878
339.080220	2446.524894
339.472480	2451.084617
339.864676	2454.620987
340.256807	2457.872531
340.648875	2460.688015
341.040879	2459.568879
341.432818	2462.780094
341.824694	2466.001392
342.216506	2460.695577
342.608253	2465.194807
342.999937	2460.937552
343.391557	2463.422841
343.783113	2458.429578
344.174605	2461.056020
344.566033	2457.013014
344.957397	2457.050823
345.348697	2454.391614
345.739934	2455.074691
346.131106	2449.781479
346.522215	2447.422219
346.913260	2446.411468
347.304241	2446.504729
347.695159	2443.515325
348.086012	2443.802671
348.476802	2439.255550
348.867528	2440.382248
349.258191	2435.482246
349.648789	2434.012750
350.039324	2431.517379
350.429796	2434.645415
350.820203	2436.251022
351.210548	2433.985023
351.600828	2432.505445
351.991045	2429.594178
352.381198	2433.309509
352.771288	2430.766247
353.161314	2432.132399
353.551276	2431.804724
353.941175	2433.329673
354.331010	2433.659869
354.720782	2431.141813
355.110490	2434.481577
355.500135	2431.991247
355.889717	2432.321443
356.279235	2434.221958
356.668689	2433.579211
357.058080	2432.175249
357.447408	2433.039807
357.836672	2432.192893
358.225873	2437.816300
358.615010	2434.370672
359.004084	2435.905703
359.393095	2434.736155
359.782043	2436.800508
360.170927	2438.791764
360.559748	2436.024170
360.948505	2438.728749
361.337199	2440.417536
361.725830	2438.050714
362.114398	2440.904007
362.502903	2437.995261
362.891344	2441.370314
363.279722	2441.045159
363.668037	2440.883843
364.056289	2440.634305
364.444478	2440.115067
364.832603	2443.474996
365.220665	2439.278235
365.608665	2442.272680
365.996601	2442.638164
366.384474	2441.566919
366.772284	2442.958277
367.160031	2443.906014
367.547715	2447.170161
367.935336	2442.267639
368.322893	2445.902311
368.710388	2440.904007
369.097820	2441.977773
369.485189	2439.588266
369.872495	2449.121088
370.259738	2444.480706
370.646918	2446.353494
371.034035	2445.108329
371.421090	2447.785182
371.808081	2446.381221
372.195010	2444.490788
372.581875	2446.673608
372.968678	2450.194854
373.355418	2446.562702
373.742096	2449.521860
374.128710	2448.987497
374.515262	2449.214349
374.901751	2451.840790
375.288177	2448.957250
375.674540	2450.109154
376.060841	2447.558330
376.447079	2450.555296
376.833254	2450.676284
377.219367	2451.719803
377.605417	2451.898764
377.991404	2448.682508
378.377329	2450.262909
378.763191	2452.191151
379.148991	2451.760132
379.534727	2451.840790
379.920402	2453.738785
380.306013	2452.140739
380.691563	2452.322221
381.077049	2452.725513
381.462474	2453.310287
381.847835	2454.048816
382.233134	2453.973198
382.618371	2452.836418
383.003545	2453.116202
383.388657	2453.821964
383.773706	2454.245421
384.158693	2454.988991
384.543618	2456.042592
384.928480	2454.563013
385.313280	2457.484362
385.698017	2454.752057
386.082692	2453.673250
386.467305	2453.491768
386.851856	2455.238528
387.236344	2453.670729
387.620770	2450.492282
388.005133	2453.423713
388.389435	2453.847170
388.773674	2452.801130
389.157851	2459.485700
389.541965	2457.365895
389.926018	2459.785649
390.310008	2460.846812
390.693936	2457.650720
391.077802	2458.424537
391.461606	2457.436471
391.845348	2458.737089
392.229027	2458.437140
392.612645	2458.865638
392.996200	2458.422017
393.379694	2456.014866
393.763125	2458.721965
394.146494	2461.504682
394.529801	2460.584672
394.913047	2461.197172
395.296230	2459.919239
395.679351	2456.904629
396.062410	2461.943263
396.445408	2459.034517
396.828343	2458.651389
397.211217	2459.306739
397.594028	2461.668520
397.976778	2460.093159
398.359466	2461.623149
398.742092	2461.121555
399.124656	2463.992492
399.507158	2461.625670
399.889598	2462.661627
400.271977	2464.153809
400.654294	2462.898561
401.036549	2463.760599
401.418742	2461.174487
401.800874	2462.318829
402.182944	2462.838067
402.564952	2461.653396
402.946898	2463.352265
403.328783	2463.611885
403.710606	2464.733541
404.092367	2463.470732
404.474067	2463.798407
404.855705	2467.662452
405.237282	2462.026442
405.618797	2464.005095
406.000250	2465.146916
406.381642	2466.540795
406.762972	2464.920064
407.144240	2459.188272
407.525447	2462.086936
407.906593	2459.899075
408.287677	2468.590024
408.668700	2466.374437
409.049661	2465.751854
409.430560	2464.055506
409.811399	2466.550877
410.192176	2464.383181
410.572891	2466.818058
410.953545	2463.989971
411.334138	2467.624643
411.714669	2466.124900
412.095139	2468.849643
412.475547	2466.392081
412.855894	2468.869808
413.236180	2467.296968
413.616405	2467.581793
413.996568	2466.928964
414.376670	2466.686988
414.756711	2468.101032
415.136691	2470.586321
415.516609	2467.831330
415.896466	2468.993316
416.276262	2470.114973
416.655997	2465.552729
417.035670	2468.776547
417.415283	2469.389047
417.794834	2469.986424
418.174324	2470.301496
418.553753	2470.193111
418.933121	2469.837710
419.312428	2467.715384
419.691674	2468.622792
420.070859	2473.318626
420.449983	2471.531537
420.829045	2469.588173
421.208047	2470.515745
421.586988	2470.946763
421.965867	2473.875674
422.344686	2473.013637
422.723444	2470.603965
423.102141	2469.308388
423.480777	2471.760910
423.859352	2472.151599
424.237866	2473.003554
424.616319	2473.701754
424.994712	2472.691003
425.373044	2469.283183
425.751314	2469.197483
426.129524	2468.463995
426.507673	2468.791670
426.885762	2470.016671
427.263789	2472.738894
427.641756	2471.965077
428.019662	2470.853502
428.397508	2473.232927
428.775292	2473.114460
429.153016	2472.421301
429.530679	2471.390385
429.908282	2476.366004
430.285824	2472.970787
430.663305	2473.726960
431.040726	2475.135962
431.418086	2474.445324
431.795385	2474.629326
432.172624	2471.592031
432.549802	2473.905921
432.926920	2472.086064
433.303977	2474.188225
433.680974	2471.944912
434.057910	2472.633029
434.434786	2474.246199
434.811601	2474.266363
435.188355	2473.898359
435.565050	2472.070941
435.941683	2472.728811
436.318257	2474.394913
436.694770	2474.394913
437.071222	2471.778554
437.447614	2474.853658
437.823946	2476.550006
438.200218	2474.399954
438.576429	2475.216621
438.952580	2476.323154
439.328670	2474.717547
439.704700	2475.612351
440.080670	2475.413226
440.456580	2478.185860
440.832429	2476.759214
441.208218	2475.884574
441.583947	2477.349029
441.959616	2476.098823
442.335224	2475.113277
442.710773	2476.907928
443.086261	2479.710809
443.461689	2475.176292
443.837057	2476.907928
444.212365	2479.647795
444.587612	2476.378607
444.962800	2472.247381
445.337927	2475.637557
445.712995	2471.198821
446.088002	2479.559575
446.462949	2477.817856
446.837837	2477.338947
447.212664	2478.674852
447.587431	2476.229893
447.962139	2480.300624
448.336786	2478.344657
448.711374	2475.992958
449.085901	2476.645788
449.460369	2475.748462
449.834776	2477.293576
450.209124	2477.893473
450.583412	2479.103350
450.957640	2477.296097
451.331808	2478.939513
451.705917	2476.706282
452.079965	2479.950264
452.453954	2478.037146
452.827883	2479.589822
453.201752	2476.600418
453.575562	2478.637044
453.949311	2478.314410
454.323001	2476.852475
454.696632	2479.186529
455.070202	2479.239462
455.443713	2477.180150
455.817164	2479.425984
456.190556	2478.304327
456.563888	2482.402786
456.937160	2480.182157
457.310373	2479.481437
457.683526	2478.916828
458.056619	2480.741725
458.429653	2480.376242
458.802628	2481.298773
459.175542	2477.991776
459.548398	2478.798361
459.921194	2478.863896
460.293930	2479.902373
460.666607	2480.741725
461.039224	2479.728453
461.411782	2480.169554
461.784280	2481.729792
462.156719	2479.859523
462.529099	2480.570326
462.901419	2479.410861
463.273680	2475.304841
463.645882	2477.575881
464.018024	2480.184678
464.390106	2476.650829
464.762130	2481.795327
465.134094	2479.244503
465.505999	2483.411016
465.877845	2480.996304
466.249631	2481.321458
466.621358	2479.247023
466.993026	2481.404637
467.364634	2485.301449
467.736184	2481.613845
468.107674	2483.085862
468.479105	2481.518063
468.850477	2481.636530
469.221790	2482.982518
469.593043	2480.867754
469.964238	2481.472693
470.335373	2483.151397
470.706449	2480.814822
471.077467	2483.136273
471.448425	2482.785913
471.819324	2480.620738
472.190164	2480.698876
472.560945	2482.894298
472.931667	2481.926397
473.302330	2482.049905
473.672934	2481.659215
474.043479	2481.429843
474.413965	2482.107878
474.784393	2481.855820
475.154761	2480.333392
475.525070	2482.770790
475.895321	2482.009576
476.265513	2487.106182
476.635645	2484.288177
477.005719	2483.426140
477.375734	2483.532004
477.745691	2480.686273
478.115588	2485.608959
478.485427	2481.964205
478.855207	2480.774493
479.224928	2483.126191
479.594591	2482.412868
479.964194	2484.867910
480.333739	2481.505460
480.703226	2484.656181
481.072653	2483.983187
481.442022	2483.927735
481.811333	2481.558392
482.180584	2481.747436
482.549777	2484.081490
482.918912	2479.375573
483.287988	2482.866572
483.657005	2483.854638
484.025964	2485.719865
484.394864	2484.116778
484.763706	2484.956130
485.132489	2483.342961
485.501213	2486.160966
485.869879	2483.436222
486.238487	2486.362612
486.607036	2481.165182
486.975527	2483.103506
487.343959	2486.844042
487.712333	2485.339258
488.080648	2481.286170
488.448905	2485.770276
488.817104	2486.075266
489.185244	2484.545276
489.553326	2482.135604
489.921350	2484.494864
490.289315	2485.019144
490.657222	2484.988897
491.025070	2486.705410
491.392861	2485.576192
491.760593	2484.855307
492.128267	2483.476551
492.495883	2486.569299
492.863440	2484.434371
493.230939	2485.775318
493.598380	2484.172231
493.965763	2486.314721
494.333088	2483.670636
494.700354	2487.663230
495.067563	2483.317755
495.434713	2483.748774
495.801805	2486.715493
496.168839	2485.039309
496.535815	2488.006028
496.902733	2489.518374
497.269593	2485.775317
497.636395	2487.617859
498.003139	2486.208857
498.369825	2485.853455
498.736453	2485.056953
499.103023	2484.600729
499.469535	2485.447643
499.835989	2486.274392
500.202385	2481.656695
500.568723	2484.366315
500.935003	2483.174082
501.301226	2482.123002
501.667390	2486.844042
502.033497	2489.029382
502.399546	2487.413693
502.765537	2491.910402
503.131470	2486.445791
503.497345	2486.586943
503.863163	2485.298928
504.228923	2484.908239
504.594625	2489.515854
504.960269	2487.774135
505.325856	2484.532673
505.691385	2485.677015
506.056856	2487.580051
506.422270	2485.503095
506.787625	2488.253045
507.152924	2487.285143
507.518164	2485.215749
507.883347	2486.042499
508.248472	2487.194402
508.613540	2487.035606
508.978550	2489.014259
509.343503	2485.235914
509.708398	2486.531491
510.073236	2485.709783
510.438016	2486.370174
510.802738	2484.709113
511.167403	2487.474186
511.532010	2486.549135
511.896561	2487.963178
512.261053	2488.621049
512.625488	2485.994608
512.989866	2487.638024
513.354186	2485.281284
513.718449	2489.848570
514.082655	2487.771614
514.446803	2487.454022
514.810894	2487.955617
515.174927	2488.069043
515.538904	2485.339258
515.902822	2487.201964
516.266684	2488.258086
516.630488	2487.486789
516.994235	2487.544763
517.357925	2485.911429
517.721558	2488.212715
518.085133	2487.141470
518.448651	2483.363125
518.812112	2483.748774
519.175516	2485.767756
519.538863	2480.774493
519.902152	2486.113075
520.265385	2487.343116
520.628560	2490.440905
520.991678	2487.504433
521.354739	2486.763384
521.717743	2487.867396
522.080690	2485.079638
522.443580	2485.142653
522.806413	2489.490648
523.169189	2488.701707
523.531908	2488.023672
523.894569	2487.701038
524.257174	2487.055771
524.619722	2485.450163
524.982213	2490.803868
525.344647	2490.730772
525.707025	2487.461583
526.069345	2486.937303
526.431608	2489.409989
526.793815	2485.215749
527.155964	2489.510812
527.518057	2487.519557
527.880093	2487.204485
528.242072	2488.124495
528.603995	2487.161635
528.965860	2485.969402
529.327669	2488.600884
529.689421	2487.166676
530.051117	2488.056440
530.412755	2488.416882
530.774337	2486.160966
531.135862	2487.872438
531.497331	2485.976964
531.858743	2487.713641
532.220098	2487.640544
532.581396	2490.488796
532.942638	2488.255565
533.303824	2489.094917
533.664953	2487.396048
534.026025	2489.346975
534.387040	2488.011069
534.747999	2487.116264
535.108902	2488.457211
535.469748	2485.475369
535.830537	2488.250524
536.191270	2487.950575
536.551947	2486.675163
536.912567	2482.722899
537.273131	2485.629124
537.633638	2480.792137
537.994089	2488.278250
538.354483	2488.401759
538.714821	2487.423775
539.075103	2488.053919
539.435328	2487.753970
539.795497	2487.017962
540.155609	2489.311687
540.515665	2489.089876
540.875665	2489.581389
541.235609	2488.936121
541.595496	2490.398056
541.955328	2488.457211
542.315102	2488.691625
542.674821	2488.084166
543.034483	2492.051554
543.394090	2487.673312
543.753640	2490.879486
544.113134	2485.326655
544.472571	2491.963334
544.831953	2490.246821
545.191278	2490.947541
545.550548	2487.678353
545.909761	2489.352016
546.268918	2487.244814
546.628019	2490.665237
546.987064	2486.793631
547.346053	2487.423775
547.704986	2486.899495
548.063863	2489.359578
548.422684	2490.158601
548.781449	2490.019969
549.140158	2490.140957
549.498811	2488.794969
549.857408	2490.269506
550.215949	2485.326655
550.574434	2488.283292
550.932864	2488.540390
551.291237	2490.042654
551.649555	2488.865545
552.007817	2488.313538
552.366022	2489.452839
552.724173	2489.853611
553.082267	2492.089363
553.440305	2489.573827
553.798288	2490.866883
554.156215	2489.833446
554.514086	2485.795482
554.871902	2485.442601
555.229661	2486.239104
555.587365	2484.951089
555.945014	2490.002325
556.302606	2488.593323
556.660143	2489.286481
557.017625	2489.367140
557.375050	2486.607108
557.732421	2489.465442
558.089735	2488.585761
558.446994	2488.210195
558.804197	2487.869917
559.161345	2487.343116
559.518437	2489.868734
559.875474	2490.123313
560.232455	2489.246152
560.589381	2487.199443
560.946251	2488.918477
561.303065	2488.802530
561.659825	2488.963847
562.016528	2487.600215
562.373177	2488.482417
562.729770	2489.911584
563.086307	2489.856132
563.442789	2489.929228
563.799216	2488.058960
564.155587	2489.336893
564.511904	2489.447798
564.868164	2488.943683
565.224370	2489.644403
565.580520	2487.781697
565.936615	2489.871255
566.292654	2487.491830
566.648638	2487.917808
567.004567	2488.416882
567.360441	2493.505927
567.716260	2489.684732
568.072023	2491.491986
568.427732	2487.141470
568.783385	2492.296050
569.138982	2490.299753
569.494525	2489.846049
569.850013	2490.095586
570.205445	2489.752788
570.560823	2489.336893
570.916145	2488.437047
571.271412	2492.210350
571.626625	2489.041985
571.981782	2486.801192
572.336884	2489.606594
572.691931	2485.004021
573.046923	2486.024855
573.401860	2482.216263
573.756743	2493.516009
574.111570	2491.101297
574.466342	2490.385453
574.821059	2490.297233
575.175722	2489.820843
575.530330	2489.697335
575.884882	2490.203971
576.239380	2489.934269
576.593823	2489.553662
576.948211	2489.646924
577.302544	2487.595174
577.656823	2490.882006
578.011047	2491.149188
578.365216	2490.047695
578.719330	2492.603560
579.073389	2489.596512
579.427394	2490.231698
579.781344	2490.418220
580.135239	2489.193220
580.489080	2489.024341
580.842866	2490.803868
581.196597	2489.357057
581.550273	2490.322438
581.903895	2489.881337
582.257463	2491.481904
582.610975	2490.882006
582.964434	2490.597181
583.317837	2489.616677
583.671186	2491.945690
584.024481	2490.680360
584.377721	2492.323776
584.730906	2493.417707
585.084037	2490.592140
585.437113	2490.166163
585.790135	2491.393683
586.143103	2489.470483
586.496016	2491.885196
586.848874	2490.662716
587.201679	2492.152377
587.554428	2490.599702
587.907124	2492.664054
588.259765	2489.016779
588.612352	2492.974085
588.964884	2491.890237
589.317362	2493.760505
589.669786	2491.242449
590.022155	2488.053919
590.374470	2488.984012
590.726731	2491.655823
591.078937	2487.300267
591.431090	2492.049033
591.783188	2490.508961
592.135232	2493.178252
592.487222	2493.485762
592.839157	2494.814106
593.191038	2489.513333
593.542866	2493.710094
593.894639	2493.679847
594.246358	2493.768067
594.598022	2491.136585
594.949633	2494.892244
595.301190	2492.467449
595.652692	2493.500886
596.004141	2492.492655
596.355535	2494.705722
596.706876	2492.570793
597.058162	2495.345948
597.409395	2489.914105
597.760573	2494.171359
598.111698	2492.671616
598.462768	2493.863849
598.813785	2493.609271
599.164748	2493.359733
599.515657	2495.938284
599.866511	2494.373005
600.217312	2490.985350
600.568060	2493.576503
600.918753	2494.221771
601.269392	2494.713283
601.619978	2494.473828
601.970510	2497.206134
602.320988	2493.205978
602.671412	2494.148674
603.021783	2493.682367
603.372100	2492.739672
603.722363	2493.516009
604.072572	2492.452326
604.422728	2494.980464
604.772830	2493.742861
605.122878	2493.936946
605.472872	2492.157418
605.822813	2495.277893
606.172701	2494.194044
606.522534	2495.827378
606.872314	2495.343428
607.222041	2494.662872
607.571714	2492.132213
607.921333	2494.221771
608.270899	2495.429127
608.620411	2491.655823
608.969870	2495.146823
609.319276	2498.138747
609.668627	2496.273520
610.017926	2496.500372
610.367171	2496.286123
610.716362	2494.856956
611.065500	2493.105155
611.414585	2496.548263
611.763616	2496.061792
612.112594	2496.029024
612.461518	2497.574138
612.810389	2493.750423
613.159207	2496.646566
613.507971	2497.581700
613.856682	2496.601195
614.205340	2495.688747
614.553945	2497.342245
614.902496	2492.986688
615.250994	2496.434837
615.599439	2496.472646
615.947830	2496.127327
616.296169	2498.801659
616.644454	2496.351658
616.992686	2496.644045
617.340864	2496.364261
617.688990	2497.717811
618.037063	2495.494662
618.385082	2491.791935
618.733048	2497.485918
619.080961	2496.762512
619.428821	2498.668068
619.776628	2499.157060
620.124382	2497.238901
620.472083	2497.707729
620.819731	2494.708242
621.167326	2495.424086
621.514868	2495.655979
621.862357	2498.743686
622.209793	2498.206803
622.557176	2497.206134
622.904506	2496.918788
623.251783	2497.077584
623.599007	2497.785867
623.946179	2497.642194
624.293297	2499.222595
624.640363	2497.289313
624.987376	2497.702688
625.334336	2492.956441
625.681243	2493.768067
626.028097	2494.534322
626.374899	2499.283089
626.721647	2495.726555
627.068343	2498.355517
627.414987	2497.667399
627.761577	2496.991885
628.108115	2498.277379
628.454600	2498.721001
628.801032	2498.239570
629.147412	2499.988851
629.493739	2498.514313
629.840014	2498.748727
630.186236	2497.974910
630.532405	2500.457678
630.878521	2496.344097
631.224585	2500.014057
631.570597	2498.045486
631.916556	2499.905672
632.262462	2500.465240
632.608316	2499.308295
632.954117	2500.452637
633.299866	2496.482728
633.645562	2498.685712
633.991206	2501.319715
634.336797	2499.159581
634.682336	2499.641011
635.027823	2498.988182
635.373257	2499.938439
635.718639	2500.918944
636.063968	2499.782163
636.409245	2502.103615
636.754470	2498.549601
637.099642	2497.891731
637.444762	2501.052534
637.789829	2500.384581
638.134845	2500.591269
638.479808	2498.400887
638.824719	2498.670589
639.169577	2501.554129
639.514383	2502.396002
639.859137	2502.345590
640.203839	2501.191166
640.548489	2502.602689
640.893086	2501.682678
641.237632	2500.097236
641.582125	2501.334839
641.926566	2503.074037
642.270955	2501.397853
642.615292	2497.269148
642.959576	2500.883656
643.303809	2499.603203
643.647990	2504.629233
643.992118	2505.899604
644.336195	2501.753255
644.680219	2504.697288
645.024192	2506.328102
645.368112	2504.420025
645.711981	2505.098060
646.055797	2507.248112
646.399562	2508.745335
646.743274	2509.541837
647.086935	2509.619975
647.430544	2510.736591
647.774101	2513.867147
648.117606	2511.301200
648.461059	2513.421005
648.804460	2516.246572
649.147810	2512.901766
649.491108	2513.882271
649.834354	2511.457476
650.177548	2511.994359
650.520690	2514.272960
650.863781	2511.069307
651.206820	2513.564678
651.549807	2513.978053
651.892742	2514.378824
652.235626	2512.790861
652.578458	2516.367560
652.921238	2514.114164
653.263967	2513.562158
653.606644	2513.854544
653.949269	2517.355626
654.291843	2516.939731
654.634365	2517.146418
654.976836	2517.441325
655.319255	2518.268075
655.661622	2517.489216
656.003938	2520.040040
656.346203	2516.816222
656.688416	2520.791172
657.030577	2521.275123
657.372687	2518.071470
657.714746	2520.536594
658.056753	2522.142201
658.398708	2522.003570
658.740612	2522.328724
659.082465	2521.557428
659.424266	2518.855369
659.766016	2520.534073
660.107715	2521.418796
660.449362	2521.355781
660.790958	2526.212933
661.132503	2525.020700
661.473996	2530.528161
661.815438	2527.654703
662.156829	2529.308202
662.498168	2526.404497
662.839456	2531.957328
663.180693	2529.489683
663.521879	2532.103521
663.863013	2531.606968
664.204097	2533.663758
664.545129	2535.730632
664.886110	2537.444624
665.227040	2536.741383
665.567918	2535.922195
665.908746	2540.544933
666.249522	2539.695499
666.590248	2543.055428
666.930922	2544.066179
667.271545	2543.307486
667.612118	2544.545089
667.952639	2545.933927
668.293109	2546.929555
668.633528	2548.210008
668.973896	2547.600028
669.314213	2551.302756
669.654480	2547.307641
669.994695	2549.593805
670.334859	2550.649926
670.674973	2553.026830
671.015035	2552.363919
671.355047	2550.770914
671.695008	2554.317366
672.034918	2552.989022
672.374777	2555.980947
672.714585	2558.347768
673.054342	2561.243911
673.394049	2560.664178
673.733705	2562.000084
674.073310	2566.511917
674.412864	2563.570404
674.752368	2566.479149
675.091820	2561.579148
675.431223	2565.037379
675.770574	2566.005281
676.109875	2564.102245
676.449125	2562.652914
676.788324	2565.087791
677.127473	2561.924467
677.466571	2562.063099
677.805619	2567.578121
678.144616	2565.138202
678.483562	2568.752710
678.822458	2565.196176
679.161303	2566.758933
679.500098	2569.501321
679.838842	2572.896538
680.177535	2571.787484
680.516179	2573.849316
680.854771	2577.693196
681.193314	2582.056315
681.531805	2586.590833
681.870247	2591.563931
682.208638	2594.533171
682.546978	2599.715477
682.885268	2598.780343
683.223508	2600.988368
683.561697	2600.537185
683.899836	2603.443410
684.237925	2602.379727
684.575963	2604.507093
684.913951	2605.722012
685.251889	2608.005654
685.589776	2609.928854
685.927614	2611.927672
686.265401	2615.433794
686.603137	2619.023096
686.940824	2625.334621
687.278460	2632.251084
687.616046	2633.546660
687.953582	2639.349028
688.291068	2640.377424
688.628504	2647.881181
688.965889	2648.382776
689.303224	2646.204997
689.640510	2646.056283
689.977745	2646.331026
690.314930	2640.518576
690.652065	2641.007568
690.989150	2636.664614
691.326185	2632.853502
691.663170	2628.886113
692.000105	2622.929990
692.336990	2623.688684
692.673825	2622.791358
693.010610	2619.401182
693.347345	2616.439505
693.684030	2612.716613
694.020665	2613.248454
694.357251	2608.552619
694.693786	2613.308948
695.030272	2611.358022
695.366707	2612.709051
695.703093	2613.561006
696.039429	2610.266612
696.375716	2612.583022
696.711952	2616.499998
697.048139	2615.769031
697.384276	2617.719958
697.720363	2618.602160
698.056400	2617.722478
698.392388	2618.423199
698.728326	2617.122581
699.064214	2619.265071
699.400053	2620.928652
699.735842	2620.381687
700.071581	2619.665843
700.407270	2615.844648
700.742910	2618.803806
701.078501	2616.331120
701.414042	2613.387086
701.749533	2613.881119
702.084974	2612.439349
702.420366	2615.219545
702.755709	2614.728033
703.091002	2611.327775
703.426246	2610.372476
703.761440	2612.860285
704.096584	2617.104937
704.431679	2610.185953
704.766725	2612.083948
705.101721	2614.987652
705.436668	2612.721654
705.771565	2615.509412
706.106413	2618.665174
706.441212	2621.445370
706.775961	2621.505864
707.110661	2623.010649
707.445311	2629.039869
707.779913	2627.754374
708.114465	2632.808131
708.448967	2636.223513
708.783421	2644.375059
709.117825	2648.468476
709.452180	2654.364105
709.786485	2658.863335
710.120742	2665.600837
710.454949	2666.420024
710.789107	2677.510563
711.123216	2684.225380
711.457275	2692.868438
711.791286	2701.947556
712.125247	2705.294882
712.459159	2702.774305
712.793023	2712.503732
713.126837	2702.489480
713.460602	2704.954604
713.794318	2705.146168
714.127985	2701.022504
714.461602	2692.203006
714.795171	2690.920032
715.128691	2682.471058
715.462162	2679.884946
715.795584	2675.597445
716.128957	2670.521003
716.462281	2669.454799
716.795556	2666.853564
717.128782	2663.322235
717.461960	2656.751091
717.795088	2656.529281
718.128167	2655.447953
718.461198	2652.980308
718.794180	2652.254382
719.127113	2650.192550
719.459997	2648.281953
719.792833	2645.274905
720.125619	2646.862868
720.458357	2641.748617
720.791046	2640.619399
721.123686	2640.614358
721.456278	2638.953298
721.788821	2641.960346
722.121315	2638.630664
722.453761	2641.005047
722.786158	2640.392547
723.118506	2643.386992
723.450805	2644.581746
723.783056	2647.790440
724.115259	2646.038639
724.447412	2646.585605
724.779518	2650.300935
725.111574	2653.713796
725.443582	2656.587254
725.775542	2657.887872
726.107453	2665.071516
726.439315	2666.934222
726.771129	2675.965449
727.102895	2676.451921
727.434612	2679.310255
727.766281	2680.724298
728.097901	2692.931452
728.429473	2692.613860
728.760996	2691.807275
729.092471	2697.113090
729.423897	2696.137626
729.755276	2696.901361
730.086606	2699.744572
730.417887	2708.135572
730.749120	2716.700493
731.080305	2716.786192
731.411442	2724.723489
731.742530	2727.856566
732.073570	2730.339335
732.404562	2736.350911
732.735506	2736.136662
733.066401	2733.142216
733.397249	2726.921432
733.728048	2716.256871
734.058798	2709.176571
734.389501	2697.735672
734.720156	2691.885413
735.050762	2684.106913
735.381320	2680.986438
735.711831	2681.379648
736.042293	2674.995027
736.372707	2676.159534
736.703073	2674.009482
737.033391	2677.132476
737.363661	2677.573577
737.693883	2682.403003
738.024056	2685.677232
738.354182	2689.634538
738.684260	2698.229705
739.014290	2703.127186
739.344272	2707.555840
739.674207	2716.352653
740.004093	2717.315514
740.333931	2719.712582
740.663722	2724.100907
740.993464	2725.351113
741.323159	2720.993035
741.652806	2721.383725
741.982405	2717.310472
742.311956	2714.016078
742.641460	2710.086499
742.970915	2709.398382
743.300323	2702.055941
743.629683	2697.468491
743.958996	2694.305167
744.288260	2688.472552
744.617477	2686.892150
744.946647	2685.392407
745.275768	2682.458455
745.604842	2679.799247
745.933869	2677.465192
746.262847	2679.406037
746.591778	2678.299503
746.920662	2675.274811
747.249498	2678.055007
747.578286	2680.555420
747.907027	2684.807633
748.235720	2689.717717
748.564365	2693.034796
748.892963	2692.001360
749.221514	2695.978830
749.550017	2695.716690
749.878473	2695.222657
750.206881	2691.575382
750.535242	2692.840712
750.863555	2692.928932
751.191821	2689.132943
751.520039	2693.465815
751.848210	2691.734178
752.176334	2692.248376
752.504411	2692.258458
752.832440	2691.759384
753.160421	2691.928263
753.488356	2693.082687
753.816243	2692.558407
754.144082	2692.518078
754.471875	2691.714014
754.799620	2692.160156
755.127318	2691.124199
755.454969	2693.753161
755.782572	2693.521268
756.110129	2692.243335
756.437638	2694.698377
756.765100	2696.644262
757.092515	2698.055785
757.419882	2701.118286
757.747203	2698.859849
758.074477	2703.177598
758.401703	2702.338246
758.728882	2707.906200
759.056014	2712.493650
759.383099	2712.841490
759.710138	2715.208311
760.037129	2715.725030
760.364073	2721.439177
760.690970	2720.093189
761.017820	2725.088973
761.344623	2730.777915
761.671379	2740.419122
761.998088	2755.817326
762.324751	2790.644137
762.651366	2863.498893
762.977935	2961.929942
763.304456	3023.542925
763.630931	3045.721481
763.957359	3022.189375
764.283740	2976.861840
764.610074	2932.804676
764.936362	2876.026160
765.262602	2838.966118
765.588796	2801.263328
765.914943	2771.659152
766.241044	2752.081831
766.567097	2736.245046
766.893104	2720.335165
767.219064	2711.979452
767.544978	2700.780529
767.870845	2694.365661
768.196665	2690.234435
768.522438	2683.932993
768.848165	2680.946109
769.173846	2682.148424
769.499479	2674.788340
769.825066	2672.078720
770.150607	2668.529747
770.476101	2663.964982
770.801548	2664.249808
771.126949	2661.222595
771.452303	2659.077584
771.777611	2655.367295
772.102872	2656.854435
772.428087	2651.435195
772.753256	2650.041316
773.078378	2646.777168
773.403453	2643.913793
773.728482	2641.955305
774.053465	2641.746097
774.378401	2641.403298
774.703291	2635.817700
775.028135	2634.559932
775.352932	2636.168060
775.677683	2632.253604
776.002388	2628.790332
776.327046	2627.262862
776.651658	2627.101545
776.976224	2622.292284
777.300743	2627.492234
777.625216	2623.809672
777.949643	2624.782614
778.274024	2625.904271
778.598359	2625.390073
778.922647	2626.340331
779.246889	2624.528036
779.571086	2627.323356
779.895236	2625.551390
780.219339	2625.659775
780.543397	2628.029117
780.867409	2631.583131
781.191374	2631.416773
781.515294	2630.620270
781.839167	2633.687812
782.162995	2634.756537
782.486776	2631.878038
782.810511	2630.373254
783.134201	2629.246556
783.457844	2629.932153
783.781441	2630.368213
784.104993	2626.854528
784.428498	2627.749333
784.751958	2626.300002
785.075372	2628.502986
785.398739	2629.112965
785.722061	2630.234622
786.045337	2630.640435
786.368568	2634.380971
786.691752	2637.206538
787.014891	2644.712816
787.337983	2658.772594
787.661030	2678.183557
787.984031	2693.380115
788.306987	2707.618854
788.629897	2714.862992
788.952760	2717.708724
789.275579	2708.886704
789.598351	2697.292051
789.921078	2688.338961
790.243759	2672.668535
790.566395	2666.074705
790.888984	2659.591782
791.211529	2653.837304
791.534027	2647.528300
791.856480	2641.423463
792.178888	2637.995478
792.501249	2634.479274
792.823566	2629.861577
793.145836	2626.995681
793.468062	2633.443317
793.790241	2631.573048
794.112375	2638.129069
794.434464	2642.192239
794.756507	2644.067548
795.078505	2649.806902
795.400457	2660.355516
795.722364	2670.455468
796.044226	2683.935513
796.366042	2691.061184
796.687812	2688.984229
797.009538	2694.597554
797.331218	2693.949766
797.652852	2688.822912
797.974442	2682.884433
798.295986	2682.208918
798.617484	2677.815553
798.938938	2673.560819
799.260346	2667.861794
799.581709	2662.981957
799.903026	2661.933397
800.224299	2657.166987
800.545526	2654.573313
800.866708	2650.207674
801.187845	2650.212715
801.508936	2647.293887
801.829983	2645.358084
802.150984	2638.355921
802.471940	2638.953298
802.792851	2639.742238
803.113717	2637.491363
803.434538	2634.915333
803.755314	2634.741414
804.076045	2636.745272
804.396731	2637.496404
804.717372	2636.568832
805.037967	2637.458596
805.358518	2636.195787
805.679024	2642.761889
805.999485	2646.179792
806.319901	2645.375728
806.640272	2647.939154
806.960598	2653.428971
807.280879	2652.723209
807.601115	2656.108344
807.921306	2654.475010
808.241453	2654.462407
808.561554	2654.217912
808.881611	2653.693632
809.201623	2650.774803
809.521590	2655.203457
809.841513	2653.476862
810.161390	2657.603046
810.481223	2652.771100
810.801011	2650.603404
811.120755	2650.154742
811.440453	2648.017292
811.760107	2646.668784
812.079716	2646.265491
812.399281	2646.630975
812.718801	2647.354381
813.038276	2642.396406
813.357707	2640.823566
813.677093	2642.230048
813.996434	2641.887249
814.315731	2644.339771
814.634983	2644.440594
814.954191	2644.874133
815.273354	2648.173568
815.592473	2653.008035
815.911547	2657.545073
816.230577	2663.854077
816.549562	2670.014367
816.868502	2670.062258
817.187399	2675.927641
817.506250	2685.238652
817.825058	2685.493230
818.143821	2696.036803
818.462539	2711.102292
818.781213	2723.309446
819.099843	2744.930954
819.418429	2787.107768
819.736970	2825.344920
820.055466	2876.192518
820.373919	2936.890531
820.692327	3031.273534
821.010691	3190.500899
821.329011	3512.910414
821.647286	3966.946976
821.965517	4479.707939
822.283704	4797.547648
822.601847	4978.242767
822.919945	4821.669569
823.237999	4600.947689
823.556010	4339.906661
823.873976	4079.815890
824.191897	3834.407480
824.509775	3650.042401
824.827609	3485.448728
825.145398	3385.603635
825.463144	3338.279803
825.780845	3353.373018
826.098502	3426.154677
826.416116	3566.555852
826.733685	3712.227554
827.051210	3762.424844
827.368692	3700.998384
827.686129	3554.454562
828.003522	3392.658730
828.320872	3242.079464
828.638177	3132.996457
828.955439	3041.471788
829.272656	2966.033442
829.589830	2905.232085
829.906960	2851.553879
830.224046	2811.189360
830.541088	2781.602828
830.858086	2761.677667
831.175041	2747.441449
831.491952	2743.484143
831.808819	2743.587487
832.125642	2760.238418
832.442421	2804.683751
832.759157	2884.510422
833.075849	3010.163702
833.392497	3148.369456
833.709101	3242.323960
834.025662	3238.502766
834.342179	3171.667148
834.658653	3081.037284
834.975083	2998.253976
835.291469	2928.852411
835.607811	2866.871425
835.924110	2823.615804
836.240366	2786.490227
836.556578	2750.146028
836.872746	2720.990515
837.188871	2698.096115
837.504952	2679.388393
837.820990	2665.643687
838.136984	2653.655823
838.452935	2650.389155
838.768842	2652.264464
839.084706	2671.819100
839.400526	2731.110631
839.716303	2802.526137
840.032037	2852.980525
840.347727	2848.302335
840.663373	2806.433031
840.978977	2756.946545
841.294537	2723.763149
841.610054	2695.383974
841.925527	2674.062414
842.240957	2655.289157
842.556344	2641.824235
842.871687	2624.044085
843.186987	2611.020264
843.502244	2599.251691
843.817458	2589.275247
844.132629	2585.479258
844.447756	2580.470872
844.762840	2576.921900
845.077881	2569.811352
845.392879	2569.725652
845.707833	2566.869839
846.022745	2565.659962
846.337613	2564.830692
846.652438	2560.054199
846.967221	2557.994887
847.281960	2557.699980
847.596656	2557.377346
847.911309	2557.079918
848.225919	2556.054043
848.540485	2553.982129
848.855009	2553.634289
849.169490	2551.569937
849.483928	2551.441388
849.798323	2553.309135
850.112675	2553.397355
850.426984	2546.911911
850.741251	2549.724875
851.055474	2547.746222
851.369654	2549.934082
851.683792	2551.098589
851.997887	2554.140925
852.311938	2552.847869
852.625947	2553.152859
852.939914	2553.593960
853.253837	2555.008004
853.567718	2551.267468
853.881555	2550.503733
854.195350	2552.404248
854.509103	2554.766028
854.822812	2552.726882
855.136479	2554.057746
855.450103	2554.244269
855.763685	2549.636654
856.077224	2552.303425
856.390720	2552.704197
856.704173	2552.288301
857.017584	2556.220401
857.330953	2558.357851
857.644278	2560.270968
857.957561	2560.911195
858.270802	2556.467418
858.584000	2559.179559
858.897155	2560.298695
859.210268	2559.923129
859.523339	2558.070505
859.836367	2557.127809
860.149352	2559.214847
860.462295	2559.560166
860.775195	2556.177552
861.088054	2556.230484
861.400869	2553.909032
861.713642	2556.974054
862.026373	2559.277861
862.339062	2558.453632
862.651708	2557.851215
862.964312	2561.395146
863.276873	2562.345403
863.589392	2565.191135
863.901869	2571.558112
864.214303	2571.918554
864.526696	2574.121539
864.839045	2575.568350
865.151353	2580.107909
865.463619	2580.680080
865.775842	2582.414237
866.088023	2582.136973
866.400162	2582.169741
866.712258	2584.281984
867.024313	2581.708475
867.336325	2584.995307
867.648296	2584.748291
867.960224	2583.304000
868.272110	2585.728795
868.583954	2586.147211
868.895755	2586.447160
869.207515	2586.144691
869.519233	2588.914805
869.830909	2591.037130
870.142542	2591.742892
870.454134	2592.781370
870.765684	2597.731783
871.077191	2598.114910
871.388657	2599.413007
871.700081	2598.767740
872.011463	2604.207145
872.322803	2600.312853
872.634101	2606.720160
872.945357	2612.867847
873.256571	2611.224431
873.567744	2616.996552
873.878874	2616.903291
874.189963	2622.990484
874.501010	2623.424023
874.812015	2621.432767
875.122979	2624.018879
875.433900	2627.855197
875.744780	2626.761267
876.055618	2628.273613
876.366415	2632.152781
876.677169	2630.753861
876.987882	2637.241826
877.298554	2637.158647
877.609183	2644.402785
877.919771	2654.802685
878.230317	2663.470949
878.540822	2679.869823
878.851285	2699.661393
879.161707	2729.399159
879.472087	2776.483536
879.782425	2849.592870
880.092722	2967.145016
880.402977	3121.409365
880.713191	3268.555604
881.023363	3404.936460
881.333494	3490.384018
881.643583	3551.712175
881.953631	3580.161927
882.263637	3570.069537
882.573602	3526.493803
882.883526	3467.214875
883.193408	3399.736510
883.503248	3321.354129
883.813048	3244.431163
884.122806	3173.728980
884.432522	3098.986313
884.742197	3036.859132
885.051831	2977.469299
885.361424	2924.537184
885.670975	2875.441386
885.980485	2837.852023
886.289954	2804.565284
886.599382	2779.346912
886.908768	2753.952099
887.218113	2731.367730
887.527417	2714.452138
887.836680	2694.610157
888.145901	2686.640092
888.455082	2676.328412
888.764221	2670.122752
889.073319	2657.182110
889.382376	2652.113230
889.691392	2648.516367
890.000366	2648.896974
890.309300	2648.486120
890.618193	2648.254227
890.927044	2646.255409
891.235855	2648.423105
891.544625	2650.283291
891.853353	2654.653971
892.162041	2665.303409
892.470687	2675.794050
892.779293	2691.963551
893.087858	2716.745863
893.396381	2752.404465
893.704864	2800.602937
894.013306	2867.221785
894.321707	2936.956066
894.630068	2989.684015
894.938387	3004.852847
895.246665	2994.629387
895.554903	2962.497072
895.863100	2922.515681
896.171256	2888.079559
896.479371	2861.111907
896.787446	2824.147646
897.095480	2800.575211
897.403473	2777.902621
897.711425	2757.223808
898.019336	2737.278483
898.327207	2721.282902
898.635038	2712.816284
898.942827	2693.364992
899.250576	2680.631037
899.558284	2666.094870
899.865952	2657.920639
900.173579	2652.791265
900.481165	2641.667959
900.788711	2635.905920
901.096216	2629.299488
901.403681	2626.852008
901.711105	2625.042234
902.018489	2622.143570
902.325832	2631.749489
902.633135	2638.247536
902.940397	2663.725528
903.247619	2708.276725
903.554800	2798.566311
903.861941	2908.584452
904.169041	2995.987978
904.476101	3033.577341
904.783121	3025.065353
905.090100	2985.590598
905.397039	2939.491767
905.703938	2895.991650
906.010796	2851.387521
906.317614	2816.250678
906.624391	2783.261368
906.931129	2751.766759
907.237826	2726.661813
907.544483	2700.546115
907.851099	2673.964111
908.157675	2656.239414
908.464211	2634.325518
908.770707	2615.126284
909.077163	2600.713625
909.383578	2590.752305
909.689954	2582.787282
909.996289	2576.385017
910.302584	2573.221693
910.608839	2573.282187
910.915054	2569.554253
911.221229	2568.601475
911.527363	2567.626012
911.833458	2570.693554
912.139513	2572.362176
912.445527	2576.730336
912.751502	2583.619072
913.057436	2595.483428
913.363331	2601.159767
913.669186	2615.494288
913.975000	2636.425159
914.280775	2665.283244
914.586510	2704.838658
914.892205	2756.021493
915.197859	2822.683191
915.503475	2892.868655
915.809050	2949.107768
916.114585	2990.949344
916.420081	3012.603621
916.725536	3017.836338
917.030952	2996.192144
917.336328	2970.860346
917.641665	2945.541151
917.946961	2914.727098
918.252218	2891.036196
918.557435	2855.828777
918.862612	2833.713235
919.167750	2809.193063
919.472848	2779.727519
919.777906	2753.460587
920.082925	2731.876887
920.387904	2707.245809
920.692843	2691.882892
920.997743	2673.394461
921.302603	2658.281082
921.607423	2643.177785
921.912204	2633.594551
922.216946	2623.003087
922.521647	2616.142077
922.826310	2606.238730
923.130932	2600.950559
923.435516	2592.869590
923.740059	2587.871286
924.044564	2578.648495
924.349028	2576.201015
924.653454	2570.055848
924.957840	2562.471432
925.262186	2558.279713
925.566493	2555.822150
925.870761	2548.691438
926.174989	2549.210677
926.479178	2543.793957
926.783328	2540.736497
927.087438	2537.757175
927.391509	2537.479912
927.695541	2532.549663
927.999533	2532.539581
928.303486	2529.109076
928.607400	2526.918695
928.911275	2526.943900
929.215110	2523.505833
929.518906	2524.451050
929.822663	2524.990453
930.126381	2522.817716
930.430060	2528.055475
930.733699	2525.769312
931.037299	2526.956503
931.340861	2526.404497
931.644383	2528.355423
931.947866	2524.322500
932.251309	2528.000022
932.554714	2521.204547
932.858080	2523.949455
933.161407	2523.253776
933.464694	2523.505833
933.767943	2517.900070
934.071153	2523.901564
934.374323	2522.300998
934.677455	2523.641945
934.980548	2519.828312
935.283602	2522.139681
935.586617	2519.573733
935.889593	2519.853517
936.192530	2523.659589
936.495428	2524.309897
936.798287	2524.990453
937.101108	2530.296268
937.403890	2535.707946
937.706632	2542.258926
938.009336	2545.417209
938.312002	2552.910884
938.614628	2556.230484
938.917216	2566.519479
939.219765	2563.832544
939.522275	2568.901424
939.824747	2568.858574
940.127179	2568.757751
940.429573	2567.056362
940.731929	2568.561146
941.034246	2569.234140
941.336524	2565.811197
941.638763	2564.505538
941.940964	2564.535785
942.243126	2560.931360
942.545250	2559.489590
942.847335	2554.047664
943.149381	2552.404248
943.451389	2549.911397
943.753359	2547.307641
944.055290	2545.570964
944.357182	2541.994265
944.659036	2543.819163
944.960851	2541.999306
945.262628	2538.314223
945.564367	2540.741538
945.866067	2541.298586
946.167729	2541.248174
946.469352	2540.066024
946.770937	2538.357073
947.072484	2535.836496
947.373992	2539.249357
947.675462	2537.013605
947.976893	2533.457071
948.278286	2530.888603
948.579641	2531.274252
948.880958	2529.797193
949.182236	2534.752648
949.483476	2532.905065
949.784678	2533.510003
950.085841	2533.114273
950.386967	2535.831455
950.688054	2536.569984
950.989103	2538.843544
951.290114	2539.471168
951.591087	2543.551982
951.892021	2543.136087
952.192917	2549.268650
952.493776	2548.167158
952.794596	2550.138249
953.095378	2548.157076
953.396122	2547.136242
953.696828	2545.341591
953.997496	2546.755635
954.298126	2545.185316
954.598718	2541.976621
954.899272	2542.059800
955.199788	2536.438914
955.500266	2535.670138
955.800706	2532.118645
956.101108	2528.272244
956.401472	2527.032121
956.701798	2523.097500
957.002087	2520.231604
957.302337	2516.296983
957.602550	2516.445698
957.902724	2510.978566
958.202861	2510.000582
958.502960	2507.855571
958.803022	2505.637464
959.103045	2503.343739
959.403031	2502.610251
959.702979	2499.704026
960.002889	2498.025321
960.302762	2499.320898
960.602596	2498.274858
960.902393	2498.426093
961.202153	2494.118427
961.501875	2494.284785
961.801559	2494.660351
962.101205	2494.519199
962.400814	2495.502224
962.700385	2492.386791
962.999918	2489.757829
963.299414	2487.106182
963.598873	2489.699856
963.898293	2485.664412
964.197677	2487.116264
964.497022	2489.067191
964.796331	2489.110041
965.095601	2485.732468
965.394835	2490.755977
965.694030	2491.683550
965.993189	2489.062150
966.292309	2488.989053
966.591393	2485.671974
966.890439	2488.316059
967.189447	2488.497541
967.488419	2486.355050
967.787353	2488.999135
968.086249	2490.226656
968.385108	2489.533498
968.683930	2491.461739
968.982714	2491.986019
969.281462	2492.109527
969.580172	2492.293529
969.878844	2491.986019
970.177480	2491.035762
970.476078	2492.381750
970.774639	2494.085660
971.073162	2492.848056
971.371649	2495.318222
971.670098	2495.832419
971.968510	2496.646566
972.266885	2497.606906
972.565223	2497.682523
972.863524	2498.715959
973.161788	2499.658655
973.460014	2496.318891
973.758204	2497.818634
974.056356	2500.223264
974.354471	2496.775115
974.652550	2499.978768
974.950591	2500.883656
975.248595	2496.830568
975.546563	2502.282576
975.844493	2498.118583
976.142386	2499.177225
976.440243	2497.927019
976.738062	2497.054899
977.035845	2495.529950
977.333590	2496.507934
977.631299	2495.141781
977.928971	2491.759167
978.226606	2490.569455
978.524204	2493.901657
978.821765	2487.935452
979.119290	2492.653972
979.416777	2490.801348
979.714228	2493.657162
980.011642	2494.738489
980.309020	2492.981647
980.606360	2497.049858
980.903664	2500.490446
981.200931	2503.258039
981.498162	2505.579490
981.795356	2512.828670
982.092513	2519.190606
982.389633	2526.538088
982.686717	2533.741896
982.983764	2538.936805
983.280775	2541.805222
983.577749	2544.847558
983.874686	2542.861344
984.171587	2542.599204
984.468451	2537.217772
984.765279	2535.881866
985.062070	2531.874149
985.358824	2528.862059
985.655543	2523.271420
985.952224	2518.585667
986.248869	2513.196674
986.545478	2506.186949
986.842050	2504.089829
987.138586	2499.267966
987.435086	2496.616319
987.731549	2494.798983
988.027975	2489.992243
988.324366	2487.529639
988.620719	2490.387973
988.917037	2489.016779
989.213318	2486.808754
989.509563	2484.285657
989.805772	2484.454535
990.101944	2484.063846
990.398080	2486.823877
990.694180	2485.790441
990.990244	2483.612663
991.286271	2483.330358
991.582262	2486.138281
991.878217	2483.683239
992.174136	2488.558034
992.470019	2487.159114
992.765865	2485.311531
993.061676	2484.779690
993.357450	2485.271202
993.653188	2483.786582
993.948890	2489.863693
994.244556	2491.383601
994.540186	2495.718993
994.835780	2494.425937
995.131337	2502.353152
995.426859	2502.905158
995.722345	2507.071672
996.017795	2511.959071
996.313208	2515.939062
996.608586	2513.163906
996.903928	2518.058867
997.199234	2517.723630
997.494504	2517.025430
997.789738	2514.214987
998.084936	2513.186592
998.380099	2514.502333
998.675225	2513.000069
998.970316	2508.843637
999.265371	2502.680827
999.560390	2500.253511
999.855373	2496.397029
1000.150320	2496.951556
1000.445232	2494.884683
1000.740108	2487.544762
1001.034948	2491.353354
1001.329752	2485.505616
1001.624521	2487.063332
1001.919254	2485.765235
1002.213951	2486.163486
1002.508613	2484.247848
1002.803239	2482.982518
1003.097829	2480.114102
1003.392384	2482.264154
1003.686903	2481.734833
1003.981386	2482.228866
1004.275834	2478.848772
1004.570246	2482.843887
1004.864623	2482.433033
1005.158964	2481.240800
1005.453270	2480.991263
1005.747540	2479.178968
1006.041775	2479.357929
1006.335974	2481.628968
1006.630138	2479.297435
1006.924266	2483.277426
1007.218359	2478.931951
1007.512416	2478.158134
1007.806438	2476.534882
1008.100425	2478.410192
1008.394376	2471.685293
1008.688292	2478.319451
1008.982172	2479.010089
1009.276017	2478.483288
1009.569827	2476.945737
1009.863602	2481.283649
1010.157341	2480.638382
1010.451045	2479.544451
1010.744714	2479.826756
1011.038347	2480.293063
1011.331945	2476.171919
1011.625508	2480.290542
1011.919036	2481.278608
1012.212528	2479.640233
1012.505986	2482.301962
1012.799408	2476.822228
1013.092795	2477.190233
1013.386147	2476.096302
1013.679464	2478.866416
1013.972745	2476.975983
1014.265992	2479.685604
1014.559204	2476.600417
1014.852380	2480.348515
1015.145521	2476.164358
1015.438628	2477.550675
1015.731699	2475.410705
1016.024736	2476.030767
1016.317737	2478.216107
1016.610703	2476.600417
1016.903635	2481.202991
1017.196531	2479.415902
1017.489393	2479.423464
1017.782219	2480.555203
1018.075011	2481.175265
1018.367768	2480.325830
1018.660490	2478.831128
1018.953177	2478.831128
1019.245829	2478.831128
