Dividing Wavelength (nm)	Counts (n)	Blue Motor Position (mm): 4.400000	Red Motor Position (mm): 0.000000	
326.493990	2064.997768
326.888308	2064.997768
327.282561	2064.997768
327.676750	2042.143697
328.070874	2043.121681
328.464933	2048.840870
328.858929	2055.913608
329.252859	2066.462223
329.646726	2077.882957
330.040528	2099.012953
330.434265	2113.682711
330.827938	2134.812707
331.221547	2156.267858
331.615091	2176.593790
332.008571	2196.224043
332.401986	2218.127857
332.795338	2237.599314
333.188625	2258.114289
333.581847	2272.927720
333.975006	2294.397994
334.368100	2313.135963
334.761129	2328.892089
335.154095	2344.232320
335.546996	2358.932325
335.939833	2373.445807
336.332606	2383.560882
336.725315	2396.549415
337.117960	2404.910169
337.510540	2418.430543
337.903056	2425.707449
338.295508	2431.938315
338.687896	2441.070365
339.080220	2443.598504
339.472480	2450.595625
339.864676	2453.244752
340.256807	2453.204423
340.648875	2457.254990
341.040879	2456.972685
341.432818	2461.507203
341.824694	2462.089456
342.216506	2459.878910
342.608253	2458.485031
342.999937	2460.771194
343.391557	2454.273147
343.783113	2458.341358
344.174605	2456.430761
344.566033	2456.332458
344.957397	2450.668722
345.348697	2450.661160
345.739934	2446.802157
346.131106	2447.938937
346.522215	2444.359718
346.913260	2444.674790
347.304241	2444.828545
347.695159	2440.120108
348.086012	2438.179263
348.476802	2438.764037
348.867528	2432.197934
349.258191	2429.634508
349.648789	2428.165011
350.039324	2428.671647
350.429796	2432.422266
350.820203	2433.095260
351.210548	2429.732810
351.600828	2429.112748
351.991045	2431.504776
352.381198	2430.020156
352.771288	2430.683068
353.161314	2428.437234
353.551276	2430.148705
353.941175	2427.519744
354.331010	2429.364806
354.720782	2429.495876
355.110490	2430.541915
355.500135	2428.570824
355.889717	2429.095104
356.279235	2428.606112
356.668689	2431.169539
357.058080	2427.512182
357.447408	2431.104004
357.836672	2431.267842
358.225873	2434.441248
358.615010	2431.487132
359.004084	2432.951587
359.393095	2434.519386
359.782043	2435.439396
360.170927	2435.121804
360.559748	2432.903696
360.948505	2432.487801
361.337199	2437.481064
361.725830	2438.675817
362.114398	2436.987031
362.502903	2436.785384
362.891344	2439.222782
363.279722	2436.372010
363.668037	2438.242278
364.056289	2439.689089
364.444478	2437.032401
364.832603	2438.612803
365.220665	2439.492484
365.608665	2439.822680
365.996601	2441.156065
366.384474	2440.420056
366.772284	2441.645057
367.160031	2442.141610
367.547715	2443.956426
367.935336	2442.794440
368.322893	2439.550457
368.710388	2440.036929
369.097820	2438.201949
369.485189	2440.530962
369.872495	2444.183278
370.259738	2443.462393
370.646918	2444.100099
371.034035	2442.862495
371.421090	2444.841148
371.808081	2445.635130
372.195010	2446.834925
372.581875	2443.132197
372.968678	2443.623710
373.355418	2443.081786
373.742096	2447.137394
374.128710	2446.676128
374.515262	2445.521704
374.901751	2449.753753
375.288177	2449.005141
375.674540	2446.429112
376.060841	2448.889195
376.447079	2448.443053
376.833254	2448.226283
377.219367	2446.444235
377.605417	2450.852724
377.991404	2447.870882
378.377329	2447.865841
378.763191	2449.186623
379.148991	2449.274843
379.534727	2449.622683
379.920402	2448.102775
380.306013	2449.831891
380.691563	2451.266099
381.077049	2447.233176
381.462474	2448.629575
381.847835	2450.608228
382.233134	2449.544545
382.618371	2449.085800
383.003545	2450.106633
383.388657	2448.004472
383.773706	2450.585543
384.158693	2453.423713
384.543618	2451.374484
384.928480	2452.559155
385.313280	2451.238373
385.698017	2452.223918
386.082692	2455.097376
386.467305	2455.709876
386.851856	2452.425564
387.236344	2452.014710
387.620770	2447.628906
388.005133	2448.682507
388.389435	2450.862807
388.773674	2447.684359
389.157851	2453.005297
389.541965	2453.769032
389.926018	2456.944959
390.310008	2453.758949
390.693936	2456.012345
391.077802	2453.643003
391.461606	2456.768518
391.845348	2455.956892
392.229027	2455.467901
392.612645	2456.287088
392.996200	2456.486214
393.379694	2455.568724
393.763125	2458.124589
394.146494	2456.188786
394.529801	2458.064095
394.913047	2455.974537
395.296230	2456.922273
395.679351	2457.973354
396.062410	2456.720627
396.445408	2456.713066
396.828343	2458.568210
397.211217	2459.271451
397.594028	2457.449074
397.976778	2460.040227
398.359466	2458.575772
398.742092	2459.914198
399.124656	2456.423199
399.507158	2458.621142
399.889598	2460.330093
400.271977	2459.009311
400.654294	2460.541822
401.036549	2459.757922
401.418742	2461.207254
401.800874	2460.929991
402.182944	2462.560804
402.564952	2460.153653
402.946898	2459.553756
403.328783	2459.289095
403.710606	2459.994857
404.092367	2461.408900
404.474067	2460.017542
404.855705	2460.554425
405.237282	2459.987295
405.618797	2462.835547
406.000250	2461.045937
406.381642	2460.995526
406.762972	2464.720938
407.144240	2458.575772
407.525447	2460.438478
407.906593	2461.585341
408.287677	2461.844960
408.668700	2464.852008
409.049661	2464.554580
409.430560	2464.133644
409.811399	2464.877214
410.192176	2459.891513
410.572891	2464.902420
410.953545	2462.613736
411.334138	2464.524333
411.714669	2462.664148
412.095139	2464.799076
412.475547	2465.451906
412.855894	2464.541977
413.236180	2462.316308
413.616405	2463.959724
413.996568	2465.099025
414.376670	2465.635908
414.756711	2462.941411
415.136691	2464.287399
415.516609	2466.006433
415.896466	2466.886114
416.276262	2464.181535
416.655997	2465.651031
417.035670	2466.397122
417.415283	2467.271762
417.794834	2464.957873
418.174324	2469.046248
418.553753	2468.017853
418.933121	2467.445682
419.312428	2466.934005
419.691674	2467.004581
420.070859	2464.725980
420.449983	2467.662452
420.829045	2464.050465
421.208047	2467.707822
421.586988	2467.087760
421.965867	2467.654890
422.344686	2464.728500
422.723444	2468.882411
423.102141	2469.444500
423.480777	2467.549026
423.859352	2468.882411
424.237866	2468.499283
424.616319	2469.283183
424.994712	2472.491877
425.373044	2468.779067
425.751314	2470.457772
426.129524	2464.229426
426.507673	2468.610189
426.885762	2465.724128
427.263789	2471.851651
427.641756	2469.862915
428.019662	2470.911475
428.397508	2467.395271
428.775292	2472.068420
429.153016	2469.378965
429.530679	2472.063379
429.908282	2470.190590
430.285824	2470.800570
430.663305	2470.921558
431.040726	2470.840899
431.418086	2471.153451
431.795385	2471.337453
432.172624	2470.714870
432.549802	2470.530868
432.926920	2471.914665
433.303977	2470.044397
433.680974	2472.527165
434.057910	2471.834007
434.434786	2473.996662
434.811601	2472.053297
435.188355	2473.764768
435.565050	2473.749645
435.941683	2475.773668
436.318257	2471.586990
436.694770	2474.823411
437.071222	2473.288379
437.447614	2471.254274
437.823946	2476.981025
438.200218	2472.265025
438.576429	2473.558081
438.952580	2474.407516
439.328670	2473.648822
439.704700	2472.968266
440.080670	2475.511528
440.456580	2472.912813
440.832429	2475.713174
441.208218	2473.505149
441.583947	2472.620427
441.959616	2475.322485
442.335224	2474.646970
442.710773	2475.241827
443.086261	2476.416415
443.461689	2476.098823
443.837057	2475.297279
444.212365	2474.828452
444.587612	2472.489357
444.962800	2473.744604
445.337927	2475.075468
445.712995	2470.614047
446.088002	2474.747793
446.462949	2476.597897
446.837837	2473.588328
447.212664	2475.803915
447.587431	2475.067907
447.962139	2475.680407
448.336786	2479.168885
448.711374	2475.564460
449.085901	2476.550006
449.460369	2473.164871
449.834776	2477.565798
450.209124	2473.616054
450.583412	2477.250726
450.957640	2477.923720
451.331808	2475.292238
451.705917	2476.557568
452.079965	2477.681745
452.453954	2477.096971
452.827883	2478.957157
453.201752	2476.507156
453.575562	2476.703761
453.949311	2478.483288
454.323001	2476.033288
454.696632	2477.490181
455.070202	2476.562609
455.443713	2476.202166
455.817164	2478.117805
456.190556	2475.831642
456.563888	2477.558237
456.937160	2476.847434
457.310373	2475.829121
457.683526	2478.886581
458.056619	2478.090078
458.429653	2475.216621
458.802628	2477.512866
459.175542	2475.544296
459.548398	2479.972949
459.921194	2478.208546
460.293930	2478.926910
460.666607	2476.033288
461.039224	2477.575881
461.411782	2478.891622
461.784280	2477.470017
462.156719	2475.604790
462.529099	2477.177630
462.901419	2478.417753
463.273680	2473.437093
463.645882	2475.899697
464.018024	2477.230562
464.390106	2476.028247
464.762130	2480.061170
465.134094	2477.782568
465.505999	2480.124184
465.877845	2475.995479
466.249631	2480.083855
466.621358	2476.580253
466.993026	2480.330871
467.364634	2482.042343
467.736184	2479.741056
468.107674	2481.467652
468.479105	2478.644605
468.850477	2478.037146
469.221790	2482.246510
469.593043	2479.526807
469.964238	2478.760552
470.335373	2479.889770
470.706449	2480.378762
471.077467	2478.730305
471.448425	2477.444811
471.819324	2479.110912
472.190164	2479.337764
472.560945	2482.143166
472.931667	2479.872126
473.302330	2479.166365
473.672934	2477.502784
474.043479	2478.556385
474.413965	2480.083855
474.784393	2480.792137
475.154761	2480.726602
475.525070	2481.334061
475.895321	2479.103350
476.265513	2481.021509
476.635645	2480.358598
477.005719	2479.562095
477.375734	2480.315748
477.745691	2479.597383
478.115588	2481.495378
478.485427	2482.407827
478.855207	2480.928248
479.224928	2479.693165
479.594591	2480.373721
479.964194	2480.532518
480.333739	2480.708958
480.703226	2479.713330
481.072653	2484.215080
481.442022	2480.449338
481.811333	2482.201139
482.180584	2476.406333
482.549777	2480.323310
482.918912	2474.417598
483.287988	2482.458238
483.657005	2481.896150
484.025964	2480.872795
484.394864	2480.401448
484.763706	2484.741881
485.132489	2481.785244
485.501213	2483.514360
485.869879	2483.267343
486.238487	2482.498567
486.607036	2481.729792
486.975527	2483.952940
487.343959	2482.448156
487.712333	2485.019144
488.080648	2481.707106
488.448905	2481.389514
488.817104	2481.901191
489.185244	2480.834987
489.553326	2484.751963
489.921350	2484.494864
490.289315	2482.783393
490.657222	2483.342961
491.025070	2481.578557
491.392861	2481.873464
491.760593	2483.403455
492.128267	2482.397744
492.495883	2481.397075
492.863440	2483.043012
493.230939	2481.618886
493.598380	2486.057622
493.965763	2481.303814
494.333088	2481.767600
494.700354	2483.625265
495.067563	2483.781541
495.434713	2485.399752
495.801805	2484.247848
496.168839	2481.742394
496.535815	2481.684421
496.902733	2480.456900
497.269593	2485.520739
497.636395	2484.462097
498.003139	2484.091572
498.369825	2483.239617
498.736453	2482.619555
499.103023	2480.381283
499.469535	2482.962354
499.835989	2484.885554
500.202385	2480.653505
500.568723	2481.964205
500.935003	2479.988073
501.301226	2479.090747
501.667390	2484.237766
502.033497	2482.223825
502.399546	2485.921511
502.765537	2484.691469
503.131470	2484.560399
503.497345	2485.971923
503.863163	2483.249699
504.228923	2480.905563
504.594625	2483.584936
504.960269	2484.719196
505.325856	2482.175934
505.691385	2484.608290
506.056856	2483.312714
506.422270	2486.707931
506.787625	2483.421099
507.152924	2482.455718
507.518164	2484.325986
507.883347	2484.792293
508.248472	2482.758187
508.613540	2484.260451
508.978550	2481.419761
509.343503	2486.685246
509.708398	2482.511170
510.073236	2484.363794
510.438016	2483.695842
510.802738	2484.048722
511.167403	2485.074597
511.532010	2483.030409
511.896561	2485.087200
512.261053	2484.073928
512.625488	2486.586943
512.989866	2485.477889
513.354186	2484.139463
513.718449	2484.260451
514.082655	2487.244814
514.446803	2484.416727
514.810894	2486.546614
515.174927	2484.003352
515.538904	2486.002169
515.902822	2486.775987
516.266684	2484.119298
516.630488	2487.340596
516.994235	2482.354895
517.357925	2485.571151
517.721558	2483.509319
518.085133	2485.843373
518.448651	2482.324648
518.812112	2481.548310
519.175516	2481.744915
519.538863	2481.175265
519.902152	2485.616521
520.265385	2486.521408
520.628560	2484.237766
520.991678	2487.060812
521.354739	2482.632158
521.717743	2485.477889
522.080690	2486.158445
522.443580	2485.193064
522.806413	2483.612663
523.169189	2485.193064
523.531908	2482.957313
523.894569	2487.388487
524.257174	2485.908908
524.619722	2485.311531
524.982213	2486.463435
525.344647	2484.966212
525.707025	2489.362098
526.069345	2485.056953
526.431608	2488.530308
526.793815	2484.467138
527.155964	2485.384628
527.518057	2483.156438
527.880093	2485.016624
528.242072	2484.923363
528.603995	2484.383959
528.965860	2484.242807
529.327669	2485.538383
529.689421	2487.658188
530.051117	2488.227839
530.412755	2487.985863
530.774337	2485.288846
531.135862	2484.988898
531.497331	2485.634165
531.858743	2485.243476
532.220098	2488.056440
532.581396	2487.164155
532.942638	2487.736326
533.303824	2484.255410
533.664953	2486.657519
534.026025	2486.750781
534.387040	2484.391521
534.747999	2485.384628
535.108902	2487.023003
535.469748	2486.181130
535.830537	2484.981336
536.191270	2486.052581
536.551947	2481.757518
536.912567	2482.110399
537.273131	2485.495533
537.633638	2479.352888
537.994089	2487.287664
538.354483	2483.506798
538.714821	2486.957468
539.075103	2487.126347
539.435328	2488.462252
539.795497	2486.060143
540.155609	2488.487458
540.515665	2486.889413
540.875665	2488.336224
541.235609	2486.110554
541.595496	2487.040647
541.955328	2484.227683
542.315102	2488.641213
542.674821	2487.454022
543.034483	2488.429485
543.394090	2485.969402
543.753640	2485.641727
544.113134	2485.976964
544.472571	2485.709783
544.831953	2485.311531
545.191278	2486.914618
545.550548	2485.687097
545.909761	2485.868579
546.268918	2486.264309
546.628019	2487.373363
546.987064	2484.981336
547.346053	2486.256748
547.704986	2486.312200
548.063863	2485.883702
548.422684	2485.021665
548.781449	2484.419247
549.140158	2488.069043
549.498811	2487.960658
549.857408	2486.221460
550.215949	2486.166007
550.574434	2486.781028
550.932864	2488.452170
551.291237	2485.626603
551.649555	2487.378404
552.007817	2488.794969
552.366022	2488.568117
552.724173	2487.297746
553.082267	2486.917139
553.440305	2487.101141
553.798288	2487.761532
554.156215	2488.288333
554.514086	2484.479741
554.871902	2480.151910
555.229661	2482.669967
555.587365	2479.156283
555.945014	2487.683394
556.302606	2487.713641
556.660143	2485.724906
557.017625	2486.042499
557.375050	2488.837818
557.732421	2486.889413
558.089735	2487.212046
558.446994	2488.197592
558.804197	2488.331183
559.161345	2487.622900
559.518437	2487.847232
559.875474	2486.256748
560.232455	2486.591984
560.589381	2486.992756
560.946251	2488.673981
561.303065	2486.660040
561.659825	2488.172386
562.016528	2486.372694
562.373177	2487.678353
562.729770	2486.995277
563.086307	2487.670791
563.442789	2487.930411
563.799216	2488.706748
564.155587	2487.146511
564.511904	2487.960658
564.868164	2487.338075
565.224370	2487.885040
565.580520	2487.844711
565.936615	2487.975781
566.292654	2486.539052
566.648638	2485.611480
567.004567	2484.131901
567.360441	2487.927890
567.716260	2488.946203
568.072023	2488.643734
568.427732	2485.069556
568.783385	2486.723054
569.138982	2487.136429
569.494525	2487.854793
569.850013	2487.287664
570.205445	2490.360247
570.560823	2485.235914
570.916145	2489.379742
571.271412	2484.210039
571.626625	2488.638693
571.981782	2485.636686
572.336884	2487.078456
572.691931	2483.844556
573.046923	2486.198774
573.401860	2482.072590
573.756743	2488.704228
574.111570	2485.117447
574.466342	2486.453353
574.821059	2486.385297
575.175722	2486.818836
575.530330	2486.980153
575.884882	2486.559217
576.239380	2487.537201
576.593823	2490.617346
576.948211	2487.577530
577.302544	2489.062150
577.656823	2487.784217
578.011047	2490.191368
578.365216	2485.911429
578.719330	2488.827736
579.073389	2487.406131
579.427394	2487.370843
579.781344	2485.518219
580.135239	2487.179279
580.489080	2485.455204
580.842866	2488.885709
581.196597	2488.056440
581.550273	2487.491830
581.903895	2487.126347
582.257463	2487.199443
582.610975	2485.621562
582.964434	2488.048878
583.317837	2487.378404
583.671186	2488.653816
584.024481	2485.417396
584.377721	2485.704741
584.730906	2484.900677
585.084037	2484.363794
585.437113	2485.334217
585.790135	2487.665750
586.143103	2490.692963
586.496016	2489.679691
586.848874	2488.411841
587.201679	2485.009062
587.554428	2487.690956
587.907124	2484.966212
588.259765	2488.026193
588.612352	2484.421768
588.964884	2485.813126
589.317362	2487.567448
589.669786	2486.806233
590.022155	2486.186172
590.374470	2485.601398
590.726731	2487.053250
591.078937	2481.419761
591.431090	2486.839001
591.783188	2485.193064
592.135232	2487.532160
592.487222	2487.327993
592.839157	2488.691625
593.191038	2486.556696
593.542866	2487.045688
593.894639	2487.171717
594.246358	2487.355719
594.598022	2485.682056
594.949633	2487.746409
595.301190	2484.721716
595.652692	2486.743219
596.004141	2484.898157
596.355535	2485.704741
596.706876	2487.073415
597.058162	2484.799854
597.409395	2487.098620
597.760573	2488.903353
598.111698	2487.819505
598.462768	2487.002838
598.813785	2485.639206
599.164748	2488.537870
599.515657	2484.729278
599.866511	2486.314721
600.217312	2488.459732
600.568060	2486.327324
600.918753	2486.460914
601.269392	2487.643065
601.619978	2484.767087
601.970510	2489.883858
602.320988	2485.281284
602.671412	2488.641213
603.021783	2486.450832
603.372100	2486.879330
603.722363	2485.808085
604.072572	2486.992756
604.422728	2485.719865
604.772830	2487.706079
605.122878	2486.133239
605.472872	2489.241111
605.822813	2484.305821
606.172701	2486.050060
606.522534	2485.109885
606.872314	2490.145998
607.222041	2484.073928
607.571714	2487.290184
607.921333	2482.614514
608.270899	2486.246665
608.620411	2481.034112
608.969870	2489.467963
609.319276	2487.963178
609.668627	2490.002325
610.017926	2486.047540
610.367171	2486.788589
610.716362	2489.115082
611.065500	2486.166007
611.414585	2486.639875
611.763616	2491.073570
612.112594	2487.355719
612.461518	2486.642396
612.810389	2490.030051
613.159207	2486.168527
613.507971	2487.827067
613.856682	2488.618528
614.205340	2486.662561
614.553945	2490.196409
614.902496	2487.083497
615.250994	2488.769763
615.599439	2487.839670
615.947830	2488.394197
616.296169	2490.476193
616.644454	2488.583240
616.992686	2488.885709
617.340864	2488.197592
617.688990	2490.579537
618.037063	2485.954278
618.385082	2487.259937
618.733048	2490.589619
619.080961	2487.953096
619.428821	2487.781697
619.776628	2484.809937
620.124382	2487.156594
620.472083	2486.528970
620.819731	2487.665750
621.167326	2486.362612
621.514868	2486.171048
621.862357	2486.458394
622.209793	2485.142653
622.557176	2487.393528
622.904506	2487.879999
623.251783	2487.731285
623.599007	2488.197592
623.946179	2485.140132
624.293297	2489.631800
624.640363	2486.430667
624.987376	2484.013434
625.334336	2482.138125
625.681243	2484.177272
626.028097	2482.632158
626.374899	2487.985863
626.721647	2487.978302
627.068343	2488.694146
627.414987	2483.889926
627.761577	2487.935452
628.108115	2486.934783
628.454600	2486.617190
628.801032	2488.119454
629.147412	2484.426809
629.493739	2487.968219
629.840014	2486.201295
630.186236	2487.544762
630.532405	2490.002325
630.878521	2488.174907
631.224585	2487.640544
631.570597	2485.810606
631.916556	2484.149545
632.262462	2485.911429
632.608316	2487.287664
632.954117	2486.586943
633.299866	2489.175576
633.645562	2486.191213
633.991206	2489.639362
634.336797	2487.068373
634.682336	2488.089207
635.027823	2490.156080
635.373257	2488.008549
635.718639	2486.927221
636.063968	2486.463435
636.409245	2486.128198
636.754470	2488.074084
637.099642	2488.399238
637.444762	2490.110710
637.789829	2487.943014
638.134845	2486.753301
638.479808	2488.190030
638.824719	2487.738847
639.169577	2488.825216
639.514383	2488.048878
639.859137	2485.853455
640.203839	2485.787920
640.548489	2486.309680
640.893086	2488.744557
641.237632	2485.583754
641.582125	2491.688591
641.926566	2485.994608
642.270955	2485.780359
642.615292	2485.971923
642.959576	2484.378918
643.303809	2484.036119
643.647990	2486.239104
643.992118	2484.850266
644.336195	2485.351861
644.680219	2487.854793
645.024192	2486.402941
645.368112	2486.357571
645.711981	2484.666264
646.055797	2486.871768
646.399562	2485.306490
646.743274	2487.345637
647.086935	2486.055102
647.430544	2488.505102
647.774101	2487.474186
648.117606	2485.651809
648.461059	2486.218939
648.804460	2490.725731
649.147810	2487.043168
649.491108	2486.329844
649.834354	2485.944196
650.177548	2488.303456
650.520690	2487.363281
650.863781	2486.478558
651.206820	2483.947899
651.549807	2486.788589
651.892742	2486.070225
652.235626	2486.743219
652.578458	2488.691625
652.921238	2487.141470
653.263967	2489.198261
653.606644	2486.307159
653.949269	2486.123157
654.291843	2485.326655
654.634365	2486.024855
654.976836	2486.536532
655.319255	2489.233549
655.661622	2485.813126
656.003938	2486.501244
656.346203	2487.023003
656.688416	2487.315390
657.030577	2487.653147
657.372687	2485.649289
657.714746	2486.039978
658.056753	2485.182982
658.398708	2486.211377
658.740612	2488.167345
659.082465	2486.110554
659.424266	2484.673825
659.766016	2483.814309
660.107715	2483.894967
660.449362	2480.043526
660.790958	2488.409320
661.132503	2485.344299
661.473996	2488.026193
661.815438	2486.307159
662.156829	2486.488641
662.498168	2489.407469
662.839456	2488.026193
663.180693	2485.631645
663.521879	2484.260451
663.863013	2484.817498
664.204097	2487.365802
664.545129	2484.328506
664.886110	2489.198261
665.227040	2484.809937
665.567918	2486.967550
665.908746	2482.564103
666.249522	2487.481748
666.590248	2487.239773
666.930922	2483.353043
667.271545	2486.581902
667.612118	2485.528301
667.952639	2484.308342
668.293109	2485.387149
668.633528	2484.762046
668.973896	2485.563589
669.314213	2486.297077
669.654480	2487.774135
669.994695	2488.827736
670.334859	2487.920328
670.674973	2487.184320
671.015035	2487.365802
671.355047	2488.003508
671.695008	2485.964361
672.034918	2486.223980
672.374777	2486.866727
672.714585	2485.399752
673.054342	2488.184989
673.394049	2485.626603
673.733705	2488.535349
674.073310	2487.401090
674.412864	2484.787251
674.752368	2485.966881
675.091820	2486.244145
675.431223	2484.031078
675.770574	2486.196254
676.109875	2487.955617
676.449125	2485.954278
676.788324	2481.263485
677.127473	2485.614001
677.466571	2481.223156
677.805619	2486.786069
678.144616	2486.972592
678.483562	2486.236583
678.822458	2483.874803
679.161303	2485.384628
679.500098	2487.020482
679.838842	2485.639206
680.177535	2485.787920
680.516179	2484.784731
680.854771	2485.722385
681.193314	2485.566110
681.531805	2486.012252
681.870247	2483.985708
682.208638	2485.644248
682.546978	2489.591471
682.885268	2486.705410
683.223508	2486.536532
683.561697	2485.498054
683.899836	2484.202478
684.237925	2485.220791
684.575963	2484.832622
684.913951	2486.052581
685.251889	2484.545276
685.589776	2484.121819
685.927614	2487.136429
686.265401	2486.607108
686.603137	2486.781028
686.940824	2483.854638
687.278460	2486.216418
687.616046	2484.300780
687.953582	2486.213898
688.291068	2486.249186
688.628504	2484.356233
688.965889	2486.586943
689.303224	2487.811944
689.640510	2483.673156
689.977745	2487.108703
690.314930	2483.738691
690.652065	2485.561068
690.989150	2486.171048
691.326185	2486.163486
691.663170	2487.406131
692.000105	2484.174751
692.336990	2484.860348
692.673825	2488.686584
693.010610	2487.350678
693.347345	2481.639051
693.684030	2484.915801
694.020665	2484.600729
694.357251	2481.472693
694.693786	2482.675008
695.030272	2487.527118
695.366707	2483.448825
695.703093	2486.884371
696.039429	2488.565596
696.375716	2486.034937
696.711952	2486.186172
697.048139	2483.043012
697.384276	2486.370174
697.720363	2486.226501
698.056400	2485.316572
698.392388	2483.025368
698.728326	2487.380925
699.064214	2484.784731
699.400053	2488.621049
699.735842	2485.109885
700.071581	2484.935965
700.407270	2487.632983
700.742910	2486.937303
701.078501	2484.875472
701.414042	2486.057622
701.749533	2485.833291
702.084974	2488.583240
702.420366	2486.324803
702.755709	2490.521564
703.091002	2484.487303
703.426246	2486.226501
703.761440	2484.063846
704.096584	2485.533342
704.431679	2483.905049
704.766725	2485.845894
705.101721	2485.606439
705.436668	2484.552838
705.771565	2486.037458
706.106413	2482.596870
706.441212	2484.867910
706.775961	2485.561068
707.110661	2485.341778
707.445311	2486.508805
707.779913	2485.177941
708.114465	2486.718013
708.448967	2485.399752
708.783421	2483.426140
709.117825	2484.542755
709.452180	2484.706593
709.786485	2485.465287
710.120742	2479.173927
710.454949	2481.087044
710.789107	2481.061839
711.123216	2480.257775
711.457275	2485.840853
711.791286	2486.662561
712.125247	2486.259268
712.459159	2488.235401
712.793023	2485.729947
713.126837	2486.196254
713.460602	2486.045019
713.794318	2487.630462
714.127985	2487.171717
714.461602	2484.525111
714.795171	2485.296408
715.128691	2483.690800
715.462162	2484.537714
715.795584	2486.639875
716.128957	2484.273054
716.462281	2485.664412
716.795556	2486.486120
717.128782	2488.260606
717.461960	2486.392859
717.795088	2484.517550
718.128167	2484.933445
718.461198	2482.319607
718.794180	2482.168372
719.127113	2483.937817
719.459997	2483.557210
719.792833	2489.069712
720.125619	2482.249030
720.458357	2484.928404
720.791046	2487.348158
721.123686	2486.029896
721.456278	2486.153404
721.788821	2487.065853
722.121315	2486.539052
722.453761	2485.674494
722.786158	2482.014617
723.118506	2486.133239
723.450805	2482.317086
723.783056	2485.513178
724.115259	2484.600729
724.447412	2486.367653
724.779518	2484.646099
725.111574	2485.906387
725.443582	2485.283805
725.775542	2484.275574
726.107453	2485.394710
726.439315	2484.973774
726.771129	2486.849083
727.102895	2482.601911
727.434612	2483.085862
727.766281	2479.501602
728.097901	2485.961840
728.429473	2484.305821
728.760996	2485.278764
729.092471	2484.855307
729.423897	2484.754484
729.755276	2483.917652
730.086606	2484.719196
730.417887	2484.308342
730.749120	2485.172900
731.080305	2483.630307
731.411442	2485.127529
731.742530	2485.911429
732.073570	2484.300780
732.404562	2483.025368
732.735506	2484.804895
733.066401	2483.123671
733.397249	2486.586943
733.728048	2484.409165
734.058798	2484.368836
734.389501	2487.658188
734.720156	2487.499392
735.050762	2484.026037
735.381320	2483.975626
735.711831	2483.988228
736.042293	2486.135760
736.372707	2485.306490
736.703073	2485.687097
737.033391	2485.082159
737.363661	2483.121150
737.693883	2486.148363
738.024056	2483.811788
738.354182	2486.705410
738.684260	2484.978815
739.014290	2484.278095
739.344272	2485.671974
739.674207	2485.087200
740.004093	2486.188692
740.333931	2482.911942
740.663722	2482.538897
740.993464	2484.131901
741.323159	2485.283805
741.652806	2484.187354
741.982405	2484.789772
742.311956	2485.142653
742.641460	2484.454535
742.970915	2484.832622
743.300323	2480.663588
743.629683	2482.057467
743.958996	2483.297590
744.288260	2482.944710
744.617477	2483.768938
744.946647	2482.962354
745.275768	2484.618373
745.604842	2485.404793
745.933869	2485.218270
746.262847	2482.367498
746.591778	2485.097282
746.920662	2483.199288
747.249498	2483.055615
747.578286	2482.135604
747.907027	2485.044350
748.235720	2482.526294
748.564365	2485.225832
748.892963	2482.803557
749.221514	2485.659371
749.550017	2484.598208
749.878473	2482.405306
750.206881	2482.785913
750.535242	2484.736840
750.863555	2485.104844
751.191821	2484.757004
751.520039	2484.318424
751.848210	2484.459576
752.176334	2483.274905
752.504411	2483.221973
752.832440	2486.662561
753.160421	2483.884885
753.488356	2485.114926
753.816243	2486.307159
754.144082	2482.075111
754.471875	2486.309680
754.799620	2482.654843
755.127318	2483.474031
755.454969	2486.024855
755.782572	2483.095944
756.110129	2483.471510
756.437638	2484.762046
756.765100	2484.721716
757.092515	2482.571664
757.419882	2485.208188
757.747203	2483.022847
758.074477	2484.938486
758.401703	2484.663743
758.728882	2483.095944
759.056014	2484.714155
759.383099	2485.858497
759.710138	2480.668629
760.037129	2480.792137
760.364073	2478.795840
760.690970	2478.223669
761.017820	2483.511839
761.344623	2487.295225
761.671379	2483.438743
761.998088	2485.200626
762.324751	2483.496716
762.651366	2483.431181
762.977935	2486.602067
763.304456	2483.577374
763.630931	2484.187354
763.957359	2485.704741
764.283740	2484.772128
764.610074	2484.933445
764.936362	2485.697180
765.262602	2481.530666
765.588796	2483.317755
765.914943	2482.922024
766.241044	2485.588795
766.567097	2484.446973
766.893104	2483.249699
767.219064	2484.008393
767.544978	2485.707262
767.870845	2484.930924
768.196665	2482.296921
768.522438	2483.070738
768.848165	2483.647951
769.173846	2484.144504
769.499479	2484.207519
769.825066	2483.169041
770.150607	2483.902529
770.476101	2487.607777
770.801548	2481.790285
771.126949	2484.189875
771.452303	2483.000162
771.777611	2484.084010
772.102872	2484.923363
772.428087	2484.724237
772.753256	2482.700214
773.078378	2484.827581
773.403453	2483.685759
773.728482	2481.518063
774.053465	2483.973105
774.378401	2482.780872
774.703291	2484.487303
775.028135	2485.210708
775.352932	2482.493526
775.677683	2482.405306
776.002388	2482.836325
776.327046	2478.793319
776.651658	2480.381283
776.976224	2479.587301
777.300743	2480.222487
777.625216	2483.426140
777.949643	2483.365646
778.274024	2482.516212
778.598359	2482.491006
778.922647	2485.616521
779.246889	2484.595688
779.571086	2486.811275
779.895236	2483.138794
780.219339	2484.225163
780.543397	2485.525780
780.867409	2482.180975
781.191374	2482.357415
781.515294	2483.123671
781.839167	2483.443784
782.162995	2485.402272
782.486776	2484.295739
782.810511	2482.778352
783.134201	2481.724750
783.457844	2483.524442
783.781441	2480.925728
784.104993	2484.636017
784.428498	2481.863382
784.751958	2484.966212
785.075372	2483.199288
785.398739	2482.929586
785.722061	2481.621407
786.045337	2482.407827
786.368568	2482.609473
786.691752	2483.494195
787.014891	2485.644248
787.337983	2481.767600
787.661030	2482.914463
787.984031	2482.682570
788.306987	2482.992601
788.629897	2483.612662
788.952760	2481.671818
789.275579	2482.042343
789.598351	2485.145173
789.921078	2482.425471
790.243759	2482.644761
790.566395	2481.649133
790.888984	2480.840028
791.211529	2483.431181
791.534027	2482.927066
791.856480	2480.406489
792.178888	2480.187198
792.501249	2480.930769
792.823566	2479.544451
793.145836	2477.838021
793.468062	2483.118629
793.790241	2481.954123
794.112375	2483.816829
794.434464	2484.033599
794.756507	2481.326499
795.078505	2481.323979
795.400457	2483.595018
795.722364	2481.288691
796.044226	2481.076962
796.366042	2483.446304
796.687812	2482.541417
797.009538	2482.049905
797.331218	2484.323465
797.652852	2482.619555
797.974442	2484.394041
798.295986	2482.581747
798.617484	2484.283136
798.938938	2482.102837
799.260346	2481.228197
799.581709	2482.193578
799.903026	2482.627117
800.224299	2483.746253
800.545526	2480.081334
800.866708	2483.232055
801.187845	2482.213742
801.508936	2483.799185
801.829983	2481.671818
802.150984	2481.555872
802.471940	2483.544607
802.792851	2482.160810
803.113717	2481.734833
803.434538	2482.569144
803.755314	2483.355564
804.076045	2482.546458
804.396731	2482.153248
804.717372	2480.431694
805.037967	2484.840183
805.358518	2482.160810
805.679024	2485.142653
805.999485	2482.236428
806.319901	2481.197950
806.640272	2482.695172
806.960598	2483.640389
807.280879	2484.227683
807.601115	2483.887405
807.921306	2482.012096
808.241453	2480.903042
808.561554	2481.288691
808.881611	2477.906076
809.201623	2476.555047
809.521590	2484.046202
809.841513	2481.346664
810.161390	2483.763897
810.481223	2480.955974
810.801011	2484.623414
811.120755	2481.805409
811.440453	2483.446304
811.760107	2482.748105
812.079716	2483.474031
812.399281	2484.036119
812.718801	2483.108547
813.038276	2480.814822
813.357707	2483.680718
813.677093	2481.565954
813.996434	2481.107209
814.315731	2480.973618
814.634983	2480.466983
814.954191	2482.657364
815.273354	2483.708444
815.592473	2481.344143
815.911547	2481.026551
816.230577	2482.115440
816.549562	2482.758187
816.868502	2481.752477
817.187399	2482.647282
817.506250	2483.736171
817.825058	2484.673825
818.143821	2481.298773
818.462539	2482.491006
818.781213	2481.190388
819.099843	2483.272385
819.418429	2483.544607
819.736970	2480.310707
820.055466	2481.374390
820.373919	2482.160810
820.692327	2481.971767
821.010691	2484.567961
821.329011	2481.775162
821.647286	2482.511170
821.965517	2482.417909
822.283704	2483.385811
822.601847	2482.571664
822.919945	2481.888588
823.237999	2481.805409
823.556010	2482.801037
823.873976	2481.785244
824.191897	2479.947744
824.509775	2475.735860
824.827609	2481.888588
825.145398	2474.105046
825.463144	2480.777013
825.780845	2483.630307
826.098502	2484.368836
826.416116	2480.913125
826.733685	2481.001345
827.051210	2480.003196
827.368692	2483.002683
827.686129	2481.434884
828.003522	2480.431694
828.320872	2480.159472
828.638177	2481.961685
828.955439	2480.779534
829.272656	2480.285501
829.589830	2484.477220
829.906960	2481.427322
830.224046	2482.206181
830.541088	2483.315234
830.858086	2481.964205
831.175041	2481.152579
831.491952	2481.999493
831.808819	2480.799699
832.125642	2478.710140
832.442421	2482.848928
832.759157	2480.330871
833.075849	2482.299442
833.392497	2481.548310
833.709101	2482.962354
834.025662	2480.066211
834.342179	2482.251551
834.658653	2483.625265
834.975083	2482.037302
835.291469	2485.223311
835.607811	2480.885398
835.924110	2481.901191
836.240366	2481.029071
836.556578	2481.336582
836.872746	2481.258444
837.188871	2484.527632
837.504952	2483.138794
837.820990	2482.322127
838.136984	2483.151397
838.452935	2477.883391
838.768842	2480.227528
839.084706	2480.502271
839.400526	2483.098465
839.716303	2481.180306
840.032037	2480.494709
840.347727	2478.977322
840.663373	2478.700058
840.978977	2475.589666
841.294537	2482.811119
841.610054	2482.619555
841.925527	2481.936479
842.240957	2482.770790
842.556344	2481.586119
842.871687	2482.334730
843.186987	2481.165182
843.502244	2480.744246
843.817458	2484.545276
844.132629	2481.018989
844.447756	2482.433032
844.762840	2481.613845
845.077881	2482.410347
845.392879	2480.865234
845.707833	2481.686942
846.022745	2481.444966
846.337613	2481.908752
846.652438	2481.432363
846.967221	2480.502271
847.281960	2484.777169
847.596656	2482.022178
847.911309	2481.170223
848.225919	2482.881695
848.540485	2481.676859
848.855009	2482.143166
849.169490	2485.626603
849.483928	2479.093268
849.798323	2482.526294
850.112675	2481.107209
850.426984	2479.768783
850.741251	2478.823566
851.055474	2481.321458
851.369654	2481.760038
851.683792	2482.105358
851.997887	2479.501602
852.311938	2481.044195
852.625947	2481.394555
852.939914	2481.359267
853.253837	2479.824235
853.567718	2481.021509
853.881555	2481.623927
854.195350	2480.746767
854.509103	2480.252733
854.822812	2477.396920
855.136479	2483.015286
855.450103	2481.893629
855.763685	2481.563433
856.077224	2478.435398
856.390720	2481.127374
856.704173	2477.102012
857.017584	2479.549493
857.330953	2478.795840
857.644278	2480.840028
857.957561	2482.342292
858.270802	2477.061683
858.584000	2481.029071
858.897155	2480.363639
859.210268	2476.860037
859.523339	2484.119298
859.836367	2481.777682
860.149352	2479.703248
860.462295	2482.017137
860.775195	2480.915645
861.088054	2482.546458
861.400869	2482.629638
861.713642	2481.470172
862.026373	2479.955305
862.339062	2480.527476
862.651708	2481.974288
862.964312	2481.565954
863.276873	2482.450677
863.589392	2481.361787
863.901869	2483.569813
864.214303	2484.605770
864.526696	2480.971098
864.839045	2479.466313
865.151353	2477.384317
865.463619	2481.308855
865.775842	2484.298259
866.088023	2479.546972
866.400162	2476.698720
866.712258	2480.038484
867.024313	2479.899853
867.336325	2480.318268
867.648296	2478.337095
867.960224	2481.881026
868.272110	2482.221304
868.583954	2480.146869
868.895755	2478.372383
869.207515	2479.133597
869.519233	2483.252220
869.830909	2478.137969
870.142542	2477.916159
870.454134	2478.989924
870.765684	2483.491675
871.077191	2480.487147
871.388657	2477.835500
871.700081	2478.357260
872.011463	2478.173257
872.322803	2475.060345
872.634101	2481.283649
872.945357	2479.647795
873.256571	2479.161324
873.567744	2480.872795
873.878874	2478.654688
874.189963	2480.046046
874.501010	2480.542600
874.812015	2479.768783
875.122979	2478.788278
875.433900	2478.513535
875.744780	2480.771972
876.055618	2479.947744
876.366415	2478.579070
876.677169	2482.004534
876.987882	2479.413381
877.298554	2480.532517
877.609183	2479.612507
877.919771	2477.953967
878.230317	2479.743577
878.540822	2482.070069
878.851285	2476.991107
879.161707	2480.557723
879.472087	2481.697024
879.782425	2480.104019
880.092722	2479.040336
880.402977	2480.214925
880.713191	2480.650985
881.023363	2479.181488
881.333494	2481.082003
881.643583	2482.642240
881.953631	2480.885398
882.263637	2481.379431
882.573602	2482.233907
882.883526	2480.121663
883.193408	2480.257775
883.503248	2479.806591
883.813048	2478.316930
884.122806	2480.335913
884.432522	2477.875829
884.742197	2483.078300
885.051831	2483.027889
885.361424	2482.745584
885.670975	2480.782055
885.980485	2479.937661
886.289954	2480.575367
886.599382	2481.460090
886.908768	2480.288022
887.218113	2476.456745
887.527417	2478.626961
887.836680	2475.367855
888.145901	2478.790799
888.455082	2480.524956
888.764221	2481.225676
889.073319	2479.093268
889.382376	2478.054790
889.691392	2478.581591
890.000366	2480.986221
890.309300	2480.421612
890.618193	2483.146356
890.927044	2477.341467
891.235855	2478.488330
891.544625	2480.865234
891.853353	2480.313227
892.162041	2477.278453
892.470687	2480.865234
892.779293	2480.257775
893.087858	2481.344143
893.396381	2479.236941
893.704864	2478.243834
894.013306	2478.291725
894.321707	2479.854482
894.630068	2481.155100
894.938387	2481.936479
895.246665	2479.952785
895.554903	2481.644092
895.863100	2481.336582
896.171256	2480.509832
896.479371	2478.652167
896.787446	2480.356077
897.095480	2478.148052
897.403473	2479.156283
897.711425	2479.007568
898.019336	2480.613176
898.327207	2477.855665
898.635038	2479.408340
898.942827	2482.344812
899.250576	2480.172075
899.558284	2478.740387
899.865952	2481.278608
900.173579	2477.969091
900.481165	2480.497229
900.788711	2477.931282
901.096216	2481.046715
901.403681	2477.260809
901.711105	2479.930100
902.018489	2479.126036
902.325832	2477.681745
902.633135	2473.779892
902.940397	2481.444966
903.247619	2474.140334
903.554800	2478.097640
903.861941	2477.028916
904.169041	2481.568475
904.476101	2477.366673
904.783121	2479.552013
905.090100	2480.898001
905.397039	2481.323979
905.703938	2478.158134
906.010796	2482.881695
906.317614	2479.161324
906.624391	2480.744246
906.931129	2478.508494
907.237826	2481.591160
907.544483	2482.430512
907.851099	2480.860193
908.157675	2477.570840
908.464211	2479.988073
908.770707	2481.175265
909.077163	2480.305666
909.383578	2480.141828
909.689954	2480.635861
909.996289	2478.642085
910.302584	2479.287352
910.608839	2481.528145
910.915054	2478.813484
911.221229	2481.467652
911.527363	2478.667291
911.833458	2479.153762
912.139513	2477.727115
912.445527	2479.398258
912.751502	2480.255254
913.057436	2479.602425
913.363331	2478.085037
913.669186	2477.023874
913.975000	2480.751808
914.280775	2475.839203
914.586510	2479.917497
914.892205	2477.971611
915.197859	2478.274081
915.503475	2481.465131
915.809050	2478.127887
916.114585	2479.620069
916.420081	2480.232569
916.725536	2479.153762
917.030952	2478.818525
917.336328	2477.822897
917.641665	2478.064873
917.946961	2478.248875
918.252218	2476.544965
918.557435	2477.901035
918.862612	2479.819194
919.167750	2477.248206
919.472848	2480.053608
919.777906	2480.650985
920.082925	2481.490337
920.387904	2477.802733
920.692843	2481.175265
920.997743	2480.618217
921.302603	2478.024543
921.607423	2480.280460
921.912204	2478.523618
922.216946	2477.636375
922.521647	2480.363639
922.826310	2477.333905
923.130932	2480.703917
923.435516	2477.709471
923.740059	2479.793988
924.044564	2478.216107
924.349028	2482.082672
924.653454	2479.133597
924.957840	2480.945892
925.262186	2476.983545
925.566493	2478.848772
925.870761	2477.764924
926.174989	2477.691827
926.479178	2478.463124
926.783328	2479.483957
927.087438	2479.166365
927.391509	2480.792137
927.695541	2480.272898
927.999533	2478.614358
928.303486	2479.877167
928.607400	2480.260295
928.911275	2476.890284
929.215110	2479.030254
929.518906	2478.634523
929.822663	2478.420274
930.126381	2480.245172
930.430060	2476.965901
930.733699	2480.779534
931.037299	2477.028916
931.340861	2480.237610
931.644383	2476.660911
931.947866	2478.642085
932.251309	2478.274081
932.554714	2476.209728
932.858080	2479.620069
933.161407	2474.694861
933.464694	2479.360449
933.767943	2470.707309
934.071153	2479.173927
934.374323	2476.267701
934.677455	2479.453711
934.980548	2477.810294
935.283602	2477.341467
935.586617	2478.221148
935.889593	2479.587301
936.192530	2479.786427
936.495428	2477.769965
936.798287	2476.335757
937.101108	2479.410861
937.403890	2477.323823
937.706632	2479.930100
938.009336	2479.552013
938.312002	2477.908597
938.614628	2478.488330
938.917216	2479.136118
939.219765	2479.085706
939.522275	2478.513535
939.824747	2474.500777
940.127179	2479.617548
940.429573	2476.149234
940.731929	2478.475727
941.034246	2477.835500
941.336524	2479.799030
941.638763	2478.783237
941.940964	2480.288022
942.243126	2480.325830
942.545250	2476.408854
942.847335	2480.091417
943.149381	2478.168216
943.451389	2477.071765
943.753359	2477.033957
944.055290	2477.684266
944.357182	2479.708289
944.659036	2476.552527
944.960851	2475.443473
945.262628	2477.994297
945.564367	2479.095789
945.866067	2476.121508
946.167729	2478.871457
946.469352	2478.480768
946.770937	2476.943216
947.072484	2477.681745
947.373992	2478.425315
947.675462	2480.209884
947.976893	2476.577732
948.278286	2473.800057
948.579641	2476.232413
948.880958	2471.957515
949.182236	2478.105202
949.483476	2477.631333
949.784678	2478.770634
950.085841	2478.863896
950.386967	2476.963381
950.688054	2479.148721
950.989103	2473.789974
951.290114	2477.472537
951.591087	2476.308031
951.892021	2478.584112
952.192917	2478.052270
952.493776	2477.175109
952.794596	2479.340285
953.095378	2481.719709
953.396122	2478.478247
953.696828	2479.063021
953.997496	2478.710140
954.298126	2476.769296
954.598718	2475.488843
954.899272	2477.427167
955.199788	2477.711992
955.500266	2476.171919
955.800706	2479.027733
956.101108	2476.620582
956.401472	2477.533031
956.701798	2475.425829
957.002087	2476.907928
957.302337	2477.681745
957.602550	2478.959678
957.902724	2475.826600
958.202861	2477.568319
958.502960	2475.987917
958.803022	2478.130408
959.103045	2477.802733
959.403031	2477.656539
959.702979	2476.151755
960.002889	2478.687455
960.302762	2478.316930
960.602596	2479.083186
960.902393	2477.550675
961.202153	2480.161993
961.501875	2479.337764
961.801559	2476.411374
962.101205	2478.863896
962.400814	2479.141159
962.700385	2478.642085
962.999918	2476.053452
963.299414	2473.333750
963.598873	2475.987917
963.898293	2471.518934
964.197677	2476.350880
964.497022	2480.386324
964.796331	2479.428505
965.095601	2478.889101
965.394835	2476.975983
965.694030	2477.689307
965.993189	2476.078658
966.292309	2479.912456
966.591393	2478.042187
966.890439	2476.718885
967.189447	2478.924389
967.488419	2478.954636
967.787353	2478.049749
968.086249	2476.146714
968.385108	2479.925058
968.683930	2477.507825
968.982714	2479.234420
969.281462	2478.546303
969.580172	2477.860706
969.878844	2478.584112
970.177480	2476.272742
970.476078	2477.527990
970.774639	2477.190233
971.073162	2477.790130
971.371649	2475.463637
971.670098	2481.621407
971.968510	2476.459265
972.266885	2477.167547
972.565223	2476.499594
972.863524	2477.487661
973.161788	2478.468165
973.460014	2479.093268
973.758204	2475.821559
974.056356	2479.335243
974.354471	2475.509008
974.652550	2477.591004
974.950591	2478.637044
975.248595	2477.089409
975.546563	2480.587970
975.844493	2474.296610
976.142386	2477.076807
976.440243	2477.979173
976.738062	2477.021354
977.035845	2477.379276
977.333590	2477.805253
977.631299	2477.041518
977.928971	2475.314923
978.226606	2474.389872
978.524204	2476.239975
978.821765	2470.205714
979.119290	2477.777527
979.416777	2475.282156
979.714228	2478.120325
980.011642	2479.191571
980.309020	2473.762248
980.606360	2479.199132
980.903664	2477.046560
981.200931	2478.473206
981.498162	2476.555047
981.795356	2478.082517
982.092513	2474.775520
982.389633	2479.879688
982.686717	2477.079327
982.983764	2477.013792
983.280775	2477.099492
983.577749	2476.638226
983.874686	2476.771817
984.171587	2477.535552
984.468451	2478.591673
984.765279	2476.973463
985.062070	2475.680407
985.358824	2477.291056
985.655543	2473.598410
985.952224	2476.648308
986.248869	2477.535552
986.545478	2475.365335
986.842050	2476.252578
987.138586	2475.534213
987.435086	2478.919348
987.731549	2478.001858
988.027975	2477.291056
988.324366	2476.751652
988.620719	2477.432208
988.917037	2473.868112
989.213318	2479.108392
989.509563	2475.362814
989.805772	2477.880871
990.101944	2477.522949
990.398080	2480.953454
990.694180	2476.539924
990.990244	2476.933134
991.286271	2476.507156
991.582262	2476.058493
991.878217	2475.377938
992.174136	2477.775006
992.470019	2475.246868
992.765865	2474.624285
993.061676	2471.130766
993.357450	2477.270891
993.653188	2471.415591
993.948890	2477.696868
994.244556	2477.560757
994.540186	2476.595376
994.835780	2476.260140
995.131337	2477.500263
995.426859	2476.693679
995.722345	2478.339616
996.017795	2477.104533
996.313208	2478.770634
996.608586	2476.867599
996.903928	2477.212918
997.199234	2478.165696
997.494504	2476.749132
997.789738	2476.582773
998.084936	2475.662763
998.380099	2476.625623
998.675225	2476.570171
998.970316	2478.140490
999.265371	2475.577063
999.560390	2478.135449
999.855373	2478.632002
1000.150320	2476.418936
1000.445232	2474.256281
1000.740108	2477.654019
1001.034948	2477.669142
1001.329752	2475.040180
1001.624521	2475.080510
1001.919254	2477.124697
1002.213951	2475.718216
1002.508613	2477.664101
1002.803239	2477.449852
1003.097829	2473.835345
1003.392384	2474.558750
1003.686903	2475.130921
1003.981386	2476.701241
1004.275834	2475.458596
1004.570246	2476.403813
1004.864623	2478.500933
1005.158964	2476.388689
1005.453270	2476.691158
1005.747540	2477.238123
1006.041775	2475.940026
1006.335974	2478.717702
1006.630138	2475.352732
1006.924266	2476.746611
1007.218359	2473.638740
1007.512416	2474.803246
1007.806438	2472.774182
1008.100425	2477.578401
1008.394376	2471.798718
1008.688292	2478.516056
1008.982172	2476.605459
1009.276017	2474.629326
1009.569827	2476.449183
1009.863602	2477.122177
1010.157341	2475.690489
1010.451045	2475.627475
1010.744714	2476.338278
1011.038347	2474.886425
1011.331945	2477.228041
1011.625508	2477.401961
1011.919036	2478.261478
1012.212528	2476.035808
1012.505986	2479.975470
1012.799408	2475.524131
1013.092795	2476.245016
1013.386147	2475.730818
1013.679464	2477.109574
1013.972745	2475.690489
1014.265992	2476.824749
1014.559204	2475.173771
1014.852380	2478.795840
1015.145521	2476.391210
1015.438628	2477.540593
1015.731699	2476.040849
1016.024736	2476.839872
1016.317737	2475.007413
1016.610703	2473.036322
1016.903635	2475.393061
1017.196531	2474.790643
1017.489393	2475.617393
1017.782219	2475.965232
1018.075011	2477.449852
1018.367768	2476.676035
1018.660490	2475.007413
1018.953177	2475.007413
1019.245829	2475.007413
