Dividing Wavelength (nm)	Counts (n)	Blue Motor Position (mm): 3.700000	Red Motor Position (mm): 0.000000	
326.493990	2141.366207
326.888308	2141.366207
327.282561	2141.366207
327.676750	2110.559716
328.070874	2108.200456
328.464933	2114.600201
328.858929	2119.250665
329.252859	2129.698457
329.646726	2141.497277
330.040528	2152.497075
330.434265	2169.006854
330.827938	2187.112158
331.221547	2203.626978
331.615091	2223.158928
332.008571	2243.628534
332.401986	2262.600916
332.795338	2281.906015
333.188625	2301.143058
333.581847	2320.697694
333.975006	2337.865343
334.368100	2358.403004
334.761129	2375.893287
335.154095	2389.973230
335.546996	2407.163564
335.939833	2424.104362
336.332606	2440.195725
336.725315	2451.603856
337.117960	2462.061730
337.510540	2469.252936
337.903056	2480.814822
338.295508	2486.435709
338.687896	2497.816113
339.080220	2503.489932
339.472480	2509.478823
339.864676	2515.059380
340.256807	2518.313445
340.648875	2521.938035
341.040879	2523.881399
341.432818	2526.759898
341.824694	2526.409538
342.216506	2526.795186
342.608253	2527.369878
342.999937	2528.660413
343.391557	2527.780732
343.783113	2529.199817
344.174605	2526.447347
344.566033	2524.748478
344.957397	2521.804444
345.348697	2518.930986
345.739934	2518.769669
346.131106	2515.258506
346.522215	2515.331603
346.913260	2512.682476
347.304241	2511.704492
347.695159	2509.304903
348.086012	2511.593587
348.476802	2505.617299
348.867528	2505.455982
349.258191	2503.137051
349.648789	2507.560664
350.039324	2500.550939
350.429796	2503.275683
350.820203	2497.695126
351.210548	2499.464571
351.600828	2497.279231
351.991045	2498.453819
352.381198	2496.565907
352.771288	2494.544405
353.161314	2493.266472
353.551276	2496.636483
353.941175	2494.504075
354.331010	2495.285454
354.720782	2493.952069
355.110490	2493.536174
355.500135	2495.398880
355.889717	2495.240084
356.279235	2494.012563
356.668689	2495.915598
357.058080	2495.953407
357.447408	2495.847543
357.836672	2492.293529
358.225873	2495.444251
358.615010	2493.813437
359.004084	2499.149499
359.393095	2498.496669
359.782043	2499.083964
360.170927	2496.739827
360.559748	2500.631598
360.948505	2500.109838
361.337199	2501.705364
361.725830	2499.489777
362.114398	2502.403563
362.502903	2500.855929
362.891344	2501.110508
363.279722	2503.883142
363.668037	2503.704181
364.056289	2504.422546
364.444478	2502.809376
364.832603	2502.930364
365.220665	2506.479336
365.608665	2506.675941
365.996601	2506.335663
366.384474	2508.042094
366.772284	2509.007475
367.160031	2506.716271
367.547715	2504.485560
367.935336	2506.131497
368.322893	2507.462361
368.710388	2509.385562
369.097820	2511.616272
369.485189	2507.316168
369.872495	2510.363545
370.259738	2508.430263
370.646918	2510.182064
371.034035	2509.070489
371.421090	2509.640140
371.808081	2510.487054
372.195010	2508.306755
372.581875	2510.066117
372.968678	2511.533093
373.355418	2508.889008
373.742096	2509.370438
374.128710	2511.744822
374.515262	2513.647857
374.901751	2511.190295
375.288177	2511.001251
375.674540	2513.592404
376.060841	2510.703823
376.447079	2513.476458
376.833254	2512.017044
377.219367	2509.103257
377.605417	2514.769514
377.991404	2511.220542
378.377329	2512.208608
378.763191	2508.210973
379.148991	2511.283556
379.534727	2513.118536
379.920402	2512.904287
380.306013	2511.550737
380.691563	2513.310100
381.077049	2515.301356
381.462474	2516.183557
381.847835	2516.919566
382.233134	2515.515605
382.618371	2515.001407
383.003545	2516.110461
383.388657	2515.424864
383.773706	2516.672549
384.158693	2516.478465
384.543618	2518.623476
384.928480	2516.070132
385.313280	2518.532735
385.698017	2516.964936
386.082692	2521.144053
386.467305	2518.686490
386.851856	2519.462828
387.236344	2521.050792
387.620770	2519.435102
388.005133	2519.465349
388.389435	2516.493588
388.773674	2518.494927
389.157851	2518.489885
389.541965	2521.728827
389.926018	2521.126409
390.310008	2520.985257
390.693936	2521.108765
391.077802	2519.556089
391.461606	2518.860410
391.845348	2522.548014
392.229027	2520.942407
392.612645	2522.069105
392.996200	2521.920391
393.379694	2521.386028
393.763125	2522.621111
394.146494	2522.013652
394.529801	2521.733868
394.913047	2523.704959
395.296230	2522.928621
395.679351	2523.770494
396.062410	2520.806296
396.445408	2523.130268
396.828343	2523.188241
397.211217	2518.129443
397.594028	2520.397962
397.976778	2519.208250
398.359466	2520.743281
398.742092	2520.869310
399.124656	2523.238652
399.507158	2525.212264
399.889598	2523.089938
400.271977	2524.052799
400.654294	2528.340300
401.036549	2524.093128
401.418742	2524.566996
401.800874	2527.195958
402.182944	2526.533046
402.564952	2523.836029
402.946898	2527.367357
403.328783	2527.775691
403.710606	2526.497758
404.092367	2525.043385
404.474067	2526.515402
404.855705	2526.091945
405.237282	2528.156298
405.618797	2527.019518
406.000250	2527.463139
406.381642	2526.880886
406.762972	2529.961031
407.144240	2528.489014
407.525447	2530.379447
407.906593	2528.362985
408.287677	2528.700742
408.668700	2528.806607
409.049661	2529.033459
409.430560	2529.524971
409.811399	2529.635877
410.192176	2526.928777
410.572891	2527.856349
410.953545	2528.209230
411.334138	2530.024045
411.714669	2530.903727
412.095139	2526.379291
412.475547	2530.094622
412.855894	2526.701925
413.236180	2533.036135
413.616405	2532.622760
413.996568	2530.457585
414.376670	2529.736700
414.756711	2530.538243
415.136691	2529.739220
415.516609	2531.150743
415.896466	2532.418593
416.276262	2531.803573
416.655997	2527.926925
417.035670	2529.076308
417.415283	2530.371885
417.794834	2525.943231
418.174324	2532.214427
418.553753	2530.591175
418.933121	2530.951618
419.312428	2532.796680
419.691674	2535.392874
420.070859	2532.390867
420.449983	2533.169725
420.829045	2531.964890
421.208047	2534.603934
421.586988	2533.575538
421.965867	2533.247863
422.344686	2534.293903
422.723444	2533.000847
423.102141	2533.646114
423.480777	2535.581918
423.859352	2535.450848
424.237866	2534.651825
424.616319	2534.261135
424.994712	2535.531506
425.373044	2538.094933
425.751314	2538.558719
426.129524	2534.145189
426.507673	2534.997144
426.885762	2534.084695
427.263789	2537.290869
427.641756	2534.901362
428.019662	2534.724921
428.397508	2537.497556
428.775292	2535.337422
429.153016	2534.702236
429.530679	2537.101825
429.908282	2536.448996
430.285824	2535.960004
430.663305	2536.564943
431.040726	2536.380940
431.418086	2534.692154
431.795385	2537.295910
432.172624	2538.644418
432.549802	2538.334387
432.926920	2536.340611
433.303977	2535.619726
433.680974	2535.347504
434.057910	2537.734490
434.434786	2537.484953
434.811601	2537.643749
435.188355	2536.524613
435.565050	2537.384130
435.941683	2539.445962
436.318257	2533.426824
436.694770	2534.399767
437.071222	2536.887576
437.447614	2532.526978
437.823946	2536.781712
438.200218	2536.998482
438.576429	2540.759182
438.952580	2538.536034
439.328670	2538.208359
439.704700	2539.640046
440.080670	2537.237937
440.456580	2538.024357
440.832429	2538.354552
441.208218	2540.910417
441.583947	2538.488143
441.959616	2539.377906
442.335224	2540.053421
442.710773	2537.600900
443.086261	2540.577701
443.461689	2540.328164
443.837057	2538.967052
444.212365	2542.034594
444.587612	2540.184491
444.962800	2538.699871
445.337927	2541.686755
445.712995	2540.234903
446.088002	2542.362269
446.462949	2543.962836
446.837837	2540.192053
447.212664	2539.440921
447.587431	2539.647608
447.962139	2540.701209
448.336786	2542.780685
448.711374	2540.129038
449.085901	2541.774975
449.460369	2542.715150
449.834776	2539.773637
450.209124	2540.373534
450.583412	2542.289173
450.957640	2541.477547
451.331808	2539.723225
451.705917	2542.493339
452.079965	2542.934440
452.453954	2540.781868
452.827883	2543.340253
453.201752	2542.899152
453.575562	2543.811601
453.949311	2541.674152
454.323001	2543.526776
454.696632	2541.384286
455.070202	2542.916796
455.443713	2540.083668
455.817164	2540.267670
456.190556	2537.837834
456.563888	2541.293545
456.937160	2537.437062
457.310373	2541.991745
457.683526	2541.895963
458.056619	2543.113401
458.429653	2541.512835
458.802628	2541.807742
459.175542	2544.945861
459.548398	2542.445448
459.921194	2543.884698
460.293930	2544.129194
460.666607	2541.805222
461.039224	2543.257074
461.411782	2545.273536
461.784280	2545.868392
462.156719	2541.202804
462.529099	2545.971736
462.901419	2545.452497
463.273680	2544.318237
463.645882	2544.860161
464.018024	2544.378731
464.390106	2547.080789
464.762130	2548.983825
465.134094	2543.829245
465.505999	2543.599873
465.877845	2546.208670
466.249631	2544.219935
466.621358	2543.645243
466.993026	2548.512477
467.364634	2548.784699
467.736184	2544.093906
468.107674	2542.979811
468.479105	2542.833617
468.850477	2545.838145
469.221790	2542.800850
469.593043	2546.170861
469.964238	2543.090716
470.335373	2543.703216
470.706449	2546.228834
471.077467	2545.250851
471.448425	2549.094730
471.819324	2544.353525
472.190164	2547.496685
472.560945	2545.858310
472.931667	2546.276725
473.302330	2545.908721
473.672934	2545.941489
474.043479	2547.680687
474.413965	2544.156920
474.784393	2539.743390
475.154761	2542.611807
475.525070	2542.009389
475.895321	2544.996272
476.265513	2541.384286
476.635645	2545.845707
477.005719	2544.744215
477.375734	2547.342929
477.745691	2547.537014
478.115588	2547.577343
478.485427	2545.192877
478.855207	2547.463917
479.224928	2548.250337
479.594591	2548.794782
479.964194	2546.291849
480.333739	2548.784699
480.703226	2545.565923
481.072653	2548.492312
481.442022	2549.301418
481.811333	2546.188505
482.180584	2545.477702
482.549777	2545.830583
482.918912	2545.991900
483.287988	2548.129349
483.657005	2546.816129
484.025964	2548.101623
484.394864	2547.847045
484.763706	2547.416026
485.132489	2549.190512
485.501213	2547.718495
485.869879	2549.843342
486.238487	2547.163968
486.607036	2545.633978
486.975527	2547.443753
487.343959	2547.353012
487.712333	2550.322251
488.080648	2547.302600
488.448905	2547.254709
488.817104	2549.233362
489.185244	2547.479041
489.553326	2548.789741
489.921350	2546.687579
490.289315	2547.552137
490.657222	2548.099102
491.025070	2548.363763
491.392861	2551.257385
491.760593	2546.521221
492.128267	2548.865358
492.495883	2548.414175
492.863440	2544.976108
493.230939	2547.607590
493.598380	2550.357539
493.965763	2545.255892
494.333088	2545.938968
494.700354	2545.956612
495.067563	2546.352343
495.434713	2542.185829
495.801805	2547.254709
496.168839	2549.598846
496.535815	2549.495502
496.902733	2547.037940
497.269593	2552.048847
497.636395	2549.374514
498.003139	2551.176727
498.369825	2549.177909
498.736453	2548.182282
499.103023	2552.056408
499.469535	2551.267468
499.835989	2549.059442
500.202385	2549.243444
500.568723	2547.658002
500.935003	2551.169165
501.301226	2547.282436
501.667390	2548.623383
502.033497	2548.966181
502.399546	2551.106151
502.765537	2546.785882
503.131470	2551.517005
503.497345	2552.172355
503.863163	2550.024823
504.228923	2549.281253
504.594625	2549.064483
504.960269	2553.742674
505.325856	2548.560368
505.691385	2550.037426
506.056856	2550.037426
506.422270	2548.386448
506.787625	2547.201777
507.152924	2547.363094
507.518164	2551.945503
507.883347	2549.855945
508.248472	2549.845862
508.613540	2548.444422
508.978550	2547.756304
509.343503	2546.463248
509.708398	2551.900133
510.073236	2549.160265
510.438016	2551.239741
510.802738	2548.174720
511.167403	2550.617159
511.532010	2550.478527
511.896561	2551.738816
512.261053	2549.157745
512.625488	2546.506098
512.989866	2544.051056
513.354186	2549.608928
513.718449	2544.567774
514.082655	2549.820657
514.446803	2549.298897
514.810894	2550.705379
515.174927	2550.004659
515.538904	2552.699155
515.902822	2548.467107
516.266684	2551.128836
516.630488	2552.157231
516.994235	2550.302087
517.357925	2550.884340
517.721558	2549.742519
518.085133	2550.740667
518.448651	2551.290153
518.812112	2549.734957
519.175516	2552.235369
519.538863	2549.760163
519.902152	2551.539690
520.265385	2553.034392
520.628560	2550.627241
520.991678	2551.887530
521.354739	2553.372149
521.717743	2553.346944
522.080690	2550.518856
522.443580	2549.545914
522.806413	2548.981304
523.169189	2553.185627
523.531908	2551.315359
523.894569	2550.874258
524.257174	2552.915925
524.619722	2551.663198
524.982213	2550.884340
525.344647	2552.026161
525.707025	2550.470965
526.069345	2550.818805
526.431608	2551.496840
526.793815	2549.082127
527.155964	2550.907025
527.518057	2551.975750
527.880093	2551.060780
528.242072	2550.428116
528.603995	2551.968188
528.965860	2551.015410
529.327669	2554.317366
529.689421	2552.631100
530.051117	2551.643034
530.412755	2550.062632
530.774337	2552.865513
531.135862	2552.270657
531.497331	2548.051212
531.858743	2548.492313
532.220098	2549.853424
532.581396	2547.703372
532.942638	2550.077755
533.303824	2555.161759
533.664953	2553.331820
534.026025	2553.339382
534.387040	2552.794937
534.747999	2549.828218
535.108902	2550.977601
535.469748	2549.931562
535.830537	2549.727395
536.191270	2551.101110
536.551947	2552.192519
536.912567	2549.578681
537.273131	2551.930379
537.633638	2552.797458
537.994089	2551.108671
538.354483	2551.862324
538.714821	2552.323589
539.075103	2552.474824
539.435328	2552.573127
539.795497	2550.347457
540.155609	2551.547252
540.515665	2553.450287
540.875665	2551.058260
541.235609	2553.530946
541.595496	2551.275029
541.955328	2553.273847
542.315102	2548.956099
542.674821	2552.779814
543.034483	2550.261758
543.394090	2551.837118
543.753640	2552.069011
544.113134	2554.607232
544.472571	2550.775955
544.831953	2554.027499
545.191278	2552.459701
545.550548	2551.504402
545.909761	2552.273178
546.268918	2554.254351
546.628019	2552.431974
546.987064	2551.655637
547.346053	2553.677139
547.704986	2554.130843
548.063863	2551.484237
548.422684	2550.783517
548.781449	2554.997922
549.140158	2551.305276
549.498811	2551.900132
549.857408	2550.695297
550.215949	2549.626572
550.574434	2546.012065
550.932864	2548.557847
551.291237	2548.139432
551.649555	2551.030533
552.007817	2550.697817
552.366022	2553.180586
552.724173	2550.801161
553.082267	2553.813250
553.440305	2554.193858
553.798288	2552.079093
554.156215	2551.252344
554.514086	2553.057077
554.871902	2552.631100
555.229661	2554.440874
555.587365	2552.769732
555.945014	2551.433826
556.302606	2553.203271
556.660143	2550.329813
557.017625	2551.758980
557.375050	2552.893240
557.732421	2551.990873
558.089735	2549.775286
558.446994	2553.823333
558.804197	2551.116233
559.161345	2553.500699
559.518437	2553.654454
559.875474	2551.159083
560.232455	2553.601522
560.589381	2553.256203
560.946251	2556.253169
561.303065	2550.506253
561.659825	2553.271326
562.016528	2552.200081
562.373177	2550.518856
562.729770	2552.560524
563.086307	2553.654454
563.442789	2552.275698
563.799216	2554.269475
564.155587	2552.071532
564.511904	2552.850390
564.868164	2553.135215
565.224370	2550.302087
565.580520	2550.594474
565.936615	2552.545400
566.292654	2555.071018
566.648638	2553.972047
567.004567	2552.285781
567.360441	2553.402396
567.716260	2551.622869
568.072023	2554.398024
568.427732	2548.207487
568.783385	2552.575647
569.138982	2548.383928
569.494525	2550.339895
569.850013	2548.031047
570.205445	2552.172355
570.560823	2552.936090
570.916145	2552.429454
571.271412	2549.238403
571.626625	2553.606563
571.981782	2553.283929
572.336884	2552.290822
572.691931	2553.046995
573.046923	2552.447098
573.401860	2554.703014
573.756743	2554.766028
574.111570	2554.261913
574.466342	2551.206974
574.821059	2551.980791
575.175722	2550.334854
575.530330	2552.890719
575.884882	2551.821995
576.239380	2553.982129
576.593823	2554.997922
576.948211	2551.549772
577.302544	2552.840308
577.656823	2553.508261
578.011047	2553.261244
578.365216	2553.490617
578.719330	2553.588919
579.073389	2551.897612
579.427394	2551.282591
579.781344	2553.982129
580.135239	2552.797458
580.489080	2553.727551
580.842866	2554.700493
581.196597	2550.574309
581.550273	2553.929197
581.903895	2551.600184
582.257463	2552.570606
582.610975	2553.765359
582.964434	2554.125802
583.317837	2553.470452
583.671186	2554.970195
584.024481	2555.938097
584.377721	2554.408107
584.730906	2552.981460
585.084037	2553.155380
585.437113	2552.933569
585.790135	2556.235525
586.143103	2553.994732
586.496016	2552.719320
586.848874	2547.690769
587.201679	2550.964998
587.554428	2549.835780
587.907124	2551.058260
588.259765	2548.116747
588.612352	2552.999104
588.964884	2555.305432
589.317362	2552.321069
589.669786	2554.398024
590.022155	2554.675288
590.374470	2552.137067
590.726731	2554.614794
591.078937	2551.774104
591.431090	2554.125802
591.783188	2553.069680
592.135232	2555.733930
592.487222	2553.160421
592.839157	2555.108827
593.191038	2552.358877
593.542866	2552.641182
593.894639	2550.473486
594.246358	2554.183775
594.598022	2551.307797
594.949633	2552.099258
595.301190	2553.188147
595.652692	2555.002963
596.004141	2554.287119
596.355535	2552.767211
596.706876	2552.923487
597.058162	2554.937428
597.409395	2552.928528
597.760573	2553.823333
598.111698	2555.025648
598.462768	2553.112530
598.813785	2553.079763
599.164748	2552.000956
599.515657	2554.082952
599.866511	2550.468445
600.217312	2551.774104
600.568060	2554.249310
600.918753	2556.356513
601.269392	2551.640513
601.619978	2553.044474
601.970510	2554.261913
602.320988	2554.803837
602.671412	2552.535318
603.021783	2554.526574
603.372100	2554.766028
603.722363	2555.542366
604.072572	2556.664023
604.422728	2555.766697
604.772830	2549.876109
605.122878	2549.351829
605.472872	2551.017931
605.822813	2547.025337
606.172701	2552.071532
606.522534	2553.175544
606.872314	2551.963147
607.222041	2552.983981
607.571714	2553.611604
607.921333	2552.991542
608.270899	2553.117571
608.620411	2551.665719
608.969870	2555.292829
609.319276	2554.332489
609.668627	2556.139743
610.017926	2558.932542
610.367171	2561.390105
610.716362	2559.603016
611.065500	2557.747871
611.414585	2554.758467
611.763616	2557.810885
612.112594	2553.170503
612.461518	2554.428271
612.810389	2556.114537
613.159207	2552.926007
613.507971	2554.138405
613.856682	2554.546738
614.205340	2553.334341
614.553945	2557.425237
614.902496	2554.009855
615.250994	2554.874413
615.599439	2553.984650
615.947830	2554.234187
616.296169	2554.408107
616.644454	2554.657644
616.992686	2553.374670
617.340864	2550.644885
617.688990	2552.588250
618.037063	2555.350802
618.385082	2551.887530
618.733048	2554.196378
619.080961	2554.617314
619.428821	2554.768549
619.776628	2551.121274
620.124382	2554.526574
620.472083	2554.113199
620.819731	2554.844166
621.167326	2553.891388
621.514868	2555.643189
621.862357	2550.400389
622.209793	2554.120761
622.557176	2555.570093
622.904506	2554.536656
623.251783	2549.535831
623.599007	2551.249824
623.946179	2551.743857
624.293297	2549.969371
624.640363	2554.582026
624.987376	2556.099414
625.334336	2552.817622
625.681243	2555.612942
626.028097	2552.530277
626.374899	2553.667057
626.721647	2552.363919
627.068343	2551.637992
627.414987	2552.245452
627.761577	2555.149156
628.108115	2550.274360
628.454600	2552.505071
628.801032	2553.036913
629.147412	2553.427602
629.493739	2552.217725
629.840014	2554.607232
630.186236	2554.516491
630.532405	2551.209494
630.878521	2552.681511
631.224585	2555.149156
631.570597	2552.008517
631.916556	2552.628579
632.262462	2552.371480
632.608316	2553.193188
632.954117	2553.062118
633.299866	2552.293342
633.645562	2553.505740
633.991206	2555.197047
634.336797	2553.165462
634.682336	2551.378373
635.027823	2552.094217
635.373257	2552.126984
635.718639	2551.592622
636.063968	2553.508261
636.409245	2550.153373
636.754470	2552.026161
637.099642	2551.272509
637.444762	2553.538508
637.789829	2553.777962
638.134845	2551.060780
638.479808	2554.655123
638.824719	2551.945503
639.169577	2551.275029
639.514383	2552.116902
639.859137	2554.534135
640.203839	2552.734443
640.548489	2551.791748
640.893086	2551.375852
641.237632	2547.748742
641.582125	2549.243444
641.926566	2549.109854
642.270955	2553.319217
642.615292	2551.809392
642.959576	2553.651933
643.303809	2554.017417
643.647990	2554.128323
643.992118	2554.279557
644.336195	2551.796789
644.680219	2550.629762
645.024192	2557.132850
645.368112	2551.627910
645.711981	2552.920966
646.055797	2554.884496
646.399562	2554.254351
646.743274	2552.701676
647.086935	2552.918446
647.430544	2554.435833
647.774101	2552.192519
648.117606	2552.827705
648.461059	2550.786038
648.804460	2552.537838
649.147810	2554.335010
649.491108	2553.175544
649.834354	2551.035575
650.177548	2552.840308
650.520690	2555.169321
650.863781	2552.641182
651.206820	2554.660164
651.549807	2551.315359
651.892742	2550.942313
652.235626	2552.421892
652.578458	2552.477345
652.921238	2550.498692
653.263967	2554.299722
653.606644	2550.148332
653.949269	2551.499361
654.291843	2553.548590
654.634365	2553.218394
654.976836	2554.887016
655.319255	2551.564896
655.661622	2549.941644
656.003938	2554.458518
656.346203	2553.568754
656.688416	2550.838970
657.030577	2552.472303
657.372687	2553.067160
657.714746	2549.550955
658.056753	2553.009186
658.398708	2548.930893
658.740612	2550.516336
659.082465	2550.574309
659.424266	2549.361912
659.766016	2549.089689
660.107715	2553.961964
660.449362	2552.966337
660.790958	2552.434495
661.132503	2553.294012
661.473996	2553.377191
661.815438	2551.655637
662.156829	2552.416851
662.498168	2552.200081
662.839456	2551.940462
663.180693	2554.796275
663.521879	2553.742674
663.863013	2551.627910
664.204097	2555.194527
664.545129	2551.045657
664.886110	2551.950544
665.227040	2552.474824
665.567918	2554.728220
665.908746	2553.104968
666.249522	2552.636141
666.590248	2551.801830
666.930922	2554.329969
667.271545	2550.576830
667.612118	2552.744526
667.952639	2552.613456
668.293109	2552.615976
668.633528	2549.566078
668.973896	2551.325441
669.314213	2550.831408
669.654480	2552.119423
669.994695	2552.444577
670.334859	2550.155893
670.674973	2549.261088
671.015035	2551.695966
671.355047	2550.672612
671.695008	2553.253682
672.034918	2552.764690
672.374777	2549.739998
672.714585	2555.035730
673.054342	2552.827705
673.394049	2551.327962
673.733705	2551.413661
674.073310	2551.637992
674.412864	2552.018600
674.752368	2552.353836
675.091820	2551.443908
675.431223	2552.570606
675.770574	2553.457849
676.109875	2548.290666
676.449125	2549.621531
676.788324	2549.553475
677.127473	2548.966181
677.466571	2547.975594
677.805619	2553.863662
678.144616	2551.348126
678.483562	2554.294681
678.822458	2553.568754
679.161303	2555.557490
679.500098	2552.346275
679.838842	2556.101934
680.177535	2549.238403
680.516179	2552.656306
680.854771	2552.633620
681.193314	2551.385935
681.531805	2551.988353
681.870247	2550.385266
682.208638	2550.382745
682.546978	2549.424926
682.885268	2549.969371
683.223508	2551.751418
683.561697	2553.281409
683.899836	2552.250493
684.237925	2552.747046
684.575963	2551.953065
684.913951	2551.900132
685.251889	2552.608415
685.589776	2552.258054
685.927614	2552.994063
686.265401	2551.290153
686.603137	2551.121274
686.940824	2550.841490
687.278460	2551.264947
687.616046	2553.513302
687.953582	2553.558672
688.291068	2549.114895
688.628504	2550.768393
688.965889	2551.068342
689.303224	2552.457180
689.640510	2552.845349
689.977745	2550.322251
690.314930	2551.980791
690.652065	2554.440874
690.989150	2551.539690
691.326185	2550.231511
691.663170	2549.898794
692.000105	2553.740154
692.336990	2549.732436
692.673825	2550.765873
693.010610	2552.454659
693.347345	2549.634134
693.684030	2547.242106
694.020665	2549.308979
694.357251	2547.683207
694.693786	2550.324772
695.030272	2549.702189
695.366707	2551.645554
695.703093	2550.735626
696.039429	2550.690256
696.375716	2551.126315
696.711952	2551.338044
697.048139	2550.914587
697.384276	2554.115720
697.720363	2551.612787
698.056400	2551.950544
698.392388	2552.429454
698.728326	2553.944320
699.064214	2549.704710
699.400053	2551.718651
699.735842	2550.254196
700.071581	2551.635472
700.407270	2549.709751
700.742910	2552.862993
701.078501	2551.499361
701.414042	2552.134546
701.749533	2552.069011
702.084974	2552.515153
702.420366	2549.855945
702.755709	2553.934238
703.091002	2550.493651
703.426246	2549.891233
703.761440	2553.500699
704.096584	2551.350647
704.431679	2549.550955
704.766725	2551.282591
705.101721	2549.248486
705.436668	2550.533980
705.771565	2553.311656
706.106413	2552.857952
706.441212	2550.039947
706.775961	2553.576316
707.110661	2549.311500
707.445311	2552.951213
707.779913	2553.856100
708.114465	2553.553631
708.448967	2554.367777
708.783421	2550.123126
709.117825	2552.651264
709.452180	2552.182437
709.786485	2551.605225
710.120742	2551.887530
710.454949	2552.951213
710.789107	2551.242262
711.123216	2547.950388
711.457275	2549.714792
711.791286	2545.996941
712.125247	2548.973743
712.459159	2549.220759
712.793023	2550.617159
713.126837	2553.170503
713.460602	2551.645554
713.794318	2550.289484
714.127985	2550.029864
714.461602	2553.074721
714.795171	2549.566078
715.128691	2550.292004
715.462162	2549.404761
715.795584	2553.959444
716.128957	2550.720503
716.462281	2549.003990
716.795556	2552.192519
717.128782	2549.704710
717.461960	2551.194371
717.795088	2549.918959
718.128167	2552.537838
718.461198	2551.509443
718.794180	2550.612118
719.127113	2550.967519
719.459997	2554.211502
719.792833	2550.954916
720.125619	2551.733774
720.458357	2551.058260
720.791046	2550.662529
721.123686	2551.932900
721.456278	2550.874258
721.788821	2548.083979
722.121315	2552.862993
722.453761	2550.773435
722.786158	2553.525905
723.118506	2551.224618
723.450805	2549.603887
723.783056	2550.241593
724.115259	2550.231511
724.447412	2548.946016
724.779518	2549.999618
725.111574	2553.450287
725.443582	2550.980122
725.775542	2550.654968
726.107453	2551.390976
726.439315	2551.234700
726.771129	2554.579506
727.102895	2548.015923
727.434612	2553.490617
727.766281	2551.053219
728.097901	2549.770245
728.429473	2546.944678
728.760996	2549.011551
729.092471	2544.338402
729.423897	2548.512477
729.755276	2548.918290
730.086606	2548.764535
730.417887	2553.082283
730.749120	2550.153373
731.080305	2550.362581
731.411442	2549.745039
731.742530	2548.260419
732.073570	2553.147818
732.404562	2551.416182
732.735506	2553.402396
733.066401	2549.397200
733.397249	2550.423074
733.728048	2548.068856
734.058798	2549.036757
734.389501	2550.922149
734.720156	2552.878116
735.050762	2549.097251
735.381320	2550.082797
735.711831	2551.471634
736.042293	2552.200081
736.372707	2550.397869
736.703073	2551.574978
737.033391	2549.359391
737.363661	2550.642365
737.693883	2549.465255
738.024056	2553.636810
738.354182	2551.242262
738.684260	2550.173537
739.014290	2550.044988
739.344272	2551.038095
739.674207	2552.338713
740.004093	2550.491130
740.333931	2549.558517
740.663722	2551.312838
740.993464	2550.370142
741.323159	2548.068856
741.652806	2549.261088
741.982405	2550.793599
742.311956	2548.595656
742.641460	2549.671943
742.970915	2550.279402
743.300323	2549.929041
743.629683	2552.328631
743.958996	2552.086655
744.288260	2553.972047
744.617477	2549.757642
744.946647	2545.079451
745.275768	2548.225131
745.604842	2545.147507
745.933869	2547.105995
746.262847	2546.974925
746.591778	2548.709082
746.920662	2548.184802
747.249498	2549.465255
747.578286	2547.327806
747.907027	2550.670091
748.235720	2549.377035
748.564365	2549.843342
748.892963	2549.281253
749.221514	2550.964998
749.550017	2550.019782
749.878473	2551.269988
750.206881	2546.836293
750.535242	2550.977601
750.863555	2548.404092
751.191821	2550.418033
751.520039	2552.643703
751.848210	2550.380225
752.176334	2550.667570
752.504411	2550.728064
752.832440	2550.876778
753.160421	2549.745039
753.488356	2551.569937
753.816243	2550.831408
754.144082	2550.667570
754.471875	2550.622200
754.799620	2549.593805
755.127318	2548.399051
755.454969	2547.337888
755.782572	2550.758311
756.110129	2547.554658
756.437638	2551.574978
756.765100	2549.432488
757.092515	2548.557847
757.419882	2552.149670
757.747203	2551.312838
758.074477	2548.401572
758.401703	2548.935934
758.728882	2549.651778
759.056014	2550.778476
759.383099	2549.898794
759.710138	2549.966850
760.037129	2549.828218
760.364073	2550.662529
760.690970	2550.002138
761.017820	2548.883002
761.344623	2546.347302
761.671379	2550.748229
761.998088	2544.943340
762.324751	2546.175902
762.651366	2544.661036
762.977935	2548.762014
763.304456	2544.414019
763.630931	2550.685214
763.957359	2546.906870
764.283740	2548.257899
764.610074	2546.029709
764.936362	2548.736808
765.262602	2550.581871
765.588796	2550.125646
765.914943	2549.616490
766.241044	2547.307641
766.567097	2549.432488
766.893104	2548.114226
767.219064	2550.191181
767.544978	2549.223280
767.870845	2545.550799
768.196665	2550.619679
768.522438	2546.503577
768.848165	2548.565409
769.173846	2546.017106
769.499479	2548.908208
769.825066	2550.871737
770.150607	2550.569268
770.476101	2552.247972
770.801548	2548.656150
771.126949	2549.029195
771.452303	2548.149514
771.777611	2550.962478
772.102872	2549.780327
772.428087	2549.881150
772.753256	2549.555996
773.078378	2549.838301
773.403453	2548.819988
773.728482	2550.302087
774.053465	2548.953578
774.378401	2548.666232
774.703291	2548.900646
775.028135	2549.954247
775.352932	2548.318393
775.677683	2550.251675
776.002388	2547.219421
776.327046	2549.770245
776.651658	2548.953578
776.976224	2550.493651
777.300743	2549.498023
777.625216	2547.610111
777.949643	2550.624721
778.274024	2549.999617
778.598359	2545.515511
778.922647	2544.827394
779.246889	2546.957281
779.571086	2546.188505
779.895236	2549.840821
780.219339	2551.360729
780.543397	2549.061963
780.867409	2547.718495
781.191374	2547.504246
781.515294	2548.376366
781.839167	2547.975594
782.162995	2547.882333
782.486776	2547.970553
782.810511	2550.546583
783.134201	2548.613300
783.457844	2548.651109
783.781441	2552.227807
784.104993	2548.396531
784.428498	2548.061294
784.751958	2549.475337
785.075372	2550.970040
785.398739	2546.864020
785.722061	2547.761345
786.045337	2549.951727
786.368568	2551.643034
786.691752	2546.238917
787.014891	2549.026675
787.337983	2549.495502
787.661030	2550.521377
787.984031	2547.516849
788.306987	2549.765204
788.629897	2549.765204
788.952760	2549.588763
789.275579	2550.934752
789.598351	2550.977601
789.921078	2546.846376
790.243759	2550.622200
790.566395	2550.183620
790.888984	2549.203115
791.211529	2545.838145
791.534027	2550.581871
791.856480	2546.145655
792.178888	2548.396531
792.501249	2546.864020
792.823566	2549.084648
793.145836	2547.607590
793.468062	2548.136911
793.790241	2548.394010
794.112375	2549.440049
794.434464	2549.306459
794.756507	2549.460214
795.078505	2549.772766
795.400457	2547.373176
795.722364	2544.754297
796.044226	2549.039278
796.366042	2544.330840
796.687812	2545.805378
797.009538	2548.414175
797.331218	2548.993907
797.652852	2546.405275
797.974442	2546.985007
798.295986	2550.667570
798.617484	2550.667570
798.938938	2549.712272
799.260346	2549.142621
799.581709	2549.319062
799.903026	2550.536500
800.224299	2550.135729
800.545526	2546.581715
800.866708	2544.925696
801.187845	2548.835111
801.508936	2546.690100
801.829983	2550.216387
802.150984	2548.842673
802.471940	2549.213197
802.792851	2548.446942
803.113717	2549.666901
803.434538	2548.255378
803.755314	2548.537683
804.076045	2547.899977
804.396731	2548.797302
804.717372	2550.748229
805.037967	2549.913918
805.358518	2550.541542
805.679024	2547.872251
805.999485	2550.435677
806.319901	2548.784699
806.640272	2549.883671
806.960598	2550.967519
807.280879	2549.109854
807.601115	2544.068700
807.921306	2549.961809
808.241453	2548.509957
808.561554	2546.606921
808.881611	2548.083979
809.201623	2547.589946
809.521590	2547.161448
809.841513	2548.731767
810.161390	2549.112374
810.481223	2548.509957
810.801011	2548.933413
811.120755	2548.693959
811.440453	2551.073383
811.760107	2546.359904
812.079716	2546.042312
812.399281	2544.794626
812.718801	2545.361756
813.038276	2543.325130
813.357707	2546.531304
813.677093	2546.921993
813.996434	2546.874102
814.315731	2548.628424
814.634983	2548.386448
814.954191	2545.785213
815.273354	2546.211190
815.592473	2546.798485
815.911547	2549.490461
816.230577	2547.806716
816.549562	2547.839483
816.868502	2546.662374
817.187399	2547.385779
817.506250	2549.485420
817.825058	2547.446273
818.143821	2546.952240
818.462539	2548.638506
818.781213	2547.332847
819.099843	2547.652960
819.418429	2548.487271
819.736970	2549.220759
820.055466	2547.254709
820.373919	2548.341078
820.692327	2545.966694
821.010691	2548.530121
821.329011	2545.954092
821.647286	2546.748073
821.965517	2547.083310
822.283704	2548.446942
822.601847	2549.639175
822.919945	2544.991231
823.237999	2547.373176
823.556010	2545.013916
823.873976	2546.881664
824.191897	2546.243958
824.509775	2547.806716
824.827609	2548.799823
825.145398	2546.337219
825.463144	2549.094730
825.780845	2548.275543
826.098502	2548.273022
826.416116	2549.099772
826.733685	2547.675646
827.051210	2547.269833
827.368692	2547.703372
827.686129	2546.390151
828.003522	2546.115408
828.320872	2543.178936
828.638177	2544.648433
828.955439	2545.989380
829.272656	2544.938299
829.589830	2541.560726
829.906960	2547.864689
830.224046	2548.172199
830.541088	2547.448794
830.858086	2547.456355
831.175041	2548.015923
831.491952	2548.267981
831.808819	2549.374514
832.125642	2548.099102
832.442421	2548.260419
832.759157	2546.014585
833.075849	2547.365615
833.392497	2545.737322
833.709101	2546.634647
834.025662	2547.042981
834.342179	2545.238248
834.658653	2547.027857
834.975083	2546.987528
835.291469	2553.941800
835.607811	2547.776469
835.924110	2545.954092
836.240366	2548.928372
836.556578	2544.928217
836.872746	2549.457693
837.188871	2545.739842
837.504952	2547.753783
837.820990	2546.685059
838.136984	2545.182795
838.452935	2547.121119
838.768842	2544.333361
839.084706	2545.906201
839.400526	2545.709596
839.716303	2547.534493
840.032037	2545.497867
840.347727	2546.884184
840.663373	2548.177240
840.978977	2548.681356
841.294537	2547.421067
841.610054	2548.550286
841.925527	2548.157076
842.240957	2544.111550
842.556344	2549.061963
842.871687	2548.494833
843.186987	2547.171530
843.502244	2548.051212
843.817458	2547.320244
844.132629	2546.254040
844.447756	2550.281922
844.762840	2542.783206
845.077881	2547.121119
845.392879	2542.337064
845.707833	2545.069369
846.022745	2541.661549
846.337613	2549.371994
846.652438	2546.619524
846.967221	2546.503577
847.281960	2546.977446
847.596656	2546.052394
847.911309	2548.512477
848.225919	2548.003321
848.540485	2549.941644
848.855009	2545.197918
849.169490	2545.860830
849.483928	2546.274205
849.798323	2545.328988
850.112675	2546.992569
850.426984	2548.099103
850.741251	2546.735470
851.055474	2546.916952
851.369654	2544.923176
851.683792	2548.434339
851.997887	2546.443083
852.311938	2546.226314
852.625947	2550.261758
852.939914	2547.426108
853.253837	2550.236552
853.567718	2545.245809
853.881555	2548.038609
854.195350	2546.886705
854.509103	2547.373176
854.822812	2545.593649
855.136479	2547.736139
855.450103	2544.207332
855.763685	2546.354863
856.077224	2546.312013
856.390720	2545.961653
856.704173	2545.944009
857.017584	2549.651778
857.330953	2545.076931
857.644278	2546.569112
857.957561	2548.409133
858.270802	2547.335368
858.584000	2547.229503
858.897155	2547.526932
859.210268	2544.338402
859.523339	2544.363607
859.836367	2546.790923
860.149352	2547.554658
860.462295	2545.994421
860.775195	2544.101468
861.088054	2541.288504
861.400869	2543.252033
861.713642	2538.412525
862.026373	2544.489636
862.339062	2546.765717
862.651708	2546.523742
862.964312	2546.561551
863.276873	2545.954092
863.589392	2547.463917
863.901869	2546.248999
864.214303	2545.810419
864.526696	2546.201108
864.839045	2547.378217
865.151353	2548.056253
865.463619	2546.553989
865.775842	2543.932589
866.088023	2547.126160
866.400162	2549.092210
866.712258	2545.253371
867.024313	2546.246478
867.336325	2544.973587
867.648296	2550.276881
867.960224	2544.764379
868.272110	2547.350491
868.583954	2546.611962
868.895755	2546.306972
869.207515	2545.838145
869.519233	2545.202960
869.830909	2546.402754
870.142542	2545.087013
870.454134	2545.623896
870.765684	2544.789585
871.077191	2544.222455
871.388657	2547.403423
871.700081	2546.740512
872.011463	2546.617003
872.322803	2546.412837
872.634101	2546.788402
872.945357	2544.156920
873.256571	2547.741181
873.567744	2547.864689
873.878874	2545.598690
874.189963	2548.404092
874.501010	2547.479041
874.812015	2547.678166
875.122979	2548.063814
875.433900	2545.702034
875.744780	2547.511808
876.055618	2547.163968
876.366415	2547.211859
876.677169	2546.564071
876.987882	2544.774462
877.298554	2543.224307
877.609183	2543.640202
877.919771	2539.478729
878.230317	2542.939482
878.540822	2546.881664
878.851285	2549.654298
879.161707	2546.319575
879.472087	2546.178423
879.782425	2545.293700
880.092722	2548.371325
880.402977	2546.652291
880.713191	2546.901828
881.023363	2545.245809
881.333494	2546.692621
881.643583	2545.150028
881.953631	2546.405275
882.263637	2546.395192
882.573602	2546.760676
882.883526	2546.375028
883.193408	2545.235727
883.503248	2542.934440
883.813048	2544.260264
884.122806	2547.199257
884.432522	2548.207487
884.742197	2545.089534
885.051831	2546.531304
885.361424	2543.796478
885.670975	2548.683876
885.980485	2545.457538
886.289954	2546.521221
886.599382	2547.053063
886.908768	2544.976108
887.218113	2546.508618
887.527417	2544.517363
887.836680	2541.749769
888.145901	2545.949050
888.455082	2544.464431
888.764221	2544.734132
889.073319	2544.759338
889.382376	2547.232024
889.691392	2545.369318
890.000366	2546.896787
890.309300	2547.037940
890.618193	2547.710934
890.927044	2543.078113
891.235855	2547.330327
891.544625	2544.903011
891.853353	2543.834286
892.162041	2543.070552
892.470687	2548.015923
892.779293	2546.433001
893.087858	2542.942002
893.396381	2540.345808
893.704864	2544.343443
894.013306	2541.540561
894.321707	2546.579195
894.630068	2544.713968
894.938387	2547.300080
895.246665	2544.479554
895.554903	2544.577857
895.863100	2546.029709
896.171256	2545.182795
896.479371	2546.392672
896.787446	2545.485264
897.095480	2546.097764
897.403473	2546.198588
897.711425	2547.262271
898.019336	2545.611293
898.327207	2546.145655
898.635038	2545.737322
898.942827	2543.272198
899.250576	2544.197249
899.558284	2545.855789
899.865952	2547.015254
900.173579	2544.897970
900.481165	2545.059287
900.788711	2544.976108
901.096216	2543.678011
901.403681	2545.664225
901.711105	2542.488298
902.018489	2544.494678
902.325832	2549.397200
902.633135	2546.261602
902.940397	2544.172044
903.247619	2543.993083
903.554800	2543.448638
903.861941	2544.272867
904.169041	2545.054246
904.476101	2543.839327
904.783121	2544.202291
905.090100	2543.869574
905.397039	2546.944678
905.703938	2544.638350
906.010796	2548.361242
906.317614	2544.998793
906.624391	2544.847558
906.931129	2544.885367
907.237826	2545.671787
907.544483	2543.189019
907.851099	2547.108516
908.157675	2544.673638
908.464211	2545.649102
908.770707	2539.491332
909.077163	2544.046015
909.383578	2541.948895
909.689954	2541.099460
909.996289	2538.856147
910.302584	2545.202960
910.608839	2541.401930
910.915054	2546.067518
911.221229	2545.875954
911.527363	2546.397713
911.833458	2543.690613
912.139513	2548.928372
912.445527	2545.371838
912.751502	2543.509132
913.057436	2542.657177
913.363331	2543.531817
913.669186	2543.879657
913.975000	2547.317724
914.280775	2546.795964
914.586510	2542.858823
914.892205	2543.297403
915.197859	2545.470141
915.503475	2543.816642
915.809050	2547.347971
916.114585	2545.500388
916.420081	2546.856458
916.725536	2546.380069
917.030952	2544.731612
917.336328	2542.803370
917.641665	2545.598690
917.946961	2543.153731
918.252218	2542.087527
918.557435	2546.652291
918.862612	2544.116591
919.167750	2543.930068
919.472848	2544.194729
919.777906	2545.893598
920.082925	2545.969215
920.387904	2543.163813
920.692843	2544.787064
920.997743	2544.257743
921.302603	2547.761345
921.607423	2545.346633
921.912204	2545.656663
922.216946	2545.510470
922.521647	2545.472661
922.826310	2545.419729
923.130932	2545.994421
923.435516	2544.572815
923.740059	2545.190357
924.044564	2547.022816
924.349028	2543.806560
924.653454	2540.413863
924.957840	2542.571477
925.262186	2539.980324
925.566493	2541.573329
925.870761	2538.263811
926.174989	2545.865871
926.479178	2541.888401
926.783328	2544.580377
927.087438	2545.598690
927.391509	2545.699513
927.695541	2545.810419
927.999533	2546.271684
928.303486	2546.271684
928.607400	2547.811757
928.911275	2546.732950
929.215110	2544.436704
929.518906	2547.310162
929.822663	2544.063659
930.126381	2542.321940
930.430060	2543.350336
930.733699	2543.020140
931.037299	2544.391334
931.340861	2545.507949
931.644383	2546.165820
931.947866	2544.048535
932.251309	2541.568288
932.554714	2543.340253
932.858080	2542.241282
933.161407	2543.672969
933.464694	2544.966025
933.767943	2543.403268
934.071153	2546.443083
934.374323	2544.814791
934.677455	2542.301776
934.980548	2543.209183
935.283602	2543.786395
935.586617	2547.211859
935.889593	2544.572815
936.192530	2543.380582
936.495428	2544.923176
936.798287	2541.873277
937.101108	2542.271529
937.403890	2544.724050
937.706632	2546.092723
938.009336	2544.552651
938.312002	2543.070552
938.614628	2544.335881
938.917216	2545.094575
939.219765	2543.627599
939.522275	2545.704554
939.824747	2545.376879
940.127179	2541.480068
940.429573	2539.771116
940.731929	2540.708771
941.034246	2542.737835
941.336524	2545.361756
941.638763	2545.981818
941.940964	2546.095244
942.243126	2543.625078
942.545250	2544.867723
942.847335	2545.109698
943.149381	2544.577857
943.451389	2542.916796
943.753359	2543.579708
944.055290	2545.240768
944.357182	2546.448125
944.659036	2543.965356
944.960851	2543.468803
945.262628	2542.352187
945.564367	2544.928217
945.866067	2545.437373
946.167729	2544.282949
946.469352	2542.798329
946.770937	2544.471992
947.072484	2542.621889
947.373992	2545.797816
947.675462	2543.370500
947.976893	2543.398227
948.278286	2543.993083
948.579641	2542.233720
948.880958	2543.642722
949.182236	2543.201622
949.483476	2544.666077
949.784678	2541.028884
950.085841	2544.960984
950.386967	2546.248999
950.688054	2544.928217
950.989103	2544.338402
951.290114	2544.212373
951.591087	2544.242620
951.892021	2542.921837
952.192917	2542.768082
952.493776	2545.225645
952.794596	2543.715819
953.095378	2542.508463
953.396122	2544.953423
953.696828	2542.140459
953.997496	2545.238248
954.298126	2544.414019
954.598718	2542.384955
954.899272	2544.023330
955.199788	2545.901159
955.500266	2545.447456
955.800706	2539.924872
956.101108	2541.258257
956.401472	2542.795809
956.701798	2540.978473
957.002087	2543.604914
957.302337	2541.122146
957.602550	2542.029553
957.902724	2542.878988
958.202861	2543.448638
958.502960	2540.670962
958.803022	2544.837476
959.103045	2542.657177
959.403031	2543.471323
959.702979	2544.968546
960.002889	2544.804708
960.302762	2540.461754
960.602596	2543.849410
960.902393	2544.683721
961.202153	2545.840666
961.501875	2544.502239
961.801559	2542.722712
962.101205	2541.722043
962.400814	2540.338246
962.700385	2543.534338
962.999918	2545.041643
963.299414	2543.902342
963.598873	2541.177598
963.898293	2541.961498
964.197677	2541.923689
964.497022	2546.196067
964.796331	2543.582229
965.095601	2543.375541
965.394835	2546.148176
965.694030	2542.853782
965.993189	2544.489636
966.292309	2542.274049
966.591393	2543.816642
966.890439	2543.141128
967.189447	2544.456869
967.488419	2544.119112
967.787353	2542.828576
968.086249	2545.296221
968.385108	2542.677342
968.683930	2543.463762
968.982714	2543.831766
969.281462	2544.608103
969.580172	2542.689944
969.878844	2544.572815
970.177480	2545.760007
970.476078	2542.304296
970.774639	2544.827394
971.073162	2545.886036
971.371649	2538.677186
971.670098	2537.928575
971.968510	2542.125335
972.266885	2537.502597
972.565223	2545.061807
972.863524	2544.207332
973.161788	2541.406971
973.460014	2543.189019
973.758204	2543.836807
974.056356	2543.786395
974.354471	2542.531148
974.652550	2545.528114
974.950591	2544.663556
975.248595	2546.876623
975.546563	2543.960315
975.844493	2545.727240
976.142386	2542.231199
976.440243	2541.462423
976.738062	2544.126673
977.035845	2544.630789
977.333590	2540.688606
977.631299	2542.299255
977.928971	2543.531817
978.226606	2545.452497
978.524204	2542.571477
978.821765	2542.495860
979.119290	2544.527445
979.416777	2542.173226
979.714228	2543.814122
980.011642	2541.908566
980.309020	2545.689431
980.606360	2541.820345
980.903664	2546.717826
981.200931	2543.350336
981.498162	2542.682383
981.795356	2542.642053
982.092513	2542.329502
982.389633	2540.686086
982.686717	2543.914945
982.983764	2542.316899
983.280775	2542.836138
983.577749	2541.795140
983.874686	2545.008875
984.171587	2544.308155
984.468451	2544.083823
984.765279	2540.499563
985.062070	2541.543082
985.358824	2544.192208
985.655543	2540.744059
985.952224	2541.079296
986.248869	2542.528628
986.545478	2537.729449
986.842050	2541.691796
987.138586	2540.149203
987.435086	2540.146682
987.731549	2538.760365
988.027975	2544.441745
988.324366	2542.261446
988.620719	2539.040149
988.917037	2542.032074
989.213318	2544.076262
989.509563	2542.553833
989.805772	2542.226158
990.101944	2541.580891
990.398080	2543.115922
990.694180	2542.042156
990.990244	2543.206663
991.286271	2544.267826
991.582262	2544.635830
991.878217	2541.827907
992.174136	2543.279759
992.470019	2543.922507
992.765865	2541.780016
993.061676	2544.567774
993.357450	2543.970398
993.653188	2543.685572
993.948890	2540.980993
994.244556	2539.640046
994.540186	2544.373690
994.835780	2540.280273
995.131337	2539.740869
995.426859	2542.631971
995.722345	2541.069213
996.017795	2542.425284
996.313208	2544.101468
996.608586	2540.101312
996.903928	2542.936961
997.199234	2541.540561
997.494504	2543.294883
997.789738	2540.129038
998.084936	2542.992414
998.380099	2542.241282
998.675225	2544.456869
998.970316	2543.935109
999.265371	2547.090872
999.560390	2540.905376
999.855373	2542.397558
1000.150320	2542.233720
1000.445232	2545.336550
1000.740108	2543.025181
1001.034948	2543.279759
1001.329752	2544.058618
1001.624521	2543.216745
1001.919254	2535.057637
1002.213951	2540.587783
1002.508613	2539.342618
1002.803239	2541.238092
1003.097829	2536.859850
1003.392384	2542.715150
1003.686903	2542.153062
1003.981386	2543.829245
1004.275834	2541.406971
1004.570246	2542.934440
1004.864623	2542.510983
1005.158964	2543.269677
1005.453270	2539.627443
1005.747540	2541.336395
1006.041775	2541.449821
1006.335974	2543.030222
1006.630138	2540.698689
1006.924266	2541.699358
1007.218359	2542.296734
1007.512416	2542.866385
1007.806438	2543.068031
1008.100425	2541.568288
1008.394376	2542.929399
1008.688292	2543.466282
1008.982172	2543.310006
1009.276017	2539.788760
1009.569827	2541.827907
1009.863602	2541.739687
1010.157341	2544.272867
1010.451045	2541.928730
1010.744714	2541.616179
1011.038347	2540.146682
1011.331945	2543.481406
1011.625508	2544.847558
1011.919036	2541.422094
1012.212528	2540.030736
1012.505986	2541.895963
1012.799408	2543.952753
1013.092795	2542.009389
1013.386147	2540.587783
1013.679464	2540.018133
1013.972745	2542.395037
1014.265992	2541.565767
1014.559204	2542.700027
1014.852380	2542.211035
1015.145521	2544.663556
1015.438628	2545.518032
1015.731699	2543.473844
1016.024736	2543.211704
1016.317737	2543.355377
1016.610703	2543.239430
1016.903635	2537.832793
1017.196531	2540.688606
1017.489393	2540.149203
1017.782219	2538.190715
1018.075011	2543.075593
1018.367768	2538.997299
1018.660490	2541.535520
1018.953177	2541.535520
1019.245829	2541.535520
