Dividing Wavelength (nm)	Counts (n)	Blue Motor Position (mm): 37.800000	Red Motor Position (mm): 0.000000	
326.493990	2241.576784
326.888308	2241.576784
327.282561	2241.576784
327.676750	2199.241174
328.070874	2199.533561
328.464933	2198.358972
328.858929	2202.961546
329.252859	2206.548327
329.646726	2217.038968
330.040528	2227.534650
330.434265	2241.201218
330.827938	2259.518251
331.221547	2273.832607
331.615091	2295.020577
332.008571	2314.348360
332.401986	2330.285968
332.795338	2349.636437
333.188625	2369.811135
333.581847	2386.545245
333.975006	2407.869326
334.368100	2429.435382
334.761129	2444.768052
335.154095	2463.095166
335.546996	2490.967706
335.939833	2527.006915
336.332606	2542.516025
336.725315	2553.568754
337.117960	2568.238512
337.510540	2580.238979
337.903056	2591.195927
338.295508	2600.713625
338.687896	2610.301900
339.080220	2614.049998
339.472480	2622.728344
339.864676	2628.750002
340.256807	2630.816875
340.648875	2636.944398
341.040879	2637.917341
341.432818	2643.248361
341.824694	2644.503608
342.216506	2646.857827
342.608253	2646.809936
342.999937	2646.426808
343.391557	2650.253044
343.783113	2646.560399
344.174605	2646.212559
344.566033	2645.030409
344.957397	2642.908083
345.348697	2643.470172
345.739934	2641.685603
346.131106	2639.517907
346.522215	2639.810294
346.913260	2635.162350
347.304241	2634.580097
347.695159	2631.807462
348.086012	2633.559263
348.476802	2630.431227
348.867528	2623.885289
349.258191	2621.858745
349.648789	2623.514764
350.039324	2619.398662
350.429796	2620.515278
350.820203	2621.321862
351.210548	2620.016203
351.600828	2620.580812
351.991045	2617.278857
352.381198	2616.910852
352.771288	2615.867334
353.161314	2616.333640
353.551276	2616.684001
353.941175	2614.307097
354.331010	2615.201901
354.720782	2613.190481
355.110490	2614.856582
355.500135	2615.315327
355.889717	2614.329782
356.279235	2614.193671
356.668689	2615.164093
357.058080	2611.781478
357.447408	2613.734926
357.836672	2612.149483
358.225873	2614.070162
358.615010	2614.750718
359.004084	2616.840276
359.393095	2616.898250
359.782043	2617.677108
360.170927	2617.210801
360.559748	2615.688373
360.948505	2616.177365
361.337199	2618.718106
361.725830	2619.814557
362.114398	2618.990328
362.502903	2621.735237
362.891344	2618.473610
363.279722	2619.539814
363.668037	2621.168107
364.056289	2622.783797
364.444478	2625.195989
364.832603	2623.232459
365.220665	2621.883951
365.608665	2624.880917
365.996601	2625.483335
366.384474	2626.158849
366.772284	2625.584158
367.160031	2624.079373
367.547715	2627.421658
367.935336	2625.155660
368.322893	2626.020217
368.710388	2624.432254
369.097820	2624.424692
369.485189	2624.492748
369.872495	2629.652369
370.259738	2626.574744
370.646918	2631.482308
371.034035	2630.647997
371.421090	2632.258645
371.808081	2630.247225
372.195010	2633.496249
372.581875	2632.682102
372.968678	2632.682102
373.355418	2634.736372
373.742096	2636.490694
374.128710	2633.647483
374.515262	2635.900879
374.901751	2634.330560
375.288177	2637.176291
375.674540	2636.621764
376.060841	2639.127217
376.447079	2636.422638
376.833254	2638.958339
377.219367	2639.038997
377.605417	2639.835500
377.991404	2638.867598
378.377329	2642.903042
378.763191	2640.725263
379.148991	2643.941519
379.534727	2641.254584
379.920402	2641.128556
380.306013	2641.362969
380.691563	2642.446817
381.077049	2643.545789
381.462474	2646.792292
381.847835	2646.978815
382.233134	2646.507467
382.618371	2645.877322
383.003545	2648.143321
383.388657	2645.504277
383.773706	2648.632313
384.158693	2649.025523
384.543618	2650.903353
384.928480	2650.610966
385.313280	2647.661891
385.698017	2649.769093
386.082692	2652.448467
386.467305	2652.987870
386.851856	2653.665905
387.236344	2651.523415
387.620770	2651.397386
388.005133	2648.551655
388.389435	2653.250010
388.773674	2650.671460
389.157851	2658.056750
389.541965	2655.727737
389.926018	2658.981802
390.310008	2659.153201
390.693936	2660.955414
391.077802	2661.469611
391.461606	2661.381391
391.845348	2661.169663
392.229027	2662.261072
392.612645	2665.893224
392.996200	2666.735097
393.379694	2669.308606
393.763125	2672.000582
394.146494	2677.301355
394.529801	2681.820749
394.913047	2688.555731
395.296230	2694.920188
395.679351	2706.945860
396.062410	2717.996069
396.445408	2733.301012
396.828343	2753.178282
397.211217	2776.929678
397.594028	2794.051957
397.976778	2830.489417
398.359466	2863.236753
398.742092	2902.381313
399.124656	2937.283741
399.507158	2993.762308
399.889598	3053.119374
400.271977	3128.955972
400.654294	3182.606452
401.036549	3254.947010
401.418742	3298.119451
401.800874	3405.203641
402.182944	3490.628514
402.564952	3594.004935
402.946898	3686.137063
403.328783	3709.069272
403.710606	3788.245634
404.092367	3983.348370
404.474067	4078.963935
404.855705	4112.908544
405.237282	4161.568282
405.618797	4359.970453
406.000250	4434.919808
406.381642	4617.117190
406.762972	4709.640007
407.144240	4824.177543
407.525447	4896.586157
407.906593	5002.140357
408.287677	5178.885731
408.668700	5195.990366
409.049661	5358.189491
409.430560	5451.055107
409.811399	5411.938273
410.192176	5683.522875
410.572891	5756.526344
410.953545	5987.373382
411.334138	5840.786710
411.714669	6042.027051
412.095139	5927.681079
412.475547	6189.538775
412.855894	6296.769158
413.236180	6499.078224
413.616405	6274.411641
413.996568	6516.076994
414.376670	6578.834319
414.756711	6524.387337
415.136691	6642.657847
415.516609	6864.448452
415.896466	6893.346866
416.276262	7100.966787
416.655997	7113.846935
417.035670	7327.957342
417.415283	7669.664394
417.794834	7726.105152
418.174324	7621.760829
418.553753	7556.929070
418.933121	7890.270327
419.312428	7998.917275
419.691674	7797.460164
420.070859	8279.545707
420.449983	7969.938202
420.829045	8333.667534
421.208047	8130.768654
421.586988	8422.041482
421.965867	8444.502343
422.344686	8570.120335
422.723444	8594.295188
423.102141	7986.755491
423.480777	8730.756702
423.859352	8253.067046
424.237866	8878.704485
424.616319	8746.974094
424.994712	9150.155496
425.373044	8734.860201
425.751314	9186.681177
426.129524	9053.151093
426.507673	9183.046505
426.885762	9338.692130
427.263789	9250.819777
427.641756	9167.910440
428.019662	9269.580431
428.397508	9509.433490
428.775292	9209.136996
429.153016	9584.317310
429.530679	9412.235002
429.908282	9460.307446
430.285824	9175.600720
430.663305	9859.045071
431.040726	9303.073857
431.418086	9299.981109
431.795385	9613.339232
432.172624	9699.268220
432.549802	9616.956260
432.926920	9702.093787
433.303977	9576.816073
433.680974	9786.689390
434.057910	9873.092246
434.434786	9931.322614
434.811601	9777.123800
435.188355	10351.384320
435.565050	10072.764788
435.941683	10005.447740
436.318257	10499.329582
436.694770	10615.442479
437.071222	10687.730105
437.447614	10544.115193
437.823946	10426.230331
438.200218	10574.087373
438.576429	10387.105936
438.952580	10623.830959
439.328670	10679.306337
439.704700	10464.038985
440.080670	10450.059865
440.456580	11012.713128
440.832429	10764.030489
441.208218	10367.032062
441.583947	10701.767197
441.959616	10838.947076
442.335224	10648.104115
442.710773	10785.278952
443.086261	10996.780562
443.461689	10277.226426
443.837057	10926.022926
444.212365	11204.125740
444.587612	10846.760864
444.962800	11078.830382
445.337927	10848.268169
445.712995	10439.841447
446.088002	11515.031342
446.462949	11178.693119
446.837837	11149.915692
447.212664	11133.310131
447.587431	11647.485138
447.962139	12375.926828
448.336786	14637.688392
448.711374	15180.144272
449.085901	13039.597252
449.460369	12645.618477
449.834776	12106.630910
450.209124	12981.243376
450.583412	13380.601063
450.957640	14322.880937
451.331808	13465.804125
451.705917	12466.576857
452.079965	11767.283118
452.453954	12670.297445
452.827883	12298.852627
453.201752	12585.447264
453.575562	12111.052002
453.949311	12536.474975
454.323001	12496.329747
454.696632	12721.838202
455.070202	13008.402593
455.443713	13244.996545
455.817164	13709.337226
456.190556	13699.978324
456.563888	14063.478284
456.937160	14237.070417
457.310373	13566.997727
457.683526	13655.414524
458.056619	13195.933516
458.429653	13359.735728
458.802628	12774.135132
459.175542	13160.685768
459.548398	14106.872536
459.921194	14441.698413
460.293930	14514.706923
460.666607	15396.331634
461.039224	16436.278823
461.411782	17137.951986
461.784280	16995.998135
462.156719	17052.602731
462.529099	16744.031183
462.901419	15664.200906
463.273680	15451.398678
463.645882	15335.689074
464.018024	15060.222784
464.390106	15284.869202
464.762130	16008.118503
465.134094	16774.051254
465.505999	18774.376059
465.877845	22031.246269
466.249631	24860.155285
466.621358	24540.588981
466.993026	23098.541717
467.364634	22532.415099
467.736184	21074.813356
468.107674	20265.982906
468.479105	20402.474667
468.850477	19865.405260
469.221790	19455.564493
469.593043	18771.936141
469.964238	18201.733750
470.335373	17866.693624
470.706449	18314.395977
471.077467	17872.679994
471.448425	19706.729901
471.819324	23765.869499
472.190164	25746.001962
472.560945	22177.220440
472.931667	19820.294495
473.302330	19191.836530
473.672934	18742.057222
474.043479	19039.618889
474.413965	18861.993834
474.784393	18469.552610
475.154761	19173.290125
475.525070	19150.700714
475.895321	18840.785699
476.265513	19421.151057
476.635645	20005.992958
477.005719	19780.766807
477.375734	19971.788729
477.745691	20449.518715
478.115588	20988.420582
478.485427	21514.591014
478.855207	22576.903282
479.224928	24350.227450
479.594591	26573.711533
479.964194	26582.765445
480.333739	26796.190255
480.703226	26368.196293
481.072653	26046.668980
481.442022	26626.976364
481.811333	27546.437455
482.180584	27465.816802
482.549777	26517.991659
482.918912	26159.500086
483.287988	26300.274307
483.657005	25941.636540
484.025964	25707.432094
484.394864	25619.085873
484.763706	25298.460927
485.132489	24732.175512
485.501213	24908.142028
485.869879	24822.923843
486.238487	24647.229549
486.607036	24788.006291
486.975527	24501.330995
487.343959	24816.206506
487.712333	24755.619398
488.080648	24410.617952
488.448905	24905.311420
488.817104	24647.181658
489.185244	25336.531720
489.553326	25284.812003
489.921350	26299.621477
490.289315	28590.039481
490.657222	30378.129188
491.025070	30873.180578
491.392861	30641.143828
491.760593	29793.536823
492.128267	28882.955725
492.495883	27830.196444
492.863440	26960.947765
493.230939	26102.459430
493.598380	25941.606293
493.965763	25541.862958
494.333088	25079.823564
494.700354	25028.270204
495.067563	24893.855398
495.434713	24636.736388
495.801805	24802.761748
496.168839	24593.437917
496.535815	24451.277379
496.902733	24664.619009
497.269593	24339.930893
497.636395	24519.574931
498.003139	24479.712007
498.369825	24220.069899
498.736453	24433.905563
499.103023	24299.553771
499.469535	24311.503827
499.835989	24521.861094
500.202385	24547.946545
500.568723	24066.816301
500.935003	24277.617190
501.301226	23922.939250
501.667390	24764.055769
502.033497	24991.414328
502.399546	24718.947524
502.765537	24278.151553
503.131470	24669.690410
503.497345	24801.866943
503.863163	24035.629203
504.228923	24613.322748
504.594625	24829.623537
504.960269	24365.560119
505.325856	24858.068247
505.691385	24252.129117
506.056856	24870.555185
506.422270	24831.481202
506.787625	24387.181628
507.152924	24807.097141
507.518164	24834.722664
507.883347	24654.859336
508.248472	24329.500746
508.613540	25113.768173
508.978550	24903.950309
509.343503	24906.415433
509.708398	25152.239739
510.073236	25307.076258
510.438016	25527.722521
510.802738	25181.412896
511.167403	25457.290040
511.532010	25161.137375
511.896561	25920.572079
512.261053	25891.489662
512.625488	25718.565482
512.989866	25612.245027
513.354186	25460.591996
513.718449	25568.974283
514.082655	25953.576513
514.446803	25693.178232
514.810894	26160.140312
515.174927	25645.872044
515.538904	25679.113412
515.902822	26167.780181
516.266684	25918.051502
516.630488	25830.491701
516.994235	25784.561748
517.357925	26108.478568
517.721558	26270.448320
518.085133	26385.863017
518.448651	26288.609077
518.812112	26034.020725
519.175516	26253.005928
519.538863	26395.771405
519.902152	26184.484044
520.265385	26463.703473
520.628560	26248.216832
520.991678	26247.120381
521.354739	26311.158158
521.717743	26390.042133
522.080690	26169.436200
522.443580	26501.267631
522.806413	26483.298438
523.169189	26579.425681
523.531908	26639.044887
523.894569	26259.403152
524.257174	26330.685068
524.619722	26501.257549
524.982213	26198.044748
525.344647	26234.888021
525.707025	26390.521043
526.069345	26365.968103
526.431608	26327.738513
526.793815	26504.519176
527.155964	25978.005944
527.518057	26163.898493
527.880093	26079.234834
528.242072	26302.837734
528.603995	26009.903845
528.965860	25816.888147
529.327669	25861.754416
529.689421	25843.578536
530.051117	25677.686766
530.412755	25857.971030
530.774337	25645.746015
531.135862	25516.397569
531.497331	25719.298970
531.858743	25288.991119
532.220098	25761.465702
532.581396	25449.960202
532.942638	25364.810073
533.303824	25487.569731
533.664953	25486.654761
534.026025	25145.691280
534.387040	25399.130248
534.747999	25456.075122
535.108902	25614.057322
535.469748	25102.912048
535.830537	25278.087103
536.191270	25405.041001
536.551947	25257.972899
536.912567	24890.818103
537.273131	25292.348528
537.633638	24967.794002
537.994089	25195.661717
538.354483	24707.307500
538.714821	25218.006632
539.075103	25265.116214
539.435328	25029.253229
539.795497	24618.048830
540.155609	24980.563244
540.515665	25286.886437
540.875665	24515.907492
541.235609	24832.229813
541.595496	24786.688029
541.955328	25145.330837
542.315102	25066.610699
542.674821	24583.635393
543.034483	24462.761127
543.394090	24645.500433
543.753640	24447.917450
544.113134	25069.199332
544.472571	24669.753425
544.831953	24965.858199
545.191278	24593.987403
545.550548	24509.510267
545.909761	24700.645615
546.268918	24929.221613
546.628019	24903.209259
546.987064	24594.501601
547.346053	24350.741648
547.704986	24451.733603
548.063863	24614.890547
548.422684	24635.569360
548.781449	24147.048785
549.140158	24557.807042
549.498811	24135.769203
549.857408	23882.662951
550.215949	24295.697289
550.574434	23985.673889
550.932864	24194.344891
551.291237	24355.066957
551.649555	24221.272214
552.007817	24277.473517
552.366022	24125.767554
552.724173	24164.365149
553.082267	24134.113184
553.440305	24598.345480
553.798288	23853.320915
554.156215	24367.125397
554.514086	24471.419309
554.871902	23856.022974
555.229661	24128.663697
555.587365	23983.964938
555.945014	23864.850034
556.302606	24101.396096
556.660143	24073.226128
557.017625	24311.017355
557.375050	23828.652029
557.732421	24218.164343
558.089735	24039.720099
558.446994	24093.383182
558.804197	24118.122644
559.161345	24047.881727
559.518437	23826.131452
559.875474	24016.676985
560.232455	24185.316184
560.589381	23999.907587
560.946251	23998.765765
561.303065	24299.561333
561.659825	24387.166505
562.016528	24000.625951
562.373177	23741.883689
562.729770	24107.599236
563.086307	23951.595689
563.442789	24119.728252
563.799216	23979.261541
564.155587	23959.686741
564.511904	23948.397077
564.868164	23898.522421
565.224370	23858.654456
565.580520	23782.585965
565.936615	23913.194699
566.292654	23598.498150
566.648638	23859.060269
567.004567	23715.382343
567.360441	23649.076047
567.716260	23378.267783
568.072023	23702.655950
568.427732	23469.573161
568.783385	23243.001022
569.138982	23494.572243
569.494525	23522.696840
569.850013	23271.145784
570.205445	23362.052911
570.560823	23190.371376
570.916145	22939.876441
571.271412	23126.293269
571.626625	22878.102142
571.981782	22985.730777
572.336884	22790.433956
572.691931	22941.661010
573.046923	22676.221574
573.401860	22547.339435
573.756743	22576.966296
574.111570	22464.543524
574.466342	22392.850755
574.821059	22479.490546
575.175722	22185.815608
575.530330	22154.320999
575.884882	22176.880163
576.239380	22086.441862
576.593823	21974.009008
576.948211	21955.122325
577.302544	21809.886683
577.656823	21665.361843
578.011047	21774.076847
578.365216	21643.097587
578.719330	21520.453876
579.073389	21401.008777
579.427394	21567.876010
579.781344	21319.810912
580.135239	21214.428111
580.489080	21160.812920
580.842866	20946.788212
581.196597	21145.356742
581.550273	21119.079728
581.903895	21002.379537
582.257463	21310.542751
582.610975	20841.052531
582.964434	21167.021101
583.317837	20856.566682
583.671186	20949.397010
584.024481	20925.116292
584.377721	20681.837769
584.730906	20762.735686
585.084037	20768.124679
585.437113	20685.747184
585.790135	20883.057946
586.143103	20335.044193
586.496016	20365.384378
586.848874	20594.855180
587.201679	20512.870895
587.554428	20204.173319
587.907124	20541.575225
588.259765	20307.995882
588.612352	20384.886081
588.964884	19945.201684
589.317362	20128.689602
589.669786	20176.983856
590.022155	20196.452792
590.374470	20413.010679
590.726731	20196.019252
591.078937	19974.735284
591.431090	20062.562266
591.783188	19825.512089
592.135232	19786.390214
592.487222	19881.829339
592.839157	19906.145345
593.191038	19786.329721
593.542866	19665.853705
593.894639	19379.732937
594.246358	19593.520709
594.598022	19492.927005
594.949633	19260.802035
595.301190	19219.913236
595.652692	19396.056193
596.004141	19619.467528
596.355535	18954.317525
596.706876	18974.913159
597.058162	18859.019553
597.409395	19097.574515
597.760573	19155.094080
598.111698	18938.788251
598.462768	18870.198312
598.813785	18844.506071
599.164748	18650.144384
599.515657	18698.937713
599.866511	18501.803391
600.217312	18845.630248
600.568060	18361.409777
600.918753	18673.537859
601.269392	18587.316484
601.619978	18367.958236
601.970510	18558.433193
602.320988	18511.318569
602.671412	18709.511533
603.021783	18642.169279
603.372100	18353.837964
603.722363	18505.009565
604.072572	18445.302139
604.422728	18591.558615
604.772830	18344.017797
605.122878	18297.001475
605.472872	18280.030431
605.822813	18265.363194
606.172701	18247.837622
606.522534	18430.980221
606.872314	18454.451833
607.222041	18297.747566
607.571714	18516.763015
607.921333	18326.691351
608.270899	18411.844001
608.620411	18582.033355
608.969870	18363.879943
609.319276	18359.867184
609.668627	18389.902379
610.017926	18531.949491
610.367171	18637.488568
610.716362	18685.200568
611.065500	18502.728443
611.414585	18643.520308
611.763616	18630.481364
612.112594	18558.478563
612.461518	18535.195994
612.810389	18728.098267
613.159207	18579.953879
613.507971	18498.017485
613.856682	18753.543491
614.205340	18685.180404
614.553945	18829.087702
614.902496	18573.680163
615.250994	18793.600499
615.599439	18751.879910
615.947830	18725.008040
616.296169	18804.499474
616.644454	18759.978524
616.992686	18734.760152
617.340864	18947.940466
617.688990	18698.973001
618.037063	18878.611997
618.385082	18724.536692
618.733048	19003.468775
619.080961	18886.781187
619.428821	18915.193130
619.776628	18795.397671
620.124382	18728.844358
620.472083	18778.040978
620.819731	18791.389953
621.167326	18477.038723
621.514868	18517.209157
621.862357	18298.019788
622.209793	18300.187484
622.557176	18136.604563
622.904506	17956.595041
623.251783	17892.746307
623.599007	17630.868447
623.946179	17574.813337
624.293297	17515.824275
624.640363	17254.606806
624.987376	17294.449566
625.334336	17082.280003
625.681243	16922.011640
626.028097	16938.695339
626.374899	16865.472579
626.721647	16725.946044
627.068343	16556.959005
627.414987	16496.775190
627.761577	16461.245137
628.108115	16486.360166
628.454600	16214.861264
628.801032	16319.268601
629.147412	16256.740649
629.493739	16275.715553
629.840014	16077.648618
630.186236	16175.285686
630.532405	15944.113494
630.878521	16140.514327
631.224585	16042.400870
631.570597	15859.737181
631.916556	15893.926287
632.262462	15866.572986
632.608316	15778.569563
632.954117	15724.230966
633.299866	15720.671911
633.645562	15643.597710
633.991206	15400.263734
634.336797	15278.945847
634.682336	15234.714763
635.027823	15120.686383
635.373257	14987.012627
635.718639	14891.460077
636.063968	14838.739690
636.409245	14603.156488
636.754470	14625.728255
637.099642	14472.973731
637.444762	14244.871602
637.789829	14279.279998
638.134845	14127.838695
638.479808	14151.085976
638.824719	14076.797012
639.169577	13941.862968
639.514383	13988.425585
639.859137	13806.835662
640.203839	13905.675045
640.548489	13745.255447
640.893086	13734.689189
641.237632	13605.983490
641.582125	13756.736675
641.926566	13576.139859
642.270955	13593.103342
642.615292	13547.899315
642.959576	13551.695304
643.303809	13590.640738
643.647990	13517.561652
643.992118	13586.925408
644.336195	13354.639121
644.680219	13581.024737
645.024192	13484.320283
645.368112	13727.586203
645.711981	13778.973205
646.055797	13960.910968
646.399562	13932.383078
646.743274	14202.909038
647.086935	14475.655625
647.430544	14442.565491
647.774101	14472.832579
648.117606	14611.194608
648.461059	14597.656589
648.804460	14573.784205
649.147810	14308.375017
649.491108	14211.078227
649.834354	14232.160333
650.177548	13913.012444
650.520690	13716.490623
650.863781	13640.104540
651.206820	13691.103373
651.549807	13520.654399
651.892742	13320.417248
652.235626	13253.843770
652.578458	13253.195982
652.921238	12948.135598
653.263967	13147.417451
653.606644	12975.204074
653.949269	12953.396042
654.291843	12754.774581
654.634365	12920.005960
654.976836	12763.664656
655.319255	12768.577260
655.661622	12725.372051
656.003938	12648.396152
656.346203	12568.587125
656.688416	12653.308757
657.030577	12613.024896
657.372687	12515.874300
657.714746	12498.336126
658.056753	12690.908203
658.398708	12505.814677
658.740612	12503.399965
659.082465	12612.107406
659.424266	12577.399062
659.766016	12603.136673
660.107715	12514.765246
660.449362	12595.088471
660.790958	12548.372098
661.132503	12489.466216
661.473996	12555.112121
661.815438	12572.584760
662.156829	12596.615941
662.498168	12568.511508
662.839456	12568.418247
663.180693	12583.970206
663.521879	12680.253724
663.863013	12652.592913
664.204097	12616.319290
664.545129	12760.715581
664.886110	12732.046539
665.227040	12821.053151
665.567918	12826.527844
665.908746	12852.802338
666.249522	12827.974655
666.590248	12884.566648
666.930922	13004.568795
667.271545	12975.312459
667.612118	13062.771437
667.952639	12954.303450
668.293109	12976.602994
668.633528	12924.633739
668.973896	12910.430288
669.314213	12975.113333
669.654480	12718.725290
669.994695	12804.762662
670.334859	12831.195952
670.674973	12765.650870
671.015035	12793.833441
671.355047	12743.444588
671.695008	12715.035165
672.034918	12728.066548
672.374777	12772.494237
672.714585	12677.163497
673.054342	12713.477448
673.394049	12671.736695
673.733705	12770.457610
674.073310	12660.565498
674.412864	12680.339424
674.752368	12545.067622
675.091820	12573.358577
675.431223	12550.834702
675.770574	12420.304105
676.109875	12340.971467
676.449125	12297.950260
676.788324	12244.516550
677.127473	12079.312897
677.466571	12074.899367
677.805619	11962.242182
678.144616	11891.161912
678.483562	11859.753003
678.822458	11731.022099
679.161303	11708.732637
679.500098	11700.800382
679.838842	11646.434058
680.177535	11688.033659
680.516179	11743.725807
680.854771	11683.398318
681.193314	11903.598439
681.531805	12069.243193
681.870247	12494.577946
682.208638	12909.512798
682.546978	13218.248183
682.885268	13245.145259
683.223508	12950.038634
683.561697	12795.769244
683.899836	12698.238040
684.237925	12490.807162
684.575963	12400.247875
684.913951	12325.086792
685.251889	12277.503340
685.589776	12380.831871
685.927614	12297.310034
686.265401	12270.165941
686.603137	12321.966317
686.940824	12469.510808
687.278460	12606.794030
687.616046	12648.406235
687.953582	12801.334678
688.291068	12738.221952
688.628504	12976.464362
688.965889	12975.284732
689.303224	12944.566461
689.640510	12828.393071
689.977745	12509.693845
690.314930	12291.588324
690.652065	12204.462062
690.989150	11904.478120
691.326185	11678.768019
691.663170	11480.126393
692.000105	11240.001111
692.336990	11118.436207
692.673825	10863.568071
693.010610	10740.826058
693.347345	10534.756291
693.684030	10342.106076
694.020665	10279.159709
694.357251	10087.832797
694.693786	10015.542651
695.030272	9864.484476
695.366707	9748.623637
695.703093	9674.543881
696.039429	9680.099233
696.375716	9589.943237
696.711952	9462.175193
697.048139	9511.586063
697.384276	9459.543711
697.720363	9483.249737
698.056400	9417.356815
698.392388	9365.531233
698.728326	9331.097631
699.064214	9261.464173
699.400053	9310.691041
699.735842	9121.859500
700.071581	9076.295031
700.407270	9008.012602
700.742910	8935.979555
701.078501	8834.097835
701.414042	8705.233340
701.749533	8644.968867
702.084974	8510.241509
702.420366	8627.491186
702.755709	8503.241867
703.091002	8362.911268
703.426246	8399.807473
703.761440	8348.841407
704.096584	8306.420098
704.431679	8239.970128
704.766725	8223.094866
705.101721	8182.798403
705.436668	8227.364723
705.771565	8118.102755
706.106413	8200.011422
706.441212	8238.112463
706.775961	8200.800363
707.110661	8241.091785
707.445311	8376.761838
707.779913	8277.899770
708.114465	8400.359479
708.448967	8440.514790
708.783421	8593.491124
709.117825	8771.320347
709.452180	8804.675141
709.786485	8891.272082
710.120742	9181.791257
710.454949	9180.392337
710.789107	9284.514849
711.123216	9510.035908
711.457275	9671.312502
711.791286	9821.717847
712.125247	9822.980656
712.459159	9810.370210
712.793023	10051.327281
713.126837	9629.304567
713.460602	9783.016909
713.794318	9607.511658
714.127985	9639.621288
714.461602	9303.388929
714.795171	9252.218697
715.128691	9001.912806
715.462162	8757.434488
715.795584	8700.358544
716.128957	8541.161427
716.462281	8380.552786
716.795556	8424.647758
717.128782	8216.768218
717.461960	7955.495296
717.795088	8026.731841
718.128167	7936.291021
718.461198	7770.041328
718.794180	7716.466466
719.127113	7707.563788
719.459997	7542.624796
719.792833	7320.120868
720.125619	7388.587299
720.458357	7240.579022
720.791046	7234.509473
721.123686	7221.480611
721.456278	7063.944553
721.788821	7085.853408
722.121315	6981.425906
722.453761	7048.211112
722.786158	6991.871177
723.118506	6994.671538
723.450805	6965.306817
723.783056	7026.783688
724.115259	6948.797038
724.447412	6948.015659
724.779518	6994.351424
725.111574	6991.326732
725.443582	7068.804226
725.775542	7050.925773
726.107453	7246.635969
726.439315	7151.098542
726.771129	7226.131075
727.102895	7399.985348
727.434612	7507.601380
727.766281	7537.608848
728.097901	7616.046681
728.429473	7621.874255
728.760996	7598.145544
729.092471	7568.785864
729.423897	7513.955754
729.755276	7516.244438
730.086606	7433.327540
730.417887	7544.346350
730.749120	7751.023576
731.080305	7939.179602
731.411442	8054.508599
731.742530	8043.992752
732.073570	8151.644072
732.404562	8241.850479
732.735506	8091.951769
733.066401	8226.953869
733.397249	8154.832602
733.728048	7920.320645
734.058798	7581.018224
734.389501	7352.913574
734.720156	7176.120309
735.050762	6949.210412
735.381320	6855.981834
735.711831	6803.858823
736.042293	6690.949580
736.372707	6705.984822
736.703073	6572.381642
737.033391	6614.268589
737.363661	6622.808304
737.693883	6660.536299
738.024056	6739.626962
738.354182	6777.133146
738.684260	6814.180586
739.014290	6938.984432
739.344272	7044.841101
739.674207	7074.788075
740.004093	7144.381204
740.333931	7164.276118
740.663722	7169.723084
740.993464	7248.095383
741.323159	7225.236271
741.652806	6979.414486
741.982405	7006.256109
742.311956	7056.904582
742.641460	6873.749380
742.970915	6689.638880
743.300323	6676.839391
743.629683	6626.059848
743.958996	6495.478840
744.288260	6405.486682
744.617477	6355.022211
744.946647	6351.349731
745.275768	6190.305030
745.604842	6140.367360
745.933869	6130.774044
746.262847	6086.563125
746.591778	6071.810188
746.920662	6034.402306
747.249498	6030.873498
747.578286	6076.284212
747.907027	6148.125696
748.235720	6208.869079
748.564365	6181.278844
748.892963	6223.274176
749.221514	6369.467638
749.550017	6188.250760
749.878473	6074.260189
750.206881	6130.050639
750.535242	6076.498461
750.863555	6004.566237
751.191821	6021.229771
751.520039	6014.572927
751.848210	5922.700419
752.176334	5947.394511
752.504411	5995.983673
752.832440	5919.658083
753.160421	5850.924471
753.488356	5899.581688
753.816243	5930.143683
754.144082	5781.906033
754.471875	5755.243371
754.799620	5793.800636
755.127318	5810.801927
755.454969	5768.791472
755.782572	5729.722529
756.110129	5779.410662
756.437638	5754.701447
756.765100	5695.979566
757.092515	5699.097520
757.419882	5753.017701
757.747203	5729.488116
758.074477	5792.890708
758.401703	5773.777173
758.728882	5730.924845
759.056014	5798.095699
759.383099	5914.763123
759.710138	5926.761069
760.037129	5919.204379
760.364073	5918.170943
760.690970	6001.574312
761.017820	5982.397763
761.344623	5938.438902
761.671379	6043.567124
761.998088	6168.078583
762.324751	6420.897489
762.651366	7044.122736
762.977935	8387.522181
763.304456	10039.755313
763.630931	10908.512478
763.957359	10484.886677
764.283740	9526.548207
764.610074	8667.250767
764.936362	7678.040271
765.262602	7077.722027
765.588796	6541.088679
765.914943	6213.156580
766.241044	6044.890427
766.567097	5836.249672
766.893104	5576.773922
767.219064	5399.005193
767.544978	5336.424309
767.870845	5257.653760
768.196665	5151.597965
768.522438	5079.217078
768.848165	5045.862284
769.173846	4977.463908
769.499479	4935.919760
769.825066	4882.738107
770.150607	4826.793902
770.476101	4799.753153
770.801548	4787.646822
771.126949	4710.421386
771.452303	4658.048839
771.777611	4621.230772
772.102872	4640.122496
772.428087	4597.295373
772.753256	4561.966967
773.078378	4513.667672
773.403453	4443.973720
773.728482	4430.448305
774.053465	4383.497518
774.378401	4376.092063
774.703291	4367.227194
775.028135	4296.277995
775.352932	4246.988113
775.677683	4238.150971
776.002388	4253.279473
776.327046	4261.244496
776.651658	4187.981408
776.976224	4127.366574
777.300743	4133.105927
777.625216	4155.191222
777.949643	4145.013133
778.274024	4105.830764
778.598359	4064.422727
778.922647	4090.283846
779.246889	4077.940581
779.571086	4072.291968
779.895236	4053.329668
780.219339	4043.869942
780.543397	4040.005898
780.867409	4088.204370
781.191374	4103.431175
781.515294	4038.924571
781.839167	4035.519271
782.162995	4054.123649
782.486776	4044.043862
782.810511	4052.545768
783.134201	4044.303482
783.457844	3998.073580
783.781441	3943.155250
784.104993	3948.937454
784.428498	3969.321359
784.751958	3963.327427
785.075372	3941.005198
785.398739	3905.646545
785.722061	3918.975356
786.045337	3964.123930
786.368568	3989.727950
786.691752	3903.133530
787.014891	3959.743167
787.337983	4090.127570
787.661030	4253.934823
787.984031	4412.249739
788.306987	4581.677879
788.629897	4663.654602
788.952760	4623.448880
789.275579	4552.489598
789.598351	4485.016274
789.921078	4338.565714
790.243759	4140.859222
790.566395	4125.886995
790.888984	4118.433649
791.211529	4012.922299
791.534027	3950.175057
791.856480	3936.296761
792.178888	3875.097153
792.501249	3831.287005
792.823566	3841.717153
793.145836	3864.266234
793.468062	3812.543995
793.790241	3770.795680
794.112375	3802.567552
794.434464	3865.521481
794.756507	3888.526787
795.078505	3867.288406
795.400457	3904.865166
795.722364	4048.797670
796.044226	4155.851613
796.366042	4228.237542
796.687812	4202.376422
797.009538	4202.575548
797.331218	4165.979292
797.652852	4141.572545
797.974442	4118.279894
798.295986	4116.830562
798.617484	4034.236297
798.938938	3946.542906
799.260346	3991.777179
799.581709	3984.132269
799.903026	3909.442534
800.224299	3871.033983
800.545526	3867.910988
800.866708	3827.664936
801.187845	3769.633694
801.508936	3807.336483
801.829983	3795.429278
802.150984	3719.517063
802.471940	3711.809139
802.792851	3722.728278
803.113717	3720.182495
803.434538	3723.091241
803.755314	3667.444464
804.076045	3643.511586
804.396731	3663.330883
804.717372	3687.561189
805.037967	3671.127027
805.358518	3659.804596
805.679024	3690.981612
805.999485	3702.989640
806.319901	3707.801421
806.640272	3717.987073
806.960598	3735.568097
807.280879	3705.910989
807.601115	3723.943196
807.921306	3740.238726
808.241453	3778.745579
808.561554	3753.214656
808.881611	3685.554809
809.201623	3727.910584
809.521590	3736.026842
809.841513	3712.056155
810.161390	3737.486256
810.481223	3713.828121
810.801011	3660.641427
811.120755	3655.784275
811.440453	3690.147301
811.760107	3692.904812
812.079716	3645.923778
812.399281	3620.090386
812.718801	3638.329280
813.038276	3611.701906
813.357707	3613.594859
813.677093	3625.270171
813.996434	3572.219589
814.315731	3588.237855
814.634983	3590.997887
814.954191	3607.351390
815.273354	3631.007004
815.592473	3626.674133
815.911547	3637.517654
816.230577	3678.887883
816.549562	3729.690111
816.868502	3767.405504
817.187399	3795.522539
817.506250	3791.771921
817.825058	3769.185031
818.143821	3862.426213
818.462539	3963.292139
818.781213	4009.007843
819.099843	4068.427923
819.418429	4325.158765
819.736970	4564.180034
820.055466	4821.820804
820.373919	5189.542730
820.692327	5606.824240
821.010691	6076.022072
821.329011	7512.806371
821.647286	10360.632317
821.965517	15038.785277
822.283704	19067.055369
822.601847	21142.024539
822.919945	19252.685777
823.237999	16609.361799
823.556010	14102.542185
823.873976	11967.414406
824.191897	9851.022074
824.509775	8504.497115
824.827609	7371.533076
825.145398	6837.884091
825.463144	6721.088118
825.780845	6829.730025
826.098502	7044.311780
826.416116	7970.162533
826.733685	9311.726998
827.051210	10426.978942
827.368692	10408.311550
827.686129	9114.217111
828.003522	7592.156653
828.320872	6571.161682
828.638177	5860.749680
828.955439	5292.984687
829.272656	4790.850475
829.589830	4512.248587
829.906960	4333.537163
830.224046	4147.553874
830.541088	4025.976367
830.858086	3973.913851
831.175041	3893.310842
831.491952	3883.594018
831.808819	3894.702200
832.125642	3971.476453
832.442421	4122.126294
832.759157	4407.758071
833.075849	4982.522706
833.392497	5863.575246
833.709101	6649.715462
834.025662	6980.599157
834.342179	6572.560603
834.658653	5905.295836
834.975083	5243.500720
835.291469	4658.464734
835.607811	4256.828446
835.924110	4114.007516
836.240366	3912.910848
836.556578	3708.154302
836.872746	3598.980554
837.188871	3554.870458
837.504952	3491.132629
837.820990	3404.863363
838.136984	3360.874255
838.452935	3388.824932
838.768842	3383.325033
839.084706	3405.967376
839.400526	3572.257397
839.716303	3927.121861
840.032037	4466.600939
840.347727	4713.425914
840.663373	4414.165378
840.978977	4027.050133
841.294537	3715.796691
841.610054	3491.924090
841.925527	3386.201012
842.240957	3316.595280
842.556344	3259.509254
842.871687	3202.556818
843.186987	3147.794764
843.502244	3116.965588
843.817458	3078.413364
844.132629	3050.329096
844.447756	3057.192627
844.762840	3038.084133
845.077881	3006.072806
845.392879	2992.255003
845.707833	2987.365084
846.022745	2986.525732
846.337613	2986.041781
846.652438	2974.636171
846.967221	2971.356900
847.281960	2957.415589
847.596656	2953.029785
847.911309	2957.466001
848.225919	2946.141048
848.540485	2944.016202
848.855009	2941.384720
849.169490	2932.487083
849.483928	2924.466608
849.798323	2923.128181
850.112675	2919.566606
850.426984	2934.087650
850.741251	2927.705549
851.055474	2917.497212
851.369654	2909.829617
851.683792	2917.608118
851.997887	2926.783018
852.311938	2930.581527
852.625947	2916.166348
852.939914	2917.943354
853.253837	2921.552821
853.567718	2908.720563
853.881555	2910.207704
854.195350	2924.829571
854.509103	2920.446287
854.822812	2912.065369
855.136479	2902.426683
855.450103	2910.187539
855.763685	2902.414080
856.077224	2900.944584
856.390720	2914.739701
856.704173	2922.571134
857.017584	2914.654002
857.330953	2913.134094
857.644278	2921.958633
857.957561	2929.951383
858.270802	2935.433638
858.584000	2933.094542
858.897155	2920.093407
859.210268	2921.744384
859.523339	2916.892274
859.836367	2916.728436
860.149352	2911.195770
860.462295	2907.888773
860.775195	2914.767428
861.088054	2914.346491
861.400869	2899.132289
861.713642	2898.308060
862.026373	2912.561923
862.339062	2912.929927
862.651708	2917.787079
862.964312	2919.518715
863.276873	2914.487643
863.589392	2926.074736
863.901869	2937.618978
864.214303	2959.094293
864.526696	2973.219606
864.839045	2969.721046
865.151353	2971.918989
865.463619	2968.604430
865.775842	2969.544605
866.088023	2991.816423
866.400162	2995.161228
866.712258	2966.827423
867.024313	2956.649334
867.336325	2963.850622
867.648296	2987.171000
867.960224	2980.960298
868.272110	2965.277268
868.583954	2970.943525
868.895755	2983.168323
869.207515	2968.851447
869.519233	2977.335708
869.830909	2990.200733
870.142542	2994.768018
870.454134	2997.293637
870.765684	2998.117865
871.077191	2999.771364
871.388657	3010.541789
871.700081	3020.735002
872.011463	3029.904861
872.322803	3032.443082
872.634101	3029.592309
872.945357	3050.356822
873.256571	3076.747262
873.567744	3066.715366
873.878874	3062.017011
874.189963	3085.130701
874.501010	3082.093406
874.812015	3073.508321
875.122979	3073.858681
875.433900	3071.857343
875.744780	3076.051583
876.055618	3086.622883
876.366415	3084.026688
876.677169	3094.088832
876.987882	3090.015579
877.298554	3084.132553
877.609183	3109.779423
877.919771	3132.530150
878.230317	3160.027124
878.540822	3212.901266
878.851285	3248.774117
879.161707	3297.481745
879.472087	3404.013929
879.782425	3646.548882
880.092722	4098.773149
880.402977	4635.194768
880.713191	5284.823058
881.023363	6484.834443
881.333494	7796.393960
881.643583	8330.111000
881.953631	8011.300869
882.263637	7347.796803
882.573602	6741.507312
882.883526	6152.934957
883.193408	5579.967493
883.503248	5124.680724
883.813048	4811.796470
884.122806	4488.794619
884.432522	4164.928211
884.742197	3923.950975
885.051831	3733.397880
885.361424	3601.370061
885.670975	3525.631765
885.980485	3437.494752
886.289954	3357.405941
886.599382	3314.813232
886.908768	3275.847633
887.218113	3232.947414
887.527417	3174.903569
887.836680	3122.483131
888.145901	3117.895681
888.455082	3103.785491
888.764221	3053.265568
889.073319	3023.618542
889.382376	3020.427492
889.691392	3026.028213
890.000366	3022.844725
890.309300	3013.901718
890.618193	3026.189530
890.927044	3039.064637
891.235855	3040.302241
891.544625	3028.606764
891.853353	3040.214020
892.162041	3058.399983
892.470687	3101.895058
892.779293	3151.893222
893.087858	3199.900130
893.396381	3271.792025
893.704864	3402.262128
894.013306	3649.092144
894.321707	3961.860452
894.630068	4162.316893
894.938387	4157.900843
895.246665	4111.597844
895.554903	3986.305007
895.863100	3779.567288
896.171256	3608.263839
896.479371	3463.933083
896.787446	3340.129907
897.095480	3236.151067
897.403473	3171.127745
897.711425	3136.230357
898.019336	3124.794500
898.327207	3093.582196
898.635038	3058.079870
898.942827	3046.006306
899.250576	3034.235212
899.558284	3000.819924
899.865952	2980.052890
900.173579	2959.474900
900.481165	2951.645988
900.788711	2940.091664
901.096216	2914.981677
901.403681	2903.588669
901.711105	2913.867582
902.018489	2909.265008
902.325832	2907.288876
902.633135	2921.136925
902.940397	2950.325206
903.247619	3043.064793
903.554800	3241.456882
903.861941	3603.492387
904.169041	4045.042011
904.476101	4341.784491
904.783121	4285.492446
905.090100	4026.936707
905.397039	3746.280549
905.703938	3489.436281
906.010796	3304.211686
906.317614	3192.287988
906.624391	3092.480703
906.931129	3020.447656
907.237826	2956.835856
907.544483	2911.639392
907.851099	2882.078065
908.157675	2858.707276
908.464211	2838.981241
908.770707	2825.067657
909.077163	2813.478044
909.383578	2797.159829
909.689954	2784.854372
909.996289	2786.253292
910.302584	2785.378652
910.608839	2783.357150
910.915054	2778.111829
911.221229	2770.885335
911.527363	2772.969852
911.833458	2781.015534
912.139513	2785.250103
912.445527	2787.251441
912.751502	2798.581434
913.057436	2809.324133
913.363331	2821.211174
913.669186	2844.115656
913.975000	2882.188971
914.280775	2943.262550
914.586510	3016.308869
914.892205	3097.680654
915.197859	3229.458936
915.503475	3434.638938
915.809050	3656.132115
916.114585	3800.707366
916.420081	3813.527020
916.725536	3754.089296
917.030952	3629.585399
917.336328	3499.080008
917.641665	3364.844163
917.946961	3262.347423
918.252218	3190.473172
918.557435	3110.225565
918.862612	3048.836914
919.167750	2996.950838
919.472848	2959.210240
919.777906	2929.038934
920.082925	2902.184708
920.387904	2873.051879
920.692843	2857.784745
920.997743	2845.605317
921.302603	2828.311639
921.607423	2820.785196
921.912204	2804.706436
922.216946	2793.787297
922.521647	2784.065432
922.826310	2778.356325
923.130932	2768.868873
923.435516	2760.568614
923.740059	2754.431009
924.044564	2745.215780
924.349028	2738.750500
924.653454	2733.469891
924.957840	2726.777759
925.262186	2722.409600
925.566493	2717.088662
925.870761	2712.309648
926.174989	2710.983824
926.479178	2705.688092
926.783328	2700.024356
927.087438	2700.152905
927.391509	2698.864891
927.695541	2694.433716
927.999533	2688.563293
928.303486	2687.955834
928.607400	2686.098168
928.911275	2688.288550
929.215110	2684.631193
929.518906	2685.679753
929.822663	2683.128929
930.126381	2683.401151
930.430060	2686.138498
930.733699	2684.878209
931.037299	2686.410720
931.340861	2684.898374
931.644383	2688.646472
931.947866	2688.999352
932.251309	2686.488858
932.554714	2686.451049
932.858080	2684.784948
933.161407	2679.285049
933.464694	2678.889318
933.767943	2677.208094
934.071153	2680.757066
934.374323	2678.828825
934.677455	2678.924607
934.980548	2676.812363
935.283602	2675.569719
935.586617	2677.697086
935.889593	2675.292455
936.192530	2675.098371
936.495428	2680.147086
936.798287	2681.460307
937.101108	2684.142201
937.403890	2685.110102
937.706632	2691.865248
938.009336	2699.406815
938.312002	2707.823021
938.614628	2716.362736
938.917216	2722.457491
939.219765	2721.096379
939.522275	2722.026472
939.824747	2720.448591
940.127179	2717.192005
940.429573	2713.849720
940.731929	2711.339226
941.034246	2707.008875
941.336524	2706.940819
941.638763	2704.238761
941.940964	2700.014274
942.243126	2697.927236
942.545250	2696.949252
942.847335	2694.378264
943.149381	2690.297450
943.451389	2686.796368
943.753359	2684.575740
944.055290	2682.581964
944.357182	2684.616069
944.659036	2680.966274
944.960851	2680.494926
945.262628	2679.229596
945.564367	2680.711696
945.866067	2680.159689
946.167729	2678.528876
946.469352	2682.163548
946.770937	2680.172292
947.072484	2676.479647
947.373992	2677.497960
947.675462	2675.627692
947.976893	2671.375479
948.278286	2670.412618
948.579641	2671.415808
948.880958	2668.272648
949.182236	2671.690551
949.483476	2669.900941
949.784678	2669.258194
950.085841	2669.795077
950.386967	2669.953873
950.688054	2671.708195
950.989103	2671.688030
951.290114	2673.520490
951.591087	2675.688186
951.892021	2674.561488
952.192917	2680.499967
952.493776	2682.032478
952.794596	2679.998372
953.095378	2682.241686
953.396122	2682.592046
953.696828	2678.332271
953.997496	2680.066428
954.298126	2674.753052
954.598718	2672.716426
954.899272	2670.226096
955.199788	2668.088646
955.500266	2668.532268
955.800706	2665.462205
956.101108	2661.535146
956.401472	2660.416010
956.701798	2661.996412
957.002087	2655.495844
957.302337	2655.155566
957.602550	2657.845022
957.902724	2651.004176
958.202861	2650.641213
958.502960	2650.794968
958.803022	2652.178765
959.103045	2649.930410
959.403031	2643.946561
959.702979	2647.177940
960.002889	2646.126860
960.302762	2646.961171
960.602596	2648.201294
960.902393	2646.998979
961.202153	2642.915645
961.501875	2645.920172
961.801559	2643.132414
962.101205	2645.602580
962.400814	2646.479740
962.700385	2647.054432
962.999918	2640.601755
963.299414	2638.900366
963.598873	2641.035294
963.898293	2639.036477
964.197677	2640.695016
964.497022	2644.548978
964.796331	2641.103350
965.095601	2642.595531
965.394835	2641.226858
965.694030	2640.672331
965.993189	2641.683082
966.292309	2641.252064
966.591393	2642.030922
966.890439	2640.339615
967.189447	2642.577887
967.488419	2642.749287
967.787353	2639.369193
968.086249	2639.197794
968.385108	2642.895480
968.683930	2642.013278
968.982714	2640.793319
969.281462	2642.351035
969.580172	2641.569657
969.878844	2642.333391
970.177480	2641.408340
970.476078	2641.471354
970.774639	2641.917496
971.073162	2642.658546
971.371649	2643.394554
971.670098	2643.162661
971.968510	2639.709471
972.266885	2641.224338
972.565223	2644.009575
972.863524	2642.719040
973.161788	2644.823721
973.460014	2644.677528
973.758204	2641.655356
974.056356	2640.211066
974.354471	2639.434728
974.652550	2639.631333
974.950591	2644.034781
975.248595	2643.296252
975.546563	2640.856333
975.844493	2641.524286
976.142386	2641.736015
976.440243	2640.362300
976.738062	2640.828607
977.035845	2642.313227
977.333590	2640.064872
977.631299	2638.973462
977.928971	2637.614871
978.226606	2635.389202
978.524204	2637.824079
978.821765	2637.453554
979.119290	2639.522948
979.416777	2639.986734
979.714228	2640.889101
980.011642	2641.224337
980.309020	2636.649490
980.606360	2638.933133
980.903664	2639.412043
981.200931	2638.199645
981.498162	2639.953967
981.795356	2640.233751
982.092513	2643.334060
982.389633	2644.236427
982.686717	2649.663229
982.983764	2649.988383
983.280775	2653.915442
983.577749	2656.937614
983.874686	2656.884682
984.171587	2654.969043
984.468451	2650.648775
984.765279	2649.466624
985.062070	2647.805564
985.358824	2645.310193
985.655543	2643.918834
985.952224	2644.634678
986.248869	2641.894811
986.545478	2640.619399
986.842050	2639.028915
987.138586	2637.622433
987.435086	2638.673514
987.731549	2639.091929
988.027975	2635.961373
988.324366	2637.874491
988.620719	2636.404994
988.917037	2638.154275
989.213318	2636.626805
989.509563	2636.115128
989.805772	2636.951960
990.101944	2635.157309
990.398080	2636.931795
990.694180	2634.602782
990.990244	2638.446662
991.286271	2636.712505
991.582262	2637.012453
991.878217	2638.923051
992.174136	2635.190076
992.470019	2637.027577
992.765865	2632.659417
993.061676	2631.061371
993.357450	2632.334263
993.653188	2630.068264
993.948890	2636.997330
994.244556	2636.979686
994.540186	2636.929274
994.835780	2635.547998
995.131337	2638.464306
995.426859	2636.155457
995.722345	2637.428349
996.017795	2640.478247
996.313208	2643.649132
996.608586	2640.977321
996.903928	2639.981693
997.199234	2641.564615
997.494504	2640.886580
997.789738	2641.128556
998.084936	2638.388688
998.380099	2638.350880
998.675225	2638.892804
998.970316	2639.094450
999.265371	2637.347690
999.560390	2637.642598
999.855373	2635.127062
1000.150320	2636.059675
1000.445232	2638.819707
1000.740108	2636.727628
1001.034948	2633.307205
1001.329752	2635.205200
1001.624521	2632.614047
1001.919254	2635.285858
1002.213951	2635.358955
1002.508613	2634.726290
1002.803239	2634.852319
1003.097829	2633.483646
1003.392384	2632.740076
1003.686903	2636.163019
1003.981386	2633.801238
1004.275834	2635.532875
1004.570246	2632.712349
1004.864623	2634.088584
1005.158964	2630.965589
1005.453270	2631.099180
1005.747540	2633.529016
1006.041775	2629.894344
1006.335974	2632.798049
1006.630138	2634.741414
1006.924266	2634.469191
1007.218359	2629.513737
1007.512416	2631.522637
1007.806438	2630.232102
1008.100425	2633.024901
1008.394376	2627.925774
1008.688292	2629.851494
1008.982172	2636.624285
1009.276017	2631.331073
1009.569827	2635.288379
1009.863602	2634.451547
1010.157341	2632.858543
1010.451045	2634.184366
1010.744714	2634.315436
1011.038347	2633.778553
1011.331945	2631.351238
1011.625508	2633.902062
1011.919036	2633.297123
1012.212528	2633.690333
1012.505986	2632.180507
1012.799408	2636.452885
1013.092795	2632.593882
1013.386147	2631.857874
1013.679464	2633.319808
1013.972745	2636.107566
1014.265992	2632.992133
1014.559204	2632.603964
1014.852380	2632.059520
1015.145521	2633.939870
1015.438628	2632.485497
1015.731699	2633.400467
1016.024736	2633.486166
1016.317737	2634.935498
1016.610703	2632.460292
1016.903635	2633.942391
1017.196531	2633.352576
1017.489393	2634.000364
1017.782219	2632.697226
1018.075011	2630.388377
1018.367768	2630.980713
1018.660490	2631.547843
1018.953177	2631.547843
1019.245829	2631.547843
