Dividing Wavelength (nm)	Counts (n)	Blue Motor Position (mm): 21.000000	Red Motor Position (mm): 0.000000	
326.493990	2102.287183
326.888308	2102.287183
327.282561	2102.287183
327.676750	2078.313976
328.070874	2080.345561
328.464933	2088.164390
328.858929	2096.555391
329.252859	2108.613831
329.646726	2122.524895
330.040528	2141.630868
330.434265	2158.919505
330.827938	2181.045129
331.221547	2199.004240
331.615091	2218.606767
332.008571	2242.395972
332.401986	2260.715525
332.795338	2280.726385
333.188625	2300.069292
333.581847	2316.750470
333.975006	2336.123624
334.368100	2355.895030
334.761129	2372.309027
335.154095	2390.293343
335.546996	2427.262645
335.939833	2494.428458
336.332606	2506.373472
336.725315	2519.712365
337.117960	2526.165042
337.510540	2535.148378
337.903056	2546.173382
338.295508	2550.344937
338.687896	2558.146122
339.080220	2565.065106
339.472480	2570.814542
339.864676	2573.468709
340.256807	2578.933320
340.648875	2580.536407
341.040879	2578.330902
341.432818	2581.032961
341.824694	2582.005903
342.216506	2580.266705
342.608253	2581.746284
342.999937	2578.787127
343.391557	2578.509863
343.783113	2573.546847
344.174605	2575.535582
344.566033	2570.214644
344.957397	2571.767320
345.348697	2572.107598
345.739934	2569.403019
346.131106	2567.918399
346.522215	2566.779098
346.913260	2567.452092
347.304241	2562.579817
347.695159	2561.599312
348.086012	2559.119065
348.476802	2556.290978
348.867528	2558.637635
349.258191	2553.518343
349.648789	2554.894578
350.039324	2553.230997
350.429796	2552.535318
350.820203	2552.326110
351.210548	2552.757129
351.600828	2549.475337
351.991045	2549.051881
352.381198	2550.231511
352.771288	2548.494833
353.161314	2549.228321
353.551276	2547.390820
353.941175	2546.659853
354.331010	2548.530121
354.720782	2553.982129
355.110490	2550.944834
355.500135	2549.886192
355.889717	2549.840821
356.279235	2551.668239
356.668689	2550.188661
357.058080	2549.954247
357.447408	2550.024823
357.836672	2549.114895
358.225873	2547.975594
358.615010	2550.544062
359.004084	2551.398538
359.393095	2551.879968
359.782043	2555.668395
360.170927	2555.446584
360.559748	2558.100752
360.948505	2552.371480
361.337199	2559.698798
361.725830	2555.890206
362.114398	2557.117727
362.502903	2558.733417
362.891344	2558.993036
363.279722	2557.198385
363.668037	2559.529919
364.056289	2560.351627
364.444478	2561.861452
364.832603	2560.822975
365.220665	2559.756771
365.608665	2561.841288
365.996601	2564.187945
366.384474	2561.889179
366.772284	2561.599312
367.160031	2564.082081
367.547715	2562.650393
367.935336	2562.829354
368.322893	2567.946125
368.710388	2564.787842
369.097820	2565.503686
369.485189	2566.668193
369.872495	2566.685837
370.259738	2565.617112
370.646918	2562.305074
371.034035	2566.549726
371.421090	2568.566187
371.808081	2564.213151
372.195010	2567.217678
372.581875	2568.223389
372.968678	2566.401012
373.355418	2569.271949
373.742096	2566.658110
374.128710	2570.055848
374.515262	2568.944274
374.901751	2568.356979
375.288177	2569.450910
375.674540	2568.009140
376.060841	2570.469223
376.447079	2570.943091
376.833254	2571.621126
377.219367	2566.058213
377.605417	2570.784295
377.991404	2567.497462
378.377329	2568.707339
378.763191	2569.307237
379.148991	2572.941909
379.534727	2572.712536
379.920402	2574.910479
380.306013	2574.287897
380.691563	2575.603638
381.077049	2575.288566
381.462474	2575.545665
381.847835	2573.521641
382.233134	2576.979873
382.618371	2574.870150
383.003545	2575.908628
383.388657	2575.616241
383.773706	2575.470047
384.158693	2578.033474
384.543618	2576.931982
384.928480	2581.388362
385.313280	2578.315779
385.698017	2576.760583
386.082692	2575.195304
386.467305	2577.748649
386.851856	2578.446849
387.236344	2580.400296
387.620770	2578.560275
388.005133	2582.162179
388.389435	2581.995821
388.773674	2579.215625
389.157851	2581.254771
389.541965	2581.544638
389.926018	2579.651684
390.310008	2578.736715
390.693936	2582.197467
391.077802	2580.889288
391.461606	2583.785431
391.845348	2582.555389
392.229027	2583.490523
392.612645	2583.457756
392.996200	2586.490010
393.379694	2584.453383
393.763125	2585.411203
394.146494	2583.823239
394.529801	2586.865576
394.913047	2586.835329
395.296230	2588.055288
395.679351	2585.000349
396.062410	2585.370873
396.445408	2585.149063
396.828343	2585.363312
397.211217	2584.660071
397.594028	2584.423137
397.976778	2585.680904
398.359466	2583.790472
398.742092	2582.510019
399.124656	2588.700556
399.507158	2591.563931
399.889598	2590.202819
400.271977	2589.000504
400.654294	2587.341965
401.036549	2589.993612
401.418742	2591.175762
401.800874	2589.393714
402.182944	2591.700042
402.564952	2589.736513
402.946898	2588.151070
403.328783	2592.536874
403.710606	2588.766091
404.092367	2591.863880
404.474067	2594.129878
404.855705	2590.434712
405.237282	2592.927563
405.618797	2591.465628
406.000250	2593.900506
406.381642	2596.411000
406.762972	2597.295723
407.144240	2593.535022
407.525447	2592.917481
407.906593	2594.873448
408.287677	2595.795980
408.668700	2593.918150
409.049661	2595.647266
409.430560	2594.104672
409.811399	2596.761361
410.192176	2596.950404
410.572891	2597.179776
410.953545	2597.235229
411.334138	2597.572986
411.714669	2597.237750
412.095139	2596.665579
412.475547	2597.507451
412.855894	2596.678182
413.236180	2597.525095
413.616405	2600.227154
413.996568	2599.458378
414.376670	2598.969386
414.756711	2596.607605
415.136691	2600.128851
415.516609	2600.310333
415.896466	2600.055755
416.276262	2603.229161
416.655997	2598.082143
417.035670	2600.244798
417.415283	2597.729262
417.794834	2598.571135
418.174324	2597.782194
418.553753	2599.841506
418.933121	2601.129520
419.312428	2602.228492
419.691674	2602.634305
420.070859	2601.978955
420.449983	2602.157916
420.829045	2605.303596
421.208047	2600.917792
421.586988	2607.216714
421.965867	2607.912393
422.344686	2603.062803
422.723444	2605.941302
423.102141	2605.958946
423.480777	2608.303082
423.859352	2606.926847
424.237866	2608.882815
424.616319	2604.053390
424.994712	2608.449276
425.373044	2608.502208
425.751314	2610.012033
426.129524	2605.001127
426.507673	2609.565891
426.885762	2607.073041
427.263789	2607.010026
427.641756	2610.480861
428.019662	2606.800818
428.397508	2611.204266
428.775292	2610.606890
429.153016	2609.722167
429.530679	2612.479678
429.908282	2612.867847
430.285824	2610.740480
430.663305	2609.631426
431.040726	2610.067486
431.418086	2612.192332
431.795385	2611.778958
432.172624	2612.822477
432.549802	2614.649895
432.926920	2614.947323
433.303977	2613.737446
433.680974	2613.160234
434.057910	2615.567385
434.434786	2614.170985
434.811601	2616.041253
435.188355	2617.518312
435.565050	2617.369597
435.941683	2616.492437
436.318257	2618.143415
436.694770	2615.834566
437.071222	2613.107302
437.447614	2615.146449
437.823946	2614.332302
438.200218	2616.618466
438.576429	2618.425719
438.952580	2620.457304
439.328670	2620.217849
439.704700	2617.377159
440.080670	2617.195678
440.456580	2616.285749
440.832429	2622.037706
441.208218	2619.360853
441.583947	2619.547376
441.959616	2618.639968
442.335224	2617.493106
442.710773	2620.185082
443.086261	2622.314969
443.461689	2621.606687
443.837057	2623.066101
444.212365	2622.456122
444.587612	2625.347223
444.962800	2623.187089
445.337927	2626.262193
445.712995	2621.034516
446.088002	2626.027779
446.462949	2628.147584
446.837837	2628.818058
447.212664	2627.303191
447.587431	2631.769653
447.962139	2632.873666
448.336786	2634.789305
448.711374	2635.772330
449.085901	2631.777215
449.460369	2632.997174
449.834776	2632.661938
450.209124	2637.657721
450.583412	2638.234933
450.957640	2638.199645
451.331808	2637.698050
451.705917	2637.693009
452.079965	2639.318781
452.453954	2638.721405
452.827883	2639.502783
453.201752	2638.529841
453.575562	2642.280459
453.949311	2642.832466
454.323001	2647.429998
454.696632	2645.058135
455.070202	2649.317910
455.443713	2652.307314
455.817164	2650.701707
456.190556	2652.884526
456.563888	2653.270175
456.937160	2655.064825
457.310373	2658.308808
457.683526	2657.300577
458.056619	2658.482728
458.429653	2658.505413
458.802628	2662.923984
459.175542	2662.649241
459.548398	2669.326250
459.921194	2672.655932
460.293930	2678.591890
460.666607	2686.435926
461.039224	2686.763601
461.411782	2688.575896
461.784280	2691.809796
462.156719	2690.083201
462.529099	2692.346679
462.901419	2691.063705
463.273680	2690.279806
463.645882	2691.232584
464.018024	2695.643593
464.390106	2701.163657
464.762130	2709.509287
465.134094	2723.601832
465.505999	2741.450038
465.877845	2759.963675
466.249631	2764.987185
466.621358	2763.585744
466.993026	2767.056579
467.364634	2759.792276
467.736184	2754.962851
468.107674	2752.769949
468.479105	2751.938158
468.850477	2755.237593
469.221790	2753.384969
469.593043	2749.261306
469.964238	2749.893970
470.335373	2752.225504
470.706449	2764.251177
471.077467	2779.687190
471.448425	2804.192238
471.819324	2819.426605
472.190164	2816.333857
472.560945	2804.948412
472.931667	2795.387863
473.302330	2797.064047
473.672934	2797.721917
474.043479	2808.489822
474.413965	2807.496715
474.784393	2810.715492
475.154761	2822.829384
475.525070	2828.871207
475.895321	2835.752382
476.265513	2843.916531
476.635645	2859.992770
477.005719	2871.927702
477.375734	2884.018910
477.745691	2901.728483
478.115588	2921.797317
478.485427	2952.286215
478.855207	2997.719614
479.224928	3040.592107
479.594591	3071.199473
479.964194	3078.108374
480.333739	3098.542691
480.703226	3120.247379
481.072653	3155.976557
481.442022	3189.585929
481.811333	3217.150959
482.180584	3227.931466
482.549777	3250.044488
482.918912	3273.410236
483.287988	3302.013743
483.657005	3316.837255
484.025964	3342.489167
484.394864	3375.511245
484.763706	3406.264804
485.132489	3426.230294
485.501213	3464.946355
485.869879	3511.718181
486.238487	3544.962070
486.607036	3597.584154
486.975527	3635.536481
487.343959	3687.795602
487.712333	3746.542689
488.080648	3799.807520
488.448905	3874.482132
488.817104	3930.328034
489.185244	4028.423847
489.553326	4177.624357
489.921350	4370.385477
490.289315	4585.143672
490.657222	4699.207340
491.025070	4804.512002
491.392861	4849.153940
491.760593	4879.350452
492.128267	4891.703799
492.495883	4907.162497
492.863440	4939.516623
493.230939	4970.741530
493.598380	5014.077809
493.965763	5103.853197
494.333088	5167.699411
494.700354	5247.079940
495.067563	5350.562225
495.434713	5456.053411
495.801805	5586.059727
496.168839	5681.264438
496.535815	5784.968534
496.902733	5916.761940
497.269593	6020.680285
497.636395	6146.000849
498.003139	6314.055275
498.369825	6408.052629
498.736453	6581.337252
499.103023	6683.150915
499.469535	6816.905330
499.835989	6977.584547
500.202385	7097.017043
500.568723	7258.994357
500.935003	7451.415200
501.301226	7594.490708
501.667390	7842.379366
502.033497	8047.960140
502.399546	8144.236096
502.765537	8212.609266
503.131470	8451.242365
503.497345	8694.861166
503.863163	8670.978700
504.228923	8949.598232
504.594625	9209.452068
504.960269	9280.529817
505.325856	9605.293551
505.691385	9686.057877
506.056856	9913.741590
506.422270	10200.003511
506.787625	10326.962450
507.152924	10575.133413
507.518164	10810.668723
507.883347	10849.528458
508.248472	11117.944694
508.613540	11448.601537
508.978550	11737.915877
509.343503	11921.227354
509.708398	12194.105012
510.073236	12555.654045
510.438016	12814.121564
510.802738	12916.900609
511.167403	13329.687930
511.532010	13635.822080
511.896561	13966.791474
512.261053	14461.585765
512.625488	14588.484210
512.989866	14808.666687
513.354186	15019.374314
513.718449	15263.938332
514.082655	15756.743887
514.446803	15908.061682
514.810894	16360.669077
515.174927	16590.278511
515.538904	16834.711458
515.902822	17339.683839
516.266684	17416.662258
516.630488	17864.251185
516.994235	18088.461543
517.357925	18589.280013
517.721558	18950.118244
518.085133	19360.821048
518.448651	19700.788902
518.812112	19883.192971
519.175516	20212.007272
519.538863	20646.496760
519.902152	20919.608832
520.265385	21424.140111
520.628560	21719.453424
520.991678	21911.680182
521.354739	22315.872336
521.717743	22768.472169
522.080690	22986.660869
522.443580	23564.235948
522.806413	23872.704152
523.169189	24147.293281
523.531908	24529.765623
523.894569	24731.031170
524.257174	25115.308246
524.619722	25575.119450
524.982213	25844.145666
525.344647	26079.149135
525.707025	26393.376857
526.069345	26909.006237
526.431608	27137.927553
526.793815	27608.128576
527.155964	27616.864895
527.518057	27996.055446
527.880093	28144.257808
528.242072	28740.885927
528.603995	28840.473921
528.965860	29103.259189
529.327669	29446.637383
529.689421	29653.906944
530.051117	29886.702388
530.412755	30252.319632
530.774337	30558.005119
531.135862	30690.204338
531.497331	31079.184809
531.858743	31265.226072
532.220098	31749.844794
532.581396	31804.332105
532.942638	31816.428354
533.303824	32291.995684
533.664953	32506.375792
534.026025	32546.326937
534.387040	33135.448778
534.747999	33338.471167
535.108902	33690.293294
535.469748	33562.799992
535.830537	33871.328690
536.191270	34262.907877
536.551947	34235.695728
536.912567	34680.973286
537.273131	35009.558214
537.633638	34828.789999
537.994089	35302.396321
538.354483	35200.547369
538.714821	35862.720571
539.075103	36343.606318
539.435328	36359.412856
539.795497	36463.968908
540.155609	36666.716553
540.515665	37255.616584
540.875665	37004.183995
541.235609	37452.743343
541.595496	37636.379975
541.955328	38396.926253
542.315102	38055.592247
542.674821	38056.907988
543.034483	38260.419369
543.394090	38438.835886
543.753640	38581.016589
544.113134	39619.642995
544.472571	38936.528840
544.831953	40186.858502
545.191278	39671.697950
545.550548	39598.039130
545.909761	40180.269714
546.268918	40510.243480
546.628019	40954.172529
546.987064	40715.796528
547.346053	40243.334549
547.704986	41175.529595
548.063863	40935.462287
548.422684	41245.689853
548.781449	41228.365928
549.140158	41745.174938
549.498811	41750.342121
549.857408	41390.512121
550.215949	42286.123513
550.574434	42340.525125
550.932864	42260.484205
551.291237	43058.309815
551.649555	42824.420442
552.007817	43186.438302
552.366022	42973.885612
552.724173	43261.990075
553.082267	43756.000467
553.440305	44129.731448
553.798288	43603.273670
554.156215	44021.805385
554.514086	44329.156974
554.871902	44200.998240
555.229661	44324.738402
555.587365	44286.859172
555.945014	44481.505684
556.302606	44518.069173
556.660143	44822.517057
557.017625	44999.302760
557.375050	44896.201082
557.732421	45312.650801
558.089735	45402.106076
558.446994	45411.036480
558.804197	45960.295397
559.161345	45981.127966
559.518437	45339.260532
559.875474	45722.877216
560.232455	45970.720503
560.589381	46222.563947
560.946251	46028.051026
561.303065	46749.306550
561.659825	46621.409957
562.016528	46386.963535
562.373177	46187.452310
562.729770	46720.163640
563.086307	46334.807758
563.442789	46836.586568
563.799216	46939.375694
564.155587	46795.082748
564.511904	46887.368631
564.868164	47043.977116
565.224370	47320.590269
565.580520	47122.359497
565.936615	47404.343999
566.292654	47163.646547
566.648638	47468.651478
567.004567	47485.829210
567.360441	47579.035103
567.716260	47482.476842
568.072023	47817.408583
568.427732	47832.995831
568.783385	47422.197245
569.138982	47866.113691
569.494525	47860.507928
569.850013	47653.964293
570.205445	47676.246193
570.560823	47655.471598
570.916145	47580.885207
571.271412	47645.906009
571.626625	47420.478212
571.981782	47509.878034
572.336884	47234.076507
572.691931	47573.063856
573.046923	47216.618991
573.401860	47087.540247
573.756743	47093.340095
574.111570	47219.013539
574.466342	47102.862834
574.821059	47254.047038
575.175722	46793.116698
575.530330	46828.656832
575.884882	46556.837817
576.239380	46558.738332
576.593823	46538.639252
576.948211	46485.969276
577.302544	46030.395162
577.656823	46068.004690
578.011047	46299.391131
578.365216	46049.526341
578.719330	45845.672162
579.073389	45729.211426
579.427394	45800.621890
579.781344	45790.784079
580.135239	45451.317820
580.489080	45541.677982
580.842866	45041.585438
581.196597	45485.625392
581.550273	45452.084075
581.903895	45335.328432
582.257463	45747.793119
582.610975	45118.337005
582.964434	45431.422906
583.317837	45069.843626
583.671186	44914.228248
584.024481	45143.658721
584.377721	44663.912274
584.730906	44955.215349
585.084037	45016.914031
585.437113	44723.965019
585.790135	44749.027116
586.143103	44367.991502
586.496016	44496.296429
586.848874	44515.112536
587.201679	44527.390266
587.554428	44005.174619
587.907124	44205.545361
588.259765	43971.197242
588.612352	44217.923914
588.964884	43605.937919
589.317362	43883.982760
589.669786	43822.609232
590.022155	43599.092032
590.374470	44020.371177
590.726731	43553.149477
591.078937	43071.068976
591.431090	43188.313611
591.783188	42821.622601
592.135232	42505.176771
592.487222	42779.818833
592.839157	42846.888864
593.191038	42498.295596
593.542866	42266.742797
593.894639	41658.139417
594.246358	41952.930970
594.598022	41926.858123
594.949633	41528.579243
595.301190	41486.697336
595.652692	41329.496515
596.004141	41637.846252
596.355535	40666.975474
596.706876	40621.887394
597.058162	40436.206574
597.409395	40909.495303
597.760573	40992.071924
598.111698	40588.139390
598.462768	40592.152148
598.813785	40614.149223
599.164748	40069.066902
599.515657	40464.863013
599.866511	39958.925252
600.217312	40576.771588
600.568060	39552.600690
600.918753	40300.506275
601.269392	40246.850754
601.619978	39895.066435
601.970510	40097.093196
602.320988	40279.782091
602.671412	40591.534607
603.021783	40354.015602
603.372100	40005.039207
603.722363	40094.963309
604.072572	40168.967447
604.422728	40201.046830
604.772830	40007.383343
605.122878	40108.826482
605.472872	40041.978261
605.822813	40312.723511
606.172701	40124.486826
606.522534	40400.298436
606.872314	40640.663172
607.222041	40405.926884
607.571714	40794.761162
607.921333	40236.745761
608.270899	40516.882680
608.620411	40867.341175
608.969870	40660.628661
609.319276	40666.499085
609.668627	40725.841027
610.017926	41193.513911
610.367171	41353.041224
610.716362	41421.411873
611.065500	41368.484799
611.414585	41569.730181
611.763616	41863.513504
612.112594	41793.290231
612.461518	42015.274920
612.810389	42320.834378
613.159207	42194.245964
613.507971	42255.392639
613.856682	42728.630957
614.205340	42611.451856
614.553945	43314.281964
614.902496	42771.243830
615.250994	43244.310748
615.599439	43306.304338
615.947830	43490.371988
616.296169	43568.623299
616.644454	43690.205847
616.992686	43851.268192
617.340864	44374.600455
617.688990	44087.224439
618.037063	44686.584864
618.385082	44641.103574
618.733048	44917.988949
619.080961	44952.719978
619.428821	44968.042565
619.776628	45080.036839
620.124382	44918.593887
620.472083	45035.513368
620.819731	45178.480491
621.167326	44837.204458
621.514868	44835.883676
621.862357	44390.157456
622.209793	44426.559628
622.557176	44083.418368
622.904506	43831.358155
623.251783	43486.533149
623.599007	43262.736166
623.946179	43043.680387
624.293297	42992.101821
624.640363	42407.582553
624.987376	42380.292267
625.334336	42133.442087
625.681243	41794.071610
626.028097	41757.382092
626.374899	41606.908691
626.721647	41589.672986
627.068343	41476.289874
627.414987	41244.442168
627.761577	41003.109530
628.108115	41349.847653
628.454600	40784.905707
628.801032	40979.322846
629.147412	40922.120873
629.493739	40933.017327
629.840014	40582.203431
630.186236	40916.915882
630.532405	40498.968940
630.878521	40725.215924
631.224585	40597.725144
631.570597	40288.742742
631.916556	40456.071241
632.262462	40413.460888
632.608316	40421.884656
632.954117	40308.350310
633.299866	40307.783180
633.645562	40208.570752
633.991206	39744.083878
634.336797	39295.154004
634.682336	39285.830390
635.027823	39057.350174
635.373257	38872.236485
635.718639	38624.166345
636.063968	38494.805296
636.409245	37916.426154
636.754470	37950.663150
637.099642	37719.191009
637.444762	37237.861640
637.789829	37370.902731
638.134845	37041.838893
638.479808	36974.161403
638.824719	36883.405510
639.169577	36480.889540
639.514383	36566.374907
639.859137	36239.630000
640.203839	36490.220716
640.548489	36123.179346
640.893086	36206.469290
641.237632	35951.742306
641.582125	36058.496301
641.926566	35991.728739
642.270955	35943.434485
642.615292	35971.856510
642.959576	35937.322086
643.303809	35940.268640
643.647990	36090.984017
643.992118	36041.580709
644.336195	36041.179937
644.680219	36127.930633
645.024192	36438.745494
645.368112	36949.699204
645.711981	36945.978832
646.055797	37823.235384
646.399562	37746.463652
646.743274	38693.794762
647.086935	39135.785487
647.430544	39018.026654
647.774101	39130.454467
648.117606	39380.871264
648.461059	39688.263181
648.804460	39275.228844
649.147810	38663.739403
649.491108	38417.960468
649.834354	38042.346615
650.177548	37212.434060
650.520690	36762.586697
650.863781	36788.949411
651.206820	36623.690305
651.549807	36186.171084
651.892742	35690.071134
652.235626	35498.156927
652.578458	35376.193772
652.921238	34760.840286
653.263967	35102.648161
653.606644	34770.635248
653.949269	34713.203903
654.291843	34297.033968
654.634365	34700.994228
654.976836	34298.939524
655.319255	34307.839681
655.661622	34300.504802
656.003938	34073.486521
656.346203	33937.292188
656.688416	34168.252652
657.030577	33955.889005
657.372687	33780.643374
657.714746	34063.235335
658.056753	34195.351374
658.398708	33634.628873
658.740612	33696.108265
659.082465	33955.916731
659.424266	33787.605207
659.766016	33906.644493
660.107715	33784.446924
660.449362	33908.862601
660.790958	33883.238416
661.132503	33894.817947
661.473996	33942.585400
661.815438	34052.800146
662.156829	34245.977162
662.498168	33986.201463
662.839456	34028.325344
663.180693	34177.389743
663.521879	34352.002709
663.863013	34291.498781
664.204097	34296.262671
664.545129	34746.286475
664.886110	34696.220256
665.227040	34783.003719
665.567918	34893.367180
665.908746	34949.016477
666.249522	35106.439109
666.590248	35123.140452
666.930922	35215.693516
667.271545	35177.713462
667.612118	35260.012820
667.952639	35031.136873
668.293109	35103.409375
668.633528	34978.227443
668.973896	34914.711425
669.314213	34965.798478
669.654480	34685.323802
669.994695	34723.523145
670.334859	34597.942962
670.674973	34499.673229
671.015035	34649.231661
671.355047	34594.489771
671.695008	34540.249476
672.034918	34450.559788
672.374777	34526.290521
672.714585	34360.653329
673.054342	34572.404476
673.394049	34322.799305
673.733705	34604.622490
674.073310	34273.506903
674.412864	34333.342878
674.752368	33944.576656
675.091820	34252.427318
675.431223	33830.860828
675.770574	33543.094122
676.109875	33402.675302
676.449125	33122.825729
676.788324	33044.927299
677.127473	32497.271469
677.466571	32422.969902
677.805619	32074.752200
678.144616	32067.228278
678.483562	31996.127844
678.822458	31694.313963
679.161303	31581.407241
679.500098	31500.461433
679.838842	31397.513510
680.177535	31535.694058
680.516179	31820.095793
680.854771	32079.448035
681.193314	32945.848461
681.531805	34070.066098
681.870247	34807.773429
682.208638	35533.563471
682.546978	35729.538327
682.885268	35827.924006
683.223508	35307.293802
683.561697	34972.389787
683.899836	34771.020897
684.237925	34266.603043
684.575963	34107.688229
684.913951	33642.409894
685.251889	33781.669248
685.589776	33781.339053
685.927614	33776.917961
686.265401	33905.845471
686.603137	33985.432687
686.940824	34507.771843
687.278460	34874.336824
687.616046	34995.644630
687.953582	35590.268890
688.291068	35422.743786
688.628504	35716.789249
688.965889	35640.062888
689.303224	35272.512361
689.640510	34944.401301
689.977745	34198.784400
690.314930	33389.439753
690.652065	32902.902872
690.989150	32159.640190
691.326185	31247.642527
691.663170	30554.020087
692.000105	29794.522369
692.336990	29118.337280
692.673825	28659.493978
693.010610	28144.030956
693.347345	27558.112768
693.684030	26880.412812
694.020665	26600.991737
694.357251	25931.128255
694.693786	25877.749997
695.030272	25655.924105
695.366707	25099.199238
695.703093	24798.741428
696.039429	24795.512569
696.375716	24527.585324
696.711952	24496.035263
697.048139	24322.712832
697.384276	24138.493947
697.720363	24263.663277
698.056400	24061.011412
698.392388	23838.968750
698.728326	23799.113388
699.064214	23597.643674
699.400053	23538.417678
699.735842	23169.266585
700.071581	22898.785996
700.407270	22607.127520
700.742910	22412.765833
701.078501	22136.621508
701.414042	21862.569261
701.749533	21558.007952
702.084974	21198.518230
702.420366	21417.470665
702.755709	20968.409721
703.091002	20656.400107
703.426246	20686.831032
703.761440	20576.086964
704.096584	20312.477468
704.431679	20263.129613
704.766725	20166.475570
705.101721	20095.879252
705.436668	20198.512103
705.771565	19859.791935
706.106413	20213.910308
706.441212	20209.234637
706.775961	20340.801191
707.110661	20407.719988
707.445311	20745.378993
707.779913	20582.670711
708.114465	20839.913230
708.448967	21113.892380
708.783421	21798.392852
709.117825	22078.504566
709.452180	22288.831587
709.786485	22687.753214
710.120742	23471.889571
710.454949	23482.564214
710.789107	23953.597027
711.123216	24649.982019
711.457275	24758.437403
711.791286	25285.860563
712.125247	25358.261614
712.459159	25055.956221
712.793023	25716.992642
713.126837	24605.095585
713.460602	24886.223091
713.794318	24510.105123
714.127985	24142.567199
714.461602	23236.021544
714.795171	23201.519887
715.128691	22188.557995
715.462162	21647.475830
715.795584	21215.574974
716.128957	20966.846964
716.462281	20563.708411
716.795556	20321.816206
717.128782	19824.987809
717.461960	19265.812942
717.795088	19185.600622
718.128167	18776.140463
718.461198	18315.510072
718.794180	18180.802879
719.127113	17809.965520
719.459997	17612.760623
719.792833	17249.280827
720.125619	17220.810911
720.458357	16900.097744
720.791046	16723.390179
721.123686	16552.411884
721.456278	16314.608054
721.788821	16281.197807
722.121315	16009.840057
722.453761	16087.791419
722.786158	16015.445821
723.118506	16019.251892
723.450805	15881.865326
723.783056	16030.289498
724.115259	15932.891885
724.447412	15861.816657
724.779518	16097.493120
725.111574	16125.647964
725.443582	16330.167576
725.775542	16314.217365
726.107453	16781.476874
726.439315	16646.431924
726.771129	17052.128862
727.102895	17427.175585
727.434612	17619.286396
727.766281	17742.623266
728.097901	17996.226072
728.429473	18031.201598
728.760996	18020.481584
729.092471	18117.107900
729.423897	17997.345208
729.755276	17861.483592
730.086606	17988.992016
730.417887	18514.086163
730.749120	19025.440644
731.080305	19196.544967
731.411442	19516.731333
731.742530	19598.065310
732.073570	19697.602892
732.404562	19983.827005
732.735506	19784.066242
733.066401	19495.664352
733.397249	18962.900090
733.728048	18340.022682
734.058798	17503.352461
734.389501	16814.942574
734.720156	16364.525560
735.050762	15824.597818
735.381320	15478.973790
735.711831	15233.215019
736.042293	14881.481113
736.372707	14895.661878
736.703073	14683.610783
737.033391	14870.637591
737.363661	14832.355068
737.693883	14928.598257
738.024056	15092.796200
738.354182	15259.406334
738.684260	15542.260435
739.014290	15759.629948
739.344272	15933.406083
739.674207	16209.782301
740.004093	16320.546534
740.333931	16316.294320
740.663722	16353.984507
740.993464	16359.960795
741.323159	16182.650811
741.652806	15904.706794
741.982405	15693.081676
742.311956	15357.522312
742.641460	15251.126239
742.970915	14945.594507
743.300323	14612.598569
743.629683	14402.521086
743.958996	14129.650990
744.288260	13857.653013
744.617477	13552.123802
744.946647	13485.573010
745.275768	13214.245507
745.604842	13025.121579
745.933869	12853.195548
746.262847	12796.540540
746.591778	12730.559398
746.920662	12627.064510
747.249498	12622.729117
747.578286	12737.743043
747.907027	12887.316598
748.235720	13099.813835
748.564365	13127.247794
748.892963	13025.867670
749.221514	13078.709045
749.550017	12933.622116
749.878473	12895.034604
750.206881	12669.795850
750.535242	12573.078793
750.863555	12486.023107
751.191821	12382.175338
751.520039	12400.358780
751.848210	12312.801500
752.176334	12334.690190
752.504411	12252.922674
752.832440	12081.795666
753.160421	12143.786735
753.488356	12020.152437
753.816243	11937.343923
754.144082	11790.401850
754.471875	11720.594472
754.799620	11666.641523
755.127318	11642.023048
755.454969	11606.505599
755.782572	11556.376365
756.110129	11569.579147
756.437638	11479.869294
756.765100	11472.335289
757.092515	11476.020373
757.419882	11495.388486
757.747203	11493.533341
758.074477	11561.616644
758.401703	11518.187104
758.728882	11684.421673
759.056014	11715.830582
759.383099	11832.855927
759.710138	11935.458531
760.037129	12013.533402
760.364073	12027.557892
760.690970	12007.438647
761.017820	12010.475942
761.344623	12208.842825
761.671379	12551.048951
761.998088	13221.477042
762.324751	14840.438559
762.651366	17760.688241
762.977935	21336.179538
763.304456	23438.494448
763.630931	23826.436442
763.957359	22620.826855
764.283740	20734.064123
764.610074	18872.429022
764.936362	16767.714524
765.262602	15261.783238
765.588796	13804.950271
765.914943	12797.836117
766.241044	11945.810541
766.567097	11313.952318
766.893104	10771.662796
767.219064	10414.300441
767.544978	10039.374706
767.870845	9720.557013
768.196665	9535.511379
768.522438	9340.416204
768.848165	9175.401595
769.173846	9003.566304
769.499479	8883.181030
769.825066	8728.127740
770.150607	8548.085451
770.476101	8480.239082
770.801548	8370.664562
771.126949	8237.285714
771.452303	8142.842217
771.777611	7983.982857
772.102872	7967.795712
772.428087	7844.269798
772.753256	7717.804892
773.078378	7629.383054
773.403453	7487.068760
773.728482	7381.224694
774.053465	7315.427554
774.378401	7229.359934
774.703291	7135.992724
775.028135	7030.695623
775.352932	6999.737897
775.677683	6911.152221
776.002388	6823.478994
776.327046	6828.179870
776.651658	6737.197126
776.976224	6662.285579
777.300743	6647.656151
777.625216	6583.179793
777.949643	6540.821498
778.274024	6546.283588
778.598359	6476.261961
778.922647	6476.259441
779.246889	6437.684532
779.571086	6447.771880
779.895236	6451.572910
780.219339	6443.562517
780.543397	6446.299863
780.867409	6494.440362
781.191374	6488.854764
781.515294	6460.193283
781.839167	6505.467886
782.162995	6474.507640
782.486776	6431.022647
782.810511	6387.918261
783.134201	6313.651982
783.457844	6305.442463
783.781441	6252.996819
784.104993	6207.704572
784.428498	6188.081881
784.751958	6165.190002
785.075372	6141.620087
785.398739	6106.425271
785.722061	6132.104909
786.045337	6129.090299
786.368568	6238.500981
786.691752	6260.883704
787.014891	6518.710997
787.337983	6798.868081
787.661030	7232.573670
787.984031	7650.235787
788.306987	7899.354486
788.629897	7974.586146
788.952760	7886.832260
789.275579	7707.878860
789.598351	7410.246617
789.921078	7146.929507
790.243759	6876.484206
790.566395	6672.486354
790.888984	6483.145657
791.211529	6352.289906
791.534027	6190.952818
791.856480	6055.313012
792.178888	5987.741386
792.501249	5923.365852
792.823566	5817.778884
793.145836	5820.301982
793.468062	5790.498680
793.790241	5756.975007
794.112375	5797.846162
794.434464	5894.724536
794.756507	5925.314258
795.078505	6045.938987
795.400457	6260.677017
795.722364	6488.988354
796.044226	6680.532036
796.366042	6835.691189
796.687812	6776.477796
797.009538	6802.898484
797.331218	6718.378498
797.652852	6652.067161
797.974442	6525.254415
798.295986	6457.329908
798.617484	6329.428273
798.938938	6228.567388
799.260346	6160.877294
799.581709	6026.011306
799.903026	5969.275640
800.224299	5895.359721
800.545526	5782.422752
800.866708	5716.842381
801.187845	5670.494013
801.508936	5593.699596
801.829983	5566.003497
802.150984	5458.871416
802.471940	5431.046767
802.792851	5412.931381
803.113717	5392.081168
803.434538	5362.935737
803.755314	5330.740408
804.076045	5319.428059
804.396731	5285.614520
804.717372	5298.005676
805.037967	5301.622704
805.358518	5324.983411
805.679024	5384.945415
805.999485	5387.476074
806.319901	5404.149691
806.640272	5419.799953
806.960598	5468.053877
807.280879	5461.495336
807.601115	5491.238144
807.921306	5456.739007
808.241453	5448.892452
808.561554	5463.998269
808.881611	5434.174803
809.201623	5431.712199
809.521590	5379.773191
809.841513	5370.308425
810.161390	5384.446341
810.481223	5299.926355
810.801011	5285.846413
811.120755	5265.999390
811.440453	5212.210278
811.760107	5189.492319
812.079716	5157.060055
812.399281	5107.089618
812.718801	5101.929997
813.038276	5063.478596
813.357707	5035.089338
813.677093	5053.701278
813.996434	4996.721116
814.315731	5015.668293
814.634983	5011.915154
814.954191	5020.089385
815.273354	5079.814455
815.592473	5120.085713
815.911547	5195.529100
816.230577	5245.658334
816.549562	5340.021172
816.868502	5388.575046
817.187399	5442.984219
817.506250	5532.454618
817.825058	5554.406322
818.143821	5712.297781
818.462539	5884.034769
818.781213	6119.882631
819.099843	6482.298743
819.418429	7116.906916
819.736970	7736.389106
820.055466	8439.186446
820.373919	9374.335608
820.692327	10888.468851
821.010691	13725.012694
821.329011	20109.840727
821.647286	29579.650748
821.965517	39488.111729
822.283704	44394.636521
822.601847	45550.295834
822.919945	41002.423933
823.237999	36051.141257
823.556010	31029.627747
823.873976	26485.622410
824.191897	22423.500970
824.509775	19425.907385
824.827609	16743.716111
825.145398	15242.563839
825.463144	14554.305187
825.780845	14907.432973
826.098502	16215.511573
826.416116	18622.397874
826.733685	20733.192003
827.051210	21072.449054
827.368692	19574.361804
827.686129	17074.461174
828.003522	14677.440411
828.320872	12530.216383
828.638177	10941.501789
828.955439	9730.092355
829.272656	8690.117440
829.589830	7864.666307
829.906960	7151.985785
830.224046	6629.230734
830.541088	6230.903962
830.858086	5976.406352
831.175041	5780.761692
831.491952	5728.038784
831.808819	5773.333551
832.125642	6032.683273
832.442421	6605.068483
832.759157	7745.387566
833.075849	9497.427982
833.392497	11270.167376
833.709101	12289.844085
834.025662	11966.567492
834.342179	10911.277551
834.658653	9639.328901
834.975083	8572.514883
835.291469	7699.878549
835.607811	6980.674774
835.924110	6470.583102
836.240366	5984.812476
836.556578	5541.364857
836.872746	5195.690417
837.188871	4928.632772
837.504952	4712.989854
837.820990	4552.597983
838.136984	4431.922842
838.452935	4394.535125
838.768842	4435.252524
839.084706	4740.030603
839.400526	5493.113453
839.716303	6371.534511
840.032037	6884.572738
840.347727	6695.574839
840.663373	6098.306493
840.978977	5545.044899
841.294537	5118.515393
841.610054	4798.434891
841.925527	4561.770362
842.240957	4357.787634
842.556344	4176.611085
842.871687	4020.907487
843.186987	3872.891648
843.502244	3755.397475
843.817458	3670.267510
844.132629	3602.859722
844.447756	3550.613203
844.762840	3503.685102
845.077881	3464.205306
845.392879	3432.284720
845.707833	3405.594331
846.022745	3381.406874
846.337613	3366.916078
846.652438	3345.763396
846.967221	3332.616067
847.281960	3312.496822
847.596656	3303.586583
847.911309	3296.080304
848.225919	3281.004734
848.540485	3274.138682
848.855009	3265.500665
849.169490	3252.055908
849.483928	3242.644074
849.798323	3240.602406
850.112675	3229.784090
850.426984	3230.996488
850.741251	3221.456104
851.055474	3221.491392
851.369654	3220.462997
851.683792	3218.920404
851.997887	3220.483161
852.311938	3220.276474
852.625947	3221.050291
852.939914	3212.271122
853.253837	3220.848645
853.567718	3219.631206
853.881555	3211.530072
854.195350	3217.168603
854.509103	3212.719784
854.822812	3212.417315
855.136479	3208.855740
855.450103	3212.760114
855.763685	3205.397508
856.077224	3203.807024
856.390720	3213.249106
856.704173	3222.557596
857.017584	3229.257290
857.330953	3234.825244
857.644278	3241.537540
857.957561	3245.545258
858.270802	3243.067531
858.584000	3242.071903
858.897155	3235.896489
859.210268	3225.027762
859.523339	3211.867829
859.836367	3212.651729
860.149352	3207.386244
860.462295	3201.800645
860.775195	3193.076928
861.088054	3190.243800
861.400869	3189.497709
861.713642	3186.614169
862.026373	3193.157587
862.339062	3200.704194
862.651708	3208.500339
862.964312	3225.065570
863.276873	3237.696181
863.589392	3264.772218
863.901869	3287.041516
864.214303	3307.122952
864.526696	3326.959892
864.839045	3345.738190
865.151353	3359.646734
865.463619	3356.148173
865.775842	3361.708566
866.088023	3361.781663
866.400162	3358.525077
866.712258	3359.248483
867.024313	3360.798638
867.336325	3358.028523
867.648296	3357.378215
867.960224	3354.875282
868.272110	3360.067670
868.583954	3359.445088
868.895755	3367.546222
869.207515	3363.044472
869.519233	3384.401320
869.830909	3387.128584
870.142542	3398.156108
870.454134	3401.334556
870.765684	3417.307452
871.077191	3437.512396
871.388657	3449.273408
871.700081	3466.642704
872.011463	3487.097185
872.322803	3508.965711
872.634101	3523.005324
872.945357	3545.652708
873.256571	3571.700350
873.567744	3584.330961
873.878874	3590.597115
874.189963	3606.534723
874.501010	3607.787450
874.812015	3605.634877
875.122979	3619.616517
875.433900	3621.958133
875.744780	3621.658184
876.055618	3633.046151
876.366415	3629.950882
876.677169	3634.855925
876.987882	3651.741270
877.298554	3674.285310
877.609183	3711.456258
877.919771	3761.356119
878.230317	3829.348682
878.540822	3935.767439
878.851285	4092.817026
879.161707	4321.065348
879.472087	4705.823854
879.782425	5350.894941
880.092722	6560.721453
880.402977	8489.958427
880.713191	10786.352718
881.023363	13027.863967
881.333494	14226.599940
881.643583	14620.566113
881.953631	14184.319783
882.263637	13390.297723
882.573602	12397.606310
882.883526	11492.147024
883.193408	10581.122304
883.503248	9692.606335
883.813048	8894.911795
884.122806	8148.911766
884.432522	7402.420225
884.742197	6756.124138
885.051831	6213.975768
885.361424	5731.998610
885.670975	5349.324622
885.980485	5036.120254
886.289954	4774.970841
886.599382	4555.562181
886.908768	4382.554823
887.218113	4223.808888
887.527417	4092.640585
887.836680	3970.430413
888.145901	3874.484653
888.455082	3798.219557
888.764221	3730.474011
889.073319	3669.037469
889.382376	3637.633601
889.691392	3617.093420
890.000366	3607.386678
890.309300	3603.131944
890.618193	3606.025566
890.927044	3602.085905
891.235855	3608.533540
891.544625	3624.607259
891.853353	3655.401148
892.162041	3716.968760
892.470687	3807.028973
892.779293	3929.710493
893.087858	4104.381433
893.396381	4389.385586
893.704864	4805.202640
894.013306	5362.166961
894.321707	5909.364047
894.630068	6232.741463
894.938387	6244.590695
895.246665	6057.674793
895.554903	5752.745479
895.863100	5427.371766
896.171256	5170.051109
896.479371	4937.795069
896.787446	4719.591245
897.095480	4528.927245
897.403473	4390.575298
897.711425	4243.671034
898.019336	4125.672746
898.327207	4004.576669
898.635038	3904.172008
898.942827	3802.532264
899.250576	3718.160993
899.558284	3636.496821
899.865952	3583.312648
900.173579	3519.690766
900.481165	3475.820124
900.788711	3431.359668
901.096216	3401.629463
901.403681	3374.331615
901.711105	3363.815768
902.018489	3362.434492
902.325832	3395.537229
902.633135	3459.343113
902.940397	3642.271462
903.247619	4062.008014
903.554800	4814.289320
903.861941	5748.311784
904.169041	6395.290948
904.476101	6562.090126
904.783121	6282.414472
905.090100	5893.423918
905.397039	5497.688300
905.703938	5152.137369
906.010796	4839.298484
906.317614	4595.616669
906.624391	4364.217625
906.931129	4173.621681
907.237826	3997.750947
907.544483	3829.585616
907.851099	3660.162517
908.157675	3504.196779
908.464211	3367.735265
908.770707	3267.615429
909.077163	3190.962164
909.383578	3135.075933
909.689954	3089.327462
909.996289	3059.864438
910.302584	3043.062272
910.608839	3028.208513
910.915054	3018.819363
911.221229	3014.456245
911.527363	3015.933303
911.833458	3025.589633
912.139513	3038.996582
912.445527	3051.047460
912.751502	3081.727922
913.057436	3128.033441
913.363331	3189.696835
913.669186	3277.871657
913.975000	3396.437075
914.280775	3591.920418
914.586510	3860.825646
914.892205	4234.468408
915.197859	4725.607862
915.503475	5283.338439
915.809050	5748.122741
916.114585	6007.038923
916.420081	6054.690430
916.725536	5982.133103
917.030952	5754.409060
917.336328	5558.512342
917.641665	5352.772771
917.946961	5138.763188
918.252218	4943.869659
918.557435	4724.029981
918.862612	4530.716855
919.167750	4367.794324
919.472848	4178.728370
919.777906	4019.241385
920.082925	3863.305894
920.387904	3715.216959
920.692843	3605.692850
920.997743	3509.701719
921.302603	3418.456835
921.607423	3357.050540
921.912204	3291.719706
922.216946	3242.676841
922.521647	3195.584902
922.826310	3158.066115
923.130932	3119.758387
923.435516	3076.631316
923.740059	3052.844631
924.044564	3019.966226
924.349028	2997.906137
924.653454	2969.894965
924.957840	2942.491253
925.262186	2921.817481
925.566493	2901.050448
925.870761	2878.148486
926.174989	2864.731455
926.479178	2851.589167
926.783328	2837.499142
927.087438	2824.858449
927.391509	2811.529638
927.695541	2801.049079
927.999533	2789.968623
928.303486	2780.697941
928.607400	2775.586211
928.911275	2769.851898
929.215110	2762.534664
929.518906	2760.815630
929.822663	2759.996443
930.126381	2759.187337
930.430060	2764.314191
930.733699	2766.123965
931.037299	2767.691764
931.340861	2766.093718
931.644383	2770.862650
931.947866	2769.214192
932.251309	2765.261928
932.554714	2765.634973
932.858080	2766.817124
933.161407	2759.767070
933.464694	2757.306987
933.767943	2755.164497
934.071153	2752.764907
934.374323	2748.137128
934.677455	2742.826273
934.980548	2742.705285
935.283602	2737.286045
935.586617	2735.619943
935.889593	2739.746128
936.192530	2742.438104
936.495428	2746.844072
936.798287	2756.749940
937.101108	2768.344593
937.403890	2790.518109
937.706632	2816.785041
938.009336	2846.416943
938.312002	2876.200080
938.614628	2899.369223
938.917216	2918.142480
939.219765	2925.058943
939.522275	2933.500355
939.824747	2935.509255
940.127179	2929.671599
940.429573	2925.177410
940.731929	2920.048036
941.034246	2915.606780
941.336524	2912.735843
941.638763	2907.407343
941.940964	2900.904254
942.243126	2883.653426
942.545250	2877.329298
942.847335	2860.617873
943.149381	2847.528517
943.451389	2836.581652
943.753359	2821.422902
944.055290	2812.235399
944.357182	2806.289358
944.659036	2799.781229
944.960851	2797.474901
945.262628	2791.498613
945.564367	2791.780918
945.866067	2793.746968
946.167729	2790.276133
946.469352	2788.403345
946.770937	2784.516615
947.072484	2781.980915
947.373992	2780.856737
947.675462	2774.832558
947.976893	2770.794594
948.278286	2766.865015
948.579641	2766.920467
948.880958	2762.552308
949.182236	2760.951741
949.483476	2759.026021
949.784678	2758.685743
950.085841	2756.835639
950.386967	2763.016094
950.688054	2767.608585
950.989103	2774.867847
951.290114	2783.629372
951.591087	2791.624642
951.892021	2807.000161
952.192917	2818.151193
952.493776	2827.953717
952.794596	2832.001764
953.095378	2832.750375
953.396122	2829.957576
953.696828	2828.094869
953.997496	2822.869713
954.298126	2816.084320
954.598718	2805.760037
954.899272	2795.725621
955.199788	2785.557613
955.500266	2774.741818
955.800706	2761.962493
956.101108	2740.673700
956.401472	2732.320508
956.701798	2720.708210
957.002087	2707.177753
957.302337	2696.845908
957.602550	2689.349713
957.902724	2678.637261
958.202861	2672.850016
958.502960	2663.211330
958.803022	2655.084990
959.103045	2648.665081
959.403031	2643.225676
959.702979	2636.795684
960.002889	2631.449540
960.302762	2625.841257
960.602596	2625.362347
960.902393	2620.336317
961.202153	2616.714247
961.501875	2614.954885
961.801559	2614.173506
962.101205	2610.586725
962.400814	2608.108998
962.700385	2605.699326
962.999918	2603.211517
963.299414	2602.805704
963.598873	2603.506424
963.898293	2599.415528
964.197677	2598.949221
964.497022	2597.371340
964.796331	2595.433017
965.095601	2596.915116
965.394835	2596.295054
965.694030	2595.364961
965.993189	2596.373192
966.292309	2593.270362
966.591393	2592.806575
966.890439	2592.511668
967.189447	2594.409662
967.488419	2592.078129
967.787353	2595.344796
968.086249	2594.039138
968.385108	2597.346134
968.683930	2594.906216
968.982714	2596.471494
969.281462	2596.501741
969.580172	2603.140941
969.878844	2601.457195
970.177480	2602.505755
970.476078	2605.449789
970.774639	2611.907507
971.073162	2611.554627
971.371649	2611.756273
971.670098	2610.049842
971.968510	2614.909514
972.266885	2613.225769
972.565223	2620.268261
972.863524	2619.524691
973.161788	2619.184413
973.460014	2623.234980
973.758204	2624.948972
974.056356	2623.141719
974.354471	2625.185907
974.652550	2622.491410
974.950591	2624.470063
975.248595	2620.669033
975.546563	2621.407562
975.844493	2621.069804
976.142386	2617.223404
976.440243	2615.758949
976.738062	2617.064608
977.035845	2612.588063
977.333590	2608.484564
977.631299	2607.178905
977.928971	2607.269646
978.226606	2604.943153
978.524204	2604.872577
978.821765	2601.711774
979.119290	2603.801332
979.416777	2598.808069
979.714228	2603.105653
980.011642	2604.202104
980.309020	2609.976745
980.606360	2613.631582
980.903664	2618.753394
981.200931	2634.257463
981.498162	2651.094917
981.795356	2679.005265
982.092513	2715.785523
982.389633	2758.647934
982.686717	2797.116979
982.983764	2826.254848
983.280775	2840.390244
983.577749	2841.937878
983.874686	2832.946980
984.171587	2817.057263
984.468451	2799.947587
984.765279	2785.421502
985.062070	2768.074892
985.358824	2749.044536
985.655543	2727.821278
985.952224	2706.837475
986.248869	2685.168076
986.545478	2657.194713
986.842050	2639.096971
987.138586	2623.199692
987.435086	2607.781323
987.731549	2597.915785
988.027975	2591.720207
988.324366	2589.484455
988.620719	2582.716706
988.917037	2578.262847
989.213318	2576.284194
989.509563	2573.622464
989.805772	2575.848134
990.101944	2573.801425
990.398080	2571.212793
990.694180	2571.621126
990.990244	2571.928637
991.286271	2569.070302
991.582262	2572.362176
991.878217	2572.115159
992.174136	2572.198338
992.470019	2572.281517
992.765865	2575.192784
993.061676	2578.832497
993.357450	2582.757035
993.653188	2581.990780
993.948890	2587.886409
994.244556	2596.340424
994.540186	2603.082967
994.835780	2614.531428
995.131337	2629.470887
995.426859	2643.397075
995.722345	2659.821154
996.017795	2680.532735
996.313208	2693.987574
996.608586	2701.319932
996.903928	2704.090047
997.199234	2701.975282
997.494504	2698.819520
997.789738	2692.253417
998.084936	2682.765966
998.380099	2670.762978
998.675225	2661.010866
998.970316	2651.263795
999.265371	2637.609830
999.560390	2623.658437
999.855373	2614.407920
1000.150320	2605.598503
1000.445232	2598.714808
1000.740108	2588.508992
1001.034948	2584.634865
1001.329752	2581.264854
1001.624521	2575.959039
1001.919254	2569.274469
1002.213951	2565.957390
1002.508613	2563.739282
1002.803239	2564.341700
1003.097829	2555.335679
1003.392384	2560.820454
1003.686903	2559.618139
1003.981386	2559.051009
1004.275834	2558.672923
1004.570246	2556.573282
1004.864623	2556.835422
1005.158964	2554.203940
1005.453270	2555.597819
1005.747540	2552.081614
1006.041775	2554.047664
1006.335974	2551.378373
1006.630138	2550.410472
1006.924266	2553.843497
1007.218359	2549.863506
1007.512416	2552.706717
1007.806438	2553.175544
1008.100425	2550.286963
1008.394376	2552.084135
1008.688292	2550.952396
1008.982172	2548.479710
1009.276017	2550.060111
1009.569827	2549.785368
1009.863602	2550.067673
1010.157341	2548.182282
1010.451045	2552.411810
1010.744714	2546.377548
1011.038347	2547.753783
1011.331945	2549.349309
1011.625508	2548.099103
1011.919036	2546.874102
1012.212528	2547.960471
1012.505986	2547.169010
1012.799408	2546.473330
1013.092795	2546.213711
1013.386147	2546.324616
1013.679464	2547.095913
1013.972745	2546.828732
1014.265992	2545.089534
1014.559204	2545.107178
1014.852380	2545.618855
1015.145521	2547.723537
1015.438628	2546.208670
1015.731699	2545.245809
1016.024736	2544.968546
1016.317737	2547.930224
1016.610703	2550.226469
1016.903635	2544.729091
1017.196531	2542.853782
1017.489393	2545.823022
1017.782219	2542.896632
1018.075011	2549.001469
1018.367768	2548.638506
1018.660490	2548.038609
1018.953177	2548.038609
1019.245829	2548.038609
