Dividing Wavelength (nm)	Counts (n)	Blue Motor Position (mm): 8.300000	Red Motor Position (mm): 0.000000	
326.493990	2102.161154
326.888308	2102.161154
327.282561	2102.161154
327.676750	2104.681731
328.070874	2056.790769
328.464933	2029.064423
328.858929	2024.023269
329.252859	2094.599423
329.646726	2049.229038
330.040528	2127.366923
330.434265	2142.490385
330.827938	2124.846346
331.221547	2150.052115
331.615091	2137.449231
332.008571	2258.436923
332.401986	2205.504808
332.795338	2250.875192
333.188625	2273.560385
333.581847	2218.107692
333.975006	2258.436923
334.368100	2281.122115
334.761129	2318.930769
335.154095	2366.821731
335.546996	2323.971923
335.939833	2460.083077
336.332606	2354.218846
336.725315	2308.848462
337.117960	2442.439038
337.510540	2316.410192
337.903056	2480.247692
338.295508	2376.904038
338.687896	2349.177692
339.080220	2414.712692
339.472480	2432.356731
339.864676	2465.124231
340.256807	2462.603654
340.648875	2409.671538
341.040879	2492.850577
341.432818	2444.959615
341.824694	2533.179808
342.216506	2409.671538
342.608253	2495.371154
342.999937	2570.988462
343.391557	2447.480192
343.783113	2480.247692
344.174605	2490.330000
344.566033	2407.150962
344.957397	2525.618077
345.348697	2472.685962
345.739934	2515.535769
346.131106	2424.795000
346.522215	2467.644808
346.913260	2462.603654
347.304241	2409.671538
347.695159	2523.097500
348.086012	2371.862885
348.476802	2452.521346
348.867528	2540.741538
349.258191	2525.618077
349.648789	2429.836154
350.039324	2450.000769
350.429796	2404.630385
350.820203	2485.288846
351.210548	2518.056346
351.600828	2414.712692
351.991045	2409.671538
352.381198	2482.768269
352.771288	2447.480192
353.161314	2447.480192
353.551276	2472.685962
353.941175	2495.371154
354.331010	2485.288846
354.720782	2457.562500
355.110490	2502.932885
355.500135	2460.083077
355.889717	2442.439038
356.279235	2442.439038
356.668689	2467.644808
357.058080	2424.795000
357.447408	2364.301154
357.836672	2480.247692
358.225873	2424.795000
358.615010	2427.315577
359.004084	2447.480192
359.393095	2381.945192
359.782043	2429.836154
360.170927	2366.821731
360.559748	2472.685962
360.948505	2392.027500
361.337199	2545.782692
361.725830	2419.753846
362.114398	2376.904038
362.502903	2495.371154
362.891344	2414.712692
363.279722	2472.685962
363.668037	2439.918462
364.056289	2502.932885
364.444478	2371.862885
364.832603	2538.220962
365.220665	2490.330000
365.608665	2510.494615
365.996601	2450.000769
366.384474	2490.330000
366.772284	2477.727115
367.160031	2455.041923
367.547715	2480.247692
367.935336	2470.165385
368.322893	2439.918462
368.710388	2437.397885
369.097820	2467.644808
369.485189	2495.371154
369.872495	2404.630385
370.259738	2475.206538
370.646918	2351.698269
371.034035	2427.315577
371.421090	2381.945192
371.808081	2422.274423
372.195010	2462.603654
372.581875	2500.412308
372.968678	2467.644808
373.355418	2419.753846
373.742096	2434.877308
374.128710	2455.041923
374.515262	2500.412308
374.901751	2528.138654
375.288177	2419.753846
375.674540	2462.603654
376.060841	2518.056346
376.447079	2429.836154
376.833254	2402.109808
377.219367	2439.918462
377.605417	2429.836154
377.991404	2361.780577
378.377329	2485.288846
378.763191	2394.548077
379.148991	2530.659231
379.534727	2394.548077
379.920402	2439.918462
380.306013	2437.397885
380.691563	2502.932885
381.077049	2394.548077
381.462474	2422.274423
381.847835	2455.041923
382.233134	2462.603654
382.618371	2596.194231
383.003545	2507.974038
383.388657	2455.041923
383.773706	2502.932885
384.158693	2455.041923
384.543618	2457.562500
384.928480	2497.891731
385.313280	2386.986346
385.698017	2540.741538
386.082692	2477.727115
386.467305	2386.986346
386.851856	2422.274423
387.236344	2422.274423
387.620770	2565.947308
388.005133	2447.480192
388.389435	2462.603654
388.773674	2470.165385
389.157851	2510.494615
389.541965	2432.356731
389.926018	2513.015192
390.310008	2429.836154
390.693936	2429.836154
391.077802	2540.741538
391.461606	2404.630385
391.845348	2439.918462
392.229027	2480.247692
392.612645	2434.877308
392.996200	2495.371154
393.379694	2543.262115
393.763125	2505.453462
394.146494	2500.412308
394.529801	2487.809423
394.913047	2497.891731
395.296230	2505.453462
395.679351	2513.015192
396.062410	2465.124231
396.445408	2432.356731
396.828343	2497.891731
397.211217	2553.344423
397.594028	2550.823846
397.976778	2457.562500
398.359466	2485.288846
398.742092	2477.727115
399.124656	2434.877308
399.507158	2545.782692
399.889598	2422.274423
400.271977	2437.397885
400.654294	2467.644808
401.036549	2397.068654
401.418742	2563.426731
401.800874	2545.782692
402.182944	2437.397885
402.564952	2472.685962
402.946898	2442.439038
403.328783	2465.124231
403.710606	2472.685962
404.092367	2462.603654
404.474067	2475.206538
404.855705	2439.918462
405.237282	2472.685962
405.618797	2389.506923
406.000250	2505.453462
406.381642	2487.809423
406.762972	2490.330000
407.144240	2460.083077
407.525447	2515.535769
407.906593	2548.303269
408.287677	2492.850577
408.668700	2434.877308
409.049661	2404.630385
409.430560	2472.685962
409.811399	2492.850577
410.192176	2455.041923
410.572891	2477.727115
410.953545	2467.644808
411.334138	2419.753846
411.714669	2485.288846
412.095139	2528.138654
412.475547	2538.220962
412.855894	2528.138654
413.236180	2485.288846
413.616405	2437.397885
413.996568	2482.768269
414.376670	2502.932885
414.756711	2492.850577
415.136691	2427.315577
415.516609	2452.521346
415.896466	2404.630385
416.276262	2510.494615
416.655997	2495.371154
417.035670	2447.480192
417.415283	2525.618077
417.794834	2437.397885
418.174324	2470.165385
418.553753	2467.644808
418.933121	2442.439038
419.312428	2432.356731
419.691674	2492.850577
420.070859	2414.712692
420.449983	2528.138654
420.829045	2429.836154
421.208047	2455.041923
421.586988	2465.124231
421.965867	2497.891731
422.344686	2543.262115
422.723444	2470.165385
423.102141	2442.439038
423.480777	2492.850577
423.859352	2417.233269
424.237866	2530.659231
424.616319	2470.165385
424.994712	2450.000769
425.373044	2485.288846
425.751314	2442.439038
426.129524	2525.618077
426.507673	2450.000769
426.885762	2505.453462
427.263789	2402.109808
427.641756	2616.358846
428.019662	2402.109808
428.397508	2470.165385
428.775292	2482.768269
429.153016	2525.618077
429.530679	2497.891731
429.908282	2495.371154
430.285824	2470.165385
430.663305	2439.918462
431.040726	2573.509038
431.418086	2442.439038
431.795385	2366.821731
432.172624	2470.165385
432.549802	2414.712692
432.926920	2444.959615
433.303977	2470.165385
433.680974	2502.932885
434.057910	2475.206538
434.434786	2513.015192
434.811601	2502.932885
435.188355	2460.083077
435.565050	2510.494615
435.941683	2462.603654
436.318257	2550.823846
436.694770	2424.795000
437.071222	2450.000769
437.447614	2500.412308
437.823946	2450.000769
438.200218	2490.330000
438.576429	2422.274423
438.952580	2409.671538
439.328670	2490.330000
439.704700	2495.371154
440.080670	2540.741538
440.456580	2535.700385
440.832429	2500.412308
441.208218	2444.959615
441.583947	2376.904038
441.959616	2409.671538
442.335224	2497.891731
442.710773	2465.124231
443.086261	2467.644808
443.461689	2543.262115
443.837057	2455.041923
444.212365	2477.727115
444.587612	2386.986346
444.962800	2472.685962
445.337927	2545.782692
445.712995	2447.480192
446.088002	2513.015192
446.462949	2538.220962
446.837837	2525.618077
447.212664	2518.056346
447.587431	2447.480192
447.962139	2490.330000
448.336786	2507.974038
448.711374	2543.262115
449.085901	2452.521346
449.460369	2553.344423
449.834776	2495.371154
450.209124	2568.467885
450.583412	2576.029615
450.957640	2444.959615
451.331808	2490.330000
451.705917	2492.850577
452.079965	2548.303269
452.453954	2548.303269
452.827883	2502.932885
453.201752	2470.165385
453.575562	2475.206538
453.949311	2447.480192
454.323001	2518.056346
454.696632	2505.453462
455.070202	2465.124231
455.443713	2533.179808
455.817164	2457.562500
456.190556	2513.015192
456.563888	2467.644808
456.937160	2462.603654
457.310373	2444.959615
457.683526	2513.015192
458.056619	2570.988462
458.429653	2502.932885
458.802628	2520.576923
459.175542	2467.644808
459.548398	2490.330000
459.921194	2510.494615
460.293930	2455.041923
460.666607	2480.247692
461.039224	2467.644808
461.411782	2500.412308
461.784280	2545.782692
462.156719	2482.768269
462.529099	2470.165385
462.901419	2457.562500
463.273680	2495.371154
463.645882	2563.426731
464.018024	2475.206538
464.390106	2369.342308
464.762130	2442.439038
465.134094	2442.439038
465.505999	2530.659231
465.877845	2543.262115
466.249631	2555.865000
466.621358	2510.494615
466.993026	2525.618077
467.364634	2490.330000
467.736184	2475.206538
468.107674	2397.068654
468.479105	2434.877308
468.850477	2457.562500
469.221790	2490.330000
469.593043	2492.850577
469.964238	2573.509038
470.335373	2482.768269
470.706449	2457.562500
471.077467	2545.782692
471.448425	2470.165385
471.819324	2485.288846
472.190164	2505.453462
472.560945	2482.768269
472.931667	2507.974038
473.302330	2560.906154
473.672934	2477.727115
474.043479	2477.727115
474.413965	2500.412308
474.784393	2447.480192
475.154761	2490.330000
475.525070	2513.015192
475.895321	2422.274423
476.265513	2515.535769
476.635645	2452.521346
477.005719	2485.288846
477.375734	2450.000769
477.745691	2520.576923
478.115588	2472.685962
478.485427	2596.194231
478.855207	2482.768269
479.224928	2490.330000
479.594591	2444.959615
479.964194	2535.700385
480.333739	2457.562500
480.703226	2455.041923
481.072653	2505.453462
481.442022	2502.932885
481.811333	2472.685962
482.180584	2507.974038
482.549777	2497.891731
482.918912	2497.891731
483.287988	2470.165385
483.657005	2485.288846
484.025964	2422.274423
484.394864	2513.015192
484.763706	2407.150962
485.132489	2500.412308
485.501213	2563.426731
485.869879	2455.041923
486.238487	2460.083077
486.607036	2492.850577
486.975527	2485.288846
487.343959	2505.453462
487.712333	2487.809423
488.080648	2550.823846
488.448905	2520.576923
488.817104	2528.138654
489.185244	2507.974038
489.553326	2543.262115
489.921350	2520.576923
490.289315	2485.288846
490.657222	2442.439038
491.025070	2563.426731
491.392861	2480.247692
491.760593	2465.124231
492.128267	2412.192115
492.495883	2485.288846
492.863440	2525.618077
493.230939	2525.618077
493.598380	2467.644808
493.965763	2565.947308
494.333088	2548.303269
494.700354	2528.138654
495.067563	2588.632500
495.434713	2523.097500
495.801805	2422.274423
496.168839	2523.097500
496.535815	2462.603654
496.902733	2528.138654
497.269593	2450.000769
497.636395	2515.535769
498.003139	2540.741538
498.369825	2545.782692
498.736453	2538.220962
499.103023	2444.959615
499.469535	2462.603654
499.835989	2510.494615
500.202385	2568.467885
500.568723	2533.179808
500.935003	2457.562500
501.301226	2500.412308
501.667390	2515.535769
502.033497	2528.138654
502.399546	2515.535769
502.765537	2477.727115
503.131470	2475.206538
503.497345	2482.768269
503.863163	2442.439038
504.228923	2472.685962
504.594625	2487.809423
504.960269	2513.015192
505.325856	2485.288846
505.691385	2399.589231
506.056856	2570.988462
506.422270	2502.932885
506.787625	2465.124231
507.152924	2442.439038
507.518164	2500.412308
507.883347	2520.576923
508.248472	2586.111923
508.613540	2497.891731
508.978550	2480.247692
509.343503	2570.988462
509.708398	2500.412308
510.073236	2467.644808
510.438016	2482.768269
510.802738	2576.029615
511.167403	2424.795000
511.532010	2520.576923
511.896561	2482.768269
512.261053	2570.988462
512.625488	2533.179808
512.989866	2427.315577
513.354186	2550.823846
513.718449	2530.659231
514.082655	2495.371154
514.446803	2480.247692
514.810894	2482.768269
515.174927	2475.206538
515.538904	2444.959615
515.902822	2412.192115
516.266684	2439.918462
516.630488	2470.165385
516.994235	2447.480192
517.357925	2533.179808
517.721558	2480.247692
518.085133	2480.247692
518.448651	2535.700385
518.812112	2442.439038
519.175516	2525.618077
519.538863	2475.206538
519.902152	2490.330000
520.265385	2462.603654
520.628560	2515.535769
520.991678	2452.521346
521.354739	2447.480192
521.717743	2485.288846
522.080690	2525.618077
522.443580	2528.138654
522.806413	2515.535769
523.169189	2548.303269
523.531908	2502.932885
523.894569	2507.974038
524.257174	2533.179808
524.619722	2482.768269
524.982213	2533.179808
525.344647	2505.453462
525.707025	2518.056346
526.069345	2399.589231
526.431608	2520.576923
526.793815	2455.041923
527.155964	2563.426731
527.518057	2457.562500
527.880093	2444.959615
528.242072	2530.659231
528.603995	2518.056346
528.965860	2384.465769
529.327669	2492.850577
529.689421	2507.974038
530.051117	2530.659231
530.412755	2548.303269
530.774337	2457.562500
531.135862	2424.795000
531.497331	2472.685962
531.858743	2485.288846
532.220098	2513.015192
532.581396	2447.480192
532.942638	2513.015192
533.303824	2520.576923
533.664953	2482.768269
534.026025	2455.041923
534.387040	2523.097500
534.747999	2515.535769
535.108902	2565.947308
535.469748	2510.494615
535.830537	2457.562500
536.191270	2555.865000
536.551947	2487.809423
536.912567	2518.056346
537.273131	2455.041923
537.633638	2487.809423
537.994089	2482.768269
538.354483	2553.344423
538.714821	2467.644808
539.075103	2583.591346
539.435328	2533.179808
539.795497	2535.700385
540.155609	2530.659231
540.515665	2462.603654
540.875665	2470.165385
541.235609	2485.288846
541.595496	2492.850577
541.955328	2460.083077
542.315102	2535.700385
542.674821	2591.153077
543.034483	2477.727115
543.394090	2495.371154
543.753640	2545.782692
544.113134	2518.056346
544.472571	2480.247692
544.831953	2457.562500
545.191278	2487.809423
545.550548	2497.891731
545.909761	2482.768269
546.268918	2460.083077
546.628019	2457.562500
546.987064	2376.904038
547.346053	2588.632500
547.704986	2515.535769
548.063863	2545.782692
548.422684	2386.986346
548.781449	2543.262115
549.140158	2543.262115
549.498811	2477.727115
549.857408	2578.550192
550.215949	2518.056346
550.574434	2485.288846
550.932864	2510.494615
551.291237	2487.809423
551.649555	2492.850577
552.007817	2437.397885
552.366022	2502.932885
552.724173	2515.535769
553.082267	2417.233269
553.440305	2550.823846
553.798288	2432.356731
554.156215	2510.494615
554.514086	2457.562500
554.871902	2442.439038
555.229661	2520.576923
555.587365	2495.371154
555.945014	2505.453462
556.302606	2507.974038
556.660143	2379.424615
557.017625	2570.988462
557.375050	2518.056346
557.732421	2492.850577
558.089735	2472.685962
558.446994	2515.535769
558.804197	2500.412308
559.161345	2487.809423
559.518437	2500.412308
559.875474	2490.330000
560.232455	2462.603654
560.589381	2520.576923
560.946251	2568.467885
561.303065	2495.371154
561.659825	2460.083077
562.016528	2540.741538
562.373177	2480.247692
562.729770	2497.891731
563.086307	2477.727115
563.442789	2545.782692
563.799216	2470.165385
564.155587	2500.412308
564.511904	2533.179808
564.868164	2502.932885
565.224370	2518.056346
565.580520	2495.371154
565.936615	2525.618077
566.292654	2475.206538
566.648638	2424.795000
567.004567	2462.603654
567.360441	2593.673654
567.716260	2487.809423
568.072023	2563.426731
568.427732	2608.797115
568.783385	2500.412308
569.138982	2490.330000
569.494525	2528.138654
569.850013	2510.494615
570.205445	2462.603654
570.560823	2510.494615
570.916145	2560.906154
571.271412	2543.262115
571.626625	2510.494615
571.981782	2510.494615
572.336884	2470.165385
572.691931	2495.371154
573.046923	2450.000769
573.401860	2399.589231
573.756743	2500.412308
574.111570	2475.206538
574.466342	2497.891731
574.821059	2470.165385
575.175722	2500.412308
575.530330	2475.206538
575.884882	2507.974038
576.239380	2583.591346
576.593823	2570.988462
576.948211	2465.124231
577.302544	2497.891731
577.656823	2507.974038
578.011047	2485.288846
578.365216	2601.235385
578.719330	2528.138654
579.073389	2437.397885
579.427394	2467.644808
579.781344	2427.315577
580.135239	2565.947308
580.489080	2563.426731
580.842866	2497.891731
581.196597	2548.303269
581.550273	2452.521346
581.903895	2472.685962
582.257463	2530.659231
582.610975	2558.385577
582.964434	2472.685962
583.317837	2495.371154
583.671186	2530.659231
584.024481	2555.865000
584.377721	2553.344423
584.730906	2525.618077
585.084037	2492.850577
585.437113	2540.741538
585.790135	2558.385577
586.143103	2460.083077
586.496016	2487.809423
586.848874	2485.288846
587.201679	2429.836154
587.554428	2497.891731
587.907124	2444.959615
588.259765	2492.850577
588.612352	2487.809423
588.964884	2515.535769
589.317362	2477.727115
589.669786	2452.521346
590.022155	2510.494615
590.374470	2462.603654
590.726731	2467.644808
591.078937	2482.768269
591.431090	2470.165385
591.783188	2359.260000
592.135232	2460.083077
592.487222	2462.603654
592.839157	2581.070769
593.191038	2414.712692
593.542866	2565.947308
593.894639	2404.630385
594.246358	2490.330000
594.598022	2495.371154
594.949633	2507.974038
595.301190	2457.562500
595.652692	2437.397885
596.004141	2495.371154
596.355535	2417.233269
596.706876	2497.891731
597.058162	2482.768269
597.409395	2482.768269
597.760573	2533.179808
598.111698	2492.850577
598.462768	2482.768269
598.813785	2485.288846
599.164748	2565.947308
599.515657	2520.576923
599.866511	2414.712692
600.217312	2364.301154
600.568060	2497.891731
600.918753	2482.768269
601.269392	2480.247692
601.619978	2442.439038
601.970510	2422.274423
602.320988	2518.056346
602.671412	2384.465769
603.021783	2429.836154
603.372100	2404.630385
603.722363	2465.124231
604.072572	2477.727115
604.422728	2477.727115
604.772830	2399.589231
605.122878	2563.426731
605.472872	2452.521346
605.822813	2447.480192
606.172701	2538.220962
606.522534	2560.906154
606.872314	2480.247692
607.222041	2455.041923
607.571714	2528.138654
607.921333	2397.068654
608.270899	2520.576923
608.620411	2500.412308
608.969870	2492.850577
609.319276	2492.850577
609.668627	2497.891731
610.017926	2470.165385
610.367171	2560.906154
610.716362	2485.288846
611.065500	2414.712692
611.414585	2467.644808
611.763616	2470.165385
612.112594	2545.782692
612.461518	2623.920577
612.810389	2472.685962
613.159207	2533.179808
613.507971	2510.494615
613.856682	2533.179808
614.205340	2424.795000
614.553945	2439.918462
614.902496	2505.453462
615.250994	2510.494615
615.599439	2540.741538
615.947830	2452.521346
616.296169	2460.083077
616.644454	2462.603654
616.992686	2525.618077
617.340864	2419.753846
617.688990	2455.041923
618.037063	2424.795000
618.385082	2475.206538
618.733048	2472.685962
619.080961	2510.494615
619.428821	2462.603654
619.776628	2427.315577
620.124382	2523.097500
620.472083	2465.124231
620.819731	2389.506923
621.167326	2465.124231
621.514868	2477.727115
621.862357	2530.659231
622.209793	2497.891731
622.557176	2470.165385
622.904506	2543.262115
623.251783	2558.385577
623.599007	2520.576923
623.946179	2437.397885
624.293297	2535.700385
624.640363	2510.494615
624.987376	2477.727115
625.334336	2550.823846
625.681243	2538.220962
626.028097	2492.850577
626.374899	2530.659231
626.721647	2482.768269
627.068343	2550.823846
627.414987	2482.768269
627.761577	2535.700385
628.108115	2480.247692
628.454600	2560.906154
628.801032	2470.165385
629.147412	2465.124231
629.493739	2548.303269
629.840014	2495.371154
630.186236	2611.317692
630.532405	2465.124231
630.878521	2477.727115
631.224585	2457.562500
631.570597	2482.768269
631.916556	2555.865000
632.262462	2457.562500
632.608316	2518.056346
632.954117	2573.509038
633.299866	2510.494615
633.645562	2452.521346
633.991206	2518.056346
634.336797	2523.097500
634.682336	2545.782692
635.027823	2576.029615
635.373257	2460.083077
635.718639	2538.220962
636.063968	2505.453462
636.409245	2513.015192
636.754470	2533.179808
637.099642	2560.906154
637.444762	2553.344423
637.789829	2603.755962
638.134845	2455.041923
638.479808	2465.124231
638.824719	2460.083077
639.169577	2470.165385
639.514383	2404.630385
639.859137	2568.467885
640.203839	2432.356731
640.548489	2460.083077
640.893086	2470.165385
641.237632	2502.932885
641.582125	2452.521346
641.926566	2444.959615
642.270955	2550.823846
642.615292	2424.795000
642.959576	2535.700385
643.303809	2515.535769
643.647990	2538.220962
643.992118	2444.959615
644.336195	2523.097500
644.680219	2452.521346
645.024192	2518.056346
645.368112	2487.809423
645.711981	2553.344423
646.055797	2490.330000
646.399562	2455.041923
646.743274	2513.015192
647.086935	2507.974038
647.430544	2570.988462
647.774101	2465.124231
648.117606	2492.850577
648.461059	2510.494615
648.804460	2518.056346
649.147810	2475.206538
649.491108	2523.097500
649.834354	2495.371154
650.177548	2500.412308
650.520690	2477.727115
650.863781	2553.344423
651.206820	2465.124231
651.549807	2467.644808
651.892742	2500.412308
652.235626	2563.426731
652.578458	2535.700385
652.921238	2513.015192
653.263967	2427.315577
653.606644	2470.165385
653.949269	2515.535769
654.291843	2507.974038
654.634365	2520.576923
654.976836	2573.509038
655.319255	2480.247692
655.661622	2543.262115
656.003938	2538.220962
656.346203	2465.124231
656.688416	2581.070769
657.030577	2465.124231
657.372687	2434.877308
657.714746	2553.344423
658.056753	2492.850577
658.398708	2500.412308
658.740612	2432.356731
659.082465	2558.385577
659.424266	2444.959615
659.766016	2439.918462
660.107715	2515.535769
660.449362	2434.877308
660.790958	2543.262115
661.132503	2442.439038
661.473996	2510.494615
661.815438	2487.809423
662.156829	2477.727115
662.498168	2560.906154
662.839456	2429.836154
663.180693	2535.700385
663.521879	2533.179808
663.863013	2613.838269
664.204097	2475.206538
664.545129	2505.453462
664.886110	2467.644808
665.227040	2515.535769
665.567918	2460.083077
665.908746	2523.097500
666.249522	2507.974038
666.590248	2513.015192
666.930922	2482.768269
667.271545	2495.371154
667.612118	2495.371154
667.952639	2507.974038
668.293109	2525.618077
668.633528	2540.741538
668.973896	2492.850577
669.314213	2523.097500
669.654480	2502.932885
669.994695	2507.974038
670.334859	2439.918462
670.674973	2455.041923
671.015035	2455.041923
671.355047	2455.041923
671.695008	2518.056346
672.034918	2540.741538
672.374777	2482.768269
672.714585	2538.220962
673.054342	2543.262115
673.394049	2492.850577
673.733705	2475.206538
674.073310	2495.371154
674.412864	2437.397885
674.752368	2565.947308
675.091820	2520.576923
675.431223	2543.262115
675.770574	2467.644808
676.109875	2482.768269
676.449125	2462.603654
676.788324	2399.589231
677.127473	2475.206538
677.466571	2482.768269
677.805619	2444.959615
678.144616	2500.412308
678.483562	2475.206538
678.822458	2513.015192
679.161303	2515.535769
679.500098	2492.850577
679.838842	2540.741538
680.177535	2467.644808
680.516179	2495.371154
680.854771	2457.562500
681.193314	2515.535769
681.531805	2419.753846
681.870247	2573.509038
682.208638	2558.385577
682.546978	2472.685962
682.885268	2502.932885
683.223508	2465.124231
683.561697	2515.535769
683.899836	2457.562500
684.237925	2520.576923
684.575963	2369.342308
684.913951	2497.891731
685.251889	2533.179808
685.589776	2472.685962
685.927614	2460.083077
686.265401	2470.165385
686.603137	2452.521346
686.940824	2450.000769
687.278460	2444.959615
687.616046	2525.618077
687.953582	2480.247692
688.291068	2510.494615
688.628504	2515.535769
688.965889	2482.768269
689.303224	2492.850577
689.640510	2515.535769
689.977745	2505.453462
690.314930	2528.138654
690.652065	2475.206538
690.989150	2500.412308
691.326185	2513.015192
691.663170	2472.685962
692.000105	2523.097500
692.336990	2538.220962
692.673825	2576.029615
693.010610	2475.206538
693.347345	2490.330000
693.684030	2505.453462
694.020665	2518.056346
694.357251	2497.891731
694.693786	2502.932885
695.030272	2530.659231
695.366707	2447.480192
695.703093	2543.262115
696.039429	2477.727115
696.375716	2414.712692
696.711952	2555.865000
697.048139	2558.385577
697.384276	2500.412308
697.720363	2472.685962
698.056400	2467.644808
698.392388	2553.344423
698.728326	2523.097500
699.064214	2439.918462
699.400053	2455.041923
699.735842	2482.768269
700.071581	2520.576923
700.407270	2510.494615
700.742910	2399.589231
701.078501	2548.303269
701.414042	2455.041923
701.749533	2500.412308
702.084974	2439.918462
702.420366	2490.330000
702.755709	2487.809423
703.091002	2528.138654
703.426246	2480.247692
703.761440	2444.959615
704.096584	2530.659231
704.431679	2507.974038
704.766725	2513.015192
705.101721	2439.918462
705.436668	2417.233269
705.771565	2475.206538
706.106413	2457.562500
706.441212	2490.330000
706.775961	2470.165385
707.110661	2507.974038
707.445311	2578.550192
707.779913	2472.685962
708.114465	2444.959615
708.448967	2500.412308
708.783421	2502.932885
709.117825	2437.397885
709.452180	2520.576923
709.786485	2533.179808
710.120742	2570.988462
710.454949	2480.247692
710.789107	2487.809423
711.123216	2424.795000
711.457275	2490.330000
711.791286	2540.741538
712.125247	2450.000769
712.459159	2518.056346
712.793023	2497.891731
713.126837	2510.494615
713.460602	2500.412308
713.794318	2520.576923
714.127985	2543.262115
714.461602	2518.056346
714.795171	2490.330000
715.128691	2525.618077
715.462162	2576.029615
715.795584	2520.576923
716.128957	2538.220962
716.462281	2455.041923
716.795556	2477.727115
717.128782	2467.644808
717.461960	2510.494615
717.795088	2528.138654
718.128167	2492.850577
718.461198	2452.521346
718.794180	2608.797115
719.127113	2510.494615
719.459997	2523.097500
719.792833	2540.741538
720.125619	2520.576923
720.458357	2427.315577
720.791046	2460.083077
721.123686	2450.000769
721.456278	2515.535769
721.788821	2429.836154
722.121315	2487.809423
722.453761	2429.836154
722.786158	2475.206538
723.118506	2507.974038
723.450805	2455.041923
723.783056	2497.891731
724.115259	2530.659231
724.447412	2548.303269
724.779518	2533.179808
725.111574	2457.562500
725.443582	2543.262115
725.775542	2455.041923
726.107453	2538.220962
726.439315	2535.700385
726.771129	2487.809423
727.102895	2409.671538
727.434612	2518.056346
727.766281	2472.685962
728.097901	2437.397885
728.429473	2397.068654
728.760996	2485.288846
729.092471	2497.891731
729.423897	2490.330000
729.755276	2422.274423
730.086606	2492.850577
730.417887	2407.150962
730.749120	2442.439038
731.080305	2565.947308
731.411442	2520.576923
731.742530	2455.041923
732.073570	2573.509038
732.404562	2540.741538
732.735506	2513.015192
733.066401	2510.494615
733.397249	2457.562500
733.728048	2560.906154
734.058798	2424.795000
734.389501	2490.330000
734.720156	2525.618077
735.050762	2543.262115
735.381320	2470.165385
735.711831	2477.727115
736.042293	2470.165385
736.372707	2558.385577
736.703073	2500.412308
737.033391	2530.659231
737.363661	2482.768269
737.693883	2500.412308
738.024056	2457.562500
738.354182	2601.235385
738.684260	2490.330000
739.014290	2601.235385
739.344272	2439.918462
739.674207	2497.891731
740.004093	2520.576923
740.333931	2545.782692
740.663722	2470.165385
740.993464	2586.111923
741.323159	2523.097500
741.652806	2490.330000
741.982405	2583.591346
742.311956	2500.412308
742.641460	2467.644808
742.970915	2535.700385
743.300323	2535.700385
743.629683	2480.247692
743.958996	2490.330000
744.288260	2578.550192
744.617477	2533.179808
744.946647	2447.480192
745.275768	2520.576923
745.604842	2444.959615
745.933869	2437.397885
746.262847	2560.906154
746.591778	2457.562500
746.920662	2450.000769
747.249498	2467.644808
747.578286	2543.262115
747.907027	2470.165385
748.235720	2513.015192
748.564365	2470.165385
748.892963	2417.233269
749.221514	2480.247692
749.550017	2515.535769
749.878473	2450.000769
750.206881	2470.165385
750.535242	2502.932885
750.863555	2560.906154
751.191821	2502.932885
751.520039	2505.453462
751.848210	2475.206538
752.176334	2500.412308
752.504411	2510.494615
752.832440	2450.000769
753.160421	2568.467885
753.488356	2568.467885
753.816243	2525.618077
754.144082	2369.342308
754.471875	2429.836154
754.799620	2452.521346
755.127318	2457.562500
755.454969	2492.850577
755.782572	2596.194231
756.110129	2470.165385
756.437638	2444.959615
756.765100	2462.603654
757.092515	2540.741538
757.419882	2447.480192
757.747203	2480.247692
758.074477	2376.904038
758.401703	2515.535769
758.728882	2429.836154
759.056014	2502.932885
759.383099	2525.618077
759.710138	2482.768269
760.037129	2442.439038
760.364073	2550.823846
760.690970	2490.330000
761.017820	2523.097500
761.344623	2480.247692
761.671379	2460.083077
761.998088	2500.412308
762.324751	2439.918462
762.651366	2626.441154
762.977935	2450.000769
763.304456	2470.165385
763.630931	2470.165385
763.957359	2500.412308
764.283740	2447.480192
764.610074	2465.124231
764.936362	2515.535769
765.262602	2500.412308
765.588796	2565.947308
765.914943	2507.974038
766.241044	2513.015192
766.567097	2538.220962
766.893104	2515.535769
767.219064	2548.303269
767.544978	2472.685962
767.870845	2475.206538
768.196665	2538.220962
768.522438	2437.397885
768.848165	2507.974038
769.173846	2414.712692
769.499479	2497.891731
769.825066	2432.356731
770.150607	2548.303269
770.476101	2507.974038
770.801548	2482.768269
771.126949	2437.397885
771.452303	2419.753846
771.777611	2482.768269
772.102872	2462.603654
772.428087	2560.906154
772.753256	2487.809423
773.078378	2495.371154
773.403453	2424.795000
773.728482	2414.712692
774.053465	2576.029615
774.378401	2462.603654
774.703291	2523.097500
775.028135	2518.056346
775.352932	2507.974038
775.677683	2573.509038
776.002388	2434.877308
776.327046	2434.877308
776.651658	2538.220962
776.976224	2482.768269
777.300743	2414.712692
777.625216	2538.220962
777.949643	2447.480192
778.274024	2497.891731
778.598359	2520.576923
778.922647	2507.974038
779.246889	2452.521346
779.571086	2548.303269
779.895236	2452.521346
780.219339	2520.576923
780.543397	2523.097500
780.867409	2475.206538
781.191374	2538.220962
781.515294	2560.906154
781.839167	2520.576923
782.162995	2565.947308
782.486776	2371.862885
782.810511	2447.480192
783.134201	2495.371154
783.457844	2465.124231
783.781441	2553.344423
784.104993	2570.988462
784.428498	2548.303269
784.751958	2477.727115
785.075372	2513.015192
785.398739	2444.959615
785.722061	2581.070769
786.045337	2457.562500
786.368568	2462.603654
786.691752	2510.494615
787.014891	2412.192115
787.337983	2515.535769
787.661030	2472.685962
787.984031	2540.741538
788.306987	2429.836154
788.629897	2465.124231
788.952760	2543.262115
789.275579	2495.371154
789.598351	2545.782692
789.921078	2490.330000
790.243759	2467.644808
790.566395	2419.753846
790.888984	2422.274423
791.211529	2543.262115
791.534027	2485.288846
791.856480	2563.426731
792.178888	2535.700385
792.501249	2465.124231
792.823566	2560.906154
793.145836	2442.439038
793.468062	2510.494615
793.790241	2518.056346
794.112375	2402.109808
794.434464	2641.564615
794.756507	2384.465769
795.078505	2434.877308
795.400457	2492.850577
795.722364	2530.659231
796.044226	2576.029615
796.366042	2472.685962
796.687812	2497.891731
797.009538	2555.865000
797.331218	2465.124231
797.652852	2472.685962
797.974442	2495.371154
798.295986	2533.179808
798.617484	2502.932885
798.938938	2497.891731
799.260346	2490.330000
799.581709	2497.891731
799.903026	2535.700385
800.224299	2550.823846
800.545526	2543.262115
800.866708	2530.659231
801.187845	2528.138654
801.508936	2507.974038
801.829983	2485.288846
802.150984	2611.317692
802.471940	2576.029615
802.792851	2502.932885
803.113717	2477.727115
803.434538	2457.562500
803.755314	2480.247692
804.076045	2507.974038
804.396731	2429.836154
804.717372	2492.850577
805.037967	2497.891731
805.358518	2520.576923
805.679024	2507.974038
805.999485	2455.041923
806.319901	2525.618077
806.640272	2462.603654
806.960598	2555.865000
807.280879	2487.809423
807.601115	2462.603654
807.921306	2452.521346
808.241453	2540.741538
808.561554	2442.439038
808.881611	2513.015192
809.201623	2450.000769
809.521590	2475.206538
809.841513	2540.741538
810.161390	2480.247692
810.481223	2404.630385
810.801011	2485.288846
811.120755	2497.891731
811.440453	2500.412308
811.760107	2404.630385
812.079716	2518.056346
812.399281	2497.891731
812.718801	2553.344423
813.038276	2535.700385
813.357707	2543.262115
813.677093	2513.015192
813.996434	2548.303269
814.315731	2505.453462
814.634983	2538.220962
814.954191	2510.494615
815.273354	2550.823846
815.592473	2457.562500
815.911547	2497.891731
816.230577	2467.644808
816.549562	2540.741538
816.868502	2515.535769
817.187399	2578.550192
817.506250	2558.385577
817.825058	2472.685962
818.143821	2530.659231
818.462539	2513.015192
818.781213	2578.550192
819.099843	2407.150962
819.418429	2530.659231
819.736970	2621.400000
820.055466	2475.206538
820.373919	2523.097500
820.692327	2457.562500
821.010691	2424.795000
821.329011	2490.330000
821.647286	2543.262115
821.965517	2450.000769
822.283704	2502.932885
822.601847	2397.068654
822.919945	2550.823846
823.237999	2500.412308
823.556010	2570.988462
823.873976	2525.618077
824.191897	2467.644808
824.509775	2510.494615
824.827609	2550.823846
825.145398	2520.576923
825.463144	2462.603654
825.780845	2482.768269
826.098502	2520.576923
826.416116	2505.453462
826.733685	2560.906154
827.051210	2394.548077
827.368692	2576.029615
827.686129	2470.165385
828.003522	2528.138654
828.320872	2465.124231
828.638177	2452.521346
828.955439	2533.179808
829.272656	2535.700385
829.589830	2502.932885
829.906960	2417.233269
830.224046	2565.947308
830.541088	2540.741538
830.858086	2513.015192
831.175041	2500.412308
831.491952	2538.220962
831.808819	2482.768269
832.125642	2490.330000
832.442421	2475.206538
832.759157	2515.535769
833.075849	2417.233269
833.392497	2510.494615
833.709101	2465.124231
834.025662	2432.356731
834.342179	2467.644808
834.658653	2578.550192
834.975083	2485.288846
835.291469	2507.974038
835.607811	2495.371154
835.924110	2513.015192
836.240366	2477.727115
836.556578	2558.385577
836.872746	2432.356731
837.188871	2437.397885
837.504952	2576.029615
837.820990	2492.850577
838.136984	2482.768269
838.452935	2429.836154
838.768842	2558.385577
839.084706	2477.727115
839.400526	2394.548077
839.716303	2480.247692
840.032037	2510.494615
840.347727	2462.603654
840.663373	2487.809423
840.978977	2502.932885
841.294537	2520.576923
841.610054	2485.288846
841.925527	2500.412308
842.240957	2497.891731
842.556344	2495.371154
842.871687	2510.494615
843.186987	2497.891731
843.502244	2535.700385
843.817458	2417.233269
844.132629	2467.644808
844.447756	2515.535769
844.762840	2618.879423
845.077881	2553.344423
845.392879	2553.344423
845.707833	2513.015192
846.022745	2523.097500
846.337613	2502.932885
846.652438	2439.918462
846.967221	2500.412308
847.281960	2419.753846
847.596656	2510.494615
847.911309	2485.288846
848.225919	2444.959615
848.540485	2394.548077
848.855009	2465.124231
849.169490	2480.247692
849.483928	2518.056346
849.798323	2497.891731
850.112675	2477.727115
850.426984	2417.233269
850.741251	2450.000769
851.055474	2457.562500
851.369654	2497.891731
851.683792	2477.727115
851.997887	2442.439038
852.311938	2500.412308
852.625947	2644.085192
852.939914	2497.891731
853.253837	2528.138654
853.567718	2444.959615
853.881555	2455.041923
854.195350	2434.877308
854.509103	2477.727115
854.822812	2452.521346
855.136479	2402.109808
855.450103	2553.344423
855.763685	2467.644808
856.077224	2523.097500
856.390720	2515.535769
856.704173	2485.288846
857.017584	2429.836154
857.330953	2507.974038
857.644278	2389.506923
857.957561	2477.727115
858.270802	2538.220962
858.584000	2439.918462
858.897155	2492.850577
859.210268	2540.741538
859.523339	2492.850577
859.836367	2482.768269
860.149352	2439.918462
860.462295	2470.165385
860.775195	2535.700385
861.088054	2444.959615
861.400869	2555.865000
861.713642	2450.000769
862.026373	2520.576923
862.339062	2492.850577
862.651708	2513.015192
862.964312	2447.480192
863.276873	2550.823846
863.589392	2465.124231
863.901869	2455.041923
864.214303	2525.618077
864.526696	2583.591346
864.839045	2419.753846
865.151353	2477.727115
865.463619	2447.480192
865.775842	2462.603654
866.088023	2500.412308
866.400162	2555.865000
866.712258	2437.397885
867.024313	2427.315577
867.336325	2434.877308
867.648296	2510.494615
867.960224	2533.179808
868.272110	2452.521346
868.583954	2543.262115
868.895755	2472.685962
869.207515	2570.988462
869.519233	2596.194231
869.830909	2480.247692
870.142542	2565.947308
870.454134	2520.576923
870.765684	2515.535769
871.077191	2432.356731
871.388657	2530.659231
871.700081	2513.015192
872.011463	2515.535769
872.322803	2462.603654
872.634101	2465.124231
872.945357	2470.165385
873.256571	2424.795000
873.567744	2482.768269
873.878874	2470.165385
874.189963	2528.138654
874.501010	2500.412308
874.812015	2543.262115
875.122979	2439.918462
875.433900	2495.371154
875.744780	2497.891731
876.055618	2555.865000
876.366415	2399.589231
876.677169	2505.453462
876.987882	2462.603654
877.298554	2492.850577
877.609183	2462.603654
877.919771	2540.741538
878.230317	2376.904038
878.540822	2490.330000
878.851285	2470.165385
879.161707	2455.041923
879.472087	2470.165385
879.782425	2422.274423
880.092722	2470.165385
880.402977	2409.671538
880.713191	2477.727115
881.023363	2444.959615
881.333494	2465.124231
881.643583	2505.453462
881.953631	2429.836154
882.263637	2492.850577
882.573602	2472.685962
882.883526	2533.179808
883.193408	2472.685962
883.503248	2545.782692
883.813048	2520.576923
884.122806	2475.206538
884.432522	2480.247692
884.742197	2475.206538
885.051831	2462.603654
885.361424	2495.371154
885.670975	2518.056346
885.980485	2495.371154
886.289954	2467.644808
886.599382	2455.041923
886.908768	2533.179808
887.218113	2538.220962
887.527417	2523.097500
887.836680	2432.356731
888.145901	2442.439038
888.455082	2485.288846
888.764221	2533.179808
889.073319	2450.000769
889.382376	2570.988462
889.691392	2616.358846
890.000366	2538.220962
890.309300	2450.000769
890.618193	2525.618077
890.927044	2470.165385
891.235855	2543.262115
891.544625	2442.439038
891.853353	2510.494615
892.162041	2452.521346
892.470687	2535.700385
892.779293	2490.330000
893.087858	2535.700385
893.396381	2505.453462
893.704864	2530.659231
894.013306	2477.727115
894.321707	2490.330000
894.630068	2487.809423
894.938387	2533.179808
895.246665	2520.576923
895.554903	2487.809423
895.863100	2434.877308
896.171256	2442.439038
896.479371	2339.095385
896.787446	2530.659231
897.095480	2467.644808
897.403473	2538.220962
897.711425	2540.741538
898.019336	2414.712692
898.327207	2520.576923
898.635038	2407.150962
898.942827	2548.303269
899.250576	2520.576923
899.558284	2518.056346
899.865952	2560.906154
900.173579	2548.303269
900.481165	2467.644808
900.788711	2666.770385
901.096216	2492.850577
901.403681	2349.177692
901.711105	2523.097500
902.018489	2568.467885
902.325832	2467.644808
902.633135	2520.576923
902.940397	2424.795000
903.247619	2450.000769
903.554800	2502.932885
903.861941	2462.603654
904.169041	2510.494615
904.476101	2467.644808
904.783121	2475.206538
905.090100	2369.342308
905.397039	2530.659231
905.703938	2465.124231
906.010796	2528.138654
906.317614	2528.138654
906.624391	2540.741538
906.931129	2379.424615
907.237826	2578.550192
907.544483	2422.274423
907.851099	2523.097500
908.157675	2439.918462
908.464211	2540.741538
908.770707	2502.932885
909.077163	2480.247692
909.383578	2424.795000
909.689954	2455.041923
909.996289	2480.247692
910.302584	2505.453462
910.608839	2419.753846
910.915054	2538.220962
911.221229	2513.015192
911.527363	2560.906154
911.833458	2497.891731
912.139513	2419.753846
912.445527	2477.727115
912.751502	2439.918462
913.057436	2470.165385
913.363331	2523.097500
913.669186	2409.671538
913.975000	2437.397885
914.280775	2434.877308
914.586510	2555.865000
914.892205	2550.823846
915.197859	2495.371154
915.503475	2477.727115
915.809050	2477.727115
916.114585	2472.685962
916.420081	2460.083077
916.725536	2528.138654
917.030952	2457.562500
917.336328	2492.850577
917.641665	2540.741538
917.946961	2439.918462
918.252218	2487.809423
918.557435	2417.233269
918.862612	2515.535769
919.167750	2520.576923
919.472848	2419.753846
919.777906	2497.891731
920.082925	2442.439038
920.387904	2477.727115
920.692843	2460.083077
920.997743	2460.083077
921.302603	2462.603654
921.607423	2480.247692
921.912204	2497.891731
922.216946	2505.453462
922.521647	2480.247692
922.826310	2520.576923
923.130932	2439.918462
923.435516	2457.562500
923.740059	2422.274423
924.044564	2485.288846
924.349028	2530.659231
924.653454	2419.753846
924.957840	2563.426731
925.262186	2460.083077
925.566493	2452.521346
925.870761	2369.342308
926.174989	2470.165385
926.479178	2586.111923
926.783328	2414.712692
927.087438	2530.659231
927.391509	2460.083077
927.695541	2525.618077
927.999533	2492.850577
928.303486	2457.562500
928.607400	2419.753846
928.911275	2510.494615
929.215110	2548.303269
929.518906	2460.083077
929.822663	2462.603654
930.126381	2530.659231
930.430060	2475.206538
930.733699	2543.262115
931.037299	2439.918462
931.340861	2535.700385
931.644383	2450.000769
931.947866	2507.974038
932.251309	2465.124231
932.554714	2444.959615
932.858080	2477.727115
933.161407	2460.083077
933.464694	2533.179808
933.767943	2518.056346
934.071153	2563.426731
934.374323	2558.385577
934.677455	2525.618077
934.980548	2490.330000
935.283602	2502.932885
935.586617	2434.877308
935.889593	2548.303269
936.192530	2417.233269
936.495428	2525.618077
936.798287	2510.494615
937.101108	2533.179808
937.403890	2477.727115
937.706632	2477.727115
938.009336	2487.809423
938.312002	2535.700385
938.614628	2419.753846
938.917216	2588.632500
939.219765	2452.521346
939.522275	2528.138654
939.824747	2482.768269
940.127179	2480.247692
940.429573	2548.303269
940.731929	2576.029615
941.034246	2462.603654
941.336524	2485.288846
941.638763	2434.877308
941.940964	2462.603654
942.243126	2407.150962
942.545250	2480.247692
942.847335	2613.838269
943.149381	2497.891731
943.451389	2500.412308
943.753359	2523.097500
944.055290	2444.959615
944.357182	2510.494615
944.659036	2452.521346
944.960851	2495.371154
945.262628	2490.330000
945.564367	2457.562500
945.866067	2510.494615
946.167729	2439.918462
946.469352	2492.850577
946.770937	2555.865000
947.072484	2558.385577
947.373992	2510.494615
947.675462	2495.371154
947.976893	2414.712692
948.278286	2437.397885
948.579641	2548.303269
948.880958	2455.041923
949.182236	2502.932885
949.483476	2558.385577
949.784678	2467.644808
950.085841	2548.303269
950.386967	2507.974038
950.688054	2434.877308
950.989103	2497.891731
951.290114	2497.891731
951.591087	2467.644808
951.892021	2507.974038
952.192917	2452.521346
952.493776	2492.850577
952.794596	2467.644808
953.095378	2472.685962
953.396122	2462.603654
953.696828	2490.330000
953.997496	2404.630385
954.298126	2497.891731
954.598718	2495.371154
954.899272	2500.412308
955.199788	2485.288846
955.500266	2487.809423
955.800706	2432.356731
956.101108	2497.891731
956.401472	2545.782692
956.701798	2432.356731
957.002087	2487.809423
957.302337	2515.535769
957.602550	2457.562500
957.902724	2467.644808
958.202861	2515.535769
958.502960	2467.644808
958.803022	2492.850577
959.103045	2472.685962
959.403031	2507.974038
959.702979	2386.986346
960.002889	2518.056346
960.302762	2429.836154
960.602596	2621.400000
960.902393	2482.768269
961.202153	2502.932885
961.501875	2523.097500
961.801559	2465.124231
962.101205	2535.700385
962.400814	2565.947308
962.700385	2535.700385
962.999918	2475.206538
963.299414	2407.150962
963.598873	2437.397885
963.898293	2487.809423
964.197677	2472.685962
964.497022	2528.138654
964.796331	2558.385577
965.095601	2507.974038
965.394835	2573.509038
965.694030	2480.247692
965.993189	2457.562500
966.292309	2513.015192
966.591393	2543.262115
966.890439	2480.247692
967.189447	2520.576923
967.488419	2472.685962
967.787353	2515.535769
968.086249	2384.465769
968.385108	2490.330000
968.683930	2500.412308
968.982714	2560.906154
969.281462	2437.397885
969.580172	2518.056346
969.878844	2495.371154
970.177480	2455.041923
970.476078	2515.535769
970.774639	2412.192115
971.073162	2507.974038
971.371649	2457.562500
971.670098	2492.850577
971.968510	2502.932885
972.266885	2450.000769
972.565223	2588.632500
972.863524	2487.809423
973.161788	2465.124231
973.460014	2510.494615
973.758204	2485.288846
974.056356	2457.562500
974.354471	2492.850577
974.652550	2482.768269
974.950591	2475.206538
975.248595	2563.426731
975.546563	2482.768269
975.844493	2500.412308
976.142386	2570.988462
976.440243	2492.850577
976.738062	2475.206538
977.035845	2444.959615
977.333590	2520.576923
977.631299	2475.206538
977.928971	2505.453462
978.226606	2487.809423
978.524204	2553.344423
978.821765	2480.247692
979.119290	2533.179808
979.416777	2523.097500
979.714228	2513.015192
980.011642	2550.823846
980.309020	2434.877308
980.606360	2555.865000
980.903664	2505.453462
981.200931	2530.659231
981.498162	2455.041923
981.795356	2528.138654
982.092513	2578.550192
982.389633	2492.850577
982.686717	2545.782692
982.983764	2417.233269
983.280775	2543.262115
983.577749	2412.192115
983.874686	2565.947308
984.171587	2507.974038
984.468451	2548.303269
984.765279	2399.589231
985.062070	2500.412308
985.358824	2462.603654
985.655543	2523.097500
985.952224	2447.480192
986.248869	2485.288846
986.545478	2495.371154
986.842050	2530.659231
987.138586	2500.412308
987.435086	2432.356731
987.731549	2482.768269
988.027975	2407.150962
988.324366	2555.865000
988.620719	2460.083077
988.917037	2510.494615
989.213318	2485.288846
989.509563	2497.891731
989.805772	2518.056346
990.101944	2450.000769
990.398080	2515.535769
990.694180	2472.685962
990.990244	2472.685962
991.286271	2502.932885
991.582262	2570.988462
991.878217	2502.932885
992.174136	2525.618077
992.470019	2450.000769
992.765865	2450.000769
993.061676	2460.083077
993.357450	2480.247692
993.653188	2553.344423
993.948890	2490.330000
994.244556	2475.206538
994.540186	2550.823846
994.835780	2510.494615
995.131337	2495.371154
995.426859	2470.165385
995.722345	2528.138654
996.017795	2429.836154
996.313208	2510.494615
996.608586	2462.603654
996.903928	2576.029615
997.199234	2422.274423
997.494504	2455.041923
997.789738	2480.247692
998.084936	2495.371154
998.380099	2507.974038
998.675225	2419.753846
998.970316	2507.974038
999.265371	2404.630385
999.560390	2523.097500
999.855373	2386.986346
1000.150320	2565.947308
1000.445232	2407.150962
1000.740108	2502.932885
1001.034948	2475.206538
1001.329752	2558.385577
1001.624521	2457.562500
1001.919254	2457.562500
1002.213951	2500.412308
1002.508613	2533.179808
1002.803239	2437.397885
1003.097829	2452.521346
1003.392384	2462.603654
1003.686903	2434.877308
1003.981386	2460.083077
1004.275834	2462.603654
1004.570246	2530.659231
1004.864623	2505.453462
1005.158964	2457.562500
1005.453270	2495.371154
1005.747540	2495.371154
1006.041775	2475.206538
1006.335974	2578.550192
1006.630138	2487.809423
1006.924266	2492.850577
1007.218359	2472.685962
1007.512416	2487.809423
1007.806438	2457.562500
1008.100425	2502.932885
1008.394376	2495.371154
1008.688292	2510.494615
1008.982172	2482.768269
1009.276017	2518.056346
1009.569827	2515.535769
1009.863602	2518.056346
1010.157341	2434.877308
1010.451045	2515.535769
1010.744714	2457.562500
1011.038347	2472.685962
1011.331945	2523.097500
1011.625508	2432.356731
1011.919036	2472.685962
1012.212528	2507.974038
1012.505986	2525.618077
1012.799408	2465.124231
1013.092795	2596.194231
1013.386147	2439.918462
1013.679464	2553.344423
1013.972745	2497.891731
1014.265992	2513.015192
1014.559204	2437.397885
1014.852380	2576.029615
1015.145521	2520.576923
1015.438628	2467.644808
1015.731699	2495.371154
1016.024736	2422.274423
1016.317737	2412.192115
1016.610703	2555.865000
1016.903635	2477.727115
1017.196531	2568.467885
1017.489393	2429.836154
1017.782219	2510.494615
1018.075011	2442.439038
1018.367768	2487.809423
1018.660490	2462.603654
1018.953177	2462.603654
1019.245829	2462.603654
