Dividing Wavelength (nm)	Counts (n)	Blue Motor Position (mm): 13.400000	Red Motor Position (mm): 0.000000	
326.493990	2063.939125
326.888308	2063.939125
327.282561	2063.939125
327.676750	2039.174457
328.070874	2038.882070
328.464933	2047.867927
328.858929	2055.492672
329.252859	2066.978941
329.646726	2077.905642
330.040528	2096.227716
330.434265	2111.744387
330.827938	2135.982255
331.221547	2154.400111
331.615091	2173.496001
332.008571	2193.685823
332.401986	2217.200285
332.795338	2234.017574
333.188625	2255.291243
333.581847	2275.460900
333.975006	2290.163425
334.368100	2307.885601
334.761129	2325.164156
335.154095	2341.560509
335.546996	2382.666077
335.939833	2456.569393
336.332606	2469.678913
336.725315	2480.716520
337.117960	2493.392501
337.510540	2502.217041
337.903056	2509.241889
338.295508	2514.363701
338.687896	2521.345699
339.080220	2525.779394
339.472480	2531.871628
339.864676	2536.040662
340.256807	2536.867412
340.648875	2540.502084
341.040879	2543.269677
341.432818	2542.750438
341.824694	2545.321427
342.216506	2542.299255
342.608253	2543.229348
342.999937	2538.256250
343.391557	2541.021323
343.783113	2543.456200
344.174605	2537.086702
344.566033	2535.909592
344.957397	2535.153419
345.348697	2532.000178
345.739934	2530.515558
346.131106	2530.268541
346.522215	2525.676050
346.913260	2527.367357
347.304241	2524.178828
347.695159	2522.106913
348.086012	2519.069618
348.476802	2518.983918
348.867528	2516.838908
349.258191	2509.642660
349.648789	2516.468383
350.039324	2509.294821
350.429796	2512.536283
350.820203	2511.913700
351.210548	2513.746160
351.600828	2512.427898
351.991045	2509.176354
352.381198	2512.561488
352.771288	2509.214162
353.161314	2509.930006
353.551276	2505.478667
353.941175	2508.457989
354.331010	2510.328257
354.720782	2510.776920
355.110490	2513.007631
355.500135	2511.454955
355.889717	2512.974863
356.279235	2510.892867
356.668689	2509.758607
357.058080	2509.251971
357.447408	2511.548217
357.836672	2513.549555
358.225873	2512.858917
358.615010	2512.775737
359.004084	2513.952847
359.393095	2514.419154
359.782043	2511.689369
360.170927	2515.533249
360.559748	2516.004597
360.948505	2516.186078
361.337199	2514.540141
361.725830	2517.590039
362.114398	2518.943589
362.502903	2517.012827
362.891344	2519.578775
363.279722	2515.500481
363.668037	2518.537776
364.056289	2517.705986
364.444478	2519.906450
364.832603	2519.309073
365.220665	2521.819568
365.608665	2521.088600
365.996601	2522.472397
366.384474	2521.988446
366.772284	2518.996521
367.160031	2521.859897
367.547715	2523.001718
367.935336	2519.117509
368.322893	2520.977695
368.710388	2516.919566
369.097820	2522.313601
369.485189	2519.886285
369.872495	2522.991636
370.259738	2522.495082
370.646918	2525.103879
371.034035	2524.758560
371.421090	2522.807634
371.808081	2523.173117
372.195010	2524.824095
372.581875	2525.867614
372.968678	2526.470032
373.355418	2526.812830
373.742096	2524.115813
374.128710	2525.408869
374.515262	2526.250742
374.901751	2525.328211
375.288177	2528.194107
375.674540	2526.487676
376.060841	2527.367357
376.447079	2527.327028
376.833254	2528.057995
377.219367	2526.432223
377.605417	2527.760567
377.991404	2529.335928
378.377329	2527.445495
378.763191	2527.170752
379.148991	2530.598737
379.534727	2530.475229
379.920402	2530.119827
380.306013	2532.438758
380.691563	2532.272400
381.077049	2532.106042
381.462474	2531.143182
381.847835	2530.097142
382.233134	2527.909281
382.618371	2532.063192
383.003545	2532.153933
383.388657	2531.972451
383.773706	2531.196114
384.158693	2530.321473
384.543618	2531.639735
384.928480	2534.440096
385.313280	2531.216278
385.698017	2531.236443
386.082692	2530.205527
386.467305	2535.546629
386.851856	2532.232071
387.236344	2535.125693
387.620770	2530.142513
388.005133	2529.459436
388.389435	2530.608819
388.773674	2527.327028
389.157851	2534.694674
389.541965	2534.626619
389.926018	2538.276414
390.310008	2536.418749
390.693936	2532.632842
391.077802	2533.540250
391.461606	2538.069727
391.845348	2536.159130
392.229027	2533.946063
392.612645	2533.827596
392.996200	2534.903882
393.379694	2534.724921
393.763125	2536.343132
394.146494	2535.690302
394.529801	2538.105015
394.913047	2534.303985
395.296230	2539.398071
395.679351	2535.397915
396.062410	2537.782381
396.445408	2537.585776
396.828343	2538.125180
397.211217	2539.322454
397.594028	2539.292207
397.976778	2537.812628
398.359466	2538.543595
398.742092	2538.019315
399.124656	2538.057124
399.507158	2536.065868
399.889598	2540.033256
400.271977	2541.444779
400.654294	2540.975952
401.036549	2540.562578
401.418742	2541.250695
401.800874	2540.174409
402.182944	2540.439069
402.564952	2543.115922
402.946898	2537.583256
403.328783	2540.355890
403.710606	2538.641898
404.092367	2541.215407
404.474067	2540.741538
404.855705	2541.505273
405.237282	2539.471168
405.618797	2544.020809
406.000250	2544.212373
406.381642	2542.657177
406.762972	2540.900335
407.144240	2539.992927
407.525447	2541.999306
407.906593	2537.684079
408.287677	2542.967208
408.668700	2543.655325
409.049661	2545.076931
409.430560	2541.417053
409.811399	2542.447969
410.192176	2542.984852
410.572891	2546.218752
410.953545	2543.564585
411.334138	2547.234545
411.714669	2544.882846
412.095139	2544.040974
412.475547	2545.114739
412.855894	2543.693134
413.236180	2544.814791
413.616405	2545.510470
413.996568	2544.429142
414.376670	2545.097095
414.756711	2545.318906
415.136691	2543.539379
415.516609	2543.378062
415.896466	2544.746735
416.276262	2544.628268
416.655997	2544.119112
417.035670	2546.924514
417.415283	2547.857127
417.794834	2547.216901
418.174324	2545.825542
418.553753	2547.713454
418.933121	2546.410316
419.312428	2548.295707
419.691674	2548.061294
420.070859	2549.024154
420.449983	2547.161448
420.829045	2544.736653
421.208047	2545.908721
421.586988	2547.191695
421.965867	2547.816798
422.344686	2548.479710
422.723444	2546.690100
423.102141	2549.709751
423.480777	2547.373176
423.859352	2546.816129
424.237866	2546.712785
424.616319	2547.516849
424.994712	2549.099772
425.373044	2548.071376
425.751314	2545.956612
426.129524	2546.178423
426.507673	2545.888557
426.885762	2539.922351
427.263789	2545.586087
427.641756	2548.394010
428.019662	2549.044319
428.397508	2547.141283
428.775292	2549.009031
429.153016	2547.383259
429.530679	2546.458207
429.908282	2545.535676
430.285824	2547.577343
430.663305	2549.195553
431.040726	2548.083979
431.418086	2547.055584
431.795385	2546.425439
432.172624	2547.950388
432.549802	2547.136242
432.926920	2547.625234
433.303977	2548.600697
433.680974	2549.803012
434.057910	2549.162786
434.434786	2546.748073
434.811601	2547.784030
435.188355	2547.819318
435.565050	2549.621531
435.941683	2546.680018
436.318257	2547.277394
436.694770	2547.544576
437.071222	2549.860986
437.447614	2549.364432
437.823946	2549.535831
438.200218	2547.925183
438.576429	2547.615152
438.952580	2548.232693
439.328670	2550.806202
439.704700	2547.640357
440.080670	2548.825029
440.456580	2549.959288
440.832429	2548.958619
441.208218	2551.217056
441.583947	2549.180430
441.959616	2548.731767
442.335224	2547.365615
442.710773	2548.451983
443.086261	2546.637168
443.461689	2549.586243
443.837057	2548.141952
444.212365	2547.995759
444.587612	2545.528114
444.962800	2546.095244
445.337927	2549.830739
445.712995	2545.036602
446.088002	2551.761501
446.462949	2547.632796
446.837837	2550.360060
447.212664	2549.480379
447.587431	2548.083979
447.962139	2551.595143
448.336786	2546.622044
448.711374	2548.822508
449.085901	2549.676984
449.460369	2548.099102
449.834776	2547.973074
450.209124	2549.180430
450.583412	2550.501212
450.957640	2549.656819
451.331808	2551.617828
451.705917	2551.602704
452.079965	2551.194371
452.453954	2550.791079
452.827883	2550.057591
453.201752	2551.806871
453.575562	2550.617159
453.949311	2551.310318
454.323001	2550.874258
454.696632	2549.775286
455.070202	2549.997097
455.443713	2550.075235
455.817164	2549.450132
456.190556	2549.795451
456.563888	2551.353167
456.937160	2548.930893
457.310373	2551.330482
457.683526	2551.232180
458.056619	2549.732436
458.429653	2551.411141
458.802628	2551.002807
459.175542	2550.002138
459.548398	2552.091696
459.921194	2552.273178
460.293930	2552.452139
460.666607	2548.141952
461.039224	2553.629248
461.411782	2552.631100
461.784280	2550.942313
462.156719	2552.066491
462.529099	2553.107489
462.901419	2551.358208
463.273680	2551.012889
463.645882	2548.441901
464.018024	2549.273691
464.390106	2547.496685
464.762130	2552.973898
465.134094	2553.939279
465.505999	2554.808878
465.877845	2553.445246
466.249631	2554.196378
466.621358	2554.876934
466.993026	2553.775442
467.364634	2555.257541
467.736184	2553.929197
468.107674	2552.996583
468.479105	2555.320555
468.850477	2549.898794
469.221790	2554.176213
469.593043	2553.407438
469.964238	2554.294681
470.335373	2553.016748
470.706449	2554.723179
471.077467	2552.474824
471.448425	2553.853580
471.819324	2556.966492
472.190164	2555.025648
472.560945	2553.936759
472.931667	2553.556152
473.302330	2553.241079
473.672934	2554.264434
474.043479	2554.965154
474.413965	2550.949875
474.784393	2553.730071
475.154761	2556.432130
475.525070	2555.756615
475.895321	2557.337017
476.265513	2550.508774
476.635645	2554.697973
477.005719	2554.829043
477.375734	2557.805844
477.745691	2555.731409
478.115588	2559.696277
478.485427	2555.330638
478.855207	2557.962120
479.224928	2557.331976
479.594591	2557.589075
479.964194	2558.188972
480.333739	2554.705535
480.703226	2558.982954
481.072653	2560.676781
481.442022	2560.603685
481.811333	2557.871379
482.180584	2558.050340
482.549777	2561.180897
482.918912	2557.578992
483.287988	2558.214178
483.657005	2558.574620
484.025964	2558.912377
484.394864	2558.501523
484.763706	2557.029507
485.132489	2559.451781
485.501213	2559.214847
485.869879	2558.380536
486.238487	2561.574107
486.607036	2559.111503
486.975527	2560.243242
487.343959	2560.341545
487.712333	2560.457491
488.080648	2559.086297
488.448905	2562.912533
488.817104	2558.867007
489.185244	2561.826164
489.553326	2562.494117
489.921350	2563.681309
490.289315	2562.695763
490.657222	2564.104766
491.025070	2562.957903
491.392861	2564.538305
491.760593	2568.387226
492.128267	2565.178532
492.495883	2564.601320
492.863440	2562.713407
493.230939	2566.098542
493.598380	2563.696432
493.965763	2560.805331
494.333088	2565.433110
494.700354	2561.090156
495.067563	2561.695094
495.434713	2566.151474
495.801805	2560.820454
496.168839	2565.435631
496.535815	2565.443192
496.902733	2565.980075
497.269593	2567.915878
497.636395	2566.043090
498.003139	2565.236505
498.369825	2567.436969
498.736453	2567.769685
499.103023	2566.045610
499.469535	2566.418656
499.835989	2568.334294
500.202385	2567.941084
500.568723	2565.738100
500.935003	2564.865980
501.301226	2563.212482
501.667390	2570.628019
502.033497	2570.416291
502.399546	2571.971487
502.765537	2572.163050
503.131470	2571.222875
503.497345	2571.802608
503.863163	2574.182032
504.228923	2571.422001
504.594625	2572.674727
504.960269	2572.231106
505.325856	2577.904925
505.691385	2576.478278
506.056856	2579.898701
506.422270	2577.889801
506.787625	2580.917014
507.152924	2579.359297
507.518164	2578.958526
507.883347	2579.361818
508.248472	2581.635378
508.613540	2579.371900
508.978550	2582.719227
509.343503	2583.152766
509.708398	2583.934145
510.073236	2584.861717
510.438016	2585.307859
510.802738	2586.053950
511.167403	2591.642069
511.532010	2589.396235
511.896561	2592.012594
512.261053	2592.899837
512.625488	2593.850094
512.989866	2595.801021
513.354186	2597.837647
513.718449	2595.501072
514.082655	2600.015425
514.446803	2597.620877
514.810894	2601.994078
515.174927	2601.936105
515.538904	2603.987855
515.902822	2603.481219
516.266684	2606.233689
516.630488	2607.103288
516.994235	2605.162443
517.357925	2610.001951
517.721558	2610.758124
518.085133	2612.547734
518.448651	2613.084617
518.812112	2609.858278
519.175516	2614.423043
519.538863	2614.085286
519.902152	2619.040740
520.265385	2622.365381
520.628560	2623.832357
520.991678	2623.565176
521.354739	2622.345216
521.717743	2628.823099
522.080690	2629.773357
522.443580	2631.537760
522.806413	2630.831999
523.169189	2632.858543
523.531908	2637.451034
523.894569	2637.486322
524.257174	2640.962197
524.619722	2641.236940
524.982213	2643.956643
525.344647	2645.569812
525.707025	2647.427477
526.069345	2648.697848
526.431608	2649.663229
526.793815	2651.412509
527.155964	2654.469969
527.518057	2650.842859
527.880093	2654.583395
528.242072	2658.076915
528.603995	2657.114054
528.965860	2661.262924
529.327669	2662.384581
529.689421	2663.397853
530.051117	2666.465395
530.412755	2668.784326
530.774337	2670.115190
531.135862	2670.914213
531.497331	2674.221210
531.858743	2673.510407
532.220098	2677.918896
532.581396	2678.470903
532.942638	2677.036694
533.303824	2682.226562
533.664953	2680.623475
534.026025	2684.336285
534.387040	2685.639423
534.747999	2688.495237
535.108902	2689.490865
535.469748	2690.035310
535.830537	2694.395908
536.191270	2697.745754
536.551947	2696.155270
536.912567	2694.491690
537.273131	2699.726928
537.633638	2697.297092
537.994089	2706.146837
538.354483	2704.309337
538.714821	2707.107177
539.075103	2711.513146
539.435328	2714.200081
539.795497	2711.619010
540.155609	2715.067159
540.515665	2718.401882
540.875665	2718.832901
541.235609	2721.202243
541.595496	2723.997563
541.955328	2727.173490
542.315102	2726.618963
542.674821	2727.367574
543.034483	2728.401011
543.394090	2731.150960
543.753640	2733.895869
544.113134	2737.737228
544.472571	2736.761765
544.831953	2745.729977
545.191278	2744.126890
545.550548	2742.445666
545.909761	2745.145203
546.268918	2750.947572
546.628019	2752.817840
546.987064	2752.951430
547.346053	2751.849938
547.704986	2758.358068
548.063863	2760.213212
548.422684	2760.866042
548.781449	2762.708583
549.140158	2769.221754
549.498811	2769.715787
549.857408	2767.359048
550.215949	2777.022940
550.574434	2776.256684
550.932864	2781.121398
551.291237	2788.156328
551.649555	2791.327214
552.007817	2793.691515
552.366022	2791.891823
552.724173	2796.512041
553.082267	2804.219965
553.440305	2811.322951
553.798288	2809.147693
554.156215	2816.961481
554.514086	2819.797130
554.871902	2820.487768
555.229661	2829.518995
555.587365	2829.645024
555.945014	2840.884277
556.302606	2843.939216
556.660143	2850.419619
557.017625	2856.156452
557.375050	2861.043851
557.732421	2872.174719
558.089735	2878.622354
558.446994	2888.739950
558.804197	2898.255128
559.161345	2901.433576
559.518437	2907.578742
559.875474	2916.274733
560.232455	2929.434665
560.589381	2933.097063
560.946251	2941.656942
561.303065	2959.653861
561.659825	2965.854481
562.016528	2974.434524
562.373177	2978.535503
562.729770	2998.223729
563.086307	3002.692712
563.442789	3020.152749
563.799216	3032.465767
564.155587	3044.148641
564.511904	3057.237997
564.868164	3068.709142
565.224370	3088.901484
565.580520	3100.186107
565.936615	3118.515743
566.292654	3128.797176
566.648638	3149.846514
567.004567	3168.980213
567.360441	3185.938655
567.716260	3201.467929
568.072023	3223.200343
568.427732	3239.238774
568.783385	3255.158738
569.138982	3279.888118
569.494525	3304.788898
569.850013	3317.336330
570.205445	3344.011595
570.560823	3363.775439
570.916145	3384.915518
571.271412	3412.243613
571.626625	3429.847322
571.981782	3455.864717
572.336884	3473.342397
572.691931	3506.548477
573.046923	3528.926159
573.401860	3549.005075
573.756743	3581.659149
574.111570	3616.266670
574.466342	3640.554950
574.821059	3673.662728
575.175722	3690.643854
575.530330	3727.151890
575.884882	3748.075199
576.239380	3778.274232
576.593823	3813.403512
576.948211	3846.158409
577.302544	3869.786297
577.656823	3903.138571
578.011047	3948.019964
578.365216	3977.031804
578.719330	4007.417359
579.073389	4044.179973
579.427394	4087.516252
579.781344	4125.287098
580.135239	4157.182478
580.489080	4199.165207
580.842866	4221.815112
581.196597	4283.322230
581.550273	4330.731761
581.903895	4374.519223
582.257463	4441.737969
582.610975	4462.608346
582.964434	4522.822408
583.317837	4552.842479
583.671186	4593.499385
584.024481	4655.606400
584.377721	4684.560267
584.730906	4743.077981
585.084037	4801.688956
585.437113	4837.473587
585.790135	4891.184560
586.143103	4922.631278
586.496016	4981.700998
586.848874	5042.872880
587.201679	5104.866469
587.554428	5125.978821
587.907124	5200.575295
588.259765	5244.037603
588.612352	5313.476977
588.964884	5333.455070
589.317362	5413.193521
589.669786	5472.099403
590.022155	5518.125138
590.374470	5610.481597
590.726731	5643.614581
591.078937	5652.048431
591.431090	5734.627572
591.783188	5762.099340
592.135232	5806.181710
592.487222	5889.663218
592.839157	5967.415454
593.191038	5998.826883
593.542866	6042.838677
593.894639	6054.587086
594.246358	6147.954297
594.598022	6210.797320
594.949633	6239.715899
595.301190	6297.873171
595.652692	6357.580597
596.004141	6470.688966
596.355535	6435.473986
596.706876	6496.731567
597.058162	6529.766248
597.409395	6645.251521
597.760573	6736.314924
598.111698	6763.511949
598.462768	6823.746175
598.813785	6890.637246
599.164748	6921.743686
599.515657	7020.353696
599.866511	7039.477313
600.217312	7189.134047
600.568060	7139.140925
600.918753	7310.325906
601.269392	7374.527521
601.619978	7411.292656
601.970510	7512.856783
602.320988	7612.336392
602.671412	7720.892599
603.021783	7784.731251
603.372100	7805.117677
603.722363	7900.014877
604.072572	7980.789286
604.422728	8060.442037
604.772830	8106.109850
605.122878	8208.198256
605.472872	8268.694623
605.822813	8393.241370
606.172701	8438.052186
606.522534	8570.080006
606.872314	8687.254065
607.222041	8749.696317
607.571714	8880.688179
607.921333	8890.036999
608.270899	9008.912448
608.620411	9161.493051
608.969870	9207.470895
609.319276	9311.666504
609.668627	9403.992716
610.017926	9563.338548
610.367171	9680.212659
610.716362	9789.724164
611.065500	9861.421975
611.414585	10005.273820
611.763616	10130.871648
612.112594	10211.734276
612.461518	10335.577782
612.810389	10504.673206
613.159207	10575.753475
613.507971	10665.859059
613.856682	10870.731551
614.205340	10943.286358
614.553945	11190.234841
614.902496	11158.604121
615.250994	11350.961949
615.599439	11469.807151
615.947830	11609.681526
616.296169	11727.697458
616.644454	11849.254801
616.992686	11993.225113
617.340864	12218.940256
617.688990	12226.353273
618.037063	12506.217970
618.385082	12593.006474
618.733048	12807.121922
619.080961	12896.378072
619.428821	13019.387267
619.776628	13135.464875
620.124382	13193.806149
620.472083	13349.640817
620.819731	13488.643073
621.167326	13482.762567
621.514868	13587.870624
621.862357	13553.316035
622.209793	13675.657277
622.557176	13668.566894
622.904506	13705.447976
623.251783	13706.030229
623.599007	13727.560997
623.946179	13805.456907
624.293297	13841.874202
624.640363	13793.748827
624.987376	13851.515409
625.334336	13893.767840
625.681243	13888.051171
626.028097	13961.462974
626.374899	14021.301470
626.721647	14120.266882
627.068343	14163.404035
627.414987	14181.302652
627.761577	14209.782651
628.108115	14430.592751
628.454600	14296.838337
628.801032	14476.351304
629.147412	14559.714345
629.493739	14642.797602
629.840014	14606.491212
630.186236	14855.249469
630.532405	14780.053097
630.878521	14973.043590
631.224585	15005.369989
631.570597	14988.582947
631.916556	15156.375232
632.262462	15228.713269
632.608316	15313.051773
632.954117	15377.697009
633.299866	15469.478777
633.645562	15538.020825
633.991206	15445.518172
634.336797	15395.966151
634.682336	15463.807479
635.027823	15475.334077
635.373257	15521.243865
635.718639	15491.826212
636.063968	15561.706686
636.409245	15398.564866
636.754470	15481.829604
637.099642	15495.821326
637.444762	15366.654362
637.789829	15519.648340
638.134845	15476.498583
638.479808	15533.332552
638.824719	15607.760147
639.169577	15486.890922
639.514383	15627.269413
639.859137	15568.519806
640.203839	15730.613067
640.548489	15693.585792
640.893086	15800.554035
641.237632	15769.750064
641.582125	15909.717701
641.926566	15911.068730
642.270955	16021.641399
642.615292	16084.343270
642.959576	16130.956299
643.303809	16233.362298
643.647990	16362.499016
643.992118	16431.497289
644.336195	16463.143132
644.680219	16598.944255
645.024192	16784.738500
645.368112	17143.683778
645.711981	17240.529384
646.055797	17693.953446
646.399562	17698.309003
646.743274	18233.694665
647.086935	18536.463845
647.430544	18610.568806
647.774101	18726.301096
648.117606	18989.320777
648.461059	19158.864863
648.804460	19050.991732
649.147810	18893.107835
649.491108	18806.682294
649.834354	18827.146858
650.177548	18513.687912
650.520690	18337.229883
650.863781	18420.292975
651.206820	18426.470909
651.549807	18302.708061
651.892742	18076.156087
652.235626	18109.967106
652.578458	18132.332185
652.921238	17845.165377
653.263967	18108.875696
653.606644	18030.546248
653.949269	18072.090396
654.291843	17943.596426
654.634365	18221.721925
654.976836	18040.436991
655.319255	18171.595212
655.661622	18174.201488
656.003938	18197.350467
656.346203	18166.422988
656.688416	18399.064676
657.030577	18352.071040
657.372687	18324.022060
657.714746	18510.640534
658.056753	18696.061734
658.398708	18423.655424
658.740612	18542.336789
659.082465	18739.743332
659.424266	18744.519826
659.766016	18831.946036
660.107715	18822.337597
660.449362	18948.260579
660.790958	19021.934522
661.132503	19055.369975
661.473996	19191.917188
661.815438	19318.573658
662.156829	19468.749631
662.498168	19421.251880
662.839456	19487.535491
663.180693	19646.180602
663.521879	19786.733013
663.863013	19828.960238
664.204097	19888.771008
664.545129	20229.719366
664.886110	20257.092831
665.227040	20400.919471
665.567918	20469.602672
665.908746	20596.758216
666.249522	20712.823221
666.590248	20809.489867
666.930922	20956.036209
667.271545	21015.940240
667.612118	21128.680605
667.952639	21075.529199
668.293109	21173.685506
668.633528	21163.116727
668.973896	21208.378727
669.314213	21269.860639
669.654480	21221.115202
669.994695	21285.473093
670.334859	21289.758073
670.674973	21254.585943
671.015035	21454.528187
671.355047	21478.332515
671.695008	21494.355823
672.034918	21495.807675
672.374777	21639.563739
672.714585	21608.626178
673.054342	21760.876585
673.394049	21718.160368
673.733705	21930.236669
674.073310	21791.988066
674.412864	21903.440416
674.752368	21754.441552
675.091820	21992.981391
675.431223	21763.777769
675.770574	21687.152231
676.109875	21639.657000
676.449125	21557.879402
676.788324	21550.978063
677.127473	21260.486613
677.466571	21243.245867
677.805619	21102.582552
678.144616	21114.779623
678.483562	21136.393570
678.822458	20959.025613
679.161303	20979.389354
679.500098	20972.190587
679.838842	20961.052157
680.177535	21080.620765
680.516179	21315.551137
680.854771	21478.017443
681.193314	22089.847162
681.531805	22903.033168
681.870247	23512.261652
682.208638	24118.049548
682.546978	24384.961000
682.885268	24547.628952
683.223508	24259.222020
683.561697	24110.074442
683.899836	24029.317678
684.237925	23762.393623
684.575963	23690.801677
684.913951	23449.234626
685.251889	23648.939935
685.589776	23697.972718
685.927614	23747.509617
686.265401	23929.192801
686.603137	24055.695516
686.940824	24468.346726
687.278460	24767.723208
687.616046	24937.635299
687.953582	25485.913712
688.291068	25464.566946
688.628504	25766.549705
688.965889	25800.774099
689.303224	25658.104404
689.640510	25494.183725
689.977745	25045.389962
690.314930	24516.018397
690.652065	24228.622216
690.989150	23739.920159
691.326185	23111.855405
691.663170	22662.877640
692.000105	22110.173094
692.336990	21674.635046
692.673825	21368.349662
693.010610	21007.110659
693.347345	20635.595265
693.684030	20162.447688
694.020665	20035.771054
694.357251	19518.533546
694.693786	19541.004489
695.030272	19400.830165
695.366707	19022.990643
695.703093	18823.930602
696.039429	18902.660822
696.375716	18739.037571
696.711952	18744.101410
697.048139	18658.694181
697.384276	18548.061019
697.720363	18677.447274
698.056400	18595.707485
698.392388	18489.190424
698.728326	18521.718470
699.064214	18397.653153
699.400053	18441.753167
699.735842	18138.442063
700.071581	17992.936719
700.407270	17810.338565
700.742910	17681.295109
701.078501	17495.548754
701.414042	17346.640632
701.749533	17110.268489
702.084974	16873.397273
702.420366	17086.706136
702.755709	16766.124040
703.091002	16524.614962
703.426246	16611.335411
703.761440	16571.401911
704.096584	16390.452214
704.431679	16346.067375
704.766725	16322.154662
705.101721	16282.997499
705.436668	16408.197076
705.771565	16182.386151
706.106413	16470.026827
706.441212	16547.635391
706.775961	16656.708316
707.110661	16745.283910
707.445311	17081.261690
707.779913	16988.113770
708.114465	17260.512518
708.448967	17556.188794
708.783421	18135.442577
709.117825	18468.327609
709.452180	18690.473615
709.786485	19082.534232
710.120742	19763.359703
710.454949	19871.734428
710.789107	20302.430448
711.123216	20929.088721
711.457275	21119.770366
711.791286	21600.101586
712.125247	21758.479517
712.459159	21535.589941
712.793023	22226.086865
713.126837	21340.850168
713.460602	21607.315477
713.794318	21335.695588
714.127985	21125.615583
714.461602	20370.753207
714.795171	20397.254552
715.128691	19545.723009
715.462162	19114.409448
715.795584	18751.000229
716.128957	18526.565539
716.462281	18202.280715
716.795556	17971.799161
717.128782	17548.397691
717.461960	17024.057197
717.795088	16999.902508
718.128167	16713.075978
718.461198	16319.603838
718.794180	16223.847121
719.127113	15936.375322
719.459997	15780.197856
719.792833	15457.700121
720.125619	15502.586555
720.458357	15215.003851
720.791046	15100.932622
721.123686	14963.321725
721.456278	14771.243681
721.788821	14774.802736
722.121315	14539.650553
722.453761	14640.271983
722.786158	14538.352456
723.118506	14633.068175
723.450805	14523.647410
723.783056	14702.986458
724.115259	14609.273928
724.447412	14614.640237
724.779518	14817.634899
725.111574	14867.806983
725.443582	15115.493995
725.775542	15082.353449
726.107453	15564.819599
726.439315	15494.601367
726.771129	15871.031886
727.102895	16268.451250
727.434612	16505.405645
727.766281	16663.019841
728.097901	16953.405426
728.429473	17050.072071
728.760996	17063.214359
729.092471	17199.456583
729.423897	17098.492354
729.755276	17009.747882
730.086606	17122.042104
730.417887	17685.880038
730.749120	18220.900217
731.080305	18430.599614
731.411442	18822.120827
731.742530	18954.647721
732.073570	19113.290312
732.404562	19403.514580
732.735506	19284.162742
733.066401	19110.326113
733.397249	18653.557246
733.728048	18084.743692
734.058798	17279.840302
734.389501	16606.349710
734.720156	16146.702343
735.050762	15614.507732
735.381320	15263.648465
735.711831	15023.692063
736.042293	14671.998485
736.372707	14713.401482
736.703073	14511.798178
737.033391	14704.491242
737.363661	14698.953535
737.693883	14819.159848
738.024056	15005.327139
738.354182	15205.400453
738.684260	15543.354366
739.014290	15796.937007
739.344272	16010.460119
739.674207	16330.094479
740.004093	16498.547155
740.333931	16560.785241
740.663722	16644.917057
740.993464	16694.166610
741.323159	16560.772638
741.652806	16299.164480
741.982405	16167.418965
742.311956	15834.700291
742.641460	15750.076962
742.970915	15447.519511
743.300323	15127.418844
743.629683	14936.152426
743.958996	14647.304393
744.288260	14356.528119
744.617477	14070.329212
744.946647	14047.177713
745.275768	13751.158638
745.604842	13557.187641
745.933869	13392.679668
746.262847	13372.399106
746.591778	13290.697126
746.920662	13178.284436
747.249498	13194.249770
747.578286	13341.617821
747.907027	13519.968802
748.235720	13767.595321
748.564365	13842.048122
748.892963	13771.973563
749.221514	13880.789389
749.550017	13750.780552
749.878473	13726.386408
750.206881	13514.952854
750.535242	13448.142443
750.863555	13377.901525
751.191821	13284.062967
751.520039	13300.991162
751.848210	13239.310124
752.176334	13288.766364
752.504411	13215.745250
752.832440	13044.013303
753.160421	13159.493535
753.488356	13051.393552
753.816243	12960.700674
754.144082	12800.538175
754.471875	12759.992175
754.799620	12735.799678
755.127318	12704.060573
755.454969	12697.683513
755.782572	12671.182168
756.110129	12691.611444
756.437638	12602.289759
756.765100	12608.709669
757.092515	12637.638330
757.419882	12678.920339
757.747203	12690.769571
758.074477	12774.092282
758.401703	12757.577462
758.728882	12945.405813
759.056014	12993.110252
759.383099	13161.736848
759.710138	13285.381229
760.037129	13405.010330
760.364073	13460.004277
760.690970	13491.292199
761.017820	13515.507381
761.344623	13739.130445
761.671379	14121.035658
761.998088	14807.451768
762.324751	16528.360539
762.651366	19834.606330
762.977935	24159.397092
763.304456	27029.136933
763.630931	28069.351303
763.957359	26912.439263
764.283740	24735.719443
764.610074	22557.943502
764.936362	20015.407313
765.262602	18183.976285
765.588796	16316.117880
765.914943	15079.812708
766.241044	13999.516124
766.567097	13233.371645
766.893104	12530.050025
767.219064	12079.277609
767.544978	11626.652570
767.870845	11245.392625
768.196665	11032.106447
768.522438	10811.613940
768.848165	10614.620771
769.173846	10417.551985
769.499479	10287.306213
769.825066	10124.923086
770.150607	9907.843440
770.476101	9825.917128
770.801548	9709.690806
771.126949	9553.835973
771.452303	9444.274056
771.777611	9257.600129
772.102872	9249.879602
772.428087	9111.303324
772.753256	8955.589643
773.078378	8871.127631
773.403453	8692.910240
773.728482	8584.369156
774.053465	8513.014144
774.378401	8410.088906
774.703291	8291.314280
775.028135	8171.317175
775.352932	8136.046742
775.677683	8039.511166
776.002388	7931.945546
776.327046	7941.448121
776.651658	7847.894388
776.976224	7751.328565
777.300743	7751.179851
777.625216	7666.362438
777.949643	7616.883513
778.274024	7627.742158
778.598359	7550.209212
778.922647	7568.536327
779.246889	7521.225098
779.571086	7527.161057
779.895236	7531.443517
780.219339	7538.107922
780.543397	7541.109929
780.867409	7621.428113
781.191374	7630.633260
781.515294	7599.305009
781.839167	7698.293106
782.162995	7666.644743
782.486776	7617.732947
782.810511	7572.919610
783.134201	7481.115158
783.457844	7485.861404
783.781441	7431.358969
784.104993	7364.684668
784.428498	7343.247162
784.751958	7326.208062
785.075372	7303.898435
785.398739	7248.034889
785.722061	7288.434696
786.045337	7300.712426
786.368568	7452.793955
786.691752	7474.564178
787.014891	7811.277967
787.337983	8167.329622
787.661030	8746.361594
787.984031	9355.222073
788.306987	9762.491851
788.629897	9966.764446
788.952760	9912.045242
789.275579	9700.926760
789.598351	9309.965114
789.921078	8960.076270
790.243759	8559.082728
790.566395	8282.141901
790.888984	8026.066409
791.211529	7820.830953
791.534027	7602.160823
791.856480	7399.009885
792.178888	7334.359607
792.501249	7238.935606
792.823566	7082.836277
793.145836	7080.335865
793.468062	7055.929119
793.790241	7005.958681
794.112375	7076.350833
794.434464	7227.035963
794.756507	7263.057527
795.078505	7421.420334
795.400457	7729.757468
795.722364	8074.854696
796.044226	8360.630146
796.366042	8626.041854
796.687812	8580.903363
797.009538	8654.746184
797.331218	8555.364878
797.652852	8472.568967
797.974442	8323.358375
798.295986	8239.977690
798.617484	8049.921149
798.938938	7908.055518
799.260346	7801.649363
799.581709	7605.815660
799.903026	7533.044083
800.224299	7426.874863
800.545526	7255.997391
800.866708	7159.880232
801.187845	7098.607527
801.508936	6992.105590
801.829983	6957.079653
802.150984	6808.408465
802.471940	6765.301558
802.792851	6747.438230
803.113717	6715.726851
803.434538	6678.634041
803.755314	6623.892152
804.076045	6629.515559
804.396731	6572.162352
804.717372	6602.691579
805.037967	6600.259223
805.358518	6647.399052
805.679024	6725.168933
805.999485	6736.556899
806.319901	6772.628875
806.640272	6793.897503
806.960598	6878.135184
807.280879	6878.402365
807.601115	6957.208203
807.921306	6906.181644
808.241453	6917.609939
808.561554	6946.974661
808.881611	6904.016468
809.201623	6916.997439
809.521590	6860.428131
809.841513	6842.842066
810.161390	6884.552573
810.481223	6755.564570
810.801011	6738.694348
811.120755	6717.375309
811.440453	6643.925697
811.760107	6610.865810
812.079716	6577.412713
812.399281	6517.191089
812.718801	6504.305900
813.038276	6461.297296
813.357707	6399.223048
813.677093	6445.868845
813.996434	6350.056675
814.315731	6394.743983
814.634983	6385.385081
814.954191	6396.173150
815.273354	6503.075859
815.592473	6564.666156
815.911547	6690.909251
816.230577	6771.628206
816.549562	6920.727893
816.868502	7019.453850
817.187399	7118.593182
817.506250	7273.162520
817.825058	7308.506050
818.143821	7569.703354
818.462539	7835.694796
818.781213	8204.790436
819.099843	8751.276719
819.418429	9740.275486
819.736970	10696.652947
820.055466	11863.324661
820.373919	13389.410480
820.692327	15740.181177
821.010691	19852.368836
821.329011	28721.981600
821.647286	41448.356841
821.965517	54752.576862
822.283704	60228.406719
822.601847	62270.336166
822.919945	59557.865202
823.237999	55336.831469
823.556010	49185.081183
823.873976	42564.107860
824.191897	36120.016022
824.509775	31356.564217
824.827609	26898.525678
825.145398	24339.051212
825.463144	22992.848886
825.780845	23299.797182
826.098502	25049.591764
826.416116	28800.684094
826.733685	32343.090299
827.051210	33465.107472
827.368692	31692.468901
827.686129	27789.748746
828.003522	23739.443770
828.320872	20078.943496
828.638177	17276.866021
828.955439	15149.032791
829.272656	13347.992360
829.589830	11888.963969
829.906960	10627.604263
830.224046	9704.601761
830.541088	8957.467473
830.858086	8504.509718
831.175041	8127.446533
831.491952	8018.113989
831.808819	8064.353972
832.125642	8459.545146
832.442421	9338.845885
832.759157	11136.755760
833.075849	14013.802754
833.392497	17180.965631
833.709101	19317.774635
834.025662	19155.814965
834.342179	17484.498545
834.658653	15326.191540
834.975083	13428.754165
835.291469	11834.312821
835.607811	10530.158759
835.924110	9618.806364
836.240366	8755.246628
836.556578	7962.757078
836.872746	7324.506672
837.188871	6827.423697
837.504952	6414.545635
837.820990	6105.323779
838.136984	5886.232712
838.452935	5794.211490
838.768842	5827.097457
839.084706	6255.212406
839.400526	7443.092255
839.716303	9002.094287
840.032037	10085.528990
840.347727	10004.038738
840.663373	9048.006596
840.978977	8018.035851
841.294537	7220.767288
841.610054	6621.669003
841.925527	6193.927099
842.240957	5835.992573
842.556344	5506.396893
842.871687	5217.790836
843.186987	4939.458650
843.502244	4719.308941
843.817458	4557.132501
844.132629	4416.796860
844.447756	4327.812933
844.762840	4250.736211
845.077881	4176.321219
845.392879	4111.378554
845.707833	4063.734609
846.022745	4023.412940
846.337613	3993.148373
846.652438	3950.875777
846.967221	3931.805092
847.281960	3899.811410
847.596656	3880.511352
847.911309	3861.271788
848.225919	3835.924867
848.540485	3819.737722
848.855009	3811.744972
849.169490	3788.114564
849.483928	3774.344652
849.798323	3767.322325
850.112675	3748.612082
850.426984	3756.574585
850.741251	3738.388622
851.055474	3737.425762
851.369654	3743.696957
851.683792	3737.380392
851.997887	3743.412132
852.311938	3744.127976
852.625947	3744.649735
852.939914	3735.958786
853.253837	3744.276690
853.567718	3740.558839
853.881555	3735.994074
854.195350	3751.959408
854.509103	3743.510435
854.822812	3744.062441
855.136479	3731.688929
855.450103	3746.456989
855.763685	3731.373857
856.077224	3733.488621
856.390720	3750.867999
856.704173	3767.561780
857.017584	3783.128863
857.330953	3796.492962
857.644278	3814.038698
857.957561	3820.635047
858.270802	3820.990449
858.584000	3825.162003
858.897155	3818.600942
859.210268	3799.958755
859.523339	3777.709622
859.836367	3777.006381
860.149352	3769.540433
860.462295	3764.489196
860.775195	3751.692227
861.088054	3746.993872
861.400869	3748.291969
861.713642	3746.129314
862.026373	3758.306221
862.339062	3767.473559
862.651708	3779.312709
862.964312	3817.680931
863.276873	3825.777024
863.589392	3880.627299
863.901869	3931.152263
864.214303	3976.686485
864.526696	4006.837626
864.839045	4053.581725
865.151353	4076.561825
865.463619	4088.821911
865.775842	4095.728292
866.088023	4115.350983
866.400162	4104.714149
866.712258	4108.933595
867.024313	4115.103967
867.336325	4109.415025
867.648296	4115.540027
867.960224	4119.517497
868.272110	4128.901605
868.583954	4131.545690
868.895755	4146.742248
869.207515	4145.824758
869.519233	4185.607024
869.830909	4194.633210
870.142542	4220.532138
870.454134	4236.260538
870.765684	4264.554014
871.077191	4299.617759
871.388657	4323.631296
871.700081	4361.631513
872.011463	4403.679778
872.322803	4442.879790
872.634101	4470.255776
872.945357	4510.519472
873.256571	4563.199529
873.567744	4590.134414
873.878874	4611.702991
874.189963	4646.494514
874.501010	4655.447604
874.812015	4652.407788
875.122979	4698.211712
875.433900	4698.799006
875.744780	4708.914081
876.055618	4738.699739
876.366415	4738.992126
876.677169	4757.634313
876.987882	4806.510820
877.298554	4859.142987
877.609183	4933.242907
877.919771	5044.203744
878.230317	5188.272359
878.540822	5399.232045
878.851285	5721.782712
879.161707	6180.106776
879.472087	6935.158196
879.782425	8162.316194
880.092722	10326.458335
880.402977	13585.607146
880.713191	17248.098677
881.023363	20862.300995
881.333494	23006.137367
881.643583	24214.156625
881.953631	24235.170675
882.263637	23437.440846
882.573602	21996.424499
882.883526	20469.148968
883.193408	18837.879474
883.503248	17178.097214
883.813048	15643.554860
884.122806	14238.920520
884.432522	12779.012448
884.742197	11538.734847
885.051831	10464.505292
885.361424	9481.805446
885.670975	8663.951331
885.980485	7982.745253
886.289954	7420.838081
886.599382	6944.975843
886.908768	6575.804585
887.218113	6218.018773
887.527417	5930.882212
887.836680	5660.628475
888.145901	5447.465805
888.455082	5282.337770
888.764221	5134.596674
889.073319	5001.795038
889.382376	4925.597997
889.691392	4868.421230
890.000366	4847.949104
890.309300	4827.870189
890.618193	4828.316331
890.927044	4818.692768
891.235855	4842.101366
891.544625	4871.534143
891.853353	4932.332979
892.162041	5045.257345
892.470687	5235.117282
892.779293	5478.857070
893.087858	5850.327094
893.396381	6422.876142
893.704864	7219.411217
894.013306	8355.198302
894.321707	9508.321915
894.630068	10312.184308
894.938387	10509.174956
895.246665	10273.135530
895.554903	9683.887660
895.863100	8992.211105
896.171256	8447.993342
896.479371	7949.438350
896.787446	7452.373019
897.095480	7032.379368
897.403473	6713.634773
897.711425	6397.342698
898.019336	6137.740919
898.327207	5864.838055
898.635038	5637.620649
898.942827	5394.153083
899.250576	5209.694743
899.558284	5021.763048
899.865952	4898.597577
900.173579	4749.223147
900.481165	4641.808762
900.788711	4549.033887
901.096216	4480.756499
901.403681	4412.431221
901.711105	4391.865834
902.018489	4374.935118
902.325832	4446.572435
902.633135	4571.222526
902.940397	4912.506121
903.247619	5696.261871
903.554800	7116.120496
903.861941	9012.219445
904.169041	10501.116672
904.476101	11119.250353
904.783121	10770.959555
905.090100	10043.815962
905.397039	9223.532011
905.703938	8476.148186
906.010796	7794.984958
906.317614	7249.990857
906.624391	6717.629887
906.931129	6300.587832
907.237826	5903.294498
907.544483	5529.989493
907.851099	5162.741436
908.157675	4810.984844
908.464211	4490.191019
908.770707	4257.856841
909.077163	4058.217066
909.383578	3919.373607
909.689954	3802.065957
909.996289	3734.010380
910.302584	3668.046882
910.608839	3637.298364
910.915054	3602.973148
911.221229	3589.669543
911.527363	3603.031121
911.833458	3612.785754
912.139513	3637.825165
912.445527	3672.346986
912.751502	3754.190119
913.057436	3856.936396
913.363331	3992.833301
913.669186	4190.597766
913.975000	4449.929844
914.280775	4870.041961
914.586510	5444.211740
914.892205	6233.016206
915.197859	7251.266268
915.503475	8450.957540
915.809050	9484.061363
916.114585	10119.881932
916.420081	10367.757988
916.725536	10330.448408
917.030952	9899.666688
917.336328	9503.212706
917.641665	9096.789842
917.946961	8631.451013
918.252218	8213.851910
918.557435	7706.726957
918.862612	7289.546270
919.167750	6921.171515
919.472848	6502.942268
919.777906	6131.174816
920.082925	5780.353358
920.387904	5418.741310
920.692843	5158.353111
920.997743	4915.651801
921.302603	4683.524310
921.607423	4525.710989
921.912204	4362.417933
922.216946	4241.329418
922.521647	4121.536479
922.826310	4019.102754
923.130932	3926.753856
923.435516	3829.878003
923.740059	3762.346706
924.044564	3682.414171
924.349028	3623.170531
924.653454	3558.971436
924.957840	3492.425685
925.262186	3446.536062
925.566493	3387.892319
925.870761	3329.104903
926.174989	3294.870428
926.479178	3257.790220
926.783328	3211.477140
927.087438	3187.093079
927.391509	3150.867347
927.695541	3124.116464
927.999533	3098.988833
928.303486	3081.014599
928.607400	3060.744119
928.911275	3049.489743
929.215110	3030.197248
929.518906	3023.711803
929.822663	3020.722399
930.126381	3020.782893
930.430060	3024.712472
930.733699	3030.010725
931.037299	3037.869884
931.340861	3034.956097
931.644383	3042.560677
931.947866	3043.442879
932.251309	3036.108001
932.554714	3034.817465
932.858080	3031.288657
933.161407	3021.032430
933.464694	3013.074969
933.767943	3008.754700
934.071153	3004.724297
934.374323	2993.606033
934.677455	2987.609580
934.980548	2982.177737
935.283602	2975.566263
935.586617	2974.598362
935.889593	2984.839466
936.192530	2985.653612
936.495428	3001.636591
936.798287	3019.734333
937.101108	3052.819426
937.403890	3104.375306
937.706632	3167.001560
938.009336	3240.947725
938.312002	3315.065290
938.614628	3376.476626
938.917216	3432.342693
939.219765	3463.817137
939.522275	3490.746981
939.824747	3495.508351
940.127179	3495.067250
940.429573	3489.829491
940.731929	3484.808502
941.034246	3471.802325
941.336524	3460.563072
941.638763	3446.624282
941.940964	3430.699277
942.243126	3389.863410
942.545250	3368.226778
942.847335	3332.283351
943.149381	3297.789256
943.451389	3266.077877
943.753359	3230.565469
944.055290	3209.929506
944.357182	3184.975794
944.659036	3168.105573
944.960851	3156.382370
945.262628	3144.389465
945.564367	3144.336532
945.866067	3141.674803
946.167729	3134.591982
946.469352	3139.116418
946.770937	3129.386991
947.072484	3118.795527
947.373992	3122.941876
947.675462	3109.222375
947.976893	3093.002463
948.278286	3082.002665
948.579641	3077.546285
948.880958	3073.664597
949.182236	3075.625606
949.483476	3069.919019
949.784678	3069.031776
950.085841	3070.995306
950.386967	3079.038467
950.688054	3096.248966
950.989103	3114.082048
951.290114	3138.163640
951.591087	3166.666323
951.892021	3193.686908
952.192917	3220.581464
952.493776	3243.662387
952.794596	3251.728233
953.095378	3259.108482
953.396122	3249.913417
953.696828	3246.530803
953.997496	3235.556211
954.298126	3210.484033
954.598718	3190.815971
954.899272	3164.952331
955.199788	3140.590955
955.500266	3108.728342
955.800706	3074.428332
956.101108	3036.796118
956.401472	3006.246726
956.701798	2975.861171
957.002087	2932.045982
957.302337	2908.695358
957.602550	2877.208311
957.902724	2849.222345
958.202861	2824.525732
958.502960	2803.647794
958.803022	2787.334620
959.103045	2767.006167
959.403031	2750.077972
959.702979	2734.082391
960.002889	2718.729557
960.302762	2706.862681
960.602596	2697.536547
960.902393	2688.086904
961.202153	2678.556602
961.501875	2673.381858
961.801559	2667.670231
962.101205	2659.317039
962.400814	2654.303611
962.700385	2647.898825
962.999918	2640.939512
963.299414	2635.517751
963.598873	2635.641260
963.898293	2627.177162
964.197677	2628.354272
964.497022	2625.677419
964.796331	2621.941924
965.095601	2619.474279
965.394835	2619.204578
965.694030	2617.921604
965.993189	2616.285749
966.292309	2614.410440
966.591393	2613.775255
966.890439	2613.099740
967.189447	2614.470934
967.488419	2613.719802
967.787353	2613.742487
968.086249	2615.963116
968.385108	2618.208950
968.683930	2619.814557
968.982714	2623.550052
969.281462	2628.084570
969.580172	2634.504479
969.878844	2640.977321
970.177480	2647.535862
970.476078	2655.513488
970.774639	2662.873573
971.073162	2672.197187
971.371649	2676.739266
971.670098	2679.320337
971.968510	2685.377283
972.266885	2689.705114
972.565223	2695.068902
972.863524	2695.983871
973.161788	2700.911599
973.460014	2701.453523
973.758204	2708.470809
974.056356	2707.094574
974.354471	2709.748742
974.652550	2709.433670
974.950591	2707.490305
975.248595	2709.542054
975.546563	2705.244471
975.844493	2704.296734
976.142386	2696.941690
976.440243	2689.057326
976.738062	2687.799558
977.035845	2682.667663
977.333590	2676.593073
977.631299	2673.419667
977.928971	2663.758295
978.226606	2659.982471
978.524204	2654.875782
978.821765	2651.616676
979.119290	2654.480052
979.416777	2655.694970
979.714228	2656.274702
980.011642	2657.608087
980.309020	2666.407422
980.606360	2683.726306
980.903664	2706.759338
981.200931	2740.991293
981.498162	2786.182716
981.795356	2859.634848
982.092513	2946.055349
982.389633	3049.260371
982.686717	3144.739825
982.983764	3218.202039
983.280775	3266.962600
983.577749	3271.958383
983.874686	3258.039758
984.171587	3227.787793
984.468451	3187.284643
984.765279	3144.984321
985.062070	3097.181579
985.358824	3054.266237
985.655543	2999.927639
985.952224	2948.175154
986.248869	2885.213663
986.545478	2832.203410
986.842050	2774.550254
987.138586	2732.181876
987.435086	2696.956814
987.731549	2665.439520
988.027975	2637.592186
988.324366	2622.501492
988.620719	2610.480861
988.917037	2598.876125
989.213318	2589.754157
989.509563	2584.408013
989.805772	2578.121694
990.101944	2574.371076
990.398080	2572.568863
990.694180	2570.186918
990.990244	2568.218347
991.286271	2568.586352
991.582262	2570.867474
991.878217	2574.817218
992.174136	2577.620099
992.470019	2581.489185
992.765865	2583.094792
993.061676	2588.879517
993.357450	2598.016608
993.653188	2600.632967
993.948890	2620.847994
994.244556	2639.381796
994.540186	2664.685867
994.835780	2692.800382
995.131337	2731.216495
995.426859	2769.332660
995.722345	2815.650781
996.017795	2866.480735
996.313208	2900.407701
996.608586	2929.648914
996.903928	2941.591407
997.199234	2943.963270
997.494504	2939.000254
997.789738	2923.118099
998.084936	2896.904099
998.380099	2869.228164
998.675225	2839.611385
998.970316	2810.750780
999.265371	2776.314658
999.560390	2740.343504
999.855373	2712.476006
1000.150320	2683.179340
1000.445232	2658.812923
1000.740108	2640.599234
1001.034948	2620.643827
1001.329752	2608.045983
1001.624521	2596.678182
1001.919254	2582.419278
1002.213951	2575.059193
1002.508613	2565.417987
1002.803239	2561.430434
1003.097829	2555.665874
1003.392384	2551.123795
1003.686903	2544.623227
1003.981386	2541.774975
1004.275834	2539.166178
1004.570246	2538.659542
1004.864623	2532.718542
1005.158964	2532.433717
1005.453270	2530.865918
1005.747540	2528.955321
1006.041775	2529.482121
1006.335974	2527.027079
1006.630138	2524.201513
1006.924266	2523.510875
1007.218359	2522.936183
1007.512416	2519.946779
1007.806438	2517.035512
1008.100425	2521.380987
1008.394376	2517.242200
1008.688292	2521.411234
1008.982172	2520.763446
1009.276017	2522.621111
1009.569827	2521.585154
1009.863602	2519.757736
1010.157341	2516.927128
1010.451045	2517.343023
1010.744714	2515.893691
1011.038347	2518.494927
1011.331945	2514.474606
1011.625508	2515.024092
1011.919036	2513.206756
1012.212528	2512.735408
1012.505986	2512.004441
1012.799408	2511.928824
1013.092795	2507.616117
1013.386147	2508.097547
1013.679464	2510.643329
1013.972745	2510.781961
1014.265992	2507.048987
1014.559204	2510.850017
1014.852380	2512.584174
1015.145521	2507.842968
1015.438628	2509.468741
1015.731699	2509.057887
1016.024736	2510.411436
1016.317737	2512.967301
1016.610703	2513.859586
1016.903635	2516.410409
1017.196531	2517.413599
1017.489393	2517.264885
1017.782219	2521.191944
1018.075011	2520.040040
1018.367768	2519.825791
1018.660490	2520.834022
1018.953177	2520.834022
1019.245829	2520.834022
