Dividing Wavelength (nm)	Counts (n)	Blue Motor Position (mm): 7.100000	Red Motor Position (mm): 0.000000	
326.493990	2159.075781
326.888308	2159.075781
327.282561	2159.075781
327.676750	2118.313011
328.070874	2113.218925
328.464933	2114.733792
328.858929	2119.137239
329.252859	2123.485235
329.646726	2131.367079
330.040528	2144.640437
330.434265	2157.384474
330.827938	2173.979952
331.221547	2191.608867
331.615091	2209.804912
332.008571	2227.164125
332.401986	2246.285222
332.795338	2265.194590
333.188625	2283.660336
333.581847	2302.872174
333.975006	2318.013279
334.368100	2338.321568
334.761129	2356.005935
335.154095	2375.048894
335.546996	2391.142777
335.939833	2409.237999
336.332606	2422.627304
336.725315	2437.602051
337.117960	2449.751232
337.510540	2460.740947
337.903056	2471.831486
338.295508	2480.713999
338.687896	2491.544918
339.080220	2494.451143
339.472480	2503.931033
339.864676	2508.437825
340.256807	2513.990656
340.648875	2516.987622
341.040879	2520.072808
341.432818	2522.661440
341.824694	2527.392563
342.216506	2525.209743
342.608253	2527.379960
342.999937	2525.199661
343.391557	2527.831143
343.783113	2527.533715
344.174605	2529.000691
344.566033	2526.044054
344.957397	2525.093797
345.348697	2524.992974
345.739934	2524.012469
346.131106	2521.567510
346.522215	2516.745646
346.913260	2518.177334
347.304241	2516.702796
347.695159	2513.237003
348.086012	2511.192815
348.476802	2510.761797
348.867528	2508.185767
349.258191	2502.121259
349.648789	2497.301916
350.039324	2497.458192
350.429796	2500.624036
350.820203	2501.748213
351.210548	2499.661176
351.600828	2500.971876
351.991045	2494.725886
352.381198	2494.995588
352.771288	2495.119096
353.161314	2494.582213
353.551276	2495.471977
353.941175	2493.863849
354.331010	2496.661689
354.720782	2489.450319
355.110490	2494.272182
355.500135	2494.269662
355.889717	2495.598006
356.279235	2491.071050
356.668689	2493.634476
357.058080	2493.150526
357.447408	2491.681029
357.836672	2492.883344
358.225873	2493.087511
358.615010	2493.379898
359.004084	2495.718993
359.393095	2494.246977
359.782043	2496.172697
360.170927	2495.577841
360.559748	2496.213027
360.948505	2497.954745
361.337199	2500.992040
361.725830	2497.959786
362.114398	2498.221926
362.502903	2499.101608
362.891344	2501.750734
363.279722	2501.226454
363.668037	2502.625374
364.056289	2501.523882
364.444478	2500.979437
364.832603	2501.970024
365.220665	2504.369613
365.608665	2502.592607
365.996601	2503.174860
366.384474	2503.089160
366.772284	2503.217710
367.160031	2503.895745
367.547715	2505.299706
367.935336	2505.211486
368.322893	2502.832062
368.710388	2503.013543
369.097820	2504.677124
369.485189	2502.043121
369.872495	2507.399347
370.259738	2506.615448
370.646918	2508.281549
371.034035	2506.633092
371.421090	2509.773730
371.808081	2508.362207
372.195010	2507.379182
372.581875	2509.667866
372.968678	2508.483195
373.355418	2508.311796
373.742096	2509.932527
374.128710	2511.638957
374.515262	2511.326406
374.901751	2509.451097
375.288177	2506.249964
375.674540	2511.734739
376.060841	2512.261540
376.447079	2510.860099
376.833254	2509.793895
377.219367	2512.125429
377.605417	2511.689369
377.991404	2509.282218
378.377329	2511.608710
378.763191	2512.911849
379.148991	2513.804133
379.534727	2512.793382
379.920402	2514.272960
380.306013	2515.555934
380.691563	2515.011489
381.077049	2511.931344
381.462474	2515.455111
381.847835	2511.936385
382.233134	2515.316479
382.618371	2515.036695
383.003545	2515.530728
383.388657	2515.684483
383.773706	2516.634741
384.158693	2516.327230
384.543618	2516.813702
384.928480	2514.671211
385.313280	2517.602642
385.698017	2516.342354
386.082692	2515.255985
386.467305	2515.760101
386.851856	2516.022241
387.236344	2517.292611
387.620770	2516.055008
388.005133	2509.743483
388.389435	2515.349247
388.773674	2513.431088
389.157851	2516.846469
389.541965	2516.722961
389.926018	2517.295132
390.310008	2519.745133
390.693936	2518.512571
391.077802	2516.483506
391.461606	2517.285050
391.845348	2518.923425
392.229027	2521.751512
392.612645	2519.563651
392.996200	2518.323527
393.379694	2519.727489
393.763125	2520.914680
394.146494	2518.946110
394.529801	2520.294618
394.913047	2520.609691
395.296230	2522.318642
395.679351	2520.072808
396.062410	2521.275123
396.445408	2521.254958
396.828343	2520.861748
397.211217	2521.209588
397.594028	2518.857890
397.976778	2523.473066
398.359466	2522.424506
398.742092	2521.479290
399.124656	2523.969620
399.507158	2522.280833
399.889598	2523.581451
400.271977	2525.832326
400.654294	2525.628159
401.036549	2522.815195
401.418742	2524.866945
401.800874	2523.276461
402.182944	2523.349558
402.564952	2525.822244
402.946898	2525.822244
403.328783	2524.869466
403.710606	2524.377953
404.092367	2524.292253
404.474067	2527.301822
404.855705	2525.860052
405.237282	2525.222346
405.618797	2524.423323
406.000250	2526.427182
406.381642	2524.700587
406.762972	2524.337624
407.144240	2522.825278
407.525447	2522.711852
407.906593	2520.549197
408.287677	2526.646472
408.668700	2526.865763
409.049661	2529.015815
409.430560	2526.439785
409.811399	2527.657224
410.192176	2527.334590
410.572891	2529.015815
410.953545	2529.048582
411.334138	2531.571680
411.714669	2528.695701
412.095139	2527.561442
412.475547	2526.729651
412.855894	2529.769467
413.236180	2529.035979
413.616405	2528.907430
413.996568	2530.054292
414.376670	2526.548170
414.756711	2527.742923
415.136691	2531.032276
415.516609	2531.609488
415.896466	2527.868952
416.276262	2530.520599
416.655997	2529.661082
417.035670	2531.072605
417.415283	2529.371216
417.794834	2527.226205
418.174324	2531.037317
418.553753	2530.429858
418.933121	2531.803573
419.312428	2530.175280
419.691674	2531.861546
420.070859	2531.286854
420.449983	2527.740403
420.829045	2528.292409
421.208047	2531.062523
421.586988	2531.669982
421.965867	2533.996475
422.344686	2531.851464
422.723444	2531.906916
423.102141	2531.138140
423.480777	2532.191742
423.859352	2532.095960
424.237866	2531.637215
424.616319	2531.574200
424.994712	2531.564118
425.373044	2532.496731
425.751314	2529.398942
426.129524	2529.282996
426.507673	2528.899868
426.885762	2529.393901
427.263789	2532.746268
427.641756	2532.963038
428.019662	2530.976823
428.397508	2536.272556
428.775292	2532.358100
429.153016	2533.507483
429.530679	2536.736342
429.908282	2536.070909
430.285824	2535.723070
430.663305	2532.330373
431.040726	2534.893800
431.418086	2535.186187
431.795385	2533.767102
432.172624	2535.768440
432.549802	2533.522606
432.926920	2533.333563
433.303977	2533.570497
433.680974	2536.181815
434.057910	2536.711136
434.434786	2533.847761
434.811601	2535.445806
435.188355	2537.752134
435.565050	2536.264994
435.941683	2537.192566
436.318257	2533.527647
436.694770	2539.670293
437.071222	2536.411187
437.447614	2536.648122
437.823946	2534.656866
438.200218	2538.304141
438.576429	2535.536547
438.952580	2536.118800
439.328670	2536.741383
439.704700	2535.677699
440.080670	2536.133924
440.456580	2537.013605
440.832429	2535.584438
441.208218	2538.125180
441.583947	2537.429500
441.959616	2537.149716
442.335224	2539.531662
442.710773	2536.577545
443.086261	2538.876312
443.461689	2535.042514
443.837057	2538.934285
444.212365	2536.136444
444.587612	2537.540406
444.962800	2531.417924
445.337927	2536.753986
445.712995	2533.961187
446.088002	2535.198790
446.462949	2540.118956
446.837837	2540.723894
447.212664	2538.906558
447.587431	2539.274563
447.962139	2537.691640
448.336786	2538.074768
448.711374	2537.177443
449.085901	2540.189532
449.460369	2539.330015
449.834776	2539.987886
450.209124	2539.992927
450.583412	2539.481250
450.957640	2538.886394
451.331808	2538.919161
451.705917	2539.755993
452.079965	2539.120808
452.453954	2541.596014
452.827883	2540.865047
453.201752	2539.592155
453.575562	2540.633154
453.949311	2537.646270
454.323001	2541.255736
454.696632	2538.898997
455.070202	2541.107022
455.443713	2539.468647
455.817164	2540.461754
456.190556	2539.246836
456.563888	2541.880839
456.937160	2544.623227
457.310373	2542.175747
457.683526	2543.161292
458.056619	2540.250026
458.429653	2541.260777
458.802628	2541.175078
459.175542	2539.433359
459.548398	2540.267670
459.921194	2542.180788
460.293930	2542.160623
460.666607	2540.655839
461.039224	2541.275901
461.411782	2541.107022
461.784280	2540.207176
462.156719	2541.222969
462.529099	2542.510983
462.901419	2542.132897
463.273680	2538.107536
463.645882	2539.544264
464.018024	2540.353370
464.390106	2537.459747
464.762130	2541.701878
465.134094	2539.932433
465.505999	2541.018802
465.877845	2542.470654
466.249631	2544.116591
466.621358	2540.517207
466.993026	2543.025181
467.364634	2547.642878
467.736184	2543.181457
468.107674	2542.347146
468.479105	2542.450490
468.850477	2542.329502
469.221790	2544.429142
469.593043	2546.952240
469.964238	2544.214893
470.335373	2543.909904
470.706449	2541.535520
471.077467	2542.964687
471.448425	2543.614996
471.819324	2541.086858
472.190164	2543.564585
472.560945	2543.209183
472.931667	2544.855120
473.302330	2543.173895
473.672934	2543.579708
474.043479	2544.353525
474.413965	2543.680531
474.784393	2543.990562
475.154761	2543.705737
475.525070	2543.693134
475.895321	2542.871426
476.265513	2543.652805
476.635645	2547.184133
477.005719	2543.680531
477.375734	2543.907383
477.745691	2544.683721
478.115588	2543.695655
478.485427	2543.317568
478.855207	2542.342105
479.224928	2543.166333
479.594591	2545.336550
479.964194	2545.041643
480.333739	2545.560882
480.703226	2543.027702
481.072653	2545.150028
481.442022	2542.800850
481.811333	2545.417209
482.180584	2539.907228
482.549777	2545.008875
482.918912	2540.426466
483.287988	2544.126673
483.657005	2545.397044
484.025964	2547.753783
484.394864	2544.000644
484.763706	2547.025337
485.132489	2545.442414
485.501213	2545.578526
485.869879	2541.089378
486.238487	2545.071890
486.607036	2545.596170
486.975527	2545.689431
487.343959	2547.017775
487.712333	2544.923176
488.080648	2547.726057
488.448905	2545.485264
488.817104	2542.783206
489.185244	2547.625234
489.553326	2544.620706
489.921350	2547.708413
490.289315	2546.624565
490.657222	2548.010882
491.025070	2545.485264
491.392861	2548.852755
491.760593	2546.760676
492.128267	2546.571633
492.495883	2547.123639
492.863440	2544.567774
493.230939	2545.649102
493.598380	2548.066335
493.965763	2544.600542
494.333088	2549.077086
494.700354	2547.116077
495.067563	2548.431819
495.434713	2544.275387
495.801805	2550.649926
496.168839	2550.949875
496.535815	2545.913762
496.902733	2546.823691
497.269593	2548.187323
497.636395	2546.813608
498.003139	2549.487940
498.369825	2548.537683
498.736453	2549.072045
499.103023	2548.489792
499.469535	2547.899977
499.835989	2546.342260
500.202385	2542.165664
500.568723	2544.940820
500.935003	2546.523742
501.301226	2543.065510
501.667390	2549.094730
502.033497	2547.993238
502.399546	2547.113557
502.765537	2547.337888
503.131470	2547.133722
503.497345	2543.728422
503.863163	2547.456355
504.228923	2547.821839
504.594625	2548.252858
504.960269	2548.535162
505.325856	2549.326623
505.691385	2549.006510
506.056856	2548.764535
506.422270	2550.075235
506.787625	2549.558517
507.152924	2545.878474
507.518164	2549.132539
507.883347	2550.024823
508.248472	2548.184802
508.613540	2548.888043
508.978550	2550.712941
509.343503	2549.354350
509.708398	2547.683207
510.073236	2550.095399
510.438016	2549.724875
510.802738	2550.201264
511.167403	2548.537683
511.532010	2550.997766
511.896561	2551.209494
512.261053	2549.228321
512.625488	2548.532642
512.989866	2547.224462
513.354186	2549.787889
513.718449	2549.298897
514.082655	2548.149514
514.446803	2550.397869
514.810894	2547.121119
515.174927	2547.983156
515.538904	2547.748742
515.902822	2550.654967
516.266684	2547.796633
516.630488	2550.332334
516.994235	2549.354350
517.357925	2550.329813
517.721558	2549.840821
518.085133	2551.249824
518.448651	2548.396531
518.812112	2544.877805
519.175516	2546.150697
519.538863	2545.109698
519.902152	2551.418702
520.265385	2550.102961
520.628560	2550.667570
520.991678	2547.836963
521.354739	2550.642365
521.717743	2548.182282
522.080690	2548.739329
522.443580	2547.416026
522.806413	2550.289484
523.169189	2550.203784
523.531908	2549.661860
523.894569	2551.902653
524.257174	2551.842159
524.619722	2551.083466
524.982213	2551.338044
525.344647	2548.099103
525.707025	2551.164124
526.069345	2550.057591
526.431608	2549.510626
526.793815	2551.264947
527.155964	2553.084804
527.518057	2548.333516
527.880093	2549.591284
528.242072	2550.274360
528.603995	2551.380894
528.965860	2551.748898
529.327669	2549.684545
529.689421	2550.496171
530.051117	2548.898125
530.412755	2550.546583
530.774337	2549.044319
531.135862	2551.143959
531.497331	2549.858465
531.858743	2554.398024
532.220098	2550.002138
532.581396	2548.520039
532.942638	2552.865513
533.303824	2551.975750
533.664953	2550.818805
534.026025	2547.501726
534.387040	2550.929710
534.747999	2552.784855
535.108902	2551.390976
535.469748	2552.333672
535.830537	2552.361398
536.191270	2552.525236
536.551947	2550.075235
536.912567	2545.853268
537.273131	2551.716130
537.633638	2547.312683
537.994089	2546.712785
538.354483	2551.363250
538.714821	2553.218394
539.075103	2554.037582
539.435328	2552.409289
539.795497	2553.046995
540.155609	2552.928528
540.515665	2554.420709
540.875665	2554.640000
541.235609	2553.094886
541.595496	2554.821481
541.955328	2552.941131
542.315102	2556.119578
542.674821	2555.426420
543.034483	2554.390462
543.394090	2555.212171
543.753640	2557.881462
544.113134	2553.999773
544.472571	2559.595454
544.831953	2558.672923
545.191278	2557.642007
545.550548	2558.209137
545.909761	2557.828529
546.268918	2556.706873
546.628019	2559.819785
546.987064	2559.237532
547.346053	2562.047975
547.704986	2556.222922
548.063863	2560.250804
548.422684	2558.693087
548.781449	2559.902964
549.140158	2559.832388
549.498811	2560.979251
549.857408	2563.164591
550.215949	2561.369940
550.574434	2560.482697
550.932864	2563.489745
551.291237	2562.221895
551.649555	2563.693912
552.007817	2563.898079
552.366022	2562.063099
552.724173	2563.477142
553.082267	2562.456309
553.440305	2562.947821
553.798288	2561.589230
554.156215	2564.528223
554.514086	2563.454457
554.871902	2563.338511
555.229661	2561.614436
555.587365	2562.269786
555.945014	2564.621484
556.302606	2568.808163
556.660143	2565.055023
557.017625	2565.039900
557.375050	2566.353121
557.732421	2565.614592
558.089735	2566.990827
558.446994	2565.833882
558.804197	2566.892524
559.161345	2567.142061
559.518437	2565.549057
559.875474	2566.506876
560.232455	2566.595096
560.589381	2565.044941
560.946251	2567.555436
561.303065	2567.784808
561.659825	2568.445199
562.016528	2564.757595
562.373177	2567.628532
562.729770	2568.069633
563.086307	2568.800601
563.442789	2568.951835
563.799216	2569.876887
564.155587	2567.026115
564.511904	2570.355797
564.868164	2567.187432
565.224370	2567.747000
565.580520	2568.241033
565.936615	2571.159861
566.292654	2567.031156
566.648638	2569.841599
567.004567	2566.194324
567.360441	2567.638615
567.716260	2569.675241
568.072023	2569.085426
568.427732	2569.667679
568.783385	2570.000395
569.138982	2566.658110
569.494525	2568.561146
569.850013	2567.131979
570.205445	2568.029304
570.560823	2566.307750
570.916145	2566.557287
571.271412	2567.220199
571.626625	2569.387895
571.981782	2567.807493
572.336884	2563.908161
572.691931	2565.808676
573.046923	2566.274983
573.401860	2561.286761
573.756743	2567.510065
574.111570	2564.767678
574.466342	2568.183059
574.821059	2566.340518
575.175722	2566.958059
575.530330	2565.634756
575.884882	2563.706515
576.239380	2567.114335
576.593823	2568.747669
576.948211	2565.511248
577.302544	2563.731721
577.656823	2565.014694
578.011047	2565.730538
578.365216	2566.411094
578.719330	2566.194324
579.073389	2565.370096
579.427394	2565.559139
579.781344	2564.258521
580.135239	2565.216340
580.489080	2561.904302
580.842866	2562.242060
581.196597	2571.623647
581.550273	2564.780281
581.903895	2562.685681
582.257463	2564.702143
582.610975	2562.403377
582.964434	2565.042421
583.317837	2564.109807
583.671186	2565.133161
584.024481	2565.362534
584.377721	2562.073181
584.730906	2563.164591
585.084037	2563.104097
585.437113	2564.039231
585.790135	2562.375650
586.143103	2561.538819
586.496016	2564.923953
586.848874	2565.385219
587.201679	2564.969324
587.554428	2561.012018
587.907124	2562.985630
588.259765	2560.023952
588.612352	2560.770043
588.964884	2562.045455
589.317362	2563.358675
589.669786	2560.437327
590.022155	2559.151832
590.374470	2557.631924
590.726731	2560.333983
591.078937	2554.415668
591.431090	2562.073181
591.783188	2560.908674
592.135232	2562.342883
592.487222	2560.570917
592.839157	2561.657286
593.191038	2560.775084
593.542866	2561.574107
593.894639	2560.283571
594.246358	2560.056719
594.598022	2559.933211
594.949633	2559.295505
595.301190	2560.835578
595.652692	2559.469425
596.004141	2560.704508
596.355535	2560.931360
596.706876	2559.587892
597.058162	2558.952707
597.409395	2559.358520
597.760573	2559.328273
598.111698	2560.800290
598.462768	2559.391287
598.813785	2560.460012
599.164748	2558.869528
599.515657	2558.244425
599.866511	2558.751061
600.217312	2557.836091
600.568060	2558.251986
600.918753	2560.361709
601.269392	2559.116544
601.619978	2556.850546
601.970510	2561.170814
602.320988	2556.114537
602.671412	2558.496482
603.021783	2558.614949
603.372100	2558.289795
603.722363	2558.761143
604.072572	2560.608726
604.422728	2557.561348
604.772830	2559.083777
605.122878	2560.069322
605.472872	2559.628221
605.822813	2557.889023
606.172701	2558.216698
606.522534	2558.791390
606.872314	2562.237018
607.222041	2560.394477
607.571714	2557.841132
607.921333	2555.865000
608.270899	2557.440361
608.620411	2555.837274
608.969870	2561.017059
609.319276	2562.363047
609.668627	2569.755899
610.017926	2571.822772
610.367171	2575.094481
610.716362	2574.754203
611.065500	2569.927299
611.414585	2566.363203
611.763616	2567.164746
612.112594	2564.054354
612.461518	2564.560990
612.810389	2562.277348
613.159207	2563.068809
613.507971	2563.557801
613.856682	2563.373799
614.205340	2562.610064
614.553945	2562.794066
614.902496	2561.395146
615.250994	2562.723490
615.599439	2561.753068
615.947830	2561.979920
616.296169	2563.071329
616.644454	2560.094528
616.992686	2556.401883
617.340864	2559.570248
617.688990	2563.071329
618.037063	2563.681309
618.385082	2560.248283
618.733048	2560.260886
619.080961	2562.605023
619.428821	2561.705177
619.776628	2560.553273
620.124382	2563.847667
620.472083	2561.926988
620.819731	2563.272976
621.167326	2562.398335
621.514868	2564.986968
621.862357	2562.126113
622.209793	2561.357337
622.557176	2563.036041
622.904506	2560.132337
623.251783	2563.116700
623.599007	2563.855229
623.946179	2564.041752
624.293297	2562.761298
624.640363	2564.024107
624.987376	2561.609395
625.334336	2558.418344
625.681243	2559.045968
626.028097	2559.668551
626.374899	2563.706515
626.721647	2561.301884
627.068343	2561.692574
627.414987	2561.319528
627.761577	2561.604354
628.108115	2564.172822
628.454600	2561.463201
628.801032	2562.693243
629.147412	2563.270455
629.493739	2563.777091
629.840014	2563.903120
630.186236	2563.174673
630.532405	2564.941598
630.878521	2564.954200
631.224585	2563.010836
631.570597	2563.162070
631.916556	2562.294992
632.262462	2563.197358
632.608316	2563.061247
632.954117	2562.516803
633.299866	2561.911864
633.645562	2562.761298
633.991206	2564.959242
634.336797	2562.910012
634.682336	2565.254149
635.027823	2562.531926
635.373257	2564.182904
635.718639	2565.982596
636.063968	2562.526885
636.409245	2562.852039
636.754470	2562.902451
637.099642	2562.630228
637.444762	2563.426731
637.789829	2562.907492
638.134845	2562.564693
638.479808	2564.669375
638.824719	2564.992009
639.169577	2564.278686
639.514383	2562.955383
639.859137	2564.213151
640.203839	2564.480332
640.548489	2563.739282
640.893086	2566.784139
641.237632	2563.162070
641.582125	2564.593758
641.926566	2564.702143
642.270955	2563.036041
642.615292	2561.861452
642.959576	2561.700136
643.303809	2559.804662
643.647990	2566.043090
643.992118	2565.004612
644.336195	2564.646690
644.680219	2565.884293
645.024192	2567.726835
645.368112	2565.312122
645.711981	2567.721794
646.055797	2565.607030
646.399562	2567.280693
646.743274	2565.770867
647.086935	2569.213975
647.430544	2569.539130
647.774101	2570.055848
648.117606	2568.455282
648.461059	2569.677762
648.804460	2574.282856
649.147810	2571.832855
649.491108	2571.018708
649.834354	2570.736404
650.177548	2569.602144
650.520690	2569.705488
650.863781	2571.472412
651.206820	2568.001578
651.549807	2568.011660
651.892742	2570.728842
652.235626	2568.949315
652.578458	2569.682803
652.921238	2571.537947
653.263967	2571.686661
653.606644	2570.683472
653.949269	2570.945612
654.291843	2571.779923
654.634365	2569.685323
654.976836	2570.348235
655.319255	2572.455437
655.661622	2572.100036
656.003938	2573.456106
656.346203	2573.274625
656.688416	2573.554409
657.030577	2571.674058
657.372687	2574.968452
657.714746	2576.138000
658.056753	2574.746642
658.398708	2574.945767
658.740612	2574.897876
659.082465	2574.865109
659.424266	2571.984089
659.766016	2572.778071
660.107715	2575.482650
660.449362	2571.217834
660.790958	2577.995665
661.132503	2579.389544
661.473996	2580.367528
661.815438	2577.146231
662.156829	2579.699575
662.498168	2578.421643
662.839456	2581.494226
663.180693	2579.810481
663.521879	2582.157138
663.863013	2583.346850
664.204097	2584.965061
664.545129	2585.302818
664.886110	2582.804926
665.227040	2588.282140
665.567918	2587.657037
665.908746	2589.315576
666.249522	2587.956985
666.590248	2590.560741
666.930922	2591.377408
667.271545	2592.516709
667.612118	2595.143150
667.952639	2592.322625
668.293109	2594.762543
668.633528	2596.642893
668.973896	2596.451330
669.314213	2598.102307
669.654480	2594.865887
669.994695	2594.147522
670.334859	2594.109714
670.674973	2600.917792
671.015035	2600.630446
671.355047	2600.638008
671.695008	2602.669593
672.034918	2600.413677
672.374777	2604.267639
672.714585	2605.878287
673.054342	2605.520365
673.394049	2605.986672
673.733705	2606.823504
674.073310	2607.935078
674.412864	2611.176540
674.752368	2612.267950
675.091820	2609.099585
675.431223	2615.655605
675.770574	2615.675770
676.109875	2613.573609
676.449125	2610.753083
676.788324	2610.589246
677.127473	2614.002107
677.466571	2611.393310
677.805619	2614.155862
678.144616	2615.539659
678.483562	2619.953189
678.822458	2614.281891
679.161303	2617.616614
679.500098	2621.465535
679.838842	2622.730865
680.177535	2619.955709
680.516179	2622.297325
680.854771	2625.669857
681.193314	2632.402318
681.531805	2628.155146
681.870247	2637.826600
682.208638	2642.945892
682.546978	2649.005358
682.885268	2653.670946
683.223508	2649.469145
683.561697	2649.340595
683.899836	2650.278250
684.237925	2650.099289
684.575963	2652.196409
684.913951	2659.198572
685.251889	2656.191523
685.589776	2663.070178
685.927614	2659.007008
686.265401	2660.373160
686.603137	2668.494459
686.940824	2671.937567
687.278460	2682.004752
687.616046	2690.927594
687.953582	2695.535208
688.291068	2690.867100
688.628504	2700.707432
688.965889	2703.112063
689.303224	2709.461396
689.640510	2712.728064
689.977745	2705.244471
690.314930	2702.623071
690.652065	2703.424614
690.989150	2698.164170
691.326185	2694.244673
691.663170	2694.113603
692.000105	2691.620752
692.336990	2690.819209
692.673825	2688.157480
693.010610	2685.442818
693.347345	2680.436953
693.684030	2679.239679
694.020665	2678.228927
694.357251	2678.975018
694.693786	2686.577078
695.030272	2675.789009
695.366707	2682.221521
695.703093	2678.617096
696.039429	2680.517611
696.375716	2686.259485
696.711952	2680.706654
697.048139	2687.789476
697.384276	2692.162677
697.720363	2690.804086
698.056400	2688.989270
698.392388	2694.408511
698.728326	2694.108562
699.064214	2694.083356
699.400053	2706.348483
699.735842	2698.461598
700.071581	2693.959848
700.407270	2695.658717
700.742910	2697.559232
701.078501	2695.757019
701.414042	2695.000846
701.749533	2695.081505
702.084974	2691.414065
702.420366	2694.814323
702.755709	2695.283151
703.091002	2692.334076
703.426246	2696.145188
703.761440	2698.151567
704.096584	2697.796166
704.431679	2694.751309
704.766725	2696.861032
705.101721	2699.497555
705.436668	2697.753316
705.771565	2701.219109
706.106413	2706.829914
706.441212	2712.228989
706.775961	2711.477857
707.110661	2710.293186
707.445311	2724.226936
707.779913	2718.994218
708.114465	2729.376474
708.448967	2731.934860
708.783421	2731.405539
709.117825	2750.279619
709.452180	2751.993611
709.786485	2751.517222
710.120742	2771.162598
710.454949	2772.984976
710.789107	2782.333795
711.123216	2790.208078
711.457275	2811.751449
711.791286	2827.036227
712.125247	2818.887202
712.459159	2838.525017
712.793023	2850.240658
713.126837	2831.089315
713.460602	2842.411746
713.794318	2822.484065
714.127985	2838.537620
714.461602	2831.711897
714.795171	2821.191009
715.128691	2816.916111
715.462162	2796.910292
715.795584	2807.095943
716.128957	2799.569500
716.462281	2780.148455
716.795556	2803.063020
717.128782	2787.004424
717.461960	2769.577156
717.795088	2782.590894
718.128167	2783.866306
718.461198	2773.703340
718.794180	2769.468771
719.127113	2782.628703
719.459997	2776.435645
719.792833	2757.738006
720.125619	2765.934922
720.458357	2755.658530
720.791046	2757.188520
721.123686	2771.671755
721.456278	2759.343613
721.788821	2758.975609
722.121315	2753.374887
722.453761	2761.781011
722.786158	2769.773761
723.118506	2768.122783
723.450805	2772.231323
723.783056	2772.397681
724.115259	2767.164963
724.447412	2776.423042
724.779518	2777.453958
725.111574	2778.099226
725.443582	2788.274795
725.775542	2786.313786
726.107453	2803.793987
726.439315	2802.914306
726.771129	2808.336067
727.102895	2816.195226
727.434612	2826.769046
727.766281	2824.001452
728.097901	2838.320850
728.429473	2830.320539
728.760996	2835.608709
729.092471	2833.841785
729.423897	2835.167608
729.755276	2845.774196
730.086606	2839.026612
730.417887	2840.803618
730.749120	2847.853672
731.080305	2883.482027
731.411442	2894.081053
731.742530	2880.689228
732.073570	2903.659245
732.404562	2917.043508
732.735506	2893.738254
733.066401	2923.231525
733.397249	2919.508633
733.728048	2900.080026
734.058798	2874.433156
734.389501	2871.481560
734.720156	2860.315404
735.050762	2836.417814
735.381320	2826.675785
735.711831	2838.993844
736.042293	2831.734582
736.372707	2837.915037
736.703073	2827.126968
737.033391	2828.916577
737.363661	2828.835919
737.693883	2834.237515
738.024056	2853.426667
738.354182	2855.740557
738.684260	2861.336238
739.014290	2868.973586
739.344272	2884.046636
739.674207	2880.056563
740.004093	2893.055178
740.333931	2901.100859
740.663722	2897.549367
740.993464	2914.825401
741.323159	2930.689912
741.652806	2884.961605
741.982405	2881.563868
742.311956	2919.669950
742.641460	2899.767474
742.970915	2869.810418
743.300323	2879.295348
743.629683	2873.676983
743.958996	2864.837319
744.288260	2854.709641
744.617477	2862.684747
744.946647	2870.254039
745.275768	2844.602128
745.604842	2843.215810
745.933869	2846.893332
746.262847	2838.230109
746.591778	2844.299658
746.920662	2845.885101
747.249498	2845.680935
747.578286	2848.473734
747.907027	2863.511496
748.235720	2874.231509
748.564365	2863.473687
748.892963	2864.837319
749.221514	2905.403484
749.550017	2886.519322
749.878473	2859.806248
750.206881	2879.474309
750.535242	2873.044318
750.863555	2862.178111
751.191821	2873.359390
751.520039	2881.931872
751.848210	2863.171218
752.176334	2862.334386
752.504411	2884.054198
752.832440	2877.868702
753.160421	2857.371370
753.488356	2871.647918
753.816243	2896.233625
754.144082	2866.500900
754.471875	2856.806761
754.799620	2877.364587
755.127318	2877.820811
755.454969	2869.870911
755.782572	2864.028214
756.110129	2879.078579
756.437638	2891.598284
756.765100	2872.305789
757.092515	2870.029708
757.419882	2877.886346
757.747203	2878.846686
758.074477	2898.867628
758.401703	2902.701426
758.728882	2875.121273
759.056014	2882.420864
759.383099	2919.967378
759.710138	2919.669950
760.037129	2905.854668
760.364073	2904.538926
760.690970	2929.590940
761.017820	2940.056376
761.344623	2915.813467
761.671379	2935.015222
761.998088	2948.273457
762.324751	2979.904176
762.651366	3052.169117
762.977935	3200.021118
763.304456	3369.610574
763.630931	3474.580000
763.957359	3434.129782
764.283740	3365.151674
764.610074	3306.003816
764.936362	3183.602080
765.262602	3099.833226
765.588796	3022.789272
765.914943	2973.378403
766.241044	2977.917962
766.567097	2962.776856
766.893104	2921.187337
767.219064	2884.626369
767.544978	2889.692728
767.870845	2886.897408
768.196665	2863.176259
768.522438	2856.935311
768.848165	2858.142667
769.173846	2852.778879
769.499479	2846.832838
769.825066	2838.288082
770.150607	2829.829026
770.476101	2825.667554
770.801548	2836.029646
771.126949	2831.472442
771.452303	2817.205977
771.777611	2812.429484
772.102872	2816.419557
772.428087	2813.107519
772.753256	2815.980977
773.078378	2809.931592
773.403453	2800.386167
773.728482	2802.279121
774.053465	2793.590692
774.378401	2794.276289
774.703291	2802.863894
775.028135	2790.500465
775.352932	2781.547375
775.677683	2777.126283
776.002388	2783.977212
776.327046	2790.311421
776.651658	2772.206117
776.976224	2757.861514
777.300743	2764.258738
777.625216	2777.143927
777.949643	2783.069804
778.274024	2766.227309
778.598359	2752.553179
778.922647	2761.208840
779.246889	2765.486259
779.571086	2767.170005
779.895236	2764.047010
780.219339	2758.156422
780.543397	2756.974271
780.867409	2764.296547
781.191374	2778.913372
781.515294	2765.627412
781.839167	2761.947369
782.162995	2769.488935
782.486776	2764.442740
782.810511	2770.761827
783.134201	2777.206942
783.457844	2763.779829
783.781441	2751.865062
784.104993	2757.377563
784.428498	2762.491814
784.751958	2768.034562
785.075372	2762.408635
785.398739	2751.590319
785.722061	2753.735330
786.045337	2767.898451
786.368568	2783.185750
786.691752	2754.186513
787.014891	2758.181627
787.337983	2783.896553
787.661030	2807.955460
787.984031	2834.426559
788.306987	2860.312884
788.629897	2874.750748
788.952760	2865.285982
789.275579	2857.837677
789.598351	2868.648432
789.921078	2849.610514
790.243759	2800.885242
790.566395	2802.637042
790.888984	2810.642395
791.211529	2787.730351
791.534027	2780.571912
791.856480	2787.170782
792.178888	2768.954573
792.501249	2749.377252
792.823566	2757.458222
793.145836	2773.632764
793.468062	2763.618512
793.790241	2746.352560
794.112375	2752.487644
794.434464	2765.370313
794.756507	2780.302210
795.078505	2772.450613
795.400457	2764.888882
795.722364	2794.533388
796.044226	2812.190029
796.366042	2823.237718
796.687812	2826.627894
797.009538	2825.080259
797.331218	2820.260916
797.652852	2812.623568
797.974442	2817.848724
798.295986	2827.888182
798.617484	2809.722384
798.938938	2786.855710
799.260346	2802.682413
799.581709	2808.532672
799.903026	2794.820733
800.224299	2783.523508
800.545526	2784.506533
800.866708	2780.403033
801.187845	2759.348654
801.508936	2779.785492
801.829983	2780.632406
802.150984	2756.981833
802.471940	2756.555855
802.792851	2759.336052
803.113717	2761.105497
803.434538	2766.784356
803.755314	2752.759866
804.076045	2738.662280
804.396731	2745.384658
804.717372	2757.561565
805.037967	2754.912439
805.358518	2749.803230
805.679024	2753.284146
805.999485	2754.602408
806.319901	2756.422265
806.640272	2765.405601
806.960598	2765.456012
807.280879	2759.121802
807.601115	2758.539549
807.921306	2765.854263
808.241453	2779.891356
808.561554	2775.571087
808.881611	2754.836822
809.201623	2763.573141
809.521590	2773.400871
809.841513	2768.185797
810.161390	2780.332457
810.481223	2780.871861
810.801011	2759.091556
811.120755	2752.646440
811.440453	2770.512290
811.760107	2780.284566
812.079716	2768.221085
812.399281	2755.673653
812.718801	2765.166146
813.038276	2753.571492
813.357707	2762.310332
813.677093	2772.112856
813.996434	2755.106523
814.315731	2753.183323
814.634983	2755.015783
814.954191	2761.523912
815.273354	2770.330808
815.592473	2773.463885
815.911547	2766.108842
816.230577	2777.106119
816.549562	2787.982408
816.868502	2808.210038
817.187399	2816.560709
817.506250	2812.479895
817.825058	2801.636373
818.143821	2826.882472
818.462539	2863.143492
818.781213	2876.542878
819.099843	2878.365256
819.418429	2929.835436
819.736970	2987.680156
820.055466	3030.978627
820.373919	3132.872949
820.692327	3236.309864
821.010691	3308.083292
821.329011	3578.894076
821.647286	4054.678176
821.965517	4695.996125
822.283704	5209.808169
822.601847	5518.069685
822.919945	5433.070790
823.237999	5206.831367
823.556010	4919.848561
823.873976	4658.805012
824.191897	4205.343141
824.509775	3905.495311
824.827609	3662.388187
825.145398	3526.995398
825.463144	3524.673946
825.780845	3545.171278
826.098502	3542.370917
826.416116	3679.717153
826.733685	3924.427364
827.051210	4173.054551
827.368692	4263.681894
827.686129	4051.872774
828.003522	3717.656877
828.320872	3509.101822
828.638177	3364.055223
828.955439	3244.000144
829.272656	3108.476285
829.589830	3025.332534
829.906960	2993.117041
830.224046	2936.298196
830.541088	2909.781726
830.858086	2903.129924
831.175041	2882.433467
831.491952	2875.466592
831.808819	2880.497664
832.125642	2899.817886
832.442421	2940.033691
832.759157	3002.213803
833.075849	3126.957155
833.392497	3309.202428
833.709101	3443.143365
834.025662	3543.467368
834.342179	3512.083664
834.658653	3388.179665
834.975083	3253.747215
835.291469	3110.825462
835.607811	2984.814260
835.924110	2964.097638
836.240366	2905.161509
836.556578	2845.154134
836.872746	2810.735656
837.188871	2804.834986
837.504952	2793.462142
837.820990	2762.403594
838.136984	2743.683269
838.452935	2759.159611
838.768842	2759.051226
839.084706	2767.273348
839.400526	2805.089564
839.716303	2864.250025
840.032037	2979.846203
840.347727	3064.608164
840.663373	3024.067205
840.978977	2942.944957
841.294537	2862.145343
841.610054	2795.728141
841.925527	2764.709922
842.240957	2744.426839
842.556344	2731.965107
842.871687	2718.149825
843.186987	2700.541074
843.502244	2687.544980
843.817458	2680.043743
844.132629	2667.927329
844.447756	2671.756086
844.762840	2672.050993
845.077881	2659.196051
845.392879	2652.032571
845.707833	2650.663898
846.022745	2649.441418
846.337613	2654.323776
846.652438	2650.305976
846.967221	2652.350164
847.281960	2646.036119
847.596656	2642.207362
847.911309	2645.814308
848.225919	2640.934471
848.540485	2636.881383
848.855009	2640.178298
849.169490	2642.202321
849.483928	2637.675365
849.798323	2633.196300
850.112675	2632.210754
850.426984	2638.194604
850.741251	2640.964718
851.055474	2632.921557
851.369654	2633.423152
851.683792	2635.427011
851.997887	2636.044552
852.311938	2636.445324
852.625947	2631.353758
852.939914	2636.951960
853.253837	2639.096971
853.567718	2632.813172
853.881555	2630.095990
854.195350	2638.464306
854.509103	2636.646970
854.822812	2635.195117
855.136479	2633.831485
855.450103	2632.740076
855.763685	2628.956690
856.077224	2623.797069
856.390720	2632.493059
856.704173	2635.308543
857.017584	2636.452885
857.330953	2631.189921
857.644278	2636.709984
857.957561	2636.457927
858.270802	2640.321971
858.584000	2637.645118
858.897155	2637.710653
859.210268	2639.651497
859.523339	2638.766775
859.836367	2637.698050
860.149352	2635.827782
860.462295	2634.847278
860.775195	2638.918010
861.088054	2642.434214
861.400869	2634.025570
861.713642	2628.908799
862.026373	2635.288379
862.339062	2638.061013
862.651708	2639.797691
862.964312	2640.291724
863.276873	2640.722743
863.589392	2638.630664
863.901869	2642.323309
864.214303	2650.515184
864.526696	2657.439209
864.839045	2655.175731
865.151353	2656.569610
865.463619	2651.795637
865.775842	2653.323107
866.088023	2660.660506
866.400162	2666.389778
866.712258	2656.166317
867.024313	2651.896460
867.336325	2655.561379
867.648296	2665.182421
867.960224	2659.443067
868.272110	2656.012562
868.583954	2657.280412
868.895755	2664.554797
869.207515	2659.473314
869.519233	2659.405259
869.830909	2667.140909
870.142542	2672.819769
870.454134	2669.359017
870.765684	2674.135510
871.077191	2671.244409
871.388657	2672.829852
871.700081	2676.194822
872.011463	2682.529032
872.322803	2682.702951
872.634101	2683.433919
872.945357	2688.767459
873.256571	2696.815662
873.567744	2692.959179
873.878874	2688.127233
874.189963	2699.825230
874.501010	2699.918492
874.812015	2696.921526
875.122979	2699.832792
875.433900	2698.733821
875.744780	2699.517720
876.055618	2703.961497
876.366415	2704.526106
876.677169	2714.711758
876.987882	2711.830738
877.298554	2704.480736
877.609183	2717.184444
877.919771	2727.609550
878.230317	2737.071796
878.540822	2764.979623
878.851285	2778.414298
879.161707	2792.458953
879.472087	2824.558500
879.782425	2899.331414
880.092722	3058.344530
880.402977	3206.867005
880.713191	3304.506593
881.023363	3481.541834
881.333494	3692.657795
881.643583	3776.320784
881.953631	3777.364303
882.263637	3739.603540
882.573602	3691.016900
882.883526	3603.492387
883.193408	3452.580405
883.503248	3326.047443
883.813048	3262.982609
884.122806	3190.364788
884.432522	3092.251331
884.742197	3011.953312
885.051831	2942.284566
885.361424	2889.906977
885.670975	2869.535675
885.980485	2837.786488
886.289954	2812.114412
886.599382	2795.566824
886.908768	2777.146448
887.218113	2759.716659
887.527417	2739.063051
887.836680	2721.227449
888.145901	2723.942110
888.455082	2724.161401
888.764221	2703.885880
889.073319	2696.409849
889.382376	2692.870959
889.691392	2693.889272
890.000366	2695.046217
890.309300	2685.160514
890.618193	2690.872141
890.927044	2700.747762
891.235855	2700.649459
891.544625	2689.924404
891.853353	2693.594364
892.162041	2699.933615
892.470687	2715.180585
892.779293	2734.669686
893.087858	2749.054618
893.396381	2772.478340
893.704864	2807.504277
894.013306	2879.502036
894.321707	2973.975779
894.630068	3040.463558
894.938387	3041.703681
895.246665	3039.876263
895.554903	3016.883560
895.863100	2957.854169
896.171256	2904.455747
896.479371	2863.511496
896.787446	2818.723364
897.095480	2779.261212
897.403473	2747.905235
897.711425	2733.883266
898.019336	2730.598954
898.327207	2721.073694
898.635038	2708.546427
898.942827	2699.482432
899.250576	2697.294571
899.558284	2682.483661
899.865952	2673.480160
900.173579	2669.537978
900.481165	2666.614109
900.788711	2664.121258
901.096216	2650.474855
901.403681	2645.474030
901.711105	2654.149856
902.018489	2652.854279
902.325832	2651.372180
902.633135	2651.984680
902.940397	2666.432627
903.247619	2692.087059
903.554800	2756.291195
903.861941	2850.275946
904.169041	2974.550471
904.476101	3071.058320
904.783121	3082.332861
905.090100	3030.361085
905.397039	2955.729323
905.703938	2869.018956
906.010796	2801.278452
906.317614	2763.232863
906.624391	2727.571741
906.931129	2701.866898
907.237826	2678.097857
907.544483	2655.707572
907.851099	2644.919503
908.157675	2633.592031
908.464211	2628.034158
908.770707	2621.304218
909.077163	2616.777262
909.383578	2608.461879
909.689954	2602.049531
909.996289	2601.066506
910.302584	2602.505755
910.608839	2606.178236
910.915054	2602.946856
911.221229	2598.576176
911.527363	2598.939139
911.833458	2603.927361
912.139513	2604.060951
912.445527	2604.272680
912.751502	2609.742332
913.057436	2615.138887
913.363331	2617.833384
913.669186	2623.199692
913.975000	2637.249388
914.280775	2659.826195
914.586510	2688.918694
914.892205	2713.075903
915.197859	2752.094434
915.503475	2808.701551
915.809050	2868.958462
916.114585	2916.804054
916.420081	2930.117741
916.725536	2924.068356
917.030952	2896.951990
917.336328	2857.290712
917.641665	2807.206848
917.946961	2774.648556
918.252218	2755.524939
918.557435	2727.579303
918.862612	2709.085830
919.167750	2687.050947
919.472848	2670.679799
919.777906	2658.838129
920.082925	2652.398055
920.387904	2638.134110
920.692843	2632.324180
920.997743	2623.890330
921.302603	2623.640793
921.607423	2617.243569
921.912204	2611.156375
922.216946	2609.906169
922.521647	2604.275200
922.826310	2600.948039
923.130932	2597.696495
923.435516	2592.050402
923.740059	2590.301122
924.044564	2589.854980
924.349028	2585.383476
924.653454	2583.364494
924.957840	2580.092785
925.262186	2576.758062
925.566493	2574.867629
925.870761	2574.492063
926.174989	2571.805128
926.479178	2571.187587
926.783328	2566.189283
927.087438	2567.903275
927.391509	2566.257339
927.695541	2562.705846
927.999533	2563.724159
928.303486	2563.504869
928.607400	2559.771894
928.911275	2562.194169
929.215110	2561.937070
929.518906	2561.017059
929.822663	2560.941442
930.126381	2562.862122
930.430060	2563.497307
930.733699	2562.027811
931.037299	2560.223077
931.340861	2560.845660
931.644383	2559.623180
931.947866	2562.015208
932.251309	2563.020918
932.554714	2560.578479
932.858080	2559.643345
933.161407	2558.834240
933.464694	2558.188972
933.767943	2556.293498
934.071153	2556.510268
934.374323	2561.808520
934.677455	2560.165104
934.980548	2557.957079
935.283602	2557.871379
935.586617	2556.568241
935.889593	2556.716955
936.192530	2556.364074
936.495428	2558.060422
936.798287	2559.910526
937.101108	2561.299364
937.403890	2562.471432
937.706632	2566.761454
938.009336	2566.960580
938.312002	2570.832186
938.614628	2576.082547
938.917216	2576.858885
939.219765	2579.455079
939.522275	2575.578432
939.824747	2578.320820
940.127179	2575.207907
940.429573	2575.064234
940.731929	2574.406364
941.034246	2571.452248
941.336524	2569.340004
941.638763	2569.390416
941.940964	2570.685992
942.243126	2567.094170
942.545250	2566.738769
942.847335	2568.760272
943.149381	2565.312122
943.451389	2562.360527
943.753359	2560.991853
944.055290	2562.418500
944.357182	2560.588561
944.659036	2559.499672
944.960851	2559.154353
945.262628	2559.963458
945.564367	2560.873386
945.866067	2559.290464
946.167729	2557.291647
946.469352	2559.686195
946.770937	2560.989333
947.072484	2558.582182
947.373992	2560.495300
947.675462	2555.668395
947.976893	2555.176882
948.278286	2553.067160
948.579641	2553.556152
948.880958	2552.363919
949.182236	2555.965823
949.483476	2556.918601
949.784678	2555.948179
950.085841	2558.932542
950.386967	2557.155535
950.688054	2555.784342
950.989103	2555.212171
951.290114	2556.585885
951.591087	2558.065464
951.892021	2558.859445
952.192917	2559.290464
952.493776	2560.618808
952.794596	2560.800290
953.095378	2561.357337
953.396122	2561.672409
953.696828	2559.035886
953.997496	2557.243756
954.298126	2558.393139
954.598718	2557.223591
954.899272	2553.326779
955.199788	2554.050185
955.500266	2554.201419
955.800706	2553.576316
956.101108	2551.474155
956.401472	2551.423743
956.701798	2549.939124
957.002087	2547.128680
957.302337	2550.710420
957.602550	2549.069525
957.902724	2545.288659
958.202861	2547.847045
958.502960	2545.654143
958.803022	2545.996941
959.103045	2547.433670
959.403031	2547.824360
959.702979	2541.699358
960.002889	2546.019627
960.302762	2543.287321
960.602596	2542.858823
960.902393	2543.819163
961.202153	2544.121632
961.501875	2543.433515
961.801559	2544.484595
962.101205	2546.067518
962.400814	2543.708257
962.700385	2541.684234
962.999918	2542.072403
963.299414	2539.372865
963.598873	2542.974770
963.898293	2536.242309
964.197677	2544.837476
964.497022	2542.037115
964.796331	2543.095757
965.095601	2540.532331
965.394835	2543.294883
965.694030	2540.212217
965.993189	2544.756818
966.292309	2541.318751
966.591393	2543.804039
966.890439	2541.240613
967.189447	2544.633309
967.488419	2542.579039
967.787353	2542.195911
968.086249	2541.089378
968.385108	2542.299255
968.683930	2543.317568
968.982714	2542.029553
969.281462	2542.165664
969.580172	2541.863195
969.878844	2542.374872
970.177480	2542.001827
970.476078	2542.664739
970.774639	2545.112219
971.073162	2542.848741
971.371649	2541.283463
971.670098	2542.959646
971.968510	2542.810932
972.266885	2542.011909
972.565223	2543.529297
972.863524	2542.778165
973.161788	2544.645912
973.460014	2542.120294
973.758204	2541.540561
974.056356	2542.037115
974.354471	2545.311344
974.652550	2543.030222
974.950591	2542.316899
975.248595	2543.758669
975.546563	2543.854451
975.844493	2541.399409
976.142386	2540.431507
976.440243	2543.118443
976.738062	2543.486447
977.035845	2542.551313
977.333590	2543.347815
977.631299	2540.711292
977.928971	2540.307999
978.226606	2537.348842
978.524204	2541.122146
978.821765	2536.978317
979.119290	2540.943185
979.416777	2541.616179
979.714228	2539.045190
980.011642	2540.194573
980.309020	2540.607948
980.606360	2540.547454
980.903664	2540.665921
981.200931	2541.646426
981.498162	2542.518545
981.795356	2545.384441
982.092513	2541.807742
982.389633	2546.886705
982.686717	2545.938968
982.983764	2546.821170
983.280775	2548.600697
983.577749	2548.754452
983.874686	2551.249824
984.171587	2550.140770
984.468451	2547.516849
984.765279	2549.205636
985.062070	2544.197249
985.358824	2544.837476
985.655543	2544.008206
985.952224	2541.961498
986.248869	2541.679193
986.545478	2543.708258
986.842050	2541.976621
987.138586	2537.696682
987.435086	2542.453010
987.731549	2541.406971
988.027975	2540.630633
988.324366	2538.578883
988.620719	2540.378575
988.917037	2538.662062
989.213318	2540.323123
989.509563	2537.411856
989.805772	2543.514173
990.101944	2539.781199
990.398080	2540.844882
990.694180	2539.332536
990.990244	2542.871426
991.286271	2541.132228
991.582262	2542.642053
991.878217	2539.574511
992.174136	2541.366642
992.470019	2541.762372
992.765865	2539.418236
993.061676	2535.455889
993.357450	2538.921682
993.653188	2534.591331
993.948890	2541.951415
994.244556	2540.640715
994.540186	2539.859337
994.835780	2537.946219
995.131337	2541.341436
995.426859	2540.849923
995.722345	2540.736497
996.017795	2541.419574
996.313208	2542.629451
996.608586	2543.466282
996.903928	2544.996272
997.199234	2543.975439
997.494504	2542.037115
997.789738	2542.974770
998.084936	2543.436035
998.380099	2541.689275
998.675225	2541.157434
998.970316	2539.861857
999.265371	2539.728267
999.560390	2541.409491
999.855373	2542.664739
1000.150320	2540.209697
1000.445232	2540.764224
1000.740108	2540.428987
1001.034948	2538.760365
1001.329752	2539.720705
1001.624521	2539.108205
1001.919254	2540.582742
1002.213951	2542.584080
1002.508613	2540.310520
1002.803239	2539.274563
1003.097829	2539.332536
1003.392384	2542.064841
1003.686903	2537.479912
1003.981386	2541.152393
1004.275834	2540.176929
1004.570246	2540.489481
1004.864623	2540.307999
1005.158964	2539.952598
1005.453270	2540.297917
1005.747540	2537.893287
1006.041775	2536.501928
1006.335974	2538.583925
1006.630138	2542.281611
1006.924266	2540.479398
1007.218359	2538.505787
1007.512416	2535.924716
1007.806438	2534.641742
1008.100425	2537.681558
1008.394376	2535.723070
1008.688292	2538.331867
1008.982172	2541.233051
1009.276017	2538.883873
1009.569827	2539.234233
1009.863602	2537.626105
1010.157341	2538.669624
1010.451045	2540.585263
1010.744714	2536.408667
1011.038347	2539.435880
1011.331945	2539.226672
1011.625508	2541.641384
1011.919036	2537.616023
1012.212528	2540.192053
1012.505986	2537.608461
1012.799408	2536.159130
1013.092795	2539.524100
1013.386147	2537.792463
1013.679464	2538.122659
1013.972745	2541.235572
1014.265992	2537.091743
1014.559204	2537.361445
1014.852380	2541.225489
1015.145521	2538.604089
1015.438628	2539.120808
1015.731699	2539.017464
1016.024736	2539.002340
1016.317737	2540.915458
1016.610703	2539.151054
1016.903635	2537.767258
1017.196531	2540.744059
1017.489393	2539.879501
1017.782219	2537.794984
1018.075011	2538.820859
1018.367768	2537.747093
1018.660490	2537.179963
1018.953177	2537.179963
1019.245829	2537.179963
