Dividing Wavelength (nm)	Counts (n)	Blue Motor Position (mm): 23.000000	Red Motor Position (mm): 0.000000	
326.493990	2135.967132
326.888308	2135.967132
327.282561	2135.967132
327.676750	2102.372882
328.070874	2099.587645
328.464933	2103.844899
328.858929	2109.385127
329.252859	2121.032713
329.646726	2133.703653
330.040528	2140.363018
330.434265	2160.968734
330.827938	2178.748884
331.221547	2196.004753
331.615091	2214.694831
332.008571	2232.747203
332.401986	2253.635224
332.795338	2274.261105
333.188625	2293.321708
333.581847	2311.636220
333.975006	2332.015084
334.368100	2346.311796
334.761129	2367.008253
335.154095	2380.478217
335.546996	2402.611403
335.939833	2426.582089
336.332606	2441.829059
336.725315	2451.112344
337.117960	2462.447378
337.510540	2469.474747
337.903056	2481.507981
338.295508	2489.089876
338.687896	2498.622698
339.080220	2505.881960
339.472480	2510.749194
339.864676	2515.255985
340.256807	2521.033147
340.648875	2524.350227
341.040879	2527.508510
341.432818	2528.667975
341.824694	2528.909950
342.216506	2530.253418
342.608253	2529.567821
342.999937	2529.184693
343.391557	2528.138654
343.783113	2526.427182
344.174605	2528.738551
344.566033	2525.106400
344.957397	2522.971471
345.348697	2523.047088
345.739934	2522.873169
346.131106	2520.113137
346.522215	2517.464011
346.913260	2518.711696
347.304241	2512.763135
347.695159	2511.638957
348.086012	2509.458658
348.476802	2505.788698
348.867528	2505.471106
349.258191	2506.023112
349.648789	2503.338698
350.039324	2504.745179
350.429796	2501.675117
350.820203	2502.456496
351.210548	2498.721001
351.600828	2499.174704
351.991045	2497.869046
352.381198	2496.273520
352.771288	2497.959786
353.161314	2495.691267
353.551276	2495.419045
353.941175	2496.465084
354.331010	2497.649755
354.720782	2497.236381
355.110490	2498.927688
355.500135	2499.240239
355.889717	2496.903665
356.279235	2499.300733
356.668689	2496.765033
357.058080	2497.052379
357.447408	2493.911740
357.836672	2493.160608
358.225873	2499.046155
358.615010	2492.906030
359.004084	2497.183449
359.393095	2498.693274
359.782043	2502.852226
360.170927	2501.551608
360.559748	2501.329798
360.948505	2503.958759
361.337199	2503.870539
361.725830	2505.337515
362.114398	2505.244254
362.502903	2502.698471
362.891344	2506.559995
363.279722	2504.513286
363.668037	2503.046311
364.056289	2505.990344
364.444478	2507.313647
364.832603	2506.522186
365.220665	2506.007988
365.608665	2505.778616
365.996601	2506.456651
366.384474	2509.390603
366.772284	2506.726353
367.160031	2505.657628
367.547715	2510.852537
367.935336	2508.180726
368.322893	2508.568895
368.710388	2511.626354
369.097820	2510.514780
369.485189	2509.362876
369.872495	2511.402023
370.259738	2508.155520
370.646918	2508.982269
371.034035	2511.984276
371.421090	2509.166271
371.808081	2512.062414
372.195010	2511.265912
372.581875	2512.737929
372.968678	2512.407733
373.355418	2513.370594
373.742096	2515.387055
374.128710	2512.836231
374.515262	2516.135667
374.901751	2512.017044
375.288177	2513.191633
375.674540	2511.762466
376.060841	2513.105933
376.447079	2516.052487
376.833254	2514.328413
377.219367	2509.413288
377.605417	2514.714061
377.991404	2513.360511
378.377329	2512.669873
378.763191	2513.085768
379.148991	2516.118022
379.534727	2516.153311
379.920402	2515.104751
380.306013	2516.130625
380.691563	2515.402179
381.077049	2517.826974
381.462474	2517.645492
381.847835	2516.894360
382.233134	2520.100534
382.618371	2519.533404
383.003545	2517.811850
383.388657	2517.610204
383.773706	2520.014834
384.158693	2515.538290
384.543618	2518.666326
384.928480	2521.643127
385.313280	2519.971985
385.698017	2519.893847
386.082692	2518.794875
386.467305	2518.736902
386.851856	2516.397807
387.236344	2519.755215
387.620770	2524.851822
388.005133	2521.358302
388.389435	2520.256810
388.773674	2522.490041
389.157851	2519.800585
389.541965	2524.171266
389.926018	2524.435926
390.310008	2522.956348
390.693936	2522.497603
391.077802	2520.191275
391.461606	2524.851822
391.845348	2521.801923
392.229027	2526.734692
392.612645	2521.927952
392.996200	2523.231091
393.379694	2524.292253
393.763125	2524.526667
394.146494	2522.686646
394.529801	2524.619928
394.913047	2524.327542
395.296230	2527.102697
395.679351	2525.358457
396.062410	2524.776204
396.445408	2525.048427
396.828343	2525.837367
397.211217	2522.616070
397.594028	2521.363343
397.976778	2522.575741
398.359466	2525.875176
398.742092	2522.573220
399.124656	2528.809127
399.507158	2529.010773
399.889598	2528.632687
400.271977	2525.875176
400.654294	2529.121679
401.036549	2526.782583
401.418742	2528.882224
401.800874	2528.065557
402.182944	2527.879034
402.564952	2530.961700
402.946898	2530.220650
403.328783	2530.283665
403.710606	2529.832482
404.092367	2527.944569
404.474067	2528.234436
404.855705	2525.812161
405.237282	2531.002029
405.618797	2532.199303
406.000250	2528.400794
406.381642	2530.447502
406.762972	2531.735517
407.144240	2530.876000
407.525447	2532.884900
407.906593	2530.306350
408.287677	2532.751310
408.668700	2529.519930
409.049661	2532.756351
409.430560	2531.294416
409.811399	2533.696526
410.192176	2532.002698
410.572891	2531.937163
410.953545	2530.661751
411.334138	2534.150230
411.714669	2531.173428
412.095139	2534.278779
412.475547	2532.738707
412.855894	2533.651156
413.236180	2533.494880
413.616405	2535.057637
413.996568	2534.840868
414.376670	2536.317926
414.756711	2533.567977
415.136691	2535.297092
415.516609	2534.344314
415.896466	2535.218954
416.276262	2536.237268
416.655997	2531.612009
417.035670	2531.438089
417.415283	2534.687113
417.794834	2530.276103
418.174324	2535.768440
418.553753	2532.400949
418.933121	2537.971424
419.312428	2534.369520
419.691674	2534.132586
420.070859	2534.745086
420.449983	2534.477905
420.829045	2537.676517
421.208047	2536.973276
421.586988	2536.620395
421.965867	2535.639891
422.344686	2534.525796
422.723444	2539.209028
423.102141	2535.430683
423.480777	2538.425128
423.859352	2537.311033
424.237866	2534.916485
424.616319	2539.922351
424.994712	2539.188863
425.373044	2538.866229
425.751314	2540.048380
426.129524	2539.788760
426.507673	2537.081661
426.885762	2538.324305
427.263789	2540.421425
427.641756	2539.624923
428.019662	2540.265149
428.397508	2539.340098
428.775292	2541.444779
429.153016	2538.684748
429.530679	2541.054090
429.908282	2539.057793
430.285824	2540.086188
430.663305	2538.505787
431.040726	2540.123997
431.418086	2540.234903
431.795385	2543.219266
432.172624	2539.312371
432.549802	2539.914789
432.926920	2541.482588
433.303977	2545.452497
433.680974	2541.656508
434.057910	2542.440407
434.434786	2542.369831
434.811601	2544.290511
435.188355	2544.708927
435.565050	2543.541899
435.941683	2542.558874
436.318257	2537.752134
436.694770	2538.087371
437.071222	2544.608103
437.447614	2540.572660
437.823946	2541.764893
438.200218	2541.762372
438.576429	2540.802032
438.952580	2544.802188
439.328670	2545.119781
439.704700	2543.914945
440.080670	2544.663556
440.456580	2545.591128
440.832429	2543.219266
441.208218	2543.834286
441.583947	2546.392672
441.959616	2543.425953
442.335224	2547.637837
442.710773	2546.395192
443.086261	2546.329658
443.461689	2544.245140
443.837057	2544.131714
444.212365	2548.744370
444.587612	2548.388969
444.962800	2544.663556
445.337927	2548.018444
445.712995	2543.516694
446.088002	2548.018444
446.462949	2547.000131
446.837837	2549.112374
447.212664	2548.008362
447.587431	2549.659340
447.962139	2546.778320
448.336786	2550.513815
448.711374	2549.243444
449.085901	2547.879812
449.460369	2546.546427
449.834776	2550.108002
450.209124	2547.395862
450.583412	2550.443239
450.957640	2550.004659
451.331808	2550.808723
451.705917	2550.652447
452.079965	2550.697817
452.453954	2551.242262
452.827883	2549.709751
453.201752	2552.994063
453.575562	2551.317879
453.949311	2551.169165
454.323001	2549.959288
454.696632	2550.032385
455.070202	2552.623538
455.443713	2552.946172
455.817164	2551.597663
456.190556	2550.183620
456.563888	2551.806871
456.937160	2549.218239
457.310373	2556.094372
457.683526	2555.108827
458.056619	2556.527912
458.429653	2555.265103
458.802628	2556.485062
459.175542	2558.095711
459.548398	2556.626214
459.921194	2559.088818
460.293930	2557.551266
460.666607	2562.176525
461.039224	2561.606874
461.411782	2563.288099
461.784280	2565.246587
462.156719	2566.852195
462.529099	2565.604509
462.901419	2568.291444
463.273680	2567.472257
463.645882	2570.244891
464.018024	2570.149109
464.390106	2572.062227
464.762130	2578.494740
465.134094	2586.631162
465.505999	2597.588110
465.877845	2614.312138
466.249631	2621.798251
466.621358	2622.002418
466.993026	2625.145577
467.364634	2627.686319
467.736184	2625.906792
468.107674	2628.918881
468.479105	2637.279635
468.850477	2639.764923
469.221790	2646.084010
469.593043	2647.946716
469.964238	2653.108858
470.335373	2659.110351
470.706449	2670.962104
471.077467	2679.554751
471.448425	2717.680997
471.819324	2757.523757
472.190164	2767.293513
472.560945	2745.435070
472.931667	2739.723442
473.302330	2746.881881
473.672934	2750.128384
474.043479	2774.187291
474.413965	2782.832870
474.784393	2790.823098
475.154761	2813.624237
475.525070	2832.841116
475.895321	2840.012157
476.265513	2863.660210
476.635645	2893.526526
477.005719	2913.968405
477.375734	2937.722322
477.745691	2974.114411
478.115588	3007.244874
478.485427	3047.972356
478.855207	3115.733026
479.224928	3220.546176
479.594591	3300.466108
479.964194	3314.709888
480.333739	3326.060046
480.703226	3362.447095
481.072653	3406.942839
481.442022	3489.592557
481.811333	3541.103067
482.180584	3562.676684
482.549777	3578.763006
482.918912	3600.329062
483.287988	3650.985097
483.657005	3695.266592
484.025964	3701.358827
484.394864	3768.073457
484.763706	3813.280004
485.132489	3823.173268
485.501213	3870.882748
485.869879	3920.994338
486.238487	3963.743323
486.607036	4023.203732
486.975527	4053.523752
487.343959	4135.389570
487.712333	4210.535530
488.080648	4246.831838
488.448905	4327.565916
488.817104	4371.184500
489.185244	4488.829907
489.553326	4599.783183
489.921350	4805.290861
490.289315	5140.996419
490.657222	5294.413854
491.025070	5363.684349
491.392861	5404.295884
491.760593	5385.840220
492.128267	5366.691397
492.495883	5341.326831
492.863440	5323.755890
493.230939	5301.746212
493.598380	5350.710939
493.965763	5397.175254
494.333088	5424.405047
494.700354	5481.324715
495.067563	5565.305297
495.434713	5592.318320
495.801805	5708.499272
496.168839	5756.407877
496.535815	5818.824924
496.902733	5875.921032
497.269593	5944.505930
497.636395	6042.407658
498.003139	6129.218848
498.369825	6134.280167
498.736453	6287.175842
499.103023	6320.583569
499.469535	6417.882879
499.835989	6479.974771
500.202385	6546.530605
500.568723	6553.242901
500.935003	6723.470064
501.301226	6727.324026
501.667390	6908.979484
502.033497	7040.803137
502.399546	7039.928496
502.765537	7068.723567
503.131470	7192.539347
503.497345	7358.726024
503.863163	7216.436937
504.228923	7474.349929
504.594625	7574.719302
504.960269	7501.761203
505.325856	7711.314407
505.691385	7658.473032
506.056856	7824.989905
506.422270	7916.517095
506.787625	7905.860095
507.152924	8064.563180
507.518164	8108.486754
507.883347	8141.796178
508.248472	8140.472875
508.613540	8370.130200
508.978550	8359.359775
509.343503	8408.011951
509.708398	8561.938542
510.073236	8697.348976
510.438016	8773.435111
510.802738	8798.860170
511.167403	8897.765088
511.532010	8886.777893
511.896561	9104.291079
512.261053	9220.865241
512.625488	9185.425929
512.989866	9233.735307
513.354186	9276.832131
513.718449	9262.545501
514.082655	9457.749060
514.446803	9439.769785
514.810894	9584.345036
515.174927	9540.265187
515.538904	9603.461091
515.902822	9778.351321
516.266684	9739.100897
516.630488	9742.944777
516.994235	9817.024533
517.357925	9931.844373
517.721558	10052.123784
518.085133	10110.563360
518.448651	10155.137242
518.812112	10095.361760
519.175516	10158.514815
519.538863	10298.878182
519.902152	10263.363253
520.265385	10450.662283
520.628560	10400.651517
520.991678	10423.324106
521.354739	10516.870277
521.717743	10485.675617
522.080690	10503.133133
522.443580	10660.883440
522.806413	10653.069651
523.169189	10713.437469
523.531908	10790.599890
523.894569	10654.198870
524.257174	10692.128511
524.619722	10821.880250
524.982213	10795.089037
525.344647	10873.773887
525.707025	10848.129538
526.069345	10964.587753
526.431608	10910.019783
526.793815	11032.131653
527.155964	10854.955260
527.518057	10921.934551
527.880093	10897.346323
528.242072	10978.269445
528.603995	10902.818495
528.965860	10844.429331
529.327669	10903.816644
529.689421	10876.496110
530.051117	10860.064469
530.412755	10975.466563
530.774337	10880.123221
531.135862	10877.164063
531.497331	10913.077243
531.858743	10778.647314
532.220098	10949.209713
532.581396	10837.739720
532.942638	10824.350415
533.303824	10798.028030
533.664953	10824.305045
534.026025	10751.304096
534.387040	10860.263595
534.747999	10853.861330
535.108902	10919.620661
535.469748	10692.677997
535.830537	10797.944851
536.191270	10790.168871
536.551947	10821.189612
536.912567	10816.849178
537.273131	10747.014074
537.633638	10732.286343
537.994089	10732.397248
538.354483	10682.366317
538.714821	10828.426188
539.075103	10845.493014
539.435328	10809.237036
539.795497	10643.224278
540.155609	10805.090687
540.515665	10886.747297
540.875665	10630.649120
541.235609	10708.164422
541.595496	10695.170848
541.955328	10855.328305
542.315102	10733.677701
542.674821	10689.958295
543.034483	10697.411641
543.394090	10700.784172
543.753640	10634.137598
544.113134	10853.301762
544.472571	10708.361027
544.831953	10848.119455
545.191278	10664.175313
545.550548	10690.984169
545.909761	10829.575571
546.268918	10805.224277
546.628019	10887.783254
546.987064	10756.473799
547.346053	10677.017653
547.704986	10782.302151
548.063863	10768.703638
548.422684	10755.833573
548.781449	10671.852991
549.140158	10781.606472
549.498811	10657.757924
549.857408	10521.916472
550.215949	10748.102963
550.574434	10597.800961
550.932864	10704.711231
551.291237	10760.181568
551.649555	10702.818278
552.007817	10724.235620
552.366022	10686.701709
552.724173	10676.291727
553.082267	10665.365026
553.440305	10796.331682
553.798288	10600.525705
554.156215	10759.619479
554.514086	10736.203319
554.871902	10584.003323
555.229661	10616.473395
555.587365	10594.246948
555.945014	10490.409261
556.302606	10609.246901
556.660143	10505.454584
557.017625	10669.413072
557.375050	10564.317617
557.732421	10698.187978
558.089735	10612.637077
558.446994	10614.358631
558.804197	10651.995886
559.161345	10645.454988
559.518437	10493.040743
559.875474	10587.189332
560.232455	10624.650147
560.589381	10564.090765
560.946251	10568.103524
561.303065	10677.184011
561.659825	10610.481984
562.016528	10539.731910
562.373177	10417.894783
562.729770	10525.215908
563.086307	10445.162384
563.442789	10539.426920
563.799216	10425.080948
564.155587	10474.088525
564.511904	10422.623386
564.868164	10413.423280
565.224370	10430.593450
565.580520	10353.703251
565.936615	10354.628302
566.292654	10233.060877
566.648638	10361.184323
567.004567	10317.830400
567.360441	10300.859356
567.716260	10213.470954
568.072023	10311.392847
568.427732	10262.292008
568.783385	10171.939408
569.138982	10240.438606
569.494525	10259.789075
569.850013	10134.281988
570.205445	10209.059944
570.560823	10101.660682
570.916145	10038.230364
571.271412	10103.077246
571.626625	10038.699191
571.981782	10015.436787
572.336884	9996.804682
572.691931	9998.178396
573.046923	9944.396847
573.401860	9900.616946
573.756743	9840.347431
574.111570	9883.217403
574.466342	9866.717707
574.821059	9894.824660
575.175722	9782.147310
575.530330	9792.524525
575.884882	9787.344740
576.239380	9716.282114
576.593823	9688.853196
576.948211	9708.818686
577.302544	9593.434236
577.656823	9602.672151
578.011047	9606.223644
578.365216	9576.092667
578.719330	9504.649435
579.073389	9521.199543
579.427394	9466.881110
579.781344	9441.135937
580.135239	9388.967557
580.489080	9399.977437
580.842866	9299.345924
581.196597	9307.086616
581.550273	9348.454324
581.903895	9319.843255
582.257463	9383.581084
582.610975	9253.478986
582.964434	9285.906208
583.317837	9209.515083
583.671186	9194.971354
584.024481	9187.374335
584.377721	9104.747303
584.730906	9086.024458
585.084037	9110.650494
585.437113	9048.621617
585.790135	9073.499711
586.143103	8970.082960
586.496016	8942.308723
586.848874	9001.317950
587.201679	8990.781938
587.554428	8876.892190
587.907124	8927.810365
588.259765	8892.487000
588.612352	8893.293584
588.964884	8763.080581
589.317362	8786.612687
589.669786	8785.082697
590.022155	8839.653187
590.374470	8848.323972
590.726731	8787.981360
591.078937	8641.087178
591.431090	8755.370136
591.783188	8619.125391
592.135232	8623.596895
592.487222	8616.826625
592.839157	8670.923247
593.191038	8599.076722
593.542866	8551.372284
593.894639	8448.676418
594.246358	8502.127772
594.598022	8516.774845
594.949633	8417.305318
595.301190	8394.274806
595.652692	8422.505268
596.004141	8528.384622
596.355535	8312.330851
596.706876	8283.039226
597.058162	8226.437151
597.409395	8303.634860
597.760573	8361.482101
598.111698	8272.248636
598.462768	8255.343127
598.813785	8227.838592
599.164748	8196.306174
599.515657	8182.183382
599.866511	8093.776667
600.217312	8213.524235
600.568060	8079.754697
600.918753	8184.887961
601.269392	8152.629617
601.619978	8063.398674
601.970510	8127.854867
602.320988	8125.649362
602.671412	8175.909666
603.021783	8116.184596
603.372100	8086.403979
603.722363	8095.349507
604.072572	8065.357162
604.422728	8075.225221
604.772830	8005.551433
605.122878	8016.715068
605.472872	8009.574274
605.822813	8031.871297
606.172701	7983.002352
606.522534	8057.984474
606.872314	8060.177376
607.222041	8031.089919
607.571714	8086.093948
607.921333	8041.998976
608.270899	8050.508443
608.620411	8136.384499
608.969870	8050.543731
609.319276	8035.768109
609.668627	8049.984163
610.017926	8084.160666
610.367171	8135.567832
610.716362	8108.806867
611.065500	8104.093388
611.414585	8133.117831
611.763616	8119.521839
612.112594	8093.943025
612.461518	8115.027651
612.810389	8168.665528
613.159207	8115.501519
613.507971	8065.095022
613.856682	8176.794388
614.205340	8135.136813
614.553945	8214.862662
614.902496	8107.677648
615.250994	8169.698964
615.599439	8149.922518
615.947830	8165.151843
616.296169	8136.588666
616.644454	8144.442783
616.992686	8145.249368
617.340864	8203.530148
617.688990	8108.854758
618.037063	8200.434879
618.385082	8144.052094
618.733048	8231.337152
619.080961	8167.349787
619.428821	8182.022065
619.776628	8188.545318
620.124382	8139.157134
620.472083	8129.226061
620.819731	8154.704052
621.167326	8046.387300
621.514868	8054.465749
621.862357	7940.568440
622.209793	7961.211965
622.557176	7899.601503
622.904506	7867.133952
623.251783	7802.098026
623.599007	7755.442147
623.946179	7756.979699
624.293297	7718.737506
624.640363	7635.109805
624.987376	7620.228318
625.334336	7563.396871
625.681243	7515.810899
626.028097	7503.513004
626.374899	7480.414437
626.721647	7473.480330
627.068343	7404.981132
627.414987	7378.139508
627.761577	7334.488157
628.108115	7372.485854
628.454600	7264.453927
628.801032	7314.283212
629.147412	7277.364322
629.493739	7267.849144
629.840014	7203.627365
630.186236	7260.970490
630.532405	7142.447922
630.878521	7192.400715
631.224585	7149.457646
631.570597	7071.922179
631.916556	7109.004907
632.262462	7103.716737
632.608316	7064.052938
632.954117	7043.220370
633.299866	7028.094388
633.645562	7021.356886
633.991206	6942.898888
634.336797	6888.414097
634.682336	6842.310224
635.027823	6813.628580
635.373257	6807.637168
635.718639	6731.241002
636.063968	6744.032930
636.409245	6643.892930
636.754470	6641.372353
637.099642	6598.106650
637.444762	6540.602208
637.789829	6551.760802
638.134845	6497.747359
638.479808	6479.430327
638.824719	6483.969886
639.169577	6410.971457
639.514383	6434.044818
639.859137	6363.965218
640.203839	6370.556527
640.548489	6358.682089
640.893086	6334.371125
641.237632	6306.279295
641.582125	6325.410474
641.926566	6295.917203
642.270955	6309.523277
642.615292	6306.836342
642.959576	6320.727242
643.303809	6307.947917
643.647990	6316.406973
643.992118	6306.279295
644.336195	6254.292396
644.680219	6277.743843
645.024192	6273.330313
645.368112	6363.519076
645.711981	6385.311984
646.055797	6461.960208
646.399562	6418.414721
646.743274	6543.752929
647.086935	6594.771927
647.430544	6590.628098
647.774101	6614.341686
648.117606	6619.773529
648.461059	6609.897909
648.804460	6570.173616
649.147810	6487.985165
649.491108	6456.200690
649.834354	6428.023160
650.177548	6344.329924
650.520690	6257.475884
650.863781	6237.402010
651.206820	6257.672489
651.549807	6181.074677
651.892742	6121.465554
652.235626	6129.753211
652.578458	6115.549760
652.921238	6021.683475
653.263967	6061.241409
653.606644	6000.465258
653.949269	6006.562534
654.291843	5944.274037
654.634365	5988.646273
654.976836	5947.797804
655.319255	5947.772598
655.661622	5927.562612
656.003938	5919.375778
656.346203	5882.257763
656.688416	5913.230612
657.030577	5866.766297
657.372687	5841.547925
657.714746	5822.615871
658.056753	5868.016503
658.398708	5807.958717
658.740612	5798.708199
659.082465	5848.436661
659.424266	5840.121278
659.766016	5838.286298
660.107715	5815.293595
660.449362	5826.467313
660.790958	5822.656201
661.132503	5811.114479
661.473996	5846.808369
661.815438	5831.271533
662.156829	5833.958468
662.498168	5821.327857
662.839456	5799.726512
663.180693	5834.903684
663.521879	5836.632800
663.863013	5821.262322
664.204097	5846.468091
664.545129	5881.725921
664.886110	5877.972782
665.227040	5915.572228
665.567918	5879.739706
665.908746	5906.362040
666.249522	5910.891516
666.590248	5896.849382
666.930922	5930.872130
667.271545	5936.301452
667.612118	5940.215908
667.952639	5912.126599
668.293109	5935.245331
668.633528	5889.161623
668.973896	5893.537344
669.314213	5887.356890
669.654480	5870.859714
669.994695	5861.871336
670.334859	5857.717426
670.674973	5844.323080
671.015035	5848.383729
671.355047	5848.686198
671.695008	5832.831770
672.034918	5810.438964
672.374777	5815.502803
672.714585	5799.721471
673.054342	5806.587523
673.394049	5800.364218
673.733705	5833.161965
674.073310	5817.536909
674.412864	5774.404797
674.752368	5770.424806
675.091820	5773.515033
675.431223	5709.986412
675.770574	5713.187545
676.109875	5658.869112
676.449125	5666.123332
676.788324	5631.167972
677.127473	5576.521864
677.466571	5571.899126
677.805619	5561.887394
678.144616	5549.367689
678.483562	5521.396847
678.822458	5492.521117
679.161303	5487.026260
679.500098	5479.663655
679.838842	5463.297549
680.177535	5464.036078
680.516179	5484.019212
680.854771	5490.960880
681.193314	5571.894085
681.531805	5679.963820
681.870247	5833.005689
682.208638	5930.806595
682.546978	5942.917967
682.885268	5921.795532
683.223508	5831.994938
683.561697	5779.798831
683.899836	5753.862095
684.237925	5708.184200
684.575963	5672.754970
684.913951	5632.239217
685.251889	5695.772879
685.589776	5663.285163
685.927614	5634.391790
686.265401	5703.626997
686.603137	5685.022618
686.940824	5761.743939
687.278460	5789.538340
687.616046	5794.163599
687.953582	5860.749680
688.291068	5844.323080
688.628504	5911.693060
688.965889	5870.958016
689.303224	5817.408359
689.640510	5767.939517
689.977745	5695.346901
690.314930	5594.672538
690.652065	5540.681781
690.989150	5446.041679
691.326185	5371.412437
691.663170	5319.596938
692.000105	5245.058437
692.336990	5166.708824
692.673825	5141.492972
693.010610	5077.074588
693.347345	5008.260317
693.684030	4994.029140
694.020665	4950.947439
694.357251	4860.254561
694.693786	4871.997929
695.030272	4839.774873
695.366707	4804.328000
695.703093	4766.912556
696.039429	4790.976504
696.375716	4776.967138
696.711952	4744.623095
697.048139	4738.593875
697.384276	4717.005133
697.720363	4726.795054
698.056400	4736.141353
698.392388	4684.754352
698.728326	4666.951517
699.064214	4648.029546
699.400053	4640.011591
699.735842	4613.076706
700.071581	4582.313064
700.407270	4556.681318
700.742910	4538.152557
701.078501	4484.771778
701.414042	4486.296728
701.749533	4457.889826
702.084974	4389.267119
702.420366	4447.603351
702.755709	4387.089340
703.091002	4330.605732
703.426246	4383.414339
703.761440	4338.056557
704.096584	4300.837719
704.431679	4320.374710
704.766725	4303.166732
705.101721	4294.511071
705.436668	4320.624248
705.771565	4270.399232
706.106413	4295.083242
706.441212	4332.561700
706.775961	4337.688553
707.110661	4319.512673
707.445311	4348.252291
707.779913	4368.593347
708.114465	4381.954925
708.448967	4402.464860
708.783421	4470.066733
709.117825	4505.231301
709.452180	4510.159029
709.786485	4555.894898
710.120742	4641.292044
710.454949	4627.247389
710.789107	4693.047050
711.123216	4767.235190
711.457275	4756.515177
711.791286	4830.363039
712.125247	4848.697716
712.459159	4747.849433
712.793023	4825.253830
713.126837	4784.291934
713.460602	4777.060399
713.794318	4696.893450
714.127985	4704.263617
714.461602	4618.826142
714.795171	4586.857664
715.128691	4525.617728
715.462162	4468.375426
715.795584	4419.997993
716.128957	4406.754882
716.462281	4350.505687
716.795556	4324.760514
717.128782	4287.544196
717.461960	4219.052559
717.795088	4226.793251
718.128167	4191.782438
718.461198	4128.649547
718.794180	4126.323055
719.127113	4106.750775
719.459997	4083.342177
719.792833	4041.230898
720.125619	4032.880227
720.458357	3997.876975
720.791046	4004.276720
721.123686	3975.234633
721.456278	3931.868107
721.788821	3951.218576
722.121315	3926.597581
722.453761	3896.269999
722.786158	3908.691402
723.118506	3935.676699
723.450805	3882.537896
723.783056	3910.949839
724.115259	3926.343002
724.447412	3930.393569
724.779518	3921.563988
725.111574	3929.350051
725.443582	3951.977270
725.775542	3942.464612
726.107453	3992.089731
726.439315	3992.752642
726.771129	4006.273017
727.102895	4038.949776
727.434612	4090.908949
727.766281	4101.938994
728.097901	4103.542081
728.429473	4108.560549
728.760996	4117.876602
729.092471	4107.103656
729.423897	4093.800051
729.755276	4101.535701
730.086606	4096.789455
730.417887	4135.082060
730.749120	4200.697718
731.080305	4265.163993
731.411442	4287.992859
731.742530	4261.741050
732.073570	4262.545114
732.404562	4316.349349
732.735506	4307.315601
733.066401	4273.411321
733.397249	4210.081826
733.728048	4131.454949
734.058798	4049.339594
734.389501	3982.539265
734.720156	3913.649377
735.050762	3872.967265
735.381320	3867.200185
735.711831	3814.689006
736.042293	3791.716468
736.372707	3808.009477
736.703073	3781.036784
737.033391	3774.778191
737.363661	3790.947692
737.693883	3814.595745
738.024056	3825.366170
738.354182	3820.105726
738.684260	3883.621744
739.014290	3900.113879
739.344272	3900.272675
739.674207	3941.078295
740.004093	3947.841003
740.333931	3938.328346
740.663722	3939.762554
740.993464	3939.480249
741.323159	3913.268770
741.652806	3885.943195
741.982405	3858.718444
742.311956	3828.834484
742.641460	3815.636743
742.970915	3792.084473
743.300323	3755.324379
743.629683	3719.638051
743.958996	3709.717060
744.288260	3682.507432
744.617477	3651.431239
744.946647	3637.237870
745.275768	3612.092595
745.604842	3610.726442
745.933869	3562.646437
746.262847	3554.550344
746.591778	3593.442846
746.920662	3562.787590
747.249498	3535.812376
747.578286	3578.639498
747.907027	3596.580965
748.235720	3592.021241
748.564365	3616.599387
748.892963	3618.383955
749.221514	3600.324021
749.550017	3580.494643
749.878473	3574.886359
750.206881	3547.530538
750.535242	3542.317985
750.863555	3546.149262
751.191821	3538.511913
751.520039	3520.537679
751.848210	3497.169411
752.176334	3528.905995
752.504411	3538.416132
752.832440	3495.760408
753.160421	3479.764827
753.488356	3493.078514
753.816243	3504.400946
754.144082	3456.971250
754.471875	3446.152934
754.799620	3465.064823
755.127318	3455.012762
755.454969	3454.319603
755.782572	3464.835450
756.110129	3437.658590
756.437638	3428.191303
756.765100	3441.036163
757.092515	3453.298769
757.419882	3458.133236
757.747203	3432.451078
758.074477	3435.276644
758.401703	3449.066721
758.728882	3470.423569
759.056014	3477.458499
759.383099	3481.655260
759.710138	3475.338694
760.037129	3495.110099
760.364073	3529.604195
760.690970	3510.112573
761.017820	3486.043584
761.344623	3503.664938
761.671379	3551.152607
761.998088	3599.595575
762.324751	3725.606777
762.651366	3973.750013
762.977935	4443.290644
763.304456	4882.551584
763.630931	4972.952076
763.957359	4608.053196
764.283740	4269.854787
764.610074	4082.676745
764.936362	3889.068711
765.262602	3729.944690
765.588796	3621.466621
765.914943	3536.704660
766.241044	3448.948254
766.567097	3419.074376
766.893104	3371.780791
767.219064	3341.859023
767.544978	3313.502532
767.870845	3260.693925
768.196665	3240.415884
768.522438	3251.294694
768.848165	3245.247830
769.173846	3206.708208
769.499479	3193.036599
769.825066	3176.105884
770.150607	3159.767504
770.476101	3175.135462
770.801548	3172.115811
771.126949	3125.835498
771.452303	3108.788836
771.777611	3116.524487
772.102872	3120.852317
772.428087	3097.045468
772.753256	3087.747060
773.078378	3076.477561
773.403453	3046.155020
773.728482	3033.242105
774.053465	3054.049467
774.378401	3043.979762
774.703291	3011.963394
775.028135	3010.647653
775.352932	3006.216479
775.677683	2996.527381
776.002388	2994.737772
776.327046	2994.921774
776.651658	2983.049856
776.976224	2973.950574
777.300743	2973.239771
777.625216	2963.739717
777.949643	2957.360136
778.274024	2958.295270
778.598359	2948.737243
778.922647	2953.009621
779.246889	2953.276802
779.571086	2937.003957
779.895236	2932.063626
780.219339	2943.774227
780.543397	2955.275619
780.867409	2958.708645
781.191374	2948.838066
781.515294	2947.706327
781.839167	2947.512242
782.162995	2943.890173
782.486776	2949.916873
782.810511	2944.694237
783.134201	2933.694440
783.457844	2941.793053
783.781441	2930.213523
784.104993	2908.965059
784.428498	2911.084865
784.751958	2924.431319
785.075372	2922.442584
785.398739	2902.865263
785.722061	2918.626431
786.045337	2929.878286
786.368568	2914.444794
786.691752	2907.825759
787.014891	2955.749488
787.337983	2982.805360
787.661030	3009.959536
787.984031	3078.216759
788.306987	3124.650827
788.629897	3115.667491
788.952760	3099.402208
789.275579	3087.905856
789.598351	3027.769932
789.921078	2982.477685
790.243759	2975.629278
790.566395	2957.309725
790.888984	2931.372988
791.211529	2918.679363
791.534027	2908.637384
791.856480	2898.673544
792.178888	2884.258364
792.501249	2874.851571
792.823566	2875.758979
793.145836	2869.243288
793.468062	2866.127855
793.790241	2861.764736
794.112375	2870.322095
794.434464	2881.158055
794.756507	2886.852038
795.078505	2891.321021
795.400457	2904.024729
795.722364	2943.247426
796.044226	2965.299954
796.366042	2965.443627
796.687812	2958.733851
797.009538	2978.222952
797.331218	2960.684777
797.652852	2949.785803
797.974442	2934.569080
798.295986	2929.016249
798.617484	2924.388470
798.938938	2908.390368
799.260346	2896.248749
799.581709	2887.441853
799.903026	2881.531100
800.224299	2876.253012
800.545526	2867.395705
800.866708	2852.249558
801.187845	2840.231447
801.508936	2843.067096
801.829983	2849.756707
802.150984	2837.849502
802.471940	2822.405927
802.792851	2823.802327
803.113717	2823.520022
803.434538	2829.758450
803.755314	2821.715289
804.076045	2817.372335
804.396731	2815.494505
804.717372	2816.301090
805.037967	2813.147848
805.358518	2817.415185
805.679024	2829.035045
805.999485	2824.261072
806.319901	2826.585044
806.640272	2822.562203
806.960598	2827.331135
807.280879	2835.994357
807.601115	2844.594566
807.921306	2828.846001
808.241453	2823.431802
808.561554	2833.340190
808.881611	2834.159378
809.201623	2830.146619
809.521590	2829.476146
809.841513	2823.895588
810.161390	2828.699808
810.481223	2820.502892
810.801011	2811.945533
811.120755	2806.458237
811.440453	2810.738177
811.760107	2810.453352
812.079716	2807.988227
812.399281	2800.219809
812.718801	2793.147070
813.038276	2789.832512
813.357707	2792.869807
813.677093	2802.629481
813.996434	2795.254273
814.315731	2793.961217
814.634983	2784.907304
814.954191	2788.783952
815.273354	2800.224850
815.592473	2808.867909
815.911547	2813.528455
816.230577	2819.492140
816.549562	2829.818944
816.868502	2827.653768
817.187399	2839.515603
817.506250	2854.755012
817.825058	2846.056501
818.143821	2860.401104
818.462539	2874.602034
818.781213	2899.797721
819.099843	2935.516817
819.418429	2991.821464
819.736970	3056.582647
820.055466	3123.980353
820.373919	3229.922722
820.692327	3365.116386
821.010691	3530.539329
821.329011	3968.766832
821.647286	4853.817007
821.965517	6208.485951
822.283704	6928.977741
822.601847	6905.004534
822.919945	6282.974041
823.237999	5790.324760
823.556010	5217.367379
823.873976	4673.739430
824.191897	4271.500724
824.509775	3983.618072
824.827609	3720.343812
825.145398	3601.823765
825.463144	3589.120057
825.780845	3680.715302
826.098502	3784.321096
826.416116	4062.905339
826.733685	4372.535529
827.051210	4433.200775
827.368692	4322.852438
827.686129	4058.743867
828.003522	3735.510123
828.320872	3485.839418
828.638177	3293.791621
828.955439	3160.067453
829.272656	3078.068045
829.589830	3014.637726
829.906960	2961.793831
830.224046	2919.541400
830.541088	2886.332799
830.858086	2873.208155
831.175041	2854.371884
831.491952	2853.290556
831.808819	2867.874614
832.125642	2889.720455
832.442421	2933.893565
832.759157	3013.717716
833.075849	3188.668439
833.392497	3468.759988
833.709101	3668.732479
834.025662	3618.532669
834.342179	3457.465283
834.658653	3285.561937
834.975083	3140.003661
835.291469	3046.822973
835.607811	2959.835343
835.924110	2902.313257
836.240366	2854.510516
836.556578	2811.234730
836.872746	2789.325876
837.188871	2769.758637
837.504952	2750.057808
837.820990	2743.892477
838.136984	2729.368912
838.452935	2721.282902
838.768842	2718.921121
839.084706	2737.084398
839.400526	2818.050370
839.716303	2945.810853
840.032037	3022.844725
840.347727	3006.216479
840.663373	2952.187913
840.978977	2877.470451
841.294537	2806.750624
841.610054	2759.787235
841.925527	2736.718915
842.240957	2714.772252
842.556344	2694.065712
842.871687	2679.716068
843.186987	2670.296672
843.502244	2665.820127
843.817458	2661.774601
844.132629	2652.549290
844.447756	2641.194091
844.762840	2634.605302
845.077881	2639.875829
845.392879	2637.209058
845.707833	2634.580097
846.022745	2624.417131
846.337613	2626.257152
846.652438	2626.645321
846.967221	2629.972482
847.281960	2625.891668
847.596656	2623.229939
847.911309	2623.166924
848.225919	2619.643158
848.540485	2614.700307
848.855009	2618.403034
849.169490	2613.180399
849.483928	2617.533435
849.798323	2616.850359
850.112675	2615.156531
850.426984	2613.198043
850.741251	2614.654936
851.055474	2614.405399
851.369654	2617.467900
851.683792	2617.490585
851.997887	2617.104937
852.311938	2613.845831
852.625947	2614.115533
852.939914	2615.675770
853.253837	2618.897067
853.567718	2614.972529
853.881555	2613.445059
854.195350	2618.231635
854.509103	2619.154166
854.822812	2612.250306
855.136479	2612.691407
855.450103	2613.399689
855.763685	2615.527056
856.077224	2612.351129
856.390720	2611.741149
856.704173	2614.927158
857.017584	2617.775410
857.330953	2618.173662
857.644278	2620.389249
857.957561	2620.573251
858.270802	2615.582508
858.584000	2614.254164
858.897155	2621.715072
859.210268	2622.446039
859.523339	2616.855400
859.836367	2609.923813
860.149352	2613.989504
860.462295	2613.253495
860.775195	2610.891715
861.088054	2610.037239
861.400869	2608.199739
861.713642	2606.150510
862.026373	2606.079933
862.339062	2609.253340
862.651708	2615.264916
862.964312	2618.907149
863.276873	2614.443208
863.589392	2618.158538
863.901869	2620.986625
864.214303	2626.869652
864.526696	2628.908799
864.839045	2631.794859
865.151353	2634.320477
865.463619	2634.108749
865.775842	2634.459109
866.088023	2633.218985
866.400162	2632.369551
866.712258	2632.762761
867.024313	2632.130096
867.336325	2627.623304
867.648296	2629.622122
867.960224	2635.903400
868.272110	2633.526496
868.583954	2629.649848
868.895755	2631.880559
869.207515	2635.903400
869.519233	2641.241982
869.830909	2638.315592
870.142542	2630.910137
870.454134	2634.915333
870.765684	2641.985552
871.077191	2641.912455
871.388657	2643.956643
871.700081	2642.628299
872.011463	2644.307003
872.322803	2642.963536
872.634101	2649.310348
872.945357	2654.759836
873.256571	2659.400218
873.567744	2658.757471
873.878874	2656.073056
874.189963	2659.629590
874.501010	2660.534477
874.812015	2665.673934
875.122979	2666.477998
875.433900	2652.335041
875.744780	2655.059784
876.055618	2660.980619
876.366415	2667.498831
876.677169	2667.347597
876.987882	2660.421051
877.298554	2660.035403
877.609183	2668.645694
877.919771	2679.068279
878.230317	2682.869309
878.540822	2693.773325
878.851285	2706.565253
879.161707	2731.942422
879.472087	2767.969027
879.782425	2814.544248
880.092722	2925.736978
880.402977	3109.585338
880.713191	3361.398535
881.023363	3643.546874
881.333494	3831.511337
881.643583	3996.871265
881.953631	3993.876820
882.263637	3818.111950
882.573602	3604.069599
882.883526	3481.060404
883.193408	3370.838095
883.503248	3273.798404
883.813048	3158.787000
884.122806	3048.594939
884.432522	2965.854481
884.742197	2902.439286
885.051831	2866.326980
885.361424	2833.544357
885.670975	2796.436423
885.980485	2770.766868
886.289954	2751.975967
886.599382	2738.246384
886.908768	2727.266751
887.218113	2708.927034
887.527417	2695.338603
887.836680	2686.642613
888.145901	2683.317972
888.455082	2674.795902
888.764221	2665.051351
889.073319	2655.639517
889.382376	2656.410813
889.691392	2657.232522
890.000366	2657.345947
890.309300	2656.753612
890.618193	2656.826709
890.927044	2663.612102
891.235855	2658.523057
891.544625	2658.830567
891.853353	2660.857111
892.162041	2667.632422
892.470687	2686.700586
892.779293	2695.136957
893.087858	2706.482074
893.396381	2727.370095
893.704864	2766.116403
894.013306	2837.925119
894.321707	2928.812082
894.630068	2976.350163
894.938387	2991.778614
895.246665	2986.162769
895.554903	2942.334977
895.863100	2904.296951
896.171256	2848.761080
896.479371	2786.885957
896.787446	2749.215935
897.095480	2731.518965
897.403473	2725.567882
897.711425	2709.983155
898.019336	2695.010928
898.327207	2677.863444
898.635038	2678.155831
898.942827	2677.583660
899.250576	2668.628050
899.558284	2655.957110
899.865952	2650.767242
900.173579	2651.014258
900.481165	2647.866058
900.788711	2641.700727
901.096216	2633.234109
901.403681	2631.797380
901.711105	2635.452216
902.018489	2631.631022
902.325832	2632.109931
902.633135	2637.256949
902.940397	2648.793630
903.247619	2685.684794
903.554800	2751.124012
903.861941	2873.669421
904.169041	2994.770539
904.476101	3056.620456
904.783121	3048.148797
905.090100	2991.541680
905.397039	2920.504261
905.703938	2848.146059
906.010796	2791.312090
906.317614	2739.657907
906.624391	2704.677341
906.931129	2679.640450
907.237826	2657.192192
907.544483	2640.009419
907.851099	2627.293109
908.157675	2616.910852
908.464211	2612.691407
908.770707	2601.033738
909.077163	2597.162132
909.383578	2594.858325
909.689954	2589.769280
909.996289	2590.293560
910.302584	2592.521750
910.608839	2587.891450
910.915054	2588.201481
911.221229	2589.723910
911.527363	2594.772625
911.833458	2590.742223
912.139513	2591.521081
912.445527	2594.092070
912.751502	2597.857812
913.057436	2604.849892
913.363331	2611.093361
913.669186	2619.887654
913.975000	2628.555918
914.280775	2647.755152
914.586510	2666.180570
914.892205	2701.088039
915.197859	2767.578338
915.503475	2848.231758
915.809050	2911.551171
916.114585	2922.687080
916.420081	2933.964141
916.725536	2947.353446
917.030952	2922.717327
917.336328	2877.719988
917.641665	2830.290292
917.946961	2776.486057
918.252218	2747.328023
918.557435	2725.010835
918.862612	2703.613657
919.167750	2683.794361
919.472848	2670.084943
919.777906	2653.401245
920.082925	2639.696868
920.387904	2631.815024
920.692843	2629.846453
920.997743	2626.090794
921.302603	2617.483023
921.607423	2609.931375
921.912204	2604.522217
922.216946	2603.105653
922.521647	2601.870570
922.826310	2597.386464
923.130932	2591.821030
923.435516	2589.358426
923.740059	2586.177458
924.044564	2584.680235
924.349028	2583.906418
924.653454	2574.983576
924.957840	2574.499625
925.262186	2570.111301
925.566493	2573.274625
925.870761	2566.658110
926.174989	2567.396639
926.479178	2564.150136
926.783328	2566.332956
927.087438	2561.196020
927.391509	2562.395815
927.695541	2563.114179
927.999533	2561.556463
928.303486	2558.715772
928.607400	2559.355999
928.911275	2559.368602
929.215110	2559.837429
929.518906	2560.041596
929.822663	2557.783159
930.126381	2558.420865
930.430060	2558.655279
930.733699	2558.342727
931.037299	2561.564024
931.340861	2561.886658
931.644383	2559.653427
931.947866	2560.238201
932.251309	2557.987326
932.554714	2558.791390
932.858080	2560.591082
933.161407	2557.306770
933.464694	2556.769887
933.767943	2558.062943
934.071153	2560.875907
934.374323	2555.257541
934.677455	2555.267623
934.980548	2555.693601
935.283602	2555.373487
935.586617	2556.308622
935.889593	2554.471121
936.192530	2553.394835
936.495428	2557.359702
936.798287	2553.954403
937.101108	2555.512119
937.403890	2560.069322
937.706632	2566.731207
938.009336	2565.992678
938.312002	2569.455951
938.614628	2574.955850
938.917216	2578.013309
939.219765	2576.664801
939.522275	2577.063052
939.824747	2579.639082
940.127179	2572.037022
940.429573	2569.241702
940.731929	2569.269428
941.034246	2566.063254
941.336524	2572.422670
941.638763	2570.323029
941.940964	2569.198852
942.243126	2565.420507
942.545250	2566.625343
942.847335	2564.744993
943.149381	2560.258366
943.451389	2562.315156
943.753359	2560.936401
944.055290	2558.660320
944.357182	2560.157543
944.659036	2559.383725
944.960851	2557.936914
945.262628	2559.855073
945.564367	2559.003118
945.866067	2556.595967
946.167729	2559.716442
946.469352	2558.004970
946.770937	2558.425906
947.072484	2559.870197
947.373992	2558.819116
947.675462	2557.130330
947.976893	2560.901113
948.278286	2555.189485
948.579641	2556.066646
948.880958	2554.327448
949.182236	2554.476162
949.483476	2555.151677
949.784678	2556.701832
950.085841	2552.971378
950.386967	2555.297870
950.688054	2555.174362
950.989103	2555.229815
951.290114	2558.123437
951.591087	2558.544373
951.892021	2557.790721
952.192917	2562.723490
952.493776	2563.119220
952.794596	2560.928839
953.095378	2562.771381
953.396122	2564.918912
953.696828	2562.859601
953.997496	2560.182748
954.298126	2559.136709
954.598718	2559.048489
954.899272	2557.896585
955.199788	2556.923642
955.500266	2551.690925
955.800706	2551.214536
956.101108	2550.907025
956.401472	2548.177240
956.701798	2547.867209
957.002087	2547.431150
957.302337	2546.372507
957.602550	2548.635985
957.902724	2544.993752
958.202861	2545.729760
958.502960	2545.208001
958.803022	2546.556509
959.103045	2544.529966
959.403031	2546.163299
959.702979	2542.674821
960.002889	2544.466951
960.302762	2542.626930
960.602596	2546.546427
960.902393	2543.352856
961.202153	2544.910573
961.501875	2543.451159
961.801559	2542.889070
962.101205	2543.017619
962.400814	2543.819163
962.700385	2541.454862
962.999918	2544.013247
963.299414	2542.637012
963.598873	2539.932433
963.898293	2540.509645
964.197677	2544.882846
964.497022	2544.287990
964.796331	2539.776158
965.095601	2540.726415
965.394835	2541.235572
965.694030	2543.201622
965.993189	2540.411343
966.292309	2541.164995
966.591393	2540.406302
966.890439	2541.913607
967.189447	2538.841023
967.488419	2539.163657
967.787353	2541.623740
968.086249	2539.990407
968.385108	2542.405119
968.683930	2540.154244
968.982714	2543.549461
969.281462	2541.500232
969.580172	2542.458051
969.878844	2544.565254
970.177480	2540.302958
970.476078	2540.055942
970.774639	2541.031405
971.073162	2541.084337
971.371649	2540.386137
971.670098	2537.280786
971.968510	2537.900848
972.266885	2539.030067
972.565223	2541.560726
972.863524	2542.097609
973.161788	2542.851261
973.460014	2542.727753
973.758204	2544.613145
974.056356	2541.979142
974.354471	2545.276056
974.652550	2542.117773
974.950591	2543.136087
975.248595	2543.168854
975.546563	2545.646581
975.844493	2541.444779
976.142386	2542.389996
976.440243	2542.478216
976.738062	2542.548792
977.035845	2540.244985
977.333590	2540.257588
977.631299	2538.588966
977.928971	2542.604245
978.226606	2540.257588
978.524204	2541.843031
978.821765	2542.682383
979.119290	2539.324974
979.416777	2538.621733
979.714228	2540.474357
980.011642	2539.594676
980.309020	2544.421581
980.606360	2540.302958
980.903664	2541.933771
981.200931	2541.054090
981.498162	2545.301262
981.795356	2543.715819
982.092513	2550.007179
982.389633	2548.764535
982.686717	2554.960113
982.983764	2554.203940
983.280775	2556.348951
983.577749	2554.662685
983.874686	2555.675957
984.171587	2551.738816
984.468451	2550.153373
984.765279	2546.927034
985.062070	2547.957950
985.358824	2543.768751
985.655543	2543.090716
985.952224	2540.373534
986.248869	2540.106353
986.545478	2538.304141
986.842050	2538.425128
987.138586	2535.377751
987.435086	2535.851619
987.731549	2534.339273
988.027975	2541.268339
988.324366	2537.028729
988.620719	2538.412525
988.917037	2538.367155
989.213318	2537.784902
989.509563	2539.997968
989.805772	2538.672145
990.101944	2540.877650
990.398080	2538.523431
990.694180	2539.907228
990.990244	2537.643749
991.286271	2540.224820
991.582262	2538.639377
991.878217	2537.951260
992.174136	2539.067875
992.470019	2537.658873
992.765865	2538.636857
993.061676	2537.648791
993.357450	2540.239944
993.653188	2539.133410
993.948890	2539.176260
994.244556	2539.443441
994.540186	2541.167516
994.835780	2538.566281
995.131337	2540.141641
995.426859	2541.606096
995.722345	2539.546785
996.017795	2542.453010
996.313208	2541.197763
996.608586	2542.337064
996.903928	2540.229861
997.199234	2541.351518
997.494504	2541.953936
997.789738	2540.799512
998.084936	2540.865047
998.380099	2539.113246
998.675225	2539.861857
998.970316	2540.648277
999.265371	2539.077958
999.560390	2537.069058
999.855373	2539.077958
1000.150320	2538.515869
1000.445232	2537.187525
1000.740108	2536.723739
1001.034948	2538.026877
1001.329752	2536.532175
1001.624521	2538.556198
1001.919254	2531.501103
1002.213951	2535.753317
1002.508613	2530.858356
1002.803239	2535.029911
1003.097829	2531.498583
1003.392384	2536.476722
1003.686903	2536.625436
1003.981386	2536.370858
1004.275834	2534.974458
1004.570246	2537.583256
1004.864623	2537.542926
1005.158964	2536.930426
1005.453270	2535.488656
1005.747540	2534.540919
1006.041775	2534.833306
1006.335974	2537.946219
1006.630138	2536.675848
1006.924266	2536.751465
1007.218359	2535.498738
1007.512416	2539.062834
1007.806438	2533.320960
1008.100425	2540.169368
1008.394376	2537.653832
1008.688292	2536.126362
1008.982172	2537.197607
1009.276017	2535.045035
1009.569827	2535.836496
1009.863602	2536.751465
1010.157341	2535.319777
1010.451045	2535.622247
1010.744714	2536.416228
1011.038347	2534.152750
1011.331945	2535.360107
1011.625508	2536.940508
1011.919036	2537.023688
1012.212528	2540.093750
1012.505986	2533.578059
1012.799408	2535.183666
1013.092795	2533.852802
1013.386147	2536.978317
1013.679464	2535.586959
1013.972745	2537.195087
1014.265992	2535.223996
1014.559204	2536.973276
1014.852380	2535.309695
1015.145521	2537.870601
1015.438628	2535.289531
1015.731699	2536.857329
1016.024736	2534.558563
1016.317737	2534.624098
1016.610703	2535.541588
1016.903635	2531.498583
1017.196531	2532.587472
1017.489393	2536.333049
1017.782219	2527.755526
1018.075011	2532.968079
1018.367768	2534.820703
1018.660490	2537.202648
1018.953177	2537.202648
1019.245829	2537.202648
