Dividing Wavelength (nm)	Counts (n)	Blue Motor Position (mm): 1.600000	Red Motor Position (mm): 0.000000	
326.493990	2064.276883
326.888308	2064.276883
327.282561	2064.276883
327.676750	2037.140352
328.070874	2038.703109
328.464933	2044.727288
328.858929	2055.341438
329.252859	2065.005329
329.646726	2077.255333
330.040528	2097.031780
330.434265	2112.588781
330.827938	2133.814559
331.221547	2154.831129
331.615091	2175.177226
332.008571	2195.510720
332.401986	2216.484441
332.795338	2236.288614
333.188625	2255.508013
333.581847	2273.842689
333.975006	2289.971861
334.368100	2309.922227
334.761129	2323.588795
335.154095	2342.425067
335.546996	2356.792355
335.939833	2368.583614
336.332606	2382.903012
336.725315	2392.839126
337.117960	2405.643657
337.510540	2415.970460
337.903056	2423.940524
338.295508	2430.040321
338.687896	2439.379058
339.080220	2442.781837
339.472480	2447.936417
339.864676	2451.923969
340.256807	2454.641151
340.648875	2457.534774
341.040879	2458.893365
341.432818	2458.951338
341.824694	2460.262038
342.216506	2458.742130
342.608253	2458.051492
342.999937	2457.602829
343.391557	2456.690380
343.783113	2456.100565
344.174605	2453.189299
344.566033	2453.224587
344.957397	2451.843311
345.348697	2450.638475
345.739934	2446.343412
346.131106	2446.696293
346.522215	2442.703699
346.913260	2440.324274
347.304241	2439.618513
347.695159	2437.934767
348.086012	2436.177925
348.476802	2435.141968
348.867528	2433.806062
349.258191	2430.123500
349.648789	2429.178283
350.039324	2424.734506
350.429796	2429.468150
350.820203	2428.359096
351.210548	2430.438572
351.600828	2427.373550
351.991045	2428.989240
352.381198	2427.290371
352.771288	2426.425813
353.161314	2429.193407
353.551276	2426.995464
353.941175	2424.442119
354.331010	2426.267017
354.720782	2426.801379
355.110490	2426.176276
355.500135	2426.382963
355.889717	2429.936977
356.279235	2426.519075
356.668689	2429.939497
357.058080	2428.787594
357.447408	2428.822882
357.836672	2429.321956
358.225873	2427.038313
358.615010	2429.203489
359.004084	2433.657348
359.393095	2433.216247
359.782043	2431.562749
360.170927	2434.204314
360.559748	2431.807245
360.948505	2432.828079
361.337199	2433.042328
361.725830	2433.367482
362.114398	2435.797318
362.502903	2434.416042
362.891344	2437.234047
363.279722	2436.069541
363.668037	2437.559202
364.056289	2436.626588
364.444478	2436.918975
364.832603	2436.445107
365.220665	2436.871084
365.608665	2438.002823
365.996601	2437.246650
366.384474	2441.105653
366.772284	2437.589448
367.160031	2440.031888
367.547715	2436.288831
367.935336	2437.627257
368.322893	2438.466609
368.710388	2432.853284
369.097820	2439.956270
369.485189	2437.654983
369.872495	2441.312341
370.259738	2440.460386
370.646918	2443.361570
371.034035	2443.222938
371.421090	2441.047680
371.808081	2442.282763
372.195010	2444.095058
372.581875	2442.345777
372.968678	2440.737649
373.355418	2440.977104
373.742096	2442.940633
374.128710	2441.839141
374.515262	2444.006837
374.901751	2445.609924
375.288177	2445.826694
375.674540	2443.187650
376.060841	2442.698658
376.447079	2446.172013
376.833254	2446.207301
377.219367	2443.727053
377.605417	2445.771241
377.991404	2445.861982
378.377329	2445.534307
378.763191	2447.303752
379.148991	2448.921962
379.534727	2446.386262
379.920402	2447.633947
380.306013	2443.785027
380.691563	2446.734102
381.077049	2448.949689
381.462474	2446.474482
381.847835	2448.541355
382.233134	2449.713423
382.618371	2450.799792
383.003545	2449.320213
383.388657	2447.013886
383.773706	2448.256530
384.158693	2448.203598
384.543618	2450.315841
384.928480	2448.662343
385.313280	2450.635955
385.698017	2450.746860
386.082692	2448.566561
386.467305	2448.601849
386.851856	2451.208126
387.236344	2450.086469
387.620770	2450.338527
388.005133	2447.994390
388.389435	2452.181068
388.773674	2445.509101
389.157851	2451.548403
389.541965	2451.976902
389.926018	2453.537139
390.310008	2453.471604
390.693936	2454.000925
391.077802	2452.702828
391.461606	2452.725513
391.845348	2452.675101
392.229027	2455.256172
392.612645	2451.495471
392.996200	2453.675770
393.379694	2451.692076
393.763125	2452.014710
394.146494	2455.165431
394.529801	2453.262396
394.913047	2454.933538
395.296230	2454.313476
395.679351	2458.366564
396.062410	2454.086624
396.445408	2452.720472
396.828343	2457.060905
397.211217	2458.328755
397.594028	2456.836574
397.976778	2455.200719
398.359466	2458.139712
398.742092	2455.951851
399.124656	2458.401852
399.507158	2454.943621
399.889598	2457.779270
400.271977	2454.961265
400.654294	2458.749692
401.036549	2458.106945
401.418742	2456.612243
401.800874	2457.486883
402.182944	2456.095524
402.564952	2458.391770
402.946898	2459.016873
403.328783	2457.401183
403.710606	2457.154167
404.092367	2456.486214
404.474067	2458.505196
404.855705	2458.787500
405.237282	2458.167438
405.618797	2460.009980
406.000250	2459.420165
406.381642	2461.192131
406.762972	2459.697429
407.144240	2455.639300
407.525447	2456.967644
407.906593	2454.310956
408.287677	2460.105762
408.668700	2460.771194
409.049661	2461.570217
409.430560	2462.195320
409.811399	2461.764302
410.192176	2462.102059
410.572891	2460.214147
410.953545	2459.387398
411.334138	2462.979220
411.714669	2463.914354
412.095139	2461.441668
412.475547	2462.654065
412.855894	2461.933180
413.236180	2460.849332
413.616405	2465.409056
413.996568	2465.267904
414.376670	2462.822944
414.756711	2462.976699
415.136691	2463.405197
415.516609	2464.967955
415.896466	2464.040383
416.276262	2464.567183
416.655997	2463.188428
417.035670	2465.247739
417.415283	2464.373099
417.794834	2462.893520
418.174324	2464.574745
418.553753	2464.037862
418.933121	2463.969807
419.312428	2463.422841
419.691674	2464.055506
420.070859	2464.484004
420.449983	2468.741259
420.829045	2466.921402
421.208047	2463.662296
421.586988	2465.756896
421.965867	2464.481484
422.344686	2467.884263
422.723444	2466.840744
423.102141	2464.904941
423.480777	2466.780250
423.859352	2463.584158
424.237866	2463.813531
424.616319	2464.587348
424.994712	2468.476598
425.373044	2464.970476
425.751314	2466.502986
426.129524	2463.785804
426.507673	2464.708336
426.885762	2463.463171
427.263789	2466.906279
427.641756	2469.845271
428.019662	2467.975003
428.397508	2467.972483
428.775292	2468.456433
429.153016	2467.445682
429.530679	2468.022894
429.908282	2466.490383
430.285824	2469.026084
430.663305	2469.265539
431.040726	2469.051290
431.418086	2465.835033
431.795385	2470.987093
432.172624	2466.001392
432.549802	2468.474078
432.926920	2469.368882
433.303977	2469.356279
433.680974	2466.276134
434.057910	2471.551702
434.434786	2470.072123
434.811601	2469.610858
435.188355	2472.580097
435.565050	2470.513224
435.941683	2470.417442
436.318257	2468.703450
436.694770	2468.216979
437.071222	2471.730663
437.447614	2469.726804
437.823946	2470.069603
438.200218	2469.056331
438.576429	2469.200004
438.952580	2471.150930
439.328670	2472.030612
439.704700	2473.099336
440.080670	2468.907617
440.456580	2474.178143
440.832429	2471.150930
441.208218	2470.987093
441.583947	2470.793008
441.959616	2471.173615
442.335224	2473.149748
442.710773	2471.299644
443.086261	2471.982721
443.461689	2473.205200
443.837057	2473.802577
444.212365	2471.274438
444.587612	2472.353245
444.962800	2466.750003
445.337927	2471.125724
445.712995	2465.925774
446.088002	2471.256794
446.462949	2470.717391
446.837837	2474.629326
447.212664	2472.073461
447.587431	2472.368369
447.962139	2472.138996
448.336786	2473.729480
448.711374	2474.198308
449.085901	2476.620582
449.460369	2474.034470
449.834776	2475.496405
450.209124	2471.211424
450.583412	2474.778040
450.957640	2474.543627
451.331808	2475.279635
451.705917	2476.013123
452.079965	2472.834676
452.453954	2476.348360
452.827883	2470.881228
453.201752	2474.294090
453.575562	2476.403813
453.949311	2474.495736
454.323001	2474.430201
454.696632	2474.384830
455.070202	2475.153606
455.443713	2475.645119
455.817164	2472.940540
456.190556	2474.485653
456.563888	2476.504636
456.937160	2476.376086
457.310373	2476.224852
457.683526	2475.319964
458.056619	2472.380972
458.429653	2475.443473
458.802628	2474.357104
459.175542	2474.833493
459.548398	2477.757362
459.921194	2473.250571
460.293930	2476.865078
460.666607	2474.284007
461.039224	2475.246868
461.411782	2476.282825
461.784280	2475.388020
462.156719	2477.636375
462.529099	2478.261478
462.901419	2476.660911
463.273680	2473.555561
463.645882	2468.930302
464.018024	2475.985397
464.390106	2474.180664
464.762130	2476.605459
465.134094	2477.235603
465.505999	2477.066724
465.877845	2476.522280
466.249631	2477.684266
466.621358	2476.885243
466.993026	2477.943885
467.364634	2483.063177
467.736184	2475.156127
468.107674	2477.477578
468.479105	2476.083699
468.850477	2478.291725
469.221790	2478.871457
469.593043	2478.994966
469.964238	2475.398102
470.335373	2475.846765
470.706449	2477.386838
471.077467	2476.630664
471.448425	2476.822228
471.819324	2476.250057
472.190164	2477.238123
472.560945	2479.304997
472.931667	2479.448669
473.302330	2480.227528
473.672934	2478.188381
474.043479	2477.966570
474.413965	2477.298617
474.784393	2477.132259
475.154761	2478.271560
475.525070	2476.557568
475.895321	2478.745428
476.265513	2477.769965
476.635645	2477.447331
477.005719	2477.918679
477.375734	2479.393217
477.745691	2480.431694
478.115588	2478.841210
478.485427	2477.671663
478.855207	2480.051087
479.224928	2481.142497
479.594591	2479.302476
479.964194	2476.161837
480.333739	2478.405151
480.703226	2479.494040
481.072653	2481.576036
481.442022	2479.068062
481.811333	2477.190233
482.180584	2474.410036
482.549777	2476.678555
482.918912	2473.868112
483.287988	2480.512353
483.657005	2479.143680
484.025964	2480.333392
484.394864	2481.858341
484.763706	2478.072434
485.132489	2478.952116
485.501213	2478.195943
485.869879	2477.626292
486.238487	2480.066211
486.607036	2480.315748
486.975527	2481.167703
487.343959	2478.158134
487.712333	2477.795171
488.080648	2477.830459
488.448905	2481.185347
488.817104	2478.261478
489.185244	2482.848928
489.553326	2479.564616
489.921350	2479.390696
490.289315	2479.957826
490.657222	2479.683083
491.025070	2480.368680
491.392861	2481.379431
491.760593	2478.977322
492.128267	2481.586119
492.495883	2481.875985
492.863440	2482.710296
493.230939	2481.397075
493.598380	2478.117805
493.965763	2481.586119
494.333088	2481.558392
494.700354	2483.753815
495.067563	2483.985708
495.434713	2484.091572
495.801805	2480.620738
496.168839	2483.368167
496.535815	2480.910604
496.902733	2481.233238
497.269593	2481.036633
497.636395	2478.289204
498.003139	2481.795327
498.369825	2480.940851
498.736453	2482.866572
499.103023	2479.466313
499.469535	2483.821870
499.835989	2480.696355
500.202385	2477.482619
500.568723	2477.432208
500.935003	2478.450521
501.301226	2477.059163
501.667390	2482.801037
502.033497	2482.813640
502.399546	2483.700883
502.765537	2481.790285
503.131470	2481.583598
503.497345	2482.201139
503.863163	2481.535707
504.228923	2482.347333
504.594625	2479.809112
504.960269	2480.219966
505.325856	2480.638382
505.691385	2482.969915
506.056856	2480.663588
506.422270	2481.996973
506.787625	2484.129381
507.152924	2481.850779
507.518164	2482.387662
507.883347	2483.446304
508.248472	2483.073259
508.613540	2481.727271
508.978550	2480.275419
509.343503	2482.077631
509.708398	2481.649133
510.073236	2481.182826
510.438016	2478.218628
510.802738	2483.315234
511.167403	2480.751808
511.532010	2482.422950
511.896561	2484.262971
512.261053	2481.944041
512.625488	2485.568630
512.989866	2483.050574
513.354186	2482.148207
513.718449	2482.329689
514.082655	2485.293887
514.446803	2483.234576
514.810894	2483.055615
515.174927	2485.669453
515.538904	2483.738691
515.902822	2483.138794
516.266684	2481.792806
516.630488	2484.643578
516.994235	2483.584936
517.357925	2481.792806
517.721558	2482.821201
518.085133	2480.686273
518.448651	2481.061839
518.812112	2481.016468
519.175516	2479.483958
519.538863	2479.612507
519.902152	2481.306335
520.265385	2483.647951
520.628560	2481.442446
520.991678	2484.509988
521.354739	2482.952271
521.717743	2483.370687
522.080690	2485.903867
522.443580	2482.377580
522.806413	2486.120637
523.169189	2482.992601
523.531908	2484.704072
523.894569	2481.444966
524.257174	2483.085862
524.619722	2480.890439
524.982213	2486.279433
525.344647	2483.010245
525.707025	2485.009062
526.069345	2481.548310
526.431608	2484.421768
526.793815	2484.250368
527.155964	2483.990749
527.518057	2480.658546
527.880093	2483.663074
528.242072	2482.178454
528.603995	2485.359422
528.965860	2483.491675
529.327669	2482.682570
529.689421	2486.481079
530.051117	2481.525625
530.412755	2482.128043
530.774337	2484.046202
531.135862	2481.051756
531.497331	2484.036119
531.858743	2481.787765
532.220098	2483.380769
532.581396	2484.147025
532.942638	2487.607777
533.303824	2483.902529
533.664953	2482.420430
534.026025	2485.130050
534.387040	2484.507467
534.747999	2483.789103
535.108902	2483.411016
535.469748	2483.370687
535.830537	2483.637868
536.191270	2482.372539
536.551947	2482.806078
536.912567	2479.733495
537.273131	2479.758700
537.633638	2477.023874
537.994089	2485.697180
538.354483	2485.182982
538.714821	2484.462097
539.075103	2483.973105
539.435328	2484.489823
539.795497	2483.630307
540.155609	2483.978146
540.515665	2483.201808
540.875665	2486.849083
541.235609	2485.800523
541.595496	2485.891264
541.955328	2486.440750
542.315102	2482.072590
542.674821	2484.217601
543.034483	2485.117447
543.394090	2484.111737
543.753640	2485.283805
544.113134	2484.663743
544.472571	2484.073928
544.831953	2485.079638
545.191278	2483.416058
545.550548	2485.021665
545.909761	2483.428660
546.268918	2484.784731
546.628019	2486.244145
546.987064	2483.378249
547.346053	2480.285501
547.704986	2485.893785
548.063863	2484.920842
548.422684	2482.942189
548.781449	2482.468321
549.140158	2486.108034
549.498811	2483.476551
549.857408	2484.809937
550.215949	2481.530666
550.574434	2484.184833
550.932864	2485.039309
551.291237	2484.474700
551.649555	2486.637355
552.007817	2483.705924
552.366022	2483.658033
552.724173	2484.086531
553.082267	2481.767600
553.440305	2486.770945
553.798288	2486.425626
554.156215	2484.948568
554.514086	2481.712148
554.871902	2481.931438
555.229661	2483.390852
555.587365	2480.411530
555.945014	2483.650471
556.302606	2485.253558
556.660143	2484.540235
557.017625	2484.509988
557.375050	2484.900677
557.732421	2483.204329
558.089735	2485.238435
558.446994	2486.995277
558.804197	2486.450832
559.161345	2485.309011
559.518437	2485.009062
559.875474	2482.503609
560.232455	2485.984525
560.589381	2484.991418
560.946251	2484.499906
561.303065	2488.023672
561.659825	2485.913949
562.016528	2484.517550
562.373177	2484.227683
562.729770	2485.487972
563.086307	2485.041830
563.442789	2485.893785
563.799216	2482.395224
564.155587	2485.397231
564.511904	2485.782879
564.868164	2485.987046
565.224370	2483.201808
565.580520	2485.510657
565.936615	2485.392190
566.292654	2486.395379
566.648638	2486.155925
567.004567	2484.063846
567.360441	2482.677528
567.716260	2484.562920
568.072023	2484.310862
568.427732	2481.944041
568.783385	2486.508805
569.138982	2483.204329
569.494525	2484.129381
569.850013	2484.560399
570.205445	2484.749443
570.560823	2482.977477
570.916145	2485.757673
571.271412	2484.661223
571.626625	2485.714824
571.981782	2483.794144
572.336884	2483.630307
572.691931	2481.268526
573.046923	2482.382621
573.401860	2480.333392
573.756743	2483.529483
574.111570	2484.600729
574.466342	2485.989567
574.821059	2484.877992
575.175722	2482.125522
575.530330	2485.283805
575.884882	2482.380100
576.239380	2481.626448
576.593823	2484.966212
576.948211	2486.728096
577.302544	2482.922024
577.656823	2483.496716
578.011047	2482.629638
578.365216	2489.031903
578.719330	2484.469659
579.073389	2485.533342
579.427394	2483.287508
579.781344	2484.333547
580.135239	2484.288177
580.489080	2485.757673
580.842866	2481.800368
581.196597	2487.138950
581.550273	2483.587457
581.903895	2484.835142
582.257463	2484.189875
582.610975	2484.424288
582.964434	2486.831439
583.317837	2487.143991
583.671186	2485.790441
584.024481	2481.150059
584.377721	2484.724237
584.730906	2483.441263
585.084037	2486.009731
585.437113	2486.859166
585.790135	2485.102323
586.143103	2485.167858
586.496016	2487.602736
586.848874	2486.186172
587.201679	2485.861017
587.554428	2486.619711
587.907124	2483.675677
588.259765	2484.104175
588.612352	2484.197436
588.964884	2485.361943
589.317362	2483.496716
589.669786	2485.424957
590.022155	2483.489154
590.374470	2480.736684
590.726731	2480.585450
591.078937	2480.913125
591.431090	2484.401603
591.783188	2483.973105
592.135232	2485.429998
592.487222	2486.634834
592.839157	2484.809937
593.191038	2484.419247
593.542866	2484.938486
593.894639	2485.107365
594.246358	2486.476038
594.598022	2484.578043
594.949633	2485.150214
595.301190	2484.184833
595.652692	2485.334217
596.004141	2484.525111
596.355535	2486.944865
596.706876	2485.472848
597.058162	2485.785400
597.409395	2486.924701
597.760573	2482.967395
598.111698	2485.427478
598.462768	2486.216418
598.813785	2485.823208
599.164748	2483.655512
599.515657	2485.601398
599.866511	2485.288846
600.217312	2484.043681
600.568060	2484.830101
600.918753	2484.918321
601.269392	2484.020996
601.619978	2483.070738
601.970510	2485.858497
602.320988	2486.833960
602.671412	2484.908239
603.021783	2480.436736
603.372100	2485.818167
603.722363	2484.391521
604.072572	2482.927066
604.422728	2484.157107
604.772830	2484.194916
605.122878	2484.986377
605.472872	2484.053763
605.822813	2483.786582
606.172701	2484.116778
606.522534	2485.750112
606.872314	2486.828919
607.222041	2485.339258
607.571714	2481.734833
607.921333	2479.920017
608.270899	2481.659215
608.620411	2479.110912
608.969870	2481.480254
609.319276	2484.305821
609.668627	2484.746922
610.017926	2482.692652
610.367171	2483.380769
610.716362	2485.261120
611.065500	2483.506798
611.414585	2485.795482
611.763616	2485.369505
612.112594	2485.487972
612.461518	2484.255410
612.810389	2485.397231
613.159207	2487.106182
613.507971	2485.495533
613.856682	2482.997642
614.205340	2483.935296
614.553945	2485.377066
614.902496	2485.180461
615.250994	2485.014103
615.599439	2485.765235
615.947830	2485.954278
616.296169	2484.071408
616.644454	2481.268526
616.992686	2486.160966
617.340864	2485.490492
617.688990	2483.164000
618.037063	2484.061325
618.385082	2482.864051
618.733048	2489.339413
619.080961	2484.875472
619.428821	2485.165338
619.776628	2486.150883
620.124382	2487.171717
620.472083	2486.133239
620.819731	2483.872282
621.167326	2481.538228
621.514868	2485.782879
621.862357	2485.359422
622.209793	2484.782210
622.557176	2485.208188
622.904506	2484.225163
623.251783	2485.283805
623.599007	2483.799185
623.946179	2487.451501
624.293297	2483.973105
624.640363	2483.393372
624.987376	2484.414206
625.334336	2480.580408
625.681243	2480.880357
626.028097	2482.087713
626.374899	2485.152735
626.721647	2487.378404
627.068343	2485.639206
627.414987	2482.755666
627.761577	2485.805564
628.108115	2481.684421
628.454600	2482.758187
628.801032	2483.189206
629.147412	2485.099803
629.493739	2484.315903
629.840014	2483.491675
630.186236	2484.270533
630.532405	2485.036788
630.878521	2482.014617
631.224585	2485.346819
631.570597	2483.292549
631.916556	2483.615183
632.262462	2482.932107
632.608316	2485.881182
632.954117	2484.996459
633.299866	2484.656181
633.645562	2487.403610
633.991206	2484.336068
634.336797	2484.598208
634.682336	2485.014103
635.027823	2483.274905
635.373257	2483.151397
635.718639	2483.103506
636.063968	2486.309680
636.409245	2485.490492
636.754470	2486.314721
637.099642	2485.142653
637.444762	2483.131232
637.789829	2483.627786
638.134845	2482.964874
638.479808	2484.179792
638.824719	2484.358753
639.169577	2485.571151
639.514383	2484.066366
639.859137	2485.777838
640.203839	2485.946717
640.548489	2485.309011
640.893086	2483.408496
641.237632	2483.529483
641.582125	2485.243476
641.926566	2485.689618
642.270955	2480.887919
642.615292	2482.548979
642.959576	2481.457569
643.303809	2479.451190
643.647990	2484.583085
643.992118	2485.314052
644.336195	2486.039978
644.680219	2482.594349
645.024192	2484.573002
645.368112	2481.986890
645.711981	2483.010245
646.055797	2480.535038
646.399562	2484.189875
646.743274	2481.886067
647.086935	2483.748774
647.430544	2486.304639
647.774101	2485.356902
648.117606	2484.898157
648.461059	2484.668784
648.804460	2483.930255
649.147810	2482.334730
649.491108	2485.372025
649.834354	2483.746253
650.177548	2484.741881
650.520690	2485.029227
650.863781	2483.433702
651.206820	2486.360091
651.549807	2486.670122
651.892742	2484.860348
652.235626	2483.718527
652.578458	2484.880513
652.921238	2485.188023
653.263967	2487.020483
653.606644	2486.463435
653.949269	2484.159628
654.291843	2485.510657
654.634365	2482.720378
654.976836	2483.713486
655.319255	2483.491675
655.661622	2482.687611
656.003938	2483.768938
656.346203	2484.094093
656.688416	2486.082828
657.030577	2485.745071
657.372687	2484.096613
657.714746	2482.080152
658.056753	2483.252220
658.398708	2484.038640
658.740612	2484.134422
659.082465	2483.526963
659.424266	2481.850779
659.766016	2478.881540
660.107715	2481.568475
660.449362	2479.622589
660.790958	2483.539566
661.132503	2482.551500
661.473996	2481.729792
661.815438	2484.136943
662.156829	2484.565441
662.498168	2482.790954
662.839456	2484.993939
663.180693	2484.348671
663.521879	2484.673825
663.863013	2483.678197
664.204097	2485.346819
664.545129	2483.549648
664.886110	2482.160810
665.227040	2486.226501
665.567918	2486.289515
665.908746	2483.925214
666.249522	2485.765235
666.590248	2484.353712
666.930922	2482.556541
667.271545	2483.968064
667.612118	2483.315234
667.952639	2481.815491
668.293109	2484.799854
668.633528	2482.677528
668.973896	2484.290698
669.314213	2482.478403
669.654480	2486.143322
669.994695	2482.629638
670.334859	2486.024855
670.674973	2481.064359
671.015035	2480.653505
671.355047	2485.838332
671.695008	2484.537714
672.034918	2483.811788
672.374777	2485.233393
672.714585	2483.542086
673.054342	2481.087044
673.394049	2483.232055
673.733705	2483.874802
674.073310	2485.500575
674.412864	2483.915132
674.752368	2486.939824
675.091820	2484.588126
675.431223	2484.109216
675.770574	2486.100472
676.109875	2484.414206
676.449125	2480.086375
676.788324	2480.240131
677.127473	2482.165851
677.466571	2480.860193
677.805619	2481.379431
678.144616	2484.565441
678.483562	2484.290698
678.822458	2487.259937
679.161303	2485.006542
679.500098	2480.502271
679.838842	2483.332878
680.177535	2482.085193
680.516179	2484.570482
680.854771	2484.598208
681.193314	2484.820019
681.531805	2485.452684
681.870247	2485.810606
682.208638	2482.314565
682.546978	2484.487303
682.885268	2482.790954
683.223508	2483.108547
683.561697	2482.634679
683.899836	2483.337920
684.237925	2483.421099
684.575963	2483.438743
684.913951	2483.642909
685.251889	2484.744402
685.589776	2486.660040
685.927614	2482.039823
686.265401	2484.978815
686.603137	2481.485296
686.940824	2483.501757
687.278460	2487.088538
687.616046	2481.732312
687.953582	2483.988228
688.291068	2482.773310
688.628504	2484.031078
688.965889	2483.474031
689.303224	2482.997642
689.640510	2483.428660
689.977745	2482.745584
690.314930	2482.748105
690.652065	2484.328506
690.989150	2484.978815
691.326185	2484.560399
691.663170	2483.005203
692.000105	2483.345481
692.336990	2481.263485
692.673825	2485.044350
693.010610	2482.254072
693.347345	2480.323310
693.684030	2482.690131
694.020665	2480.497229
694.357251	2478.216107
694.693786	2483.925214
695.030272	2483.342961
695.366707	2483.290029
695.703093	2481.381952
696.039429	2483.670636
696.375716	2483.413537
696.711952	2480.608135
697.048139	2483.950420
697.384276	2483.622745
697.720363	2486.062663
698.056400	2481.702065
698.392388	2481.588639
698.728326	2482.690131
699.064214	2481.565954
699.400053	2484.084010
699.735842	2483.665595
700.071581	2485.014103
700.407270	2482.039823
700.742910	2483.607621
701.078501	2484.991418
701.414042	2483.133753
701.749533	2484.048722
702.084974	2479.738536
702.420366	2484.444453
702.755709	2481.782724
703.091002	2482.780872
703.426246	2482.521253
703.761440	2484.656181
704.096584	2485.351861
704.431679	2480.794657
704.766725	2486.244145
705.101721	2481.180306
705.436668	2483.569813
705.771565	2483.451346
706.106413	2483.640389
706.441212	2483.292549
706.775961	2483.751294
707.110661	2485.009062
707.445311	2481.255923
707.779913	2484.681387
708.114465	2482.589308
708.448967	2482.886736
708.783421	2483.171562
709.117825	2484.787251
709.452180	2481.074442
709.786485	2484.658702
710.120742	2480.214925
710.454949	2479.373052
710.789107	2480.305666
711.123216	2475.740901
711.457275	2481.951602
711.791286	2483.305152
712.125247	2483.690800
712.459159	2483.239617
712.793023	2484.116778
713.126837	2482.576705
713.460602	2486.443270
713.794318	2483.479072
714.127985	2481.883547
714.461602	2482.836325
714.795171	2483.302632
715.128691	2482.846407
715.462162	2482.324648
715.795584	2483.375728
716.128957	2484.273054
716.462281	2484.204998
716.795556	2483.078300
717.128782	2482.783393
717.461960	2484.598208
717.795088	2482.417909
718.128167	2484.247848
718.461198	2481.460090
718.794180	2483.723568
719.127113	2480.580408
719.459997	2480.464462
719.792833	2485.326655
720.125619	2481.296252
720.458357	2484.174751
720.791046	2483.471510
721.123686	2480.940851
721.456278	2483.390852
721.788821	2483.380769
722.121315	2485.051912
722.453761	2478.856334
722.786158	2482.775831
723.118506	2481.359267
723.450805	2483.897488
723.783056	2486.110554
724.115259	2484.492344
724.447412	2481.076962
724.779518	2483.100985
725.111574	2484.699031
725.443582	2482.543938
725.775542	2481.802888
726.107453	2483.242138
726.439315	2484.363794
726.771129	2484.020996
727.102895	2478.730305
727.434612	2482.395224
727.766281	2475.680407
728.097901	2481.336582
728.429473	2484.353712
728.760996	2484.439412
729.092471	2481.200470
729.423897	2480.961016
729.755276	2483.431181
730.086606	2482.485965
730.417887	2482.664926
730.749120	2483.075780
731.080305	2482.382621
731.411442	2480.436736
731.742530	2485.417396
732.073570	2482.929586
732.404562	2482.939668
732.735506	2482.420430
733.066401	2484.010914
733.397249	2485.198105
733.728048	2479.995635
734.058798	2483.947899
734.389501	2481.855820
734.720156	2480.320789
735.050762	2484.061325
735.381320	2482.334730
735.711831	2482.543938
736.042293	2483.032930
736.372707	2483.645430
736.703073	2480.565285
737.033391	2478.478247
737.363661	2484.366315
737.693883	2484.285657
738.024056	2481.833135
738.354182	2482.518732
738.684260	2483.680718
739.014290	2480.628299
739.344272	2482.317086
739.674207	2483.214411
740.004093	2480.809781
740.333931	2482.377580
740.663722	2483.267343
740.993464	2485.147694
741.323159	2481.258444
741.652806	2481.936479
741.982405	2480.073773
742.311956	2483.627786
742.641460	2481.775162
742.970915	2481.639051
743.300323	2479.436067
743.629683	2479.148721
743.958996	2478.692496
744.288260	2476.580253
744.617477	2484.452015
744.946647	2479.859523
745.275768	2480.250213
745.604842	2482.705255
745.933869	2481.064359
746.262847	2485.591315
746.591778	2482.889257
746.920662	2480.214925
747.249498	2483.836994
747.578286	2481.311376
747.907027	2481.021509
748.235720	2481.439925
748.564365	2481.039153
748.892963	2484.401603
749.221514	2483.542086
749.550017	2483.227014
749.878473	2479.214256
750.206881	2483.637868
750.535242	2482.669967
750.863555	2482.092755
751.191821	2479.967908
751.520039	2481.278608
751.848210	2482.687611
752.176334	2480.411530
752.504411	2479.733495
752.832440	2483.345481
753.160421	2482.259113
753.488356	2482.417909
753.816243	2482.932107
754.144082	2482.044864
754.471875	2481.180306
754.799620	2479.945223
755.127318	2481.427322
755.454969	2482.377580
755.782572	2480.802219
756.110129	2483.637868
756.437638	2481.094606
756.765100	2483.882364
757.092515	2481.341623
757.419882	2483.428660
757.747203	2481.712147
758.074477	2480.998824
758.401703	2483.867241
758.728882	2482.914463
759.056014	2485.329175
759.383099	2480.640902
759.710138	2480.744246
760.037129	2478.773155
760.364073	2478.788278
760.690970	2477.860706
761.017820	2479.627630
761.344623	2479.796509
761.671379	2480.149390
761.998088	2478.969760
762.324751	2481.470172
762.651366	2480.507312
762.977935	2480.414050
763.304456	2481.051756
763.630931	2480.018320
763.957359	2478.568988
764.283740	2484.227683
764.610074	2479.733495
764.936362	2484.474700
765.262602	2479.738536
765.588796	2485.339258
765.914943	2481.288691
766.241044	2481.281129
766.567097	2480.766931
766.893104	2480.235089
767.219064	2482.241469
767.544978	2483.375728
767.870845	2478.977322
768.196665	2483.814309
768.522438	2480.217445
768.848165	2481.109730
769.173846	2481.112250
769.499479	2480.454380
769.825066	2481.190388
770.150607	2480.865234
770.476101	2479.990593
770.801548	2479.068062
771.126949	2482.238948
771.452303	2479.178968
771.777611	2481.717189
772.102872	2481.424802
772.428087	2482.725419
772.753256	2481.835656
773.078378	2481.165182
773.403453	2483.191726
773.728482	2481.704586
774.053465	2480.575367
774.378401	2480.502271
774.703291	2482.014617
775.028135	2479.831797
775.352932	2481.800368
775.677683	2482.281798
776.002388	2480.938330
776.327046	2478.624441
776.651658	2477.540593
776.976224	2473.921044
777.300743	2481.754997
777.625216	2481.392034
777.949643	2481.618886
778.274024	2479.988073
778.598359	2478.473206
778.922647	2481.197950
779.246889	2481.011427
779.571086	2482.513691
779.895236	2483.602580
780.219339	2482.841366
780.543397	2480.698876
780.867409	2480.111581
781.191374	2480.565285
781.515294	2481.883547
781.839167	2480.789616
782.162995	2479.887250
782.486776	2479.655357
782.810511	2480.217445
783.134201	2481.797847
783.457844	2479.945223
783.781441	2480.426653
784.104993	2477.258288
784.428498	2479.557054
784.751958	2481.437405
785.075372	2480.822384
785.398739	2481.883547
785.722061	2482.480923
786.045337	2481.334061
786.368568	2482.097796
786.691752	2481.016468
787.014891	2481.820532
787.337983	2477.656539
787.661030	2480.005717
787.984031	2482.125522
788.306987	2482.554020
788.629897	2481.170223
788.952760	2480.633341
789.275579	2481.581077
789.598351	2483.317755
789.921078	2479.801550
790.243759	2480.792137
790.566395	2480.623258
790.888984	2481.147538
791.211529	2483.169041
791.534027	2482.047384
791.856480	2479.766262
792.178888	2478.574029
792.501249	2477.366673
792.823566	2479.935141
793.145836	2477.825418
793.468062	2479.776344
793.790241	2478.944554
794.112375	2480.719040
794.434464	2481.034112
794.756507	2477.885912
795.078505	2479.236941
795.400457	2482.120481
795.722364	2479.410861
796.044226	2483.836994
796.366042	2478.669811
796.687812	2479.864565
797.009538	2481.634010
797.331218	2481.389514
797.652852	2481.354226
797.974442	2482.783393
798.295986	2480.492188
798.617484	2480.421612
798.938938	2480.444297
799.260346	2480.345995
799.581709	2480.930769
799.903026	2480.315748
800.224299	2481.893629
800.545526	2481.286170
800.866708	2482.982518
801.187845	2480.172075
801.508936	2481.087044
801.829983	2479.778865
802.150984	2480.247692
802.471940	2482.049905
802.792851	2478.934472
803.113717	2479.196612
803.434538	2477.759883
803.755314	2481.109730
804.076045	2478.332054
804.396731	2480.300624
804.717372	2480.693834
805.037967	2480.383803
805.358518	2482.092755
805.679024	2482.314565
805.999485	2478.705099
806.319901	2480.948413
806.640272	2478.216107
806.960598	2478.803402
807.280879	2481.865903
807.601115	2480.754328
807.921306	2482.546458
808.241453	2476.620582
808.561554	2477.079327
808.881611	2478.344657
809.201623	2475.529172
809.521590	2477.928762
809.841513	2480.376242
810.161390	2481.903711
810.481223	2476.910448
810.801011	2479.100830
811.120755	2483.511839
811.440453	2480.106540
811.760107	2478.924389
812.079716	2480.898001
812.399281	2479.085706
812.718801	2479.131077
813.038276	2480.207363
813.357707	2479.340285
813.677093	2480.177116
813.996434	2479.186529
814.315731	2478.921869
814.634983	2480.129225
814.954191	2478.818525
815.273354	2480.421612
815.592473	2478.720223
815.911547	2482.034781
816.230577	2479.761221
816.549562	2476.786940
816.868502	2479.552013
817.187399	2481.792806
817.506250	2482.808598
817.825058	2480.272898
818.143821	2479.678042
818.462539	2479.577219
818.781213	2479.224338
819.099843	2477.699389
819.418429	2478.914307
819.736970	2479.143680
820.055466	2479.546972
820.373919	2478.914307
820.692327	2478.818525
821.010691	2478.884060
821.329011	2481.477734
821.647286	2477.149903
821.965517	2480.499750
822.283704	2479.937661
822.601847	2479.005048
822.919945	2479.824235
823.237999	2481.916314
823.556010	2478.521097
823.873976	2479.120994
824.191897	2477.066724
824.509775	2476.797022
824.827609	2478.780717
825.145398	2474.578915
825.463144	2480.600573
825.780845	2478.992445
826.098502	2478.838690
826.416116	2478.390027
826.733685	2479.022692
827.051210	2481.117291
827.368692	2480.076293
827.686129	2481.177785
828.003522	2480.280460
828.320872	2478.969760
828.638177	2479.441108
828.955439	2481.530666
829.272656	2480.537559
829.589830	2481.765080
829.906960	2476.466827
830.224046	2478.974801
830.541088	2480.560244
830.858086	2479.504122
831.175041	2479.431025
831.491952	2479.441108
831.808819	2480.966057
832.125642	2481.097127
832.442421	2479.105871
832.759157	2478.518577
833.075849	2476.063535
833.392497	2480.779534
833.709101	2475.927423
834.025662	2479.713330
834.342179	2478.828607
834.658653	2479.524287
834.975083	2479.995635
835.291469	2487.297746
835.607811	2478.032105
835.924110	2478.332054
836.240366	2478.160655
836.556578	2478.286683
836.872746	2480.799699
837.188871	2478.609317
837.504952	2476.245016
837.820990	2480.900522
838.136984	2478.027064
838.452935	2481.402117
838.768842	2477.051601
839.084706	2476.302989
839.400526	2484.399082
839.716303	2477.598566
840.032037	2479.423464
840.347727	2475.514049
840.663373	2475.710654
840.978977	2472.075982
841.294537	2478.377424
841.610054	2478.894142
841.925527	2478.886581
842.240957	2478.039667
842.556344	2479.738536
842.871687	2476.093782
843.186987	2480.305666
843.502244	2480.593011
843.817458	2481.117291
844.132629	2478.044708
844.447756	2480.948413
844.762840	2480.358598
845.077881	2477.573360
845.392879	2478.689976
845.707833	2478.390027
846.022745	2477.626292
846.337613	2480.230048
846.652438	2477.764924
846.967221	2481.669298
847.281960	2474.573874
847.596656	2480.809781
847.911309	2477.245685
848.225919	2476.930613
848.540485	2480.618217
848.855009	2478.034626
849.169490	2476.607979
849.483928	2477.356591
849.798323	2477.142342
850.112675	2479.615028
850.426984	2478.299286
850.741251	2478.329533
851.055474	2479.035295
851.369654	2480.300624
851.683792	2480.996304
851.997887	2480.209884
852.311938	2479.849441
852.625947	2478.697537
852.939914	2480.003196
853.253837	2479.640233
853.567718	2477.681745
853.881555	2480.963536
854.195350	2478.498412
854.509103	2479.516725
854.822812	2479.993114
855.136479	2480.008238
855.450103	2479.713330
855.763685	2478.637044
856.077224	2476.527321
856.390720	2474.697382
856.704173	2474.515900
857.017584	2477.296097
857.330953	2477.540593
857.644278	2477.079327
857.957561	2479.683083
858.270802	2478.064873
858.584000	2477.117136
858.897155	2477.233082
859.210268	2480.073772
859.523339	2477.243165
859.836367	2479.708289
860.149352	2476.807105
860.462295	2478.838690
860.775195	2477.795171
861.088054	2477.775006
861.400869	2477.540593
861.713642	2474.901549
862.026373	2477.785089
862.339062	2479.108392
862.651708	2477.167547
862.964312	2478.435397
863.276873	2478.679893
863.589392	2478.979842
863.901869	2477.220479
864.214303	2479.587301
864.526696	2476.751652
864.839045	2476.227372
865.151353	2477.812815
865.463619	2479.357929
865.775842	2480.298104
866.088023	2477.286014
866.400162	2479.224338
866.712258	2475.987917
867.024313	2476.648308
867.336325	2478.798361
867.648296	2478.062352
867.960224	2478.810963
868.272110	2480.330871
868.583954	2480.504791
868.895755	2477.096971
869.207515	2477.701910
869.519233	2477.215438
869.830909	2477.858185
870.142542	2476.829790
870.454134	2479.584781
870.765684	2479.431025
871.077191	2479.662918
871.388657	2475.090592
871.700081	2475.327526
872.011463	2475.236785
872.322803	2472.887608
872.634101	2477.553196
872.945357	2480.557723
873.256571	2478.657208
873.567744	2479.930100
873.878874	2477.109574
874.189963	2478.959678
874.501010	2478.359780
874.812015	2477.379276
875.122979	2479.531848
875.433900	2478.742908
875.744780	2477.883391
876.055618	2478.536221
876.366415	2477.936323
876.677169	2480.403968
876.987882	2477.671663
877.298554	2477.354070
877.609183	2478.357260
877.919771	2479.673001
878.230317	2477.714512
878.540822	2481.059318
878.851285	2480.650985
879.161707	2476.572691
879.472087	2479.655357
879.782425	2475.834162
880.092722	2479.196612
880.402977	2476.751652
880.713191	2477.943885
881.023363	2479.652836
881.333494	2478.213587
881.643583	2478.626961
881.953631	2478.400109
882.263637	2478.609317
882.573602	2477.318782
882.883526	2476.126549
883.193408	2477.883391
883.503248	2477.722074
883.813048	2477.583442
884.122806	2478.954636
884.432522	2479.068062
884.742197	2476.038329
885.051831	2477.517908
885.361424	2477.843062
885.670975	2475.584625
885.980485	2477.522949
886.289954	2479.509163
886.599382	2477.608648
886.908768	2477.981694
887.218113	2472.353245
887.527417	2475.042701
887.836680	2474.462968
888.145901	2477.792650
888.455082	2477.553196
888.764221	2479.761221
889.073319	2480.008237
889.382376	2477.311220
889.691392	2476.759214
890.000366	2477.384317
890.309300	2478.367342
890.618193	2477.117136
890.927044	2476.106384
891.235855	2477.893473
891.544625	2472.607824
891.853353	2476.935654
892.162041	2475.579584
892.470687	2479.904894
892.779293	2476.643267
893.087858	2477.835500
893.396381	2480.073772
893.704864	2476.587815
894.013306	2475.587146
894.321707	2477.096971
894.630068	2475.388020
894.938387	2478.533700
895.246665	2478.079996
895.554903	2477.071765
895.863100	2476.610500
896.171256	2476.113946
896.479371	2477.301138
896.787446	2480.033443
897.095480	2477.729636
897.403473	2477.006230
897.711425	2476.025726
898.019336	2477.706951
898.327207	2477.417084
898.635038	2478.556385
898.942827	2474.183184
899.250576	2478.490850
899.558284	2478.458083
899.865952	2477.679224
900.173579	2478.299286
900.481165	2475.050263
900.788711	2479.451190
901.096216	2476.035808
901.403681	2475.357773
901.711105	2476.499594
902.018489	2476.441621
902.325832	2475.972794
902.633135	2472.174284
902.940397	2473.114460
903.247619	2473.111939
903.554800	2475.887094
903.861941	2475.335088
904.169041	2477.437249
904.476101	2475.514049
904.783121	2478.440439
905.090100	2477.835500
905.397039	2477.681745
905.703938	2478.362301
906.010796	2479.728453
906.317614	2475.481281
906.624391	2476.630664
906.931129	2477.197794
907.237826	2478.266519
907.544483	2477.790130
907.851099	2475.967753
908.157675	2475.635037
908.464211	2478.042188
908.770707	2477.628813
909.077163	2475.347691
909.383578	2474.667135
909.689954	2478.095120
909.996289	2478.571509
910.302584	2478.778196
910.608839	2478.253916
910.915054	2477.923720
911.221229	2475.962712
911.527363	2478.745428
911.833458	2475.503967
912.139513	2477.157465
912.445527	2474.326857
912.751502	2479.337764
913.057436	2477.008751
913.363331	2477.255768
913.669186	2476.381127
913.975000	2479.015130
914.280775	2478.377424
914.586510	2477.379276
914.892205	2478.014461
915.197859	2476.597897
915.503475	2476.081179
915.809050	2476.023205
916.114585	2475.067907
916.420081	2477.638895
916.725536	2477.764924
917.030952	2475.687969
917.336328	2475.687969
917.641665	2474.049594
917.946961	2472.023050
918.252218	2474.941878
918.557435	2470.488018
918.862612	2476.975983
919.167750	2475.718216
919.472848	2479.146200
919.777906	2476.665953
920.082925	2478.906745
920.387904	2476.595376
920.692843	2477.071765
920.997743	2475.350211
921.302603	2475.982876
921.607423	2476.550006
921.912204	2476.865078
922.216946	2477.472537
922.521647	2478.120325
922.826310	2475.632516
923.130932	2475.277115
923.435516	2475.884574
923.740059	2477.223000
924.044564	2474.727629
924.349028	2477.520428
924.653454	2476.270222
924.957840	2476.159317
925.262186	2475.541775
925.566493	2475.647639
925.870761	2477.313741
926.174989	2476.711323
926.479178	2476.156796
926.783328	2475.496405
927.087438	2476.023205
927.391509	2478.505974
927.695541	2473.444655
927.999533	2479.231900
928.303486	2473.449696
928.607400	2479.277270
928.911275	2476.000520
929.215110	2478.495891
929.518906	2474.362145
929.822663	2475.687969
930.126381	2475.445993
930.430060	2476.741570
930.733699	2477.273412
931.037299	2474.780561
931.340861	2477.853144
931.644383	2473.472382
931.947866	2478.430356
932.251309	2477.437249
932.554714	2474.475571
932.858080	2473.255612
933.161407	2472.943060
933.464694	2472.693523
933.767943	2473.888277
934.071153	2477.162506
934.374323	2477.142342
934.677455	2475.708133
934.980548	2476.492033
935.283602	2474.909110
935.586617	2475.771148
935.889593	2475.060345
936.192530	2474.939357
936.495428	2478.155613
936.798287	2475.594707
937.101108	2476.154275
937.403890	2474.730149
937.706632	2476.068576
938.009336	2479.257106
938.312002	2477.112095
938.614628	2472.539768
938.917216	2475.995479
939.219765	2476.754173
939.522275	2481.570995
939.824747	2475.072948
940.127179	2477.089409
940.429573	2474.624285
940.731929	2475.105715
941.034246	2477.654019
941.336524	2476.703761
941.638763	2476.734008
941.940964	2476.320633
942.243126	2476.232413
942.545250	2475.524131
942.847335	2474.798205
943.149381	2475.629995
943.451389	2475.211580
943.753359	2478.765593
944.055290	2475.693010
944.357182	2475.992958
944.659036	2473.439614
944.960851	2474.503297
945.262628	2476.275263
945.564367	2477.313741
945.866067	2476.683597
946.167729	2477.023874
946.469352	2477.611169
946.770937	2474.694861
947.072484	2477.767445
947.373992	2477.280973
947.675462	2473.442135
947.976893	2474.851137
948.278286	2471.677731
948.579641	2475.516569
948.880958	2470.757720
949.182236	2476.703761
949.483476	2476.794502
949.784678	2477.921200
950.085841	2477.349029
950.386967	2475.962712
950.688054	2475.178812
950.989103	2475.498925
951.290114	2474.205869
951.591087	2478.377424
951.892021	2475.312403
952.192917	2477.840541
952.493776	2475.657722
952.794596	2478.959678
953.095378	2474.460448
953.396122	2475.022536
953.696828	2473.933647
953.997496	2476.025726
954.298126	2473.444655
954.598718	2475.753504
954.899272	2476.872640
955.199788	2476.842393
955.500266	2474.742752
955.800706	2478.019502
956.101108	2475.259471
956.401472	2474.652012
956.701798	2475.519090
957.002087	2476.305510
957.302337	2474.994810
957.602550	2475.972794
957.902724	2476.827269
958.202861	2476.585294
958.502960	2476.275263
958.803022	2475.534213
959.103045	2476.575212
959.403031	2478.344657
959.702979	2473.807618
960.002889	2477.117136
960.302762	2477.409523
960.602596	2476.363483
960.902393	2477.989255
961.202153	2476.910448
961.501875	2474.026908
961.801559	2472.600262
962.101205	2472.627988
962.400814	2474.392392
962.700385	2475.564460
962.999918	2474.042032
963.299414	2472.015488
963.598873	2473.459779
963.898293	2472.005406
964.197677	2474.233596
964.497022	2475.577063
964.796331	2476.534882
965.095601	2474.662094
965.394835	2475.148565
965.694030	2472.862402
965.993189	2474.488174
966.292309	2475.244347
966.591393	2472.869964
966.890439	2473.732001
967.189447	2475.120839
967.488419	2477.550675
967.787353	2474.490695
968.086249	2476.918010
968.385108	2477.096971
968.683930	2474.901549
968.982714	2473.600931
969.281462	2474.707464
969.580172	2475.924903
969.878844	2478.238792
970.177480	2475.808956
970.476078	2477.807774
970.774639	2477.591004
971.073162	2477.248206
971.371649	2474.972125
971.670098	2473.558081
971.968510	2475.070427
972.266885	2477.664101
972.565223	2473.525314
972.863524	2477.606128
973.161788	2476.625623
973.460014	2473.114460
973.758204	2478.924389
974.056356	2472.638071
974.354471	2473.953812
974.652550	2477.553196
974.950591	2474.465489
975.248595	2477.346508
975.546563	2471.995323
975.844493	2475.972794
976.142386	2477.787609
976.440243	2476.905407
976.738062	2473.016157
977.035845	2474.649491
977.333590	2475.390541
977.631299	2473.016157
977.928971	2471.922227
978.226606	2472.564974
978.524204	2471.556743
978.821765	2470.639253
979.119290	2474.659573
979.416777	2473.729480
979.714228	2475.135962
980.011642	2475.118318
980.309020	2473.933647
980.606360	2474.783082
980.903664	2475.808956
981.200931	2475.181333
981.498162	2475.667804
981.795356	2477.737198
982.092513	2474.588997
982.389633	2476.975983
982.686717	2476.771817
982.983764	2473.099336
983.280775	2476.423977
983.577749	2473.001034
983.874686	2473.147227
984.171587	2476.844913
984.468451	2476.839872
984.765279	2476.202166
985.062070	2476.963381
985.358824	2474.649491
985.655543	2475.839203
985.952224	2477.263329
986.248869	2476.068576
986.545478	2475.927423
986.842050	2475.163689
987.138586	2474.621765
987.435086	2478.710140
987.731549	2473.106898
988.027975	2475.607310
988.324366	2473.903400
988.620719	2475.098154
988.917037	2474.679738
989.213318	2474.296610
989.509563	2472.426342
989.805772	2475.561940
990.101944	2472.247381
990.398080	2475.269553
990.694180	2473.842906
990.990244	2475.385499
991.286271	2474.117649
991.582262	2474.140334
991.878217	2476.121508
992.174136	2474.853658
992.470019	2474.059676
992.765865	2472.965746
993.061676	2471.554223
993.357450	2473.308544
993.653188	2469.772175
993.948890	2474.838534
994.244556	2474.470530
994.540186	2473.752166
994.835780	2474.180664
995.131337	2473.411888
995.426859	2474.616723
995.722345	2471.420632
996.017795	2472.625468
996.313208	2475.937506
996.608586	2475.229224
996.903928	2474.798205
997.199234	2473.174953
997.494504	2475.652681
997.789738	2476.918010
998.084936	2475.690489
998.380099	2471.566825
998.675225	2475.856847
998.970316	2472.101188
999.265371	2474.566312
999.560390	2471.599593
999.855373	2472.101188
1000.150320	2472.759058
1000.445232	2474.442804
1000.740108	2474.901549
1001.034948	2475.713174
1001.329752	2476.872640
1001.624521	2474.435242
1001.919254	2476.045891
1002.213951	2473.626137
1002.508613	2476.436580
1002.803239	2474.631847
1003.097829	2472.149079
1003.392384	2474.631847
1003.686903	2474.525983
1003.981386	2476.290387
1004.275834	2476.776858
1004.570246	2474.914152
1004.864623	2472.910293
1005.158964	2473.434573
1005.453270	2475.080510
1005.747540	2474.354583
1006.041775	2475.012454
1006.335974	2473.900880
1006.630138	2475.440952
1006.924266	2473.739563
1007.218359	2473.142186
1007.512416	2472.645632
1007.806438	2470.120014
1008.100425	2472.930457
1008.394376	2469.041207
1008.688292	2475.438432
1008.982172	2472.383492
1009.276017	2474.886425
1009.569827	2473.754686
1009.863602	2473.679069
1010.157341	2471.143368
1010.451045	2473.404326
1010.744714	2474.987248
1011.038347	2474.505818
1011.331945	2475.733339
1011.625508	2475.020016
1011.919036	2474.072279
1012.212528	2474.795684
1012.505986	2472.938019
1012.799408	2473.149748
1013.092795	2474.891466
1013.386147	2474.195787
1013.679464	2475.985397
1013.972745	2475.632516
1014.265992	2471.607155
1014.559204	2475.534213
1014.852380	2473.648822
1015.145521	2474.757876
1015.438628	2474.886425
1015.731699	2476.973463
1016.024736	2472.756538
1016.317737	2474.974645
1016.610703	2470.041876
1016.903635	2474.049594
1017.196531	2474.508339
1017.489393	2475.846765
1017.782219	2473.442135
1018.075011	2474.851137
1018.367768	2475.962712
1018.660490	2473.537917
1018.953177	2473.537917
1019.245829	2473.537917
