Dividing Wavelength (nm)	Counts (n)	Blue Motor Position (mm): 0.700000	Red Motor Position (mm): 0.000000	
326.493990	2142.893677
326.888308	2142.893677
327.282561	2142.893677
327.676750	2109.548965
328.070874	2110.000148
328.464933	2112.621548
328.858929	2118.953237
329.252859	2128.667541
329.646726	2141.603142
330.040528	2153.996818
330.434265	2169.873932
330.827938	2186.492096
331.221547	2206.311392
331.615091	2224.252859
332.008571	2243.517628
332.401986	2267.332039
332.795338	2286.395162
333.188625	2300.891000
333.581847	2321.272385
333.975006	2342.293997
334.368100	2360.122037
334.761129	2378.121477
335.154095	2393.736451
335.546996	2410.757907
335.939833	2427.391194
336.332606	2440.092381
336.725315	2454.588219
337.117960	2460.509054
337.510540	2470.107411
337.903056	2478.805922
338.295508	2486.750781
338.687896	2497.480877
339.080220	2508.160561
339.472480	2511.580984
339.864676	2517.433764
340.256807	2519.805627
340.648875	2522.048940
341.040879	2525.489528
341.432818	2528.340300
341.824694	2528.012625
342.216506	2529.882893
342.608253	2528.262162
342.999937	2528.932636
343.391557	2529.414066
343.783113	2529.421627
344.174605	2526.568334
344.566033	2524.798889
344.957397	2526.845598
345.348697	2524.551873
345.739934	2522.681605
346.131106	2520.203878
346.522215	2519.150277
346.913260	2515.371932
347.304241	2514.996366
347.695159	2510.035870
348.086012	2510.421519
348.476802	2507.883298
348.867528	2507.696775
349.258191	2502.557319
349.648789	2506.007988
350.039324	2500.014057
350.429796	2503.341218
350.820203	2500.893738
351.210548	2499.930877
351.600828	2498.605054
351.991045	2498.592451
352.381198	2498.063130
352.771288	2498.320229
353.161314	2499.784684
353.551276	2497.165805
353.941175	2497.523727
354.331010	2495.114055
354.720782	2494.506596
355.110490	2496.931391
355.500135	2496.334014
355.889717	2497.291833
356.279235	2495.497183
356.668689	2495.436689
357.058080	2495.678664
357.447408	2497.337204
357.836672	2493.263952
358.225873	2497.619508
358.615010	2493.576503
359.004084	2499.048676
359.393095	2497.793428
359.782043	2500.510610
360.170927	2500.213182
360.559748	2501.518841
360.948505	2502.375837
361.337199	2503.726866
361.725830	2503.172339
362.114398	2502.544716
362.502903	2502.217041
362.891344	2502.794253
363.279722	2504.790550
363.668037	2506.902793
364.056289	2504.465395
364.444478	2509.176354
364.832603	2506.388596
365.220665	2506.980931
365.608665	2504.031856
365.996601	2508.014368
366.384474	2508.740294
366.772284	2510.928155
367.160031	2504.929182
367.547715	2510.562671
367.935336	2510.008144
368.322893	2509.574605
368.710388	2509.304903
369.097820	2514.099040
369.485189	2509.254492
369.872495	2507.101919
370.259738	2511.175171
370.646918	2509.418329
371.034035	2511.434791
371.421090	2514.855213
371.808081	2510.638288
372.195010	2512.634585
372.581875	2511.369256
372.968678	2512.939575
373.355418	2513.846983
373.742096	2514.638444
374.128710	2514.827487
374.515262	2513.778927
374.901751	2513.110974
375.288177	2516.851510
375.674540	2512.304390
376.060841	2512.639626
376.447079	2515.467714
376.833254	2518.396624
377.219367	2509.362876
377.605417	2513.849503
377.991404	2510.784482
378.377329	2512.294307
378.763191	2510.010665
379.148991	2516.859072
379.534727	2516.289422
379.920402	2515.934020
380.306013	2515.369411
380.691563	2519.886285
381.077049	2516.213804
381.462474	2516.712879
381.847835	2516.944772
382.233134	2516.768331
382.618371	2515.578619
383.003545	2519.233456
383.388657	2519.639268
383.773706	2518.749505
384.158693	2518.058867
384.543618	2519.772859
384.928480	2517.453928
385.313280	2518.628517
385.698017	2517.859741
386.082692	2522.099352
386.467305	2519.861079
386.851856	2519.692201
387.236344	2518.870493
387.620770	2517.814371
388.005133	2521.300329
388.389435	2524.352747
388.773674	2520.937366
389.157851	2519.445184
389.541965	2521.139012
389.926018	2520.977695
390.310008	2520.604649
390.693936	2522.295957
391.077802	2521.781759
391.461606	2522.936183
391.845348	2522.525329
392.229027	2525.935670
392.612645	2525.441637
392.996200	2523.689836
393.379694	2524.771163
393.763125	2526.495238
394.146494	2521.945596
394.529801	2525.212264
394.913047	2525.711338
395.296230	2525.761750
395.679351	2524.738396
396.062410	2526.792666
396.445408	2524.897192
396.828343	2526.286030
397.211217	2518.704134
397.594028	2525.068591
397.976778	2519.036851
398.359466	2526.127233
398.742092	2522.522808
399.124656	2525.071112
399.507158	2526.356606
399.889598	2523.936852
400.271977	2527.823582
400.654294	2526.873324
401.036549	2526.636390
401.418742	2526.303674
401.800874	2527.856349
402.182944	2526.470032
402.564952	2528.899868
402.946898	2528.599919
403.328783	2528.993129
403.710606	2529.434230
404.092367	2528.042872
404.474067	2530.263500
404.855705	2527.778211
405.237282	2526.903571
405.618797	2527.072450
406.000250	2529.565300
406.381642	2527.155629
406.762972	2527.828623
407.144240	2529.832482
407.525447	2528.325177
407.906593	2531.402801
408.287677	2528.781401
408.668700	2530.951618
409.049661	2530.066895
409.430560	2531.826258
409.811399	2531.422966
410.192176	2531.848943
410.572891	2532.393388
410.953545	2530.850795
411.334138	2531.327184
411.714669	2531.060003
412.095139	2530.104704
412.475547	2533.010929
412.855894	2531.738038
413.236180	2532.007739
413.616405	2534.737524
413.996568	2530.568490
414.376670	2532.577390
414.756711	2530.215609
415.136691	2531.506145
415.516609	2533.688964
415.896466	2533.043697
416.276262	2534.767771
416.655997	2529.315763
417.035670	2530.921371
417.415283	2532.368182
417.794834	2530.704601
418.174324	2530.253418
418.553753	2530.339118
418.933121	2535.637370
419.312428	2533.762061
419.691674	2534.825744
420.070859	2532.446320
420.449983	2533.159643
420.829045	2533.628470
421.208047	2537.810108
421.586988	2534.417411
421.965867	2533.489839
422.344686	2536.441434
422.723444	2536.113759
423.102141	2534.944212
423.480777	2535.942360
423.859352	2534.165353
424.237866	2535.236598
424.616319	2534.757689
424.994712	2538.556198
425.373044	2538.256250
425.751314	2536.350693
426.129524	2535.430683
426.507673	2538.485622
426.885762	2535.899510
427.263789	2534.896321
427.641756	2537.767258
428.019662	2537.242978
428.397508	2536.895138
428.775292	2538.914120
429.153016	2534.417411
429.530679	2539.839172
429.908282	2539.387989
430.285824	2538.601569
430.663305	2538.430169
431.040726	2539.055273
431.418086	2538.717515
431.795385	2544.386293
432.172624	2537.668955
432.549802	2543.856972
432.926920	2537.742052
433.303977	2542.490819
433.680974	2538.165509
434.057910	2538.588966
434.434786	2539.466127
434.811601	2537.583256
435.188355	2538.213400
435.565050	2539.284645
435.941683	2539.614841
436.318257	2536.862371
436.694770	2534.573687
437.071222	2539.821528
437.447614	2536.111239
437.823946	2538.498225
438.200218	2540.247505
438.576429	2542.531148
438.952580	2541.217928
439.328670	2539.773637
439.704700	2539.703061
440.080670	2542.231199
440.456580	2541.865716
440.832429	2541.419574
441.208218	2539.355221
441.583947	2539.937474
441.959616	2539.829090
442.335224	2542.072403
442.710773	2539.541744
443.086261	2540.320602
443.461689	2543.269677
443.837057	2543.690613
444.212365	2541.104502
444.587612	2539.597197
444.962800	2542.533669
445.337927	2542.868905
445.712995	2542.253885
446.088002	2540.996117
446.462949	2540.381096
446.837837	2540.880170
447.212664	2544.787064
447.587431	2540.560057
447.962139	2541.890922
448.336786	2547.466438
448.711374	2542.178267
449.085901	2543.864533
449.460369	2543.894780
449.834776	2543.632640
450.209124	2543.158772
450.583412	2545.313865
450.957640	2540.829759
451.331808	2541.792619
451.705917	2543.002496
452.079965	2545.318906
452.453954	2540.910417
452.827883	2545.583567
453.201752	2545.467620
453.575562	2544.477033
453.949311	2545.969215
454.323001	2538.876312
454.696632	2543.572146
455.070202	2545.346632
455.443713	2543.095757
455.817164	2542.276570
456.190556	2540.219779
456.563888	2540.749100
456.937160	2542.208514
457.310373	2543.057949
457.683526	2544.903011
458.056619	2543.834286
458.429653	2543.100798
458.802628	2544.610624
459.175542	2544.260264
459.548398	2545.792775
459.921194	2544.827394
460.293930	2546.904349
460.666607	2544.683721
461.039224	2544.235058
461.411782	2546.712785
461.784280	2545.840666
462.156719	2546.586756
462.529099	2546.475851
462.901419	2545.180274
463.273680	2544.928217
463.645882	2546.503577
464.018024	2546.730429
464.390106	2546.054915
464.762130	2547.105995
465.134094	2545.699513
465.505999	2545.601211
465.877845	2548.252858
466.249631	2547.413506
466.621358	2545.351674
466.993026	2548.545245
467.364634	2550.675132
467.736184	2546.019627
468.107674	2547.325285
468.479105	2547.766386
468.850477	2545.308824
469.221790	2548.749411
469.593043	2548.056253
469.964238	2545.311344
470.335373	2548.220090
470.706449	2546.453166
471.077467	2547.390820
471.448425	2547.577343
471.819324	2546.576674
472.190164	2545.175233
472.560945	2546.531304
472.931667	2546.909390
473.302330	2543.672969
473.672934	2549.054401
474.043479	2547.065666
474.413965	2547.980635
474.784393	2543.229348
475.154761	2543.433515
475.525070	2544.885367
475.895321	2545.205480
476.265513	2543.529297
476.635645	2545.823022
477.005719	2549.377035
477.375734	2546.672456
477.745691	2547.993238
478.115588	2548.159596
478.485427	2547.819318
478.855207	2549.271171
479.224928	2546.828732
479.594591	2550.095399
479.964194	2548.351160
480.333739	2547.347971
480.703226	2547.821839
481.072653	2549.316541
481.442022	2548.550286
481.811333	2547.479041
482.180584	2548.318393
482.549777	2550.841490
482.918912	2547.347971
483.287988	2551.275029
483.657005	2549.079607
484.025964	2550.208825
484.394864	2548.726726
484.763706	2548.066335
485.132489	2548.709082
485.501213	2548.860317
485.869879	2547.398382
486.238487	2545.684390
486.607036	2551.451470
486.975527	2550.886861
487.343959	2549.871068
487.712333	2548.608259
488.080648	2549.182951
488.448905	2548.197405
488.817104	2550.596994
489.185244	2550.770914
489.553326	2548.643547
489.921350	2549.195553
490.289315	2549.613969
490.657222	2548.149514
491.025070	2549.170348
491.392861	2548.900646
491.760593	2549.929041
492.128267	2549.661860
492.495883	2552.752087
492.863440	2548.741850
493.230939	2549.177909
493.598380	2552.943651
493.965763	2545.114739
494.333088	2546.402754
494.700354	2547.315203
495.067563	2546.790923
495.434713	2545.724719
495.801805	2550.728064
496.168839	2549.316541
496.535815	2552.119423
496.902733	2550.307128
497.269593	2551.010369
497.636395	2548.305790
498.003139	2552.618497
498.369825	2549.722354
498.736453	2548.746891
499.103023	2547.668084
499.469535	2551.466593
499.835989	2549.881150
500.202385	2553.770401
500.568723	2549.099772
500.935003	2551.753939
501.301226	2549.382076
501.667390	2547.869730
502.033497	2552.142108
502.399546	2549.959288
502.765537	2551.864844
503.131470	2552.106820
503.497345	2549.530790
503.863163	2552.784855
504.228923	2551.695966
504.594625	2549.419885
504.960269	2552.464742
505.325856	2550.385266
505.691385	2550.332334
506.056856	2550.362581
506.422270	2551.990873
506.787625	2551.799309
507.152924	2551.852242
507.518164	2553.278888
507.883347	2549.235883
508.248472	2553.024310
508.613540	2549.913918
508.978550	2550.599515
509.343503	2551.350647
509.708398	2550.163455
510.073236	2552.477345
510.438016	2550.962478
510.802738	2552.298384
511.167403	2551.867365
511.532010	2552.028682
511.896561	2552.147149
512.261053	2552.313507
512.625488	2548.822508
512.989866	2546.284287
513.354186	2550.113043
513.718449	2550.304607
514.082655	2547.254709
514.446803	2551.582540
514.810894	2553.369629
515.174927	2553.815771
515.538904	2552.842828
515.902822	2551.774104
516.266684	2551.285112
516.630488	2551.406099
516.994235	2550.468445
517.357925	2553.309135
517.721558	2554.118240
518.085133	2552.187478
518.448651	2552.295863
518.812112	2552.313507
519.175516	2552.588250
519.538863	2551.572457
519.902152	2552.673950
520.265385	2554.874413
520.628560	2554.317366
520.991678	2553.505740
521.354739	2554.476162
521.717743	2548.187323
522.080690	2552.731923
522.443580	2553.341902
522.806413	2554.720658
523.169189	2552.263096
523.531908	2552.915925
523.894569	2554.753426
524.257174	2550.929710
524.619722	2549.729916
524.982213	2554.256872
525.344647	2549.883671
525.707025	2553.798127
526.069345	2554.776111
526.431608	2553.127653
526.793815	2552.527756
527.155964	2553.866182
527.518057	2552.227808
527.880093	2552.933569
528.242072	2552.605894
528.603995	2553.059598
528.965860	2551.000287
529.327669	2553.273847
529.689421	2555.381049
530.051117	2552.333672
530.412755	2552.699155
530.774337	2553.566234
531.135862	2550.833928
531.497331	2551.547252
531.858743	2549.258568
532.220098	2550.508774
532.581396	2549.044319
532.942638	2549.853424
533.303824	2553.558672
533.664953	2553.248641
534.026025	2551.766542
534.387040	2551.824515
534.747999	2553.349464
535.108902	2552.313507
535.469748	2551.915256
535.830537	2551.562375
536.191270	2553.823333
536.551947	2554.902140
536.912567	2552.459701
537.273131	2552.389124
537.633638	2550.055070
537.994089	2556.905998
538.354483	2551.821995
538.714821	2554.387942
539.075103	2553.982129
539.435328	2552.051367
539.795497	2552.847869
540.155609	2553.276368
540.515665	2553.387273
540.875665	2553.883827
541.235609	2552.643703
541.595496	2553.984650
541.955328	2556.164949
542.315102	2555.658313
542.674821	2552.290822
543.034483	2552.333672
543.394090	2551.116233
543.753640	2555.267623
544.113134	2554.350133
544.472571	2553.830894
544.831953	2554.619835
545.191278	2554.077911
545.550548	2551.935421
545.909761	2555.325597
546.268918	2554.778631
546.628019	2555.786862
546.987064	2553.294012
547.346053	2554.834084
547.704986	2552.726882
548.063863	2552.794937
548.422684	2555.416337
548.781449	2551.794268
549.140158	2554.657644
549.498811	2555.620504
549.857408	2554.450956
550.215949	2550.869217
550.574434	2552.245452
550.932864	2552.860472
551.291237	2553.878785
551.649555	2553.604042
552.007817	2552.734443
552.366022	2555.771739
552.724173	2552.938610
553.082267	2552.956254
553.440305	2553.394835
553.798288	2554.942469
554.156215	2553.858621
554.514086	2555.128992
554.871902	2554.554300
555.229661	2555.597819
555.587365	2553.369629
555.945014	2553.838456
556.302606	2553.261244
556.660143	2553.929197
557.017625	2555.736451
557.375050	2554.718137
557.732421	2554.403065
558.089735	2553.719989
558.446994	2555.171841
558.804197	2554.087993
559.161345	2551.222097
559.518437	2552.005997
559.875474	2553.258723
560.232455	2555.938097
560.589381	2552.391645
560.946251	2556.374157
561.303065	2556.391801
561.659825	2554.037582
562.016528	2555.118909
562.373177	2555.935576
562.729770	2555.078580
563.086307	2556.142263
563.442789	2552.331151
563.799216	2554.826522
564.155587	2550.377704
564.511904	2556.883313
564.868164	2555.227294
565.224370	2554.271995
565.580520	2554.367777
565.936615	2555.849877
566.292654	2553.777962
566.648638	2554.652602
567.004567	2551.224618
567.360441	2557.599157
567.716260	2551.411141
568.072023	2555.554969
568.427732	2548.840152
568.783385	2552.260575
569.138982	2550.566747
569.494525	2552.328631
569.850013	2551.630431
570.205445	2555.907850
570.560823	2553.830894
570.916145	2552.895760
571.271412	2552.830225
571.626625	2553.515822
571.981782	2554.571944
572.336884	2556.601008
572.691931	2552.817623
573.046923	2555.197047
573.401860	2553.107489
573.756743	2556.164949
574.111570	2553.379711
574.466342	2554.561862
574.821059	2554.466080
575.175722	2553.525905
575.530330	2555.421378
575.884882	2556.182593
576.239380	2552.883158
576.593823	2555.136553
576.948211	2554.415668
577.302544	2553.762839
577.656823	2553.107489
578.011047	2555.116389
578.365216	2554.271995
578.719330	2554.972716
579.073389	2552.137067
579.427394	2551.829556
579.781344	2553.417520
580.135239	2554.987839
580.489080	2553.861141
580.842866	2555.360885
581.196597	2559.217367
581.550273	2555.234856
581.903895	2557.621842
582.257463	2554.889537
582.610975	2555.532284
582.964434	2552.613456
583.317837	2554.244269
583.671186	2553.745195
584.024481	2555.146636
584.377721	2555.756615
584.730906	2554.355174
585.084037	2554.582026
585.437113	2553.523384
585.790135	2554.508930
586.143103	2554.206460
586.496016	2557.286605
586.848874	2549.876109
587.201679	2553.382232
587.554428	2549.828218
587.907124	2553.856100
588.259765	2551.489278
588.612352	2553.961964
588.964884	2555.562531
589.317362	2558.574620
589.669786	2554.198899
590.022155	2555.176882
590.374470	2553.611604
590.726731	2553.896429
591.078937	2553.828374
591.431090	2556.608570
591.783188	2552.580688
592.135232	2552.154711
592.487222	2553.848538
592.839157	2556.676626
593.191038	2555.144115
593.542866	2555.746533
593.894639	2554.546738
594.246358	2554.924825
594.598022	2554.362736
594.949633	2554.582026
595.301190	2555.998591
595.652692	2556.457336
596.004141	2553.518343
596.355535	2557.352140
596.706876	2553.820812
597.058162	2557.631924
597.409395	2557.069836
597.760573	2550.518856
598.111698	2556.593447
598.462768	2554.151008
598.813785	2554.299722
599.164748	2554.304763
599.515657	2553.173024
599.866511	2553.727551
600.217312	2555.398693
600.568060	2555.741492
600.918753	2556.212840
601.269392	2555.136553
601.619978	2556.049002
601.970510	2554.193857
602.320988	2554.163611
602.671412	2555.567572
603.021783	2553.273847
603.372100	2554.607232
603.722363	2553.435164
604.072572	2558.241904
604.422728	2555.441543
604.772830	2552.815102
605.122878	2549.457693
605.472872	2553.399876
605.822813	2551.297715
606.172701	2552.290822
606.522534	2549.467776
606.872314	2555.199568
607.222041	2555.930535
607.571714	2557.294167
607.921333	2556.787531
608.270899	2554.773590
608.620411	2554.433312
608.969870	2555.033210
609.319276	2560.704508
609.668627	2556.522871
610.017926	2560.069322
610.367171	2563.051165
610.716362	2563.434293
611.065500	2561.485887
611.414585	2559.676112
611.763616	2557.531101
612.112594	2557.183262
612.461518	2554.892057
612.810389	2558.257028
613.159207	2556.691749
613.507971	2555.496996
613.856682	2554.760987
614.205340	2558.975392
614.553945	2554.156049
614.902496	2556.066646
615.250994	2557.379867
615.599439	2554.569423
615.947830	2557.450443
616.296169	2554.450956
616.644454	2558.163766
616.992686	2555.025648
617.340864	2555.358364
617.688990	2554.423230
618.037063	2554.002294
618.385082	2557.725186
618.733048	2555.310473
619.080961	2552.520194
619.428821	2556.394321
619.776628	2553.931717
620.124382	2555.436502
620.472083	2553.742674
620.819731	2556.442212
621.167326	2556.812737
621.514868	2554.375339
621.862357	2554.292160
622.209793	2554.967675
622.557176	2556.006152
622.904506	2556.064126
623.251783	2551.363250
623.599007	2554.793755
623.946179	2551.882488
624.293297	2551.338044
624.640363	2554.776111
624.987376	2554.246790
625.334336	2552.875596
625.681243	2555.350802
626.028097	2553.069680
626.374899	2556.379198
626.721647	2553.641851
627.068343	2554.488765
627.414987	2554.546738
627.761577	2554.859290
628.108115	2554.216543
628.454600	2555.587737
628.801032	2556.570762
629.147412	2557.077397
629.493739	2555.660833
629.840014	2555.295350
630.186236	2554.864331
630.532405	2557.606719
630.878521	2552.920966
631.224585	2555.297870
631.570597	2555.383570
631.916556	2555.582695
632.262462	2555.272664
632.608316	2556.595967
632.954117	2552.391645
633.299866	2555.784342
633.645562	2555.544887
633.991206	2556.046482
634.336797	2554.282078
634.682336	2555.761656
635.027823	2553.513302
635.373257	2558.897254
635.718639	2553.767880
636.063968	2555.060936
636.409245	2555.207129
636.754470	2554.854249
637.099642	2553.513302
637.444762	2552.563044
637.789829	2554.478683
638.134845	2554.322407
638.479808	2555.522202
638.824719	2552.139587
639.169577	2555.562531
639.514383	2552.744526
639.859137	2553.989691
640.203839	2553.921635
640.548489	2554.468600
640.893086	2551.431305
641.237632	2550.478527
641.582125	2552.265616
641.926566	2551.060780
642.270955	2556.217881
642.615292	2553.785524
642.959576	2552.384083
643.303809	2553.553631
643.647990	2555.224773
643.992118	2553.727551
644.336195	2555.867521
644.680219	2552.245452
645.024192	2552.676470
645.368112	2554.214022
645.711981	2554.768549
646.055797	2553.692263
646.399562	2554.967675
646.743274	2551.912735
647.086935	2557.069836
647.430544	2553.727551
647.774101	2554.607232
648.117606	2553.173024
648.461059	2556.094373
648.804460	2552.900802
649.147810	2556.565720
649.491108	2552.691594
649.834354	2554.617314
650.177548	2554.758467
650.520690	2553.891388
650.863781	2555.242418
651.206820	2558.322563
651.549807	2553.553631
651.892742	2553.052036
652.235626	2555.209650
652.578458	2553.593960
652.921238	2551.423743
653.263967	2555.706204
653.606644	2553.800648
653.949269	2555.706204
654.291843	2553.372149
654.634365	2554.735782
654.976836	2555.300391
655.319255	2554.753426
655.661622	2554.871893
656.003938	2554.496327
656.346203	2555.277706
656.688416	2555.557490
657.030577	2553.021789
657.372687	2554.566903
657.714746	2552.716799
658.056753	2553.667057
658.398708	2550.612118
658.740612	2553.702345
659.082465	2546.881664
659.424266	2549.722354
659.766016	2548.819988
660.107715	2553.309135
660.449362	2553.873744
660.790958	2554.536656
661.132503	2555.905329
661.473996	2556.124619
661.815438	2553.011707
662.156829	2551.915256
662.498168	2553.755277
662.839456	2555.557490
663.180693	2554.080432
663.521879	2551.401058
663.863013	2557.195865
664.204097	2553.425082
664.545129	2553.800648
664.886110	2551.897612
665.227040	2553.956923
665.567918	2555.950700
665.908746	2551.401058
666.249522	2553.956923
666.590248	2550.929710
666.930922	2552.792417
667.271545	2555.030689
667.612118	2555.174362
667.952639	2553.024310
668.293109	2554.231666
668.633528	2553.939279
668.973896	2551.945503
669.314213	2555.086142
669.654480	2552.888199
669.994695	2555.865000
670.334859	2551.942982
670.674973	2553.044474
671.015035	2555.088662
671.355047	2554.776111
671.695008	2552.749567
672.034918	2551.590102
672.374777	2551.887530
672.714585	2556.613611
673.054342	2553.951882
673.394049	2550.775955
673.733705	2551.136398
674.073310	2554.024979
674.412864	2555.134033
674.752368	2553.485575
675.091820	2555.587737
675.431223	2553.425082
675.770574	2553.215874
676.109875	2546.256561
676.449125	2549.603887
676.788324	2549.041798
677.127473	2551.854762
677.466571	2550.498692
677.805619	2553.851059
678.144616	2553.057077
678.483562	2552.437015
678.822458	2552.240410
679.161303	2554.965154
679.500098	2554.821481
679.838842	2555.426420
680.177535	2552.621017
680.516179	2555.615463
680.854771	2553.992211
681.193314	2551.895091
681.531805	2552.505071
681.870247	2552.716799
682.208638	2551.564896
682.546978	2555.214691
682.885268	2551.650595
683.223508	2552.686553
683.561697	2552.310987
683.899836	2553.672098
684.237925	2552.734443
684.575963	2552.762170
684.913951	2552.212684
685.251889	2553.470452
685.589776	2553.120092
685.927614	2552.716799
686.265401	2552.656306
686.603137	2553.588919
686.940824	2553.238559
687.278460	2554.806358
687.616046	2552.905843
687.953582	2551.905174
688.291068	2553.987170
688.628504	2555.678477
688.965889	2553.994732
689.303224	2551.811912
689.640510	2555.247459
689.977745	2553.689742
690.314930	2554.037582
690.652065	2553.251162
690.989150	2551.605225
691.326185	2552.633620
691.663170	2554.057746
692.000105	2554.289639
692.336990	2553.241079
692.673825	2554.609753
693.010610	2554.221584
693.347345	2548.459545
693.684030	2550.292004
694.020665	2553.530946
694.357251	2550.599515
694.693786	2550.806202
695.030272	2550.891902
695.366707	2556.089331
695.703093	2551.012889
696.039429	2552.805020
696.375716	2553.483055
696.711952	2553.478014
697.048139	2553.578837
697.384276	2554.355174
697.720363	2553.936759
698.056400	2554.382901
698.392388	2552.903322
698.728326	2552.379042
699.064214	2555.275185
699.400053	2553.437684
699.735842	2551.869886
700.071581	2553.624207
700.407270	2552.237890
700.742910	2551.915256
701.078501	2553.140256
701.414042	2552.305945
701.749533	2554.208981
702.084974	2553.319217
702.420366	2551.814433
702.755709	2554.156049
703.091002	2552.411810
703.426246	2552.298384
703.761440	2552.946172
704.096584	2551.837118
704.431679	2552.953734
704.766725	2552.210163
705.101721	2552.421892
705.436668	2551.809392
705.771565	2553.596481
706.106413	2551.625390
706.441212	2553.072201
706.775961	2552.184958
707.110661	2548.207487
707.445311	2553.004145
707.779913	2555.411296
708.114465	2553.092365
708.448967	2555.265103
708.783421	2556.154866
709.117825	2552.502550
709.452180	2554.052705
709.786485	2551.466593
710.120742	2555.040771
710.454949	2554.171172
710.789107	2552.905843
711.123216	2548.615821
711.457275	2549.089689
711.791286	2550.102961
712.125247	2552.547921
712.459159	2552.608415
712.793023	2553.853580
713.126837	2554.760987
713.460602	2553.964485
713.794318	2554.496327
714.127985	2553.732592
714.461602	2551.479196
714.795171	2552.374001
715.128691	2549.523228
715.462162	2553.626728
715.795584	2548.184802
716.128957	2552.530277
716.462281	2552.502550
716.795556	2553.069680
717.128782	2553.762839
717.461960	2552.903322
717.795088	2555.403734
718.128167	2550.977601
718.461198	2553.967006
718.794180	2552.502550
719.127113	2550.964998
719.459997	2553.848538
719.792833	2551.559855
720.125619	2553.414999
720.458357	2551.040616
720.791046	2552.820143
721.123686	2551.214536
721.456278	2553.777962
721.788821	2551.438867
722.121315	2552.870555
722.453761	2552.280740
722.786158	2550.959957
723.118506	2550.516336
723.450805	2552.454659
723.783056	2552.618497
724.115259	2552.431974
724.447412	2550.055070
724.779518	2554.027499
725.111574	2553.752757
725.443582	2553.382232
725.775542	2551.010369
726.107453	2551.128836
726.439315	2552.827705
726.771129	2555.328117
727.102895	2552.174875
727.434612	2550.889381
727.766281	2552.568085
728.097901	2551.101110
728.429473	2548.668753
728.760996	2549.634134
729.092471	2547.249668
729.423897	2550.740667
729.755276	2552.220246
730.086606	2552.174875
730.417887	2550.012220
730.749120	2555.544887
731.080305	2549.886192
731.411442	2551.206974
731.742530	2550.607077
732.073570	2551.895091
732.404562	2549.054401
732.735506	2549.704710
733.066401	2551.688404
733.397249	2550.065153
733.728048	2552.336192
734.058798	2554.360216
734.389501	2552.555482
734.720156	2553.599001
735.050762	2551.189330
735.381320	2550.022303
735.711831	2552.237890
736.042293	2553.268806
736.372707	2551.877447
736.703073	2549.714792
737.033391	2551.670760
737.363661	2552.356357
737.693883	2549.984494
738.024056	2553.538508
738.354182	2550.954916
738.684260	2552.195040
739.014290	2550.367622
739.344272	2553.104968
739.674207	2551.408620
740.004093	2554.544218
740.333931	2551.887530
740.663722	2549.218239
740.993464	2550.849052
741.323159	2550.838970
741.652806	2551.660678
741.982405	2551.254865
742.311956	2552.159752
742.641460	2550.135729
742.970915	2552.820143
743.300323	2551.436346
743.629683	2551.494320
743.958996	2552.852911
744.288260	2552.290822
744.617477	2552.810061
744.946647	2546.788403
745.275768	2547.831921
745.604842	2546.271684
745.933869	2549.364432
746.262847	2544.552651
746.591778	2551.879968
746.920662	2550.133208
747.249498	2552.303425
747.578286	2550.750749
747.907027	2548.426777
748.235720	2550.178578
748.564365	2552.779814
748.892963	2550.780996
749.221514	2549.687066
749.550017	2552.240410
749.878473	2551.103630
750.206881	2552.958775
750.535242	2554.415668
750.863555	2550.791079
751.191821	2553.110009
751.520039	2553.130174
751.848210	2550.551624
752.176334	2552.754608
752.504411	2550.589432
752.832440	2551.917777
753.160421	2552.124464
753.488356	2549.480379
753.816243	2552.323589
754.144082	2552.308466
754.471875	2553.195709
754.799620	2550.355019
755.127318	2549.102292
755.454969	2552.807540
755.782572	2552.459701
756.110129	2551.423743
756.437638	2550.836449
756.765100	2548.656150
757.092515	2550.647406
757.419882	2551.610266
757.747203	2552.928528
758.074477	2551.080945
758.401703	2552.880637
758.728882	2547.436191
759.056014	2551.143959
759.383099	2550.362581
759.710138	2549.442570
760.037129	2550.980122
760.364073	2551.257385
760.690970	2550.057591
761.017820	2550.806202
761.344623	2549.999617
761.671379	2552.079093
761.998088	2548.855276
762.324751	2550.380225
762.651366	2547.773948
762.977935	2548.078938
763.304456	2549.122457
763.630931	2551.922818
763.957359	2548.784699
764.283740	2549.664381
764.610074	2550.322251
764.936362	2556.064126
765.262602	2550.007179
765.588796	2551.852242
765.914943	2548.855276
766.241044	2549.954247
766.567097	2550.463404
766.893104	2551.494320
767.219064	2553.639331
767.544978	2549.077086
767.870845	2552.139587
768.196665	2550.402910
768.522438	2551.617828
768.848165	2552.527756
769.173846	2550.385266
769.499479	2552.636141
769.825066	2550.526418
770.150607	2551.312838
770.476101	2550.493651
770.801548	2550.566747
771.126949	2550.118085
771.452303	2549.984494
771.777611	2551.118754
772.102872	2552.668908
772.428087	2551.469114
772.753256	2550.251675
773.078378	2550.244113
773.403453	2550.896943
773.728482	2551.461552
774.053465	2552.923487
774.378401	2550.344937
774.703291	2550.425595
775.028135	2547.572302
775.352932	2550.924669
775.677683	2551.605225
776.002388	2551.610266
776.327046	2550.448280
776.651658	2552.578168
776.976224	2549.215718
777.300743	2552.033723
777.625216	2551.600184
777.949643	2550.314690
778.274024	2553.394835
778.598359	2550.042467
778.922647	2546.566592
779.246889	2547.899977
779.571086	2546.551468
779.895236	2549.966850
780.219339	2549.916438
780.543397	2549.208156
780.867409	2550.082797
781.191374	2552.878116
781.515294	2551.033054
781.839167	2551.426264
782.162995	2550.745708
782.486776	2551.453990
782.810511	2549.432488
783.134201	2548.565409
783.457844	2550.780996
783.781441	2550.642365
784.104993	2551.181768
784.428498	2549.303938
784.751958	2551.489278
785.075372	2551.413661
785.398739	2550.254196
785.722061	2553.450287
786.045337	2550.367622
786.368568	2552.326110
786.691752	2550.523897
787.014891	2551.295194
787.337983	2551.827036
787.661030	2551.101110
787.984031	2549.911397
788.306987	2551.582540
788.629897	2549.518187
788.952760	2553.160421
789.275579	2550.420554
789.598351	2551.149001
789.921078	2551.743857
790.243759	2548.966181
790.566395	2550.493651
790.888984	2552.759649
791.211529	2550.425595
791.534027	2548.565409
791.856480	2552.361398
792.178888	2549.210677
792.501249	2549.535831
792.823566	2549.704710
793.145836	2552.212684
793.468062	2548.247817
793.790241	2550.589432
794.112375	2549.049360
794.434464	2549.276212
794.756507	2549.213198
795.078505	2548.124308
795.400457	2548.552806
795.722364	2545.545758
796.044226	2548.951057
796.366042	2546.657332
796.687812	2548.699000
797.009538	2547.557178
797.331218	2550.070194
797.652852	2548.358722
797.974442	2550.922149
798.295986	2549.722354
798.617484	2550.569268
798.938938	2549.745039
799.260346	2548.867878
799.581709	2550.624721
799.903026	2551.035575
800.224299	2549.243444
800.545526	2550.730585
800.866708	2550.312169
801.187845	2549.500543
801.508936	2550.637323
801.829983	2547.778989
802.150984	2549.732436
802.471940	2550.029864
802.792851	2548.457024
803.113717	2548.938455
803.434538	2550.864175
803.755314	2549.460214
804.076045	2545.341591
804.396731	2549.810574
804.717372	2549.409802
805.037967	2551.390976
805.358518	2548.489792
805.679024	2552.333672
805.999485	2549.445091
806.319901	2550.115564
806.640272	2547.834442
806.960598	2552.371480
807.280879	2549.248486
807.601115	2550.385266
807.921306	2547.978115
808.241453	2547.229503
808.561554	2547.887374
808.881611	2552.000956
809.201623	2551.665719
809.521590	2550.619679
809.841513	2551.406099
810.161390	2548.159596
810.481223	2550.912066
810.801011	2549.341747
811.120755	2551.421223
811.440453	2549.034237
811.760107	2546.886705
812.079716	2547.562220
812.399281	2545.969215
812.718801	2549.739998
813.038276	2544.351005
813.357707	2549.676984
813.677093	2547.811757
813.996434	2550.912066
814.315731	2548.449463
814.634983	2551.771583
814.954191	2549.132539
815.273354	2552.046326
815.592473	2548.371325
815.911547	2547.975594
816.230577	2551.222097
816.549562	2550.188661
816.868502	2549.366953
817.187399	2549.636654
817.506250	2549.109854
817.825058	2549.949206
818.143821	2548.565409
818.462539	2551.557334
818.781213	2548.187323
819.099843	2551.426264
819.418429	2551.085986
819.736970	2549.326623
820.055466	2547.204298
820.373919	2550.886861
820.692327	2547.368135
821.010691	2547.715975
821.329011	2550.392827
821.647286	2549.399720
821.965517	2550.511295
822.283704	2548.940975
822.601847	2552.651264
822.919945	2549.752601
823.237999	2548.391489
823.556010	2549.203115
823.873976	2546.967363
824.191897	2550.619679
824.509775	2546.730429
824.827609	2548.769576
825.145398	2548.008362
825.463144	2548.754452
825.780845	2546.526262
826.098502	2548.532642
826.416116	2552.923487
826.733685	2548.429298
827.051210	2552.742005
827.368692	2549.581202
827.686129	2547.216901
828.003522	2549.364432
828.320872	2543.836807
828.638177	2547.002652
828.955439	2544.419060
829.272656	2545.323947
829.589830	2547.481561
829.906960	2548.724206
830.224046	2549.911397
830.541088	2550.980122
830.858086	2551.350647
831.175041	2548.152035
831.491952	2548.845193
831.808819	2549.480379
832.125642	2550.405430
832.442421	2548.487271
832.759157	2547.577343
833.075849	2548.867878
833.392497	2549.573640
833.709101	2546.853937
834.025662	2548.923331
834.342179	2550.289484
834.658653	2548.537683
834.975083	2550.254196
835.291469	2553.321738
835.607811	2549.641696
835.924110	2550.344937
836.240366	2549.891233
836.556578	2547.884853
836.872746	2551.721172
837.188871	2548.343598
837.504952	2552.200081
837.820990	2548.414175
838.136984	2547.577343
838.452935	2548.351160
838.768842	2548.721685
839.084706	2549.578681
839.400526	2549.508105
839.716303	2547.186654
840.032037	2547.713454
840.347727	2547.630275
840.663373	2550.241593
840.978977	2547.768907
841.294537	2546.730429
841.610054	2547.279915
841.925527	2546.841335
842.240957	2547.902498
842.556344	2548.968702
842.871687	2548.585574
843.186987	2550.095399
843.502244	2546.692621
843.817458	2550.526418
844.132629	2548.822508
844.447756	2549.371994
844.762840	2543.776313
845.077881	2547.441232
845.392879	2544.671118
845.707833	2545.354194
846.022745	2544.300593
846.337613	2550.735626
846.652438	2547.927703
846.967221	2548.388969
847.281960	2545.245809
847.596656	2549.266130
847.911309	2547.552137
848.225919	2548.139432
848.540485	2550.181099
848.855009	2548.474668
849.169490	2547.968033
849.483928	2547.058104
849.798323	2545.172713
850.112675	2549.311500
850.426984	2549.586243
850.741251	2549.508105
851.055474	2549.167827
851.369654	2547.473999
851.683792	2547.738660
851.997887	2547.365615
852.311938	2551.038095
852.625947	2549.785368
852.939914	2550.294525
853.253837	2548.852755
853.567718	2548.169679
853.881555	2547.884853
854.195350	2548.116747
854.509103	2548.845193
854.822812	2549.976932
855.136479	2547.642878
855.450103	2548.134391
855.763685	2547.058104
856.077224	2550.128167
856.390720	2547.534493
856.704173	2548.177240
857.017584	2548.260419
857.330953	2548.830070
857.644278	2548.368804
857.957561	2550.130688
858.270802	2548.227652
858.584000	2545.439894
858.897155	2548.351160
859.210268	2547.748742
859.523339	2551.227138
859.836367	2550.153373
860.149352	2550.780996
860.462295	2548.542724
860.775195	2543.181457
861.088054	2543.741025
861.400869	2543.932589
861.713642	2543.932589
862.026373	2546.916952
862.339062	2547.920142
862.651708	2545.696993
862.964312	2546.790923
863.276873	2549.634134
863.589392	2547.970553
863.901869	2547.831921
864.214303	2549.371994
864.526696	2547.355532
864.839045	2548.141952
865.151353	2549.576161
865.463619	2546.785882
865.775842	2550.793599
866.088023	2549.407282
866.400162	2548.646068
866.712258	2548.169679
867.024313	2546.279246
867.336325	2550.080276
867.648296	2547.723537
867.960224	2546.022147
868.272110	2547.136242
868.583954	2549.553475
868.895755	2548.837632
869.207515	2545.802857
869.519233	2551.035575
869.830909	2547.874771
870.142542	2548.071376
870.454134	2546.402754
870.765684	2546.259081
871.077191	2549.422405
871.388657	2547.169010
871.700081	2545.281098
872.011463	2543.773792
872.322803	2549.019113
872.634101	2547.390820
872.945357	2549.656819
873.256571	2549.997097
873.567744	2546.405275
873.878874	2546.057435
874.189963	2545.402085
874.501010	2548.784699
874.812015	2549.029195
875.122979	2550.002138
875.433900	2545.853268
875.744780	2548.426778
876.055618	2546.566592
876.366415	2546.831252
876.677169	2546.801005
876.987882	2543.367980
877.298554	2541.170037
877.609183	2544.585418
877.919771	2544.345963
878.230317	2544.461910
878.540822	2550.874258
878.851285	2544.131714
879.161707	2547.113557
879.472087	2546.057435
879.782425	2547.451314
880.092722	2548.202446
880.402977	2552.177396
880.713191	2547.320244
881.023363	2547.665563
881.333494	2547.995759
881.643583	2547.438711
881.953631	2549.046839
882.263637	2549.742519
882.573602	2547.438711
882.883526	2546.380069
883.193408	2546.664894
883.503248	2547.070707
883.813048	2548.724206
884.122806	2548.217570
884.432522	2548.845193
884.742197	2546.614483
885.051831	2544.502239
885.361424	2546.793444
885.670975	2547.731098
885.980485	2547.002652
886.289954	2549.651778
886.599382	2545.754966
886.908768	2548.867878
887.218113	2547.244627
887.527417	2546.584236
887.836680	2545.039122
888.145901	2546.657332
888.455082	2545.402085
888.764221	2548.126829
889.073319	2548.094061
889.382376	2548.852755
889.691392	2547.844524
890.000366	2549.162786
890.309300	2548.293187
890.618193	2549.276212
890.927044	2545.364277
891.235855	2546.039791
891.544625	2548.825029
891.853353	2546.024668
892.162041	2547.073228
892.470687	2547.600028
892.779293	2545.722198
893.087858	2544.315717
893.396381	2543.942671
893.704864	2549.235883
894.013306	2542.760521
894.321707	2545.744884
894.630068	2546.808567
894.938387	2547.947868
895.246665	2547.448794
895.554903	2546.289328
895.863100	2545.817980
896.171256	2546.874102
896.479371	2548.348640
896.787446	2544.850079
897.095480	2546.533824
897.403473	2547.511808
897.711425	2546.082641
898.019336	2548.091541
898.327207	2549.046839
898.635038	2546.725388
898.942827	2546.680018
899.250576	2546.649771
899.558284	2547.481561
899.865952	2549.346788
900.173579	2547.317724
900.481165	2544.603062
900.788711	2547.363094
901.096216	2549.132539
901.403681	2547.630275
901.711105	2547.733619
902.018489	2548.126829
902.325832	2549.583722
902.633135	2546.581715
902.940397	2547.955430
903.247619	2544.066179
903.554800	2544.819832
903.861941	2545.180274
904.169041	2548.625903
904.476101	2546.037271
904.783121	2546.382590
905.090100	2546.637168
905.397039	2545.578526
905.703938	2547.773948
906.010796	2548.134391
906.317614	2546.921993
906.624391	2548.721685
906.931129	2546.032229
907.237826	2547.058104
907.544483	2546.430481
907.851099	2546.024668
908.157675	2548.336037
908.464211	2543.743546
908.770707	2541.711961
909.077163	2545.326468
909.383578	2542.342105
909.689954	2542.858823
909.996289	2541.676672
910.302584	2549.263609
910.608839	2544.469472
910.915054	2544.323278
911.221229	2542.528628
911.527363	2547.564740
911.833458	2547.105995
912.139513	2548.212528
912.445527	2545.742363
912.751502	2545.384441
913.057436	2547.232024
913.363331	2547.471479
913.669186	2544.663556
913.975000	2547.219421
914.280775	2544.358566
914.586510	2547.589946
914.892205	2545.190357
915.197859	2545.878474
915.503475	2547.090872
915.809050	2546.937117
916.114585	2544.507280
916.420081	2547.962991
916.725536	2546.821170
917.030952	2545.253371
917.336328	2545.507949
917.641665	2547.098433
917.946961	2544.053577
918.252218	2545.964174
918.557435	2547.617672
918.862612	2549.218239
919.167750	2548.487271
919.472848	2546.264123
919.777906	2548.325954
920.082925	2546.064997
920.387904	2549.220759
920.692843	2547.685728
920.997743	2547.156407
921.302603	2546.188505
921.607423	2545.210521
921.912204	2545.376879
922.216946	2545.379400
922.521647	2546.974925
922.826310	2543.836807
923.130932	2548.267981
923.435516	2546.579195
923.740059	2546.609442
924.044564	2544.492157
924.349028	2546.463248
924.653454	2541.588452
924.957840	2546.979966
925.262186	2540.252547
925.566493	2542.795809
925.870761	2541.792619
926.174989	2542.972249
926.479178	2547.068187
926.783328	2547.136242
927.087438	2546.385110
927.391509	2544.300593
927.695541	2548.356201
927.999533	2545.679349
928.303486	2545.999462
928.607400	2549.256047
928.911275	2544.983669
929.215110	2546.669935
929.518906	2543.395706
929.822663	2545.081972
930.126381	2544.908052
930.430060	2545.152548
930.733699	2546.775800
931.037299	2547.597508
931.340861	2543.907383
931.644383	2547.282436
931.947866	2544.875285
932.251309	2543.572146
932.554714	2543.730943
932.858080	2545.407126
933.161407	2547.463917
933.464694	2546.261602
933.767943	2547.269833
934.071153	2548.313352
934.374323	2545.384441
934.677455	2546.427960
934.980548	2549.119936
935.283602	2547.892415
935.586617	2544.214893
935.889593	2545.918803
936.192530	2544.167002
936.495428	2546.138094
936.798287	2545.659184
937.101108	2545.588608
937.403890	2544.466951
937.706632	2544.903011
938.009336	2545.913762
938.312002	2547.000131
938.614628	2547.637837
938.917216	2546.692621
939.219765	2544.424101
939.522275	2544.429142
939.824747	2545.475182
940.127179	2540.701209
940.429573	2538.430169
940.731929	2542.836138
941.034246	2541.205325
941.336524	2546.443083
941.638763	2545.792775
941.940964	2545.941489
942.243126	2545.656663
942.545250	2547.355532
942.847335	2543.841848
943.149381	2545.986859
943.451389	2543.753628
943.753359	2546.513660
944.055290	2547.736139
944.357182	2545.898639
944.659036	2546.617003
944.960851	2545.346633
945.262628	2544.645912
945.564367	2545.215563
945.866067	2547.199257
946.167729	2548.310831
946.469352	2544.721529
946.770937	2548.472148
947.072484	2545.525593
947.373992	2546.637168
947.675462	2547.370656
947.976893	2544.797147
948.278286	2543.940151
948.579641	2548.411654
948.880958	2545.389482
949.182236	2545.661705
949.483476	2545.754966
949.784678	2546.853938
950.085841	2546.511139
950.386967	2545.722198
950.688054	2543.337733
950.989103	2546.808567
951.290114	2546.516180
951.591087	2544.925696
951.892021	2545.225645
952.192917	2547.910059
952.493776	2545.976777
952.794596	2545.177754
953.095378	2545.878474
953.396122	2547.151366
953.696828	2544.393854
953.997496	2546.594318
954.298126	2546.914431
954.598718	2546.652291
954.899272	2545.061807
955.199788	2547.761345
955.500266	2545.830583
955.800706	2543.103319
956.101108	2541.533000
956.401472	2543.108360
956.701798	2543.168854
957.002087	2540.068544
957.302337	2543.894780
957.602550	2543.221786
957.902724	2545.926365
958.202861	2546.140614
958.502960	2545.626417
958.803022	2543.214224
959.103045	2546.082641
959.403031	2547.892415
959.702979	2542.934440
960.002889	2548.585574
960.302762	2544.086344
960.602596	2545.132383
960.902393	2544.713968
961.202153	2547.365615
961.501875	2546.584236
961.801559	2544.613145
962.101205	2543.312527
962.400814	2544.494677
962.700385	2543.189019
962.999918	2542.712630
963.299414	2545.455017
963.598873	2545.276056
963.898293	2544.003165
964.197677	2545.079451
964.497022	2543.514173
964.796331	2544.343443
965.095601	2544.492157
965.394835	2545.399565
965.694030	2545.442414
965.993189	2546.743032
966.292309	2545.412168
966.591393	2545.366797
966.890439	2541.517876
967.189447	2544.235058
967.488419	2543.635161
967.787353	2545.573484
968.086249	2544.265305
968.385108	2544.038453
968.683930	2543.473844
968.982714	2545.049204
969.281462	2544.892929
969.580172	2543.882177
969.878844	2546.758156
970.177480	2542.944523
970.476078	2543.398227
970.774639	2544.015768
971.073162	2543.370500
971.371649	2543.088196
971.670098	2541.832948
971.968510	2542.621889
972.266885	2537.802546
972.565223	2545.971736
972.863524	2547.902497
973.161788	2542.178267
973.460014	2544.666077
973.758204	2543.632640
974.056356	2544.650953
974.354471	2546.717826
974.652550	2546.831252
974.950591	2545.182795
975.248595	2544.535007
975.546563	2545.018957
975.844493	2544.827394
976.142386	2543.831766
976.440243	2544.058618
976.738062	2547.973074
977.035845	2544.875285
977.333590	2543.751107
977.631299	2543.093237
977.928971	2547.015254
978.226606	2545.646581
978.524204	2542.957126
978.821765	2544.958464
979.119290	2546.488454
979.416777	2545.633978
979.714228	2544.729091
980.011642	2543.408309
980.309020	2548.227652
980.606360	2545.386962
980.903664	2544.890408
981.200931	2544.141797
981.498162	2542.866385
981.795356	2542.465613
982.092513	2545.598690
982.389633	2543.693134
982.686717	2542.412681
982.983764	2544.560213
983.280775	2543.640202
983.577749	2542.813453
983.874686	2545.676828
984.171587	2544.643392
984.468451	2544.429142
984.765279	2547.688248
985.062070	2543.342774
985.358824	2544.683721
985.655543	2545.308824
985.952224	2543.579708
986.248869	2542.478216
986.545478	2538.956970
986.842050	2542.911755
987.138586	2541.333874
987.435086	2541.926210
987.731549	2542.014430
988.027975	2546.054915
988.324366	2544.456869
988.620719	2543.115922
988.917037	2543.594832
989.213318	2546.324616
989.509563	2544.023330
989.805772	2546.390151
990.101944	2544.247661
990.398080	2542.780685
990.694180	2542.304296
990.990244	2544.746735
991.286271	2544.547610
991.582262	2545.016437
991.878217	2543.173895
992.174136	2543.972918
992.470019	2543.589790
992.765865	2544.333361
993.061676	2544.940820
993.357450	2545.039122
993.653188	2545.505429
993.948890	2543.720860
994.244556	2542.954605
994.540186	2545.230686
994.835780	2545.898639
995.131337	2543.703216
995.426859	2543.514173
995.722345	2542.528627
996.017795	2543.741025
996.313208	2544.620706
996.608586	2542.621889
996.903928	2545.336550
997.199234	2546.743032
997.494504	2543.393185
997.789738	2542.513504
998.084936	2545.061807
998.380099	2541.291024
998.675225	2545.757487
998.970316	2541.790098
999.265371	2543.836807
999.560390	2544.839997
999.855373	2544.424101
1000.150320	2542.659697
1000.445232	2546.387631
1000.740108	2545.618855
1001.034948	2545.175233
1001.329752	2543.443597
1001.624521	2545.376879
1001.919254	2540.497043
1002.213951	2542.332023
1002.508613	2538.546116
1002.803239	2543.062990
1003.097829	2540.451672
1003.392384	2543.642723
1003.686903	2544.895449
1003.981386	2542.939482
1004.275834	2545.782692
1004.570246	2544.408978
1004.864623	2542.208514
1005.158964	2544.242620
1005.453270	2542.944523
1005.747540	2546.730429
1006.041775	2544.915614
1006.335974	2542.614327
1006.630138	2546.617003
1006.924266	2545.253371
1007.218359	2545.480223
1007.512416	2544.497198
1007.806438	2541.648946
1008.100425	2547.012734
1008.394376	2544.255223
1008.688292	2543.753628
1008.982172	2544.678680
1009.276017	2546.095244
1009.569827	2543.388144
1009.863602	2544.139276
1010.157341	2542.881508
1010.451045	2541.596014
1010.744714	2544.741694
1011.038347	2543.224307
1011.331945	2543.443597
1011.625508	2543.511653
1011.919036	2543.284801
1012.212528	2543.544420
1012.505986	2543.360418
1012.799408	2543.975439
1013.092795	2543.763710
1013.386147	2545.061807
1013.679464	2542.700027
1013.972745	2543.461241
1014.265992	2544.451828
1014.559204	2542.863864
1014.852380	2545.636499
1015.145521	2543.284801
1015.438628	2543.836807
1015.731699	2546.286808
1016.024736	2542.614327
1016.317737	2545.727240
1016.610703	2546.077600
1016.903635	2543.320089
1017.196531	2541.026364
1017.489393	2542.006868
1017.782219	2539.040149
1018.075011	2546.004503
1018.367768	2544.411498
1018.660490	2540.676003
1018.953177	2540.676003
1019.245829	2540.676003
