Dividing Wavelength (nm)	Counts (n)	Blue Motor Position (mm): 34.200000	Red Motor Position (mm): 0.000000	
326.493990	2129.421193
326.888308	2129.421193
327.282561	2129.421193
327.676750	2099.839703
328.070874	2097.760227
328.464933	2098.634867
328.858929	2108.137442
329.252859	2119.432147
329.646726	2128.501183
330.040528	2141.643471
330.434265	2155.461273
330.827938	2174.723522
331.221547	2192.556604
331.615091	2211.160982
332.008571	2232.422049
332.401986	2248.939389
332.795338	2270.321443
333.188625	2291.108641
333.581847	2308.752680
333.975006	2327.029383
334.368100	2345.815243
334.761129	2361.107583
335.154095	2379.119626
335.546996	2402.601320
335.939833	2427.139137
336.332606	2439.575663
336.725315	2454.656275
337.117960	2461.265227
337.510540	2471.944912
337.903056	2482.279277
338.295508	2491.058447
338.687896	2497.874087
339.080220	2505.655108
339.472480	2513.922600
339.864676	2518.784793
340.256807	2521.257479
340.648875	2525.040865
341.040879	2527.722759
341.432818	2527.364837
341.824694	2529.961031
342.216506	2527.674868
342.608253	2532.842050
342.999937	2529.222502
343.391557	2528.665454
343.783113	2528.274765
344.174605	2526.447347
344.566033	2523.619259
344.957397	2525.439116
345.348697	2524.050278
345.739934	2520.589526
346.131106	2520.657582
346.522215	2520.937366
346.913260	2515.001407
347.304241	2515.553413
347.695159	2515.485358
348.086012	2510.466889
348.476802	2511.028978
348.867528	2508.064779
349.258191	2505.587052
349.648789	2503.250477
350.039324	2503.409274
350.429796	2503.815087
350.820203	2500.923985
351.210548	2501.443224
351.600828	2498.272338
351.991045	2494.511637
352.381198	2500.578666
352.771288	2496.502893
353.161314	2496.747389
353.551276	2496.144971
353.941175	2496.190341
354.331010	2496.086998
354.720782	2497.531288
355.110490	2499.215034
355.500135	2496.734786
355.889717	2497.364930
356.279235	2497.758140
356.668689	2496.064313
357.058080	2498.136227
357.447408	2498.350476
357.836672	2496.026504
358.225873	2499.807369
358.615010	2492.243118
359.004084	2503.394150
359.393095	2498.574807
359.782043	2501.223933
360.170927	2497.743017
360.559748	2502.902638
360.948505	2503.923471
361.337199	2505.544202
361.725830	2503.137051
362.114398	2506.686024
362.502903	2504.137720
362.891344	2503.966321
363.279722	2504.016733
363.668037	2503.961280
364.056289	2506.217196
364.444478	2506.134017
364.832603	2506.018071
365.220665	2509.320027
365.608665	2509.662825
365.996601	2510.986128
366.384474	2508.521004
366.772284	2508.657115
367.160031	2509.872033
367.547715	2508.894049
367.935336	2509.877074
368.322893	2510.557630
368.710388	2512.127949
369.097820	2510.935716
369.485189	2509.186436
369.872495	2513.058042
370.259738	2513.668022
370.646918	2513.040398
371.034035	2511.487723
371.421090	2516.037364
371.808081	2511.979235
372.195010	2515.742457
372.581875	2512.876561
372.968678	2513.801612
373.355418	2515.283712
373.742096	2516.133146
374.128710	2513.983094
374.515262	2513.476458
374.901751	2515.205574
375.288177	2516.218846
375.674540	2517.043074
376.060841	2516.982580
376.447079	2515.303876
376.833254	2515.152642
377.219367	2511.888494
377.605417	2514.693897
377.991404	2513.640295
378.377329	2514.646006
378.763191	2515.379493
379.148991	2516.934689
379.534727	2517.544669
379.920402	2518.036182
380.306013	2516.062570
380.691563	2519.588857
381.077049	2515.182888
381.462474	2521.360822
381.847835	2518.787313
382.233134	2521.670853
382.618371	2521.136491
383.003545	2521.063394
383.388657	2521.449043
383.773706	2519.596419
384.158693	2521.683456
384.543618	2523.417613
384.928480	2520.791172
385.313280	2525.880217
385.698017	2522.293436
386.082692	2524.009949
386.467305	2522.467356
386.851856	2522.497603
387.236344	2522.936183
387.620770	2523.951976
388.005133	2524.125895
388.389435	2522.865607
388.773674	2526.666637
389.157851	2522.384177
389.541965	2526.414579
389.926018	2526.964065
390.310008	2527.695032
390.693936	2525.567665
391.077802	2525.413910
391.461606	2525.655886
391.845348	2527.710156
392.229027	2526.815351
392.612645	2526.429703
392.996200	2527.601771
393.379694	2527.684950
393.763125	2530.253418
394.146494	2532.000178
394.529801	2530.908768
394.913047	2530.376926
395.296230	2530.959179
395.679351	2530.830630
396.062410	2532.980682
396.445408	2533.341125
396.828343	2529.968593
397.211217	2529.078829
397.594028	2531.493542
397.976778	2528.788963
398.359466	2532.494211
398.742092	2528.534384
399.124656	2535.075282
399.507158	2534.412370
399.889598	2533.187369
400.271977	2534.661907
400.654294	2537.389171
401.036549	2536.454037
401.418742	2537.225334
401.800874	2536.685930
402.182944	2539.977804
402.564952	2536.721218
402.946898	2538.611651
403.328783	2541.686755
403.710606	2538.606610
404.092367	2541.822866
404.474067	2542.906714
404.855705	2543.582229
405.237282	2545.500388
405.618797	2544.900490
406.000250	2548.089020
406.381642	2554.670247
406.762972	2554.269475
407.144240	2558.481359
407.525447	2566.012843
407.906593	2569.760941
408.287677	2578.726633
408.668700	2581.837025
409.049661	2589.250041
409.430560	2597.575507
409.811399	2607.156220
410.192176	2623.590381
410.572891	2634.582617
410.953545	2648.748260
411.334138	2656.491472
411.714669	2673.359173
412.095139	2681.515760
412.475547	2707.916282
412.855894	2722.893550
413.236180	2741.107239
413.616405	2753.778179
413.996568	2782.553086
414.376670	2796.575055
414.756711	2813.931748
415.136691	2837.002588
415.516609	2871.821838
415.896466	2903.260994
416.276262	2934.047320
416.655997	2955.694035
417.035670	3017.377593
417.415283	3066.967424
417.794834	3085.579364
418.174324	3106.855554
418.553753	3122.178141
418.933121	3199.922815
419.312428	3253.235538
419.691674	3278.521966
420.070859	3351.752287
420.449983	3367.843650
420.829045	3444.827110
421.208047	3455.690797
421.586988	3528.258207
421.965867	3574.483067
422.344686	3677.115918
422.723444	3659.242507
423.102141	3630.913743
423.480777	3799.149650
423.859352	3749.244747
424.237866	3915.000406
424.616319	3958.447591
424.994712	4058.958116
425.373044	4046.766085
425.751314	4170.168490
426.129524	4116.651601
426.507673	4276.262094
426.885762	4362.927090
427.263789	4382.280080
427.641756	4352.214638
428.019662	4476.305161
428.397508	4528.765928
428.775292	4548.101274
429.153016	4656.188653
429.530679	4651.144979
429.908282	4755.204477
430.285824	4706.695974
430.663305	4950.203869
431.040726	4795.710148
431.418086	4836.165407
431.795385	4951.403664
432.172624	5005.157487
432.549802	5033.816447
432.926920	5081.233540
433.303977	5125.210045
433.680974	5184.539385
434.057910	5238.845215
434.434786	5274.299650
434.811601	5274.949959
435.188355	5507.626935
435.565050	5427.578453
435.941683	5437.335606
436.318257	5654.674872
436.694770	5662.249206
437.071222	5723.426128
437.447614	5687.046642
437.823946	5623.694461
438.200218	5789.586231
438.576429	5682.933060
438.952580	5794.990348
439.328670	5849.734758
439.704700	5778.566269
440.080670	5780.907885
440.456580	6055.648249
440.832429	5956.609741
441.208218	5819.855840
441.583947	5977.102031
441.959616	5989.962014
442.335224	5928.154948
442.710773	6072.314304
443.086261	6112.678822
443.461689	5907.221556
443.837057	6062.559671
444.212365	6223.521193
444.587612	6119.615450
444.962800	6275.687053
445.337927	6258.521924
445.712995	5882.126693
446.088002	6452.071985
446.462949	6291.314630
446.837837	6223.405246
447.212664	6394.978397
447.587431	6539.956940
447.962139	7085.767708
448.336786	8005.798450
448.711374	7741.959581
449.085901	6825.697102
449.460369	6749.132057
449.834776	6684.590165
450.209124	7076.519712
450.583412	7226.841878
450.957640	7377.647995
451.331808	7138.621686
451.705917	6697.770261
452.079965	6618.702284
452.453954	6827.267421
452.827883	6710.763835
453.201752	6802.238093
453.575562	6604.713082
453.949311	6810.417365
454.323001	6699.829573
454.696632	6773.435460
455.070202	6911.948724
455.443713	7063.606796
455.817164	7167.036149
456.190556	7241.625062
456.563888	7323.959707
456.937160	7366.910338
457.310373	7020.464601
457.683526	7044.914198
458.056619	6937.330933
458.429653	6925.758965
458.802628	6864.806373
459.175542	6971.240255
459.548398	7324.962897
459.921194	7489.639749
460.293930	7486.829305
460.666607	8019.485182
461.039224	8326.335176
461.411782	8446.849000
461.784280	8470.386147
462.156719	8354.810133
462.529099	8236.290086
462.901419	7825.191552
463.273680	7719.324800
463.645882	7731.680668
464.018024	7604.179805
464.390106	7767.490505
464.762130	8161.000453
465.134094	8623.571689
465.505999	9642.043562
465.877845	10864.082269
466.249631	11498.526604
466.621358	11118.191711
466.993026	10494.742132
467.364634	10233.519622
467.736184	9873.119972
468.107674	9537.855515
468.479105	9573.231812
468.850477	9346.200928
469.221790	9115.878171
469.593043	8786.017831
469.964238	8642.755800
470.335373	8656.631576
470.706449	8717.092655
471.077467	8701.099594
471.448425	10006.309778
471.819324	11075.072202
472.190164	11089.235323
472.560945	9849.610551
472.931667	9066.908402
473.302330	8923.447246
473.672934	8576.434380
474.043479	8938.237992
474.413965	8873.348259
474.784393	8753.320907
475.154761	8914.121112
475.525070	9001.877518
475.895321	8828.807144
476.265513	9003.319288
476.635645	9172.134927
477.005719	9173.889249
477.375734	9282.657184
477.745691	9523.034523
478.115588	9657.986211
478.485427	9900.778263
478.855207	10436.007649
479.224928	11246.670558
479.594591	11872.980991
479.964194	11683.171467
480.333739	11617.621343
480.703226	11541.000846
481.072653	11633.017027
481.442022	11868.839683
481.811333	12055.095194
482.180584	11859.763086
482.549777	11568.308776
482.918912	11392.611962
483.287988	11411.851525
483.657005	11432.353898
484.025964	11117.165836
484.394864	11238.944990
484.763706	11212.007584
485.132489	10972.066305
485.501213	10934.582806
485.869879	11003.593681
486.238487	10858.085817
486.607036	10961.706734
486.975527	10748.717984
487.343959	10933.027610
487.712333	10984.520476
488.080648	10915.930536
488.448905	10958.150200
488.817104	10900.466797
489.185244	11157.958853
489.553326	11319.046404
489.921350	11854.910975
490.289315	12911.504054
490.657222	13251.804624
491.025070	13166.657015
491.392861	13031.649873
491.760593	12661.241012
492.128267	12309.466776
492.495883	11982.721869
492.863440	11641.433233
493.230939	11311.033490
493.598380	11244.185269
493.965763	11112.258273
494.333088	11011.886379
494.700354	10935.817888
495.067563	10991.016002
495.434713	10826.750004
495.801805	10953.285486
496.168839	10885.098839
496.535815	10812.596965
496.902733	10812.733076
497.269593	10743.568445
497.636395	10841.636532
498.003139	10832.408699
498.369825	10700.378360
498.736453	10861.186126
499.103023	10783.927923
499.469535	10816.798767
499.835989	10808.236367
500.202385	10766.490572
500.568723	10620.980187
500.935003	10841.659217
501.301226	10644.973558
501.667390	10904.038454
502.033497	11003.034113
502.399546	10862.285098
502.765537	10764.481672
503.131470	10845.374547
503.497345	11010.631132
503.863163	10621.570002
504.228923	10936.019534
504.594625	10998.555048
504.960269	10750.734445
505.325856	10963.168668
505.691385	10759.377504
506.056856	10920.439848
506.422270	10945.582603
506.787625	10835.067908
507.152924	10945.242325
507.518164	10934.025758
507.883347	10847.617861
508.248472	10766.997208
508.613540	10998.930614
508.978550	10882.762265
509.343503	10861.896929
509.708398	10980.648869
510.073236	11085.278018
510.438016	11100.512384
510.802738	11032.688701
511.167403	11099.282343
511.532010	11001.420944
511.896561	11228.242620
512.261053	11295.153855
512.625488	11171.975781
512.989866	11148.597430
513.354186	11141.325566
513.718449	11040.933508
514.082655	11227.874616
514.446803	11129.867023
514.810894	11258.900397
515.174927	11107.713673
515.538904	11142.953859
515.902822	11293.941457
516.266684	11177.468118
516.630488	11116.157605
516.994235	11169.838332
517.357925	11237.064639
517.721558	11323.593524
518.085133	11339.568941
518.448651	11356.381189
518.812112	11234.705379
519.175516	11247.308264
519.538863	11368.963909
519.902152	11287.771085
520.265385	11449.158584
520.628560	11357.686848
520.991678	11335.619197
521.354739	11399.104968
521.717743	11327.722229
522.080690	11307.842439
522.443580	11441.579210
522.806413	11405.794579
523.169189	11430.957498
523.531908	11490.574184
523.894569	11314.768985
524.257174	11308.245732
524.619722	11434.715679
524.982213	11380.697195
525.344647	11431.385997
525.707025	11380.447658
526.069345	11480.547329
526.431608	11391.452496
526.793815	11498.939979
527.155964	11285.951229
527.518057	11341.950886
527.880093	11293.986828
528.242072	11359.824297
528.603995	11267.311562
528.965860	11189.216528
529.327669	11243.638304
529.689421	11189.869357
530.051117	11165.737353
530.412755	11262.661098
530.774337	11157.016157
531.135862	11134.144442
531.497331	11163.851962
531.858743	11005.456388
532.220098	11175.396204
532.581396	11054.446321
532.942638	11031.612414
533.303824	10992.518266
533.664953	11007.036789
534.026025	10922.466392
534.387040	11017.408963
534.747999	11021.580518
535.108902	11081.063613
535.469748	10838.442961
535.830537	10945.796852
536.191270	10923.656105
536.551947	10943.790473
536.912567	10946.190062
537.273131	10873.010153
537.633638	10848.487460
537.994089	10837.994298
538.354483	10792.245827
538.714821	10932.457959
539.075103	10939.893661
539.435328	10904.643393
539.795497	10735.673998
540.155609	10889.255271
540.515665	10976.817593
540.875665	10714.198683
541.235609	10774.947107
541.595496	10774.974834
541.955328	10932.331930
542.315102	10814.058899
542.674821	10772.471901
543.034483	10765.749522
543.394090	10768.020562
543.753640	10704.819616
544.113134	10917.498335
544.472571	10771.249421
544.831953	10915.151678
545.191278	10725.137987
545.550548	10757.489592
545.909761	10888.889787
546.268918	10871.979237
546.628019	10946.376585
546.987064	10812.344907
547.346053	10740.405121
547.704986	10830.956847
548.063863	10821.905455
548.422684	10811.137551
548.781449	10728.392052
549.140158	10833.479945
549.498811	10709.175173
549.857408	10569.855325
550.215949	10793.864037
550.574434	10640.885183
550.932864	10746.603220
551.291237	10802.519698
551.649555	10749.690927
552.007817	10762.808009
552.366022	10723.469365
552.724173	10722.756042
553.082267	10707.577127
553.440305	10840.711480
553.798288	10643.415842
554.156215	10797.891919
554.514086	10774.130440
554.871902	10617.466502
555.229661	10656.883284
555.587365	10634.165324
555.945014	10530.831753
556.302606	10655.985959
556.660143	10553.295134
557.017625	10713.349248
557.375050	10603.628535
557.732421	10735.875644
558.089735	10647.201748
558.446994	10649.162757
558.804197	10684.806235
559.161345	10690.739673
559.518437	10540.772908
559.875474	10625.010589
560.232455	10652.971349
560.589381	10605.433268
560.946251	10603.527712
561.303065	10707.304905
561.659825	10648.583024
562.016528	10575.617364
562.373177	10453.384506
562.729770	10564.945241
563.086307	10484.614454
563.442789	10580.103991
563.799216	10451.988107
564.155587	10500.693215
564.511904	10455.963057
564.868164	10450.717736
565.224370	10462.062853
565.580520	10387.388241
565.936615	10395.658254
566.292654	10265.354509
566.648638	10396.636238
567.004567	10347.923568
567.360441	10341.533905
567.716260	10247.947405
568.072023	10344.639256
568.427732	10296.014807
568.783385	10202.440909
569.138982	10275.318350
569.494525	10286.829824
569.850013	10167.001598
570.205445	10251.824052
570.560823	10136.222833
570.916145	10058.619310
571.271412	10135.688470
571.626625	10069.553573
571.981782	10047.400223
572.336884	10022.885091
572.691931	10027.832984
573.046923	9971.165373
573.401860	9931.158777
573.756743	9868.875321
574.111570	9917.318289
574.466342	9898.686184
574.821059	9922.729967
575.175722	9817.594183
575.530330	9827.799999
575.884882	9818.864554
576.239380	9748.454758
576.593823	9726.639165
576.948211	9746.536599
577.302544	9620.215366
577.656823	9631.255493
578.011047	9635.391760
578.365216	9610.680024
578.719330	9534.437613
579.073389	9545.018995
579.427394	9496.465122
579.781344	9472.799425
580.135239	9414.226258
580.489080	9432.850801
580.842866	9330.991767
581.196597	9336.844547
581.550273	9371.429383
581.903895	9347.294859
582.257463	9404.890041
582.610975	9284.958471
582.964434	9316.969798
583.317837	9237.221264
583.671186	9218.826094
584.024481	9217.447338
584.377721	9137.499680
584.730906	9108.898693
585.084037	9142.407243
585.437113	9078.553468
585.790135	9101.533568
586.143103	8998.966251
586.496016	8968.149678
586.848874	9027.002628
587.201679	9013.731791
587.554428	8901.377075
587.907124	8947.201163
588.259765	8924.636958
588.612352	8920.054550
588.964884	8801.738669
589.317362	8817.572933
589.669786	8818.011513
590.022155	8869.511941
590.374470	8881.953509
590.726731	8815.624527
591.078937	8671.792846
591.431090	8782.226883
591.783188	8651.572778
592.135232	8647.300400
592.487222	8643.965677
592.839157	8699.763688
593.191038	8634.664748
593.542866	8573.686951
593.894639	8476.730439
594.246358	8530.164149
594.598022	8548.035040
594.949633	8445.384545
595.301190	8417.529649
595.652692	8447.179195
596.004141	8554.492758
596.355535	8336.934202
596.706876	8313.281108
597.058162	8253.155266
597.409395	8326.312491
597.760573	8387.804485
598.111698	8297.567832
598.462768	8282.996376
598.813785	8246.551355
599.164748	8218.056232
599.515657	8205.397895
599.866511	8120.787169
600.217312	8248.409020
600.568060	8103.596834
600.918753	8203.830096
601.269392	8176.791868
601.619978	8087.334072
601.970510	8148.760532
602.320988	8150.217425
602.671412	8204.155251
603.021783	8138.342987
603.372100	8115.463711
603.722363	8118.402703
604.072572	8093.141481
604.422728	8100.161288
604.772830	8024.738065
605.122878	8043.463431
605.472872	8035.664766
605.822813	8063.754075
606.172701	8004.971701
606.522534	8083.278464
606.872314	8082.696211
607.222041	8052.310656
607.571714	8105.880477
607.921333	8066.375475
608.270899	8072.495436
608.620411	8161.834764
608.969870	8069.160712
609.319276	8062.735762
609.668627	8078.494409
610.017926	8115.201571
610.367171	8163.097573
610.716362	8141.561764
611.065500	8127.544836
611.414585	8156.861666
611.763616	8143.986559
612.112594	8121.392107
612.461518	8142.380952
612.810389	8203.063841
613.159207	8143.006055
613.507971	8092.183662
613.856682	8206.522072
614.205340	8162.308633
614.553945	8242.485664
614.902496	8139.676372
615.250994	8195.955814
615.599439	8178.740274
615.947830	8188.063888
616.296169	8162.729569
616.644454	8176.602824
616.992686	8172.617792
617.340864	8233.192297
617.688990	8133.337122
618.037063	8222.799958
618.385082	8175.045108
618.733048	8259.398735
619.080961	8199.023356
619.428821	8214.787044
619.776628	8220.929690
620.124382	8173.381527
620.472083	8154.182293
620.819731	8181.699431
621.167326	8074.227072
621.514868	8082.799554
621.862357	7970.553223
622.209793	7994.660020
622.557176	7918.936848
622.904506	7893.809217
623.251783	7826.154412
623.599007	7784.658154
623.946179	7786.218391
624.293297	7740.071669
624.640363	7660.638208
624.987376	7638.570557
625.334336	7585.698935
625.681243	7533.220524
626.028097	7531.491408
626.374899	7501.693148
626.721647	7495.205183
627.068343	7427.391581
627.414987	7403.201604
627.761577	7358.549584
628.108115	7394.177939
628.454600	7287.774305
628.801032	7346.407965
629.147412	7298.511962
629.493739	7284.893285
629.840014	7226.007567
630.186236	7280.303315
630.532405	7168.508166
630.878521	7216.250414
631.224585	7173.650143
631.570597	7096.994358
631.916556	7130.974255
632.262462	7127.553832
632.608316	7087.527071
632.954117	7062.825417
633.299866	7050.106586
633.645562	7043.076697
633.991206	6966.304965
634.336797	6911.336223
634.682336	6863.359562
635.027823	6832.096847
635.373257	6825.828172
635.718639	6755.688078
636.063968	6770.188957
636.409245	6668.153483
636.754470	6666.421846
637.099642	6619.622294
637.444762	6559.899745
637.789829	6579.366160
638.134845	6519.164701
638.479808	6500.328430
638.824719	6503.307752
639.169577	6435.773934
639.514383	6452.046779
639.859137	6383.426593
640.203839	6394.471761
640.548489	6379.154215
640.893086	6354.399629
641.237632	6325.370144
641.582125	6342.293298
641.926566	6313.291540
642.270955	6324.596327
642.615292	6324.699671
642.959576	6341.030489
643.303809	6325.944836
643.647990	6340.982598
643.992118	6329.140927
644.336195	6273.355519
644.680219	6299.347708
645.024192	6287.901768
645.368112	6381.657148
645.711981	6400.538789
646.055797	6480.065512
646.399562	6437.480365
646.743274	6567.494243
647.086935	6621.658921
647.430544	6613.865297
647.774101	6635.393544
648.117606	6644.339072
648.461059	6629.238295
648.804460	6591.270845
649.147810	6502.750704
649.491108	6474.658874
649.834354	6452.210616
650.177548	6362.682245
650.520690	6280.080418
650.863781	6259.270535
651.206820	6281.938083
651.549807	6198.867430
651.892742	6137.120857
652.235626	6148.135778
652.578458	6128.215659
652.921238	6042.415220
653.263967	6081.960552
653.606644	6022.842940
653.949269	6019.094843
654.291843	5968.043078
654.634365	6014.275499
654.976836	5968.055680
655.319255	5962.621317
655.661622	5945.022648
656.003938	5941.768584
656.346203	5899.322068
656.688416	5934.146359
657.030577	5889.471654
657.372687	5857.452765
657.714746	5846.090004
658.056753	5885.269852
658.398708	5826.676521
658.740612	5818.625798
659.082465	5862.171285
659.424266	5853.729873
659.766016	5857.135172
660.107715	5829.197098
660.449362	5845.290981
660.790958	5841.941135
661.132503	5829.577705
661.473996	5866.168920
661.815438	5854.334811
662.156829	5853.044276
662.498168	5837.502399
662.839456	5813.814017
663.180693	5848.971024
663.521879	5853.452609
663.863013	5841.439540
664.204097	5860.938723
664.545129	5907.415641
664.886110	5899.438015
665.227040	5931.288025
665.567918	5892.607251
665.908746	5925.775523
666.249522	5924.656387
666.590248	5914.100211
666.930922	5946.421569
667.271545	5953.607733
667.612118	5960.972859
667.952639	5931.744249
668.293109	5949.610098
668.633528	5911.405714
668.973896	5913.502834
669.314213	5904.978243
669.654480	5885.637856
669.994695	5884.269183
670.334859	5870.015320
670.674973	5863.723960
671.015035	5864.596080
671.355047	5867.262850
671.695008	5854.281879
672.034918	5824.647456
672.374777	5835.967367
672.714585	5824.034956
673.054342	5822.126879
673.394049	5819.641591
673.733705	5855.050655
674.073310	5842.397359
674.412864	5795.348270
674.752368	5788.671262
675.091820	5793.969515
675.431223	5726.959977
675.770574	5728.414350
676.109875	5679.517678
676.449125	5684.584038
676.788324	5650.495756
677.127473	5596.520121
677.466571	5586.969655
677.805619	5578.946659
678.144616	5564.017282
678.483562	5540.936359
678.822458	5511.397718
679.161303	5504.264485
679.500098	5491.548175
679.838842	5479.058716
680.177535	5484.054500
680.516179	5497.005224
680.854771	5508.572151
681.193314	5594.574236
681.531805	5697.350760
681.870247	5850.788360
682.208638	5952.783505
682.546978	5966.248427
682.885268	5943.888389
683.223508	5855.658114
683.561697	5806.428726
683.899836	5772.307677
684.237925	5726.561726
684.575963	5696.539134
684.913951	5652.083719
685.251889	5714.909099
685.589776	5685.914902
685.927614	5655.849461
686.265401	5726.339915
686.603137	5708.335434
686.940824	5788.368793
687.278460	5807.046268
687.616046	5817.562115
687.953582	5883.971755
688.291068	5867.441811
688.628504	5935.124343
688.965889	5894.500205
689.303224	5839.589436
689.640510	5788.005830
689.977745	5713.908430
690.314930	5614.932936
690.652065	5557.158792
690.989150	5472.570751
691.326185	5390.319285
691.663170	5339.930432
692.000105	5261.580819
692.336990	5184.582235
692.673825	5154.214324
693.010610	5091.033543
693.347345	5022.713305
693.684030	5006.442981
694.020665	4966.895129
694.357251	4877.787694
694.693786	4880.731728
695.030272	4854.409343
695.366707	4817.198066
695.703093	4784.042397
696.039429	4806.475532
696.375716	4787.419970
696.711952	4764.661681
697.048139	4749.787757
697.384276	4734.210591
697.720363	4741.081684
698.056400	4752.167181
698.392388	4700.470149
698.728326	4683.438610
699.064214	4659.548582
699.400053	4652.619516
699.735842	4619.675576
700.071581	4593.877471
700.407270	4571.368719
700.742910	4549.109504
701.078501	4497.218387
701.414042	4497.132688
701.749533	4466.616063
702.084974	4401.310435
702.420366	4458.671204
702.755709	4402.762288
703.091002	4341.855067
703.426246	4389.340216
703.761440	4349.840255
704.096584	4312.442455
704.431679	4339.425231
704.766725	4316.009071
705.101721	4305.621774
705.436668	4336.062781
705.771565	4285.111839
706.106413	4307.855005
706.441212	4342.538143
706.775961	4350.939226
707.110661	4330.449456
707.445311	4358.450545
707.779913	4384.233527
708.114465	4396.218870
708.448967	4419.418260
708.783421	4477.623422
709.117825	4522.706461
709.452180	4526.492368
709.786485	4563.683480
710.120742	4657.988345
710.454949	4636.833143
710.789107	4705.549111
711.123216	4784.498622
711.457275	4772.049492
711.791286	4848.160833
712.125247	4861.794633
712.459159	4768.029172
712.793023	4836.669523
713.126837	4798.608811
713.460602	4793.809633
713.794318	4710.305440
714.127985	4719.855906
714.461602	4636.646620
714.795171	4609.129482
715.128691	4542.571128
715.462162	4482.107529
715.795584	4433.104993
716.128957	4414.122528
716.462281	4364.948593
716.795556	4334.797452
717.128782	4302.198830
717.461960	4233.583685
717.795088	4242.221702
718.128167	4199.928942
718.461198	4142.963904
718.794180	4133.904950
719.127113	4116.412146
719.459997	4096.779373
719.792833	4054.607600
720.125619	4044.858009
720.458357	4007.329139
720.791046	4012.728215
721.123686	3988.497909
721.456278	3944.229016
721.788821	3961.489927
722.121315	3932.851132
722.453761	3908.404056
722.786158	3920.820418
723.118506	3944.594500
723.450805	3895.833939
723.783056	3919.756735
724.115259	3938.088891
724.447412	3938.340948
724.779518	3933.771142
725.111574	3939.959159
725.443582	3963.662664
725.775542	3953.358546
726.107453	4005.547091
726.439315	3998.597860
726.771129	4019.480840
727.102895	4056.611459
727.434612	4102.390177
727.766281	4117.538844
728.097901	4116.139924
728.429473	4119.827528
728.760996	4126.083600
729.092471	4123.547900
729.423897	4107.408646
729.755276	4114.995582
730.086606	4112.333853
730.417887	4146.427176
730.749120	4217.477199
731.080305	4281.709060
731.411442	4304.966424
731.742530	4277.504738
732.073570	4280.600007
732.404562	4333.133871
732.735506	4323.530473
733.066401	4289.479999
733.397249	4224.630596
733.728048	4149.030932
734.058798	4060.702355
734.389501	3990.821881
734.720156	3930.532201
735.050762	3888.335223
735.381320	3877.925240
735.711831	3827.359947
736.042293	3800.455308
736.372707	3821.706293
736.703073	3792.911222
737.033391	3783.025519
737.363661	3799.787356
737.693883	3828.852128
738.024056	3837.220443
738.354182	3831.682736
738.684260	3897.502561
739.014290	3918.940068
739.344272	3911.174170
739.674207	3951.858802
740.004093	3961.172334
740.333931	3955.095223
740.663722	3950.548102
740.993464	3949.618010
741.323159	3923.832508
741.652806	3897.401738
741.982405	3868.450392
742.311956	3835.990402
742.641460	3829.729289
742.970915	3807.618788
743.300323	3765.623456
743.629683	3729.864031
743.958996	3716.875498
744.288260	3693.580326
744.617477	3660.800223
744.946647	3647.872184
745.275768	3618.825056
745.604842	3621.358236
745.933869	3571.173549
746.262847	3562.913619
746.591778	3600.873507
746.920662	3573.646235
747.249498	3545.249416
747.578286	3587.534614
747.907027	3606.552367
748.235720	3605.574383
748.564365	3627.576499
748.892963	3630.142446
749.221514	3609.264508
749.550017	3589.876230
749.878473	3586.982608
750.206881	3560.516550
750.535242	3551.132442
750.863555	3554.809964
751.191821	3546.303017
751.520039	3529.654606
751.848210	3506.767768
752.176334	3541.329918
752.504411	3548.528686
752.832440	3509.691637
753.160421	3491.097341
753.488356	3502.714680
753.816243	3511.004858
754.144082	3468.134885
754.471875	3452.852627
754.799620	3472.442551
755.127318	3464.762353
755.454969	3464.243114
755.782572	3471.368785
756.110129	3449.195270
756.437638	3437.275462
756.765100	3451.579736
757.092515	3459.005356
757.419882	3466.861994
757.747203	3440.075823
758.074477	3441.797377
758.401703	3458.743216
758.728882	3479.598469
759.056014	3487.807988
759.383099	3490.441991
759.710138	3485.836897
760.037129	3503.264166
760.364073	3534.421017
760.690970	3519.305117
761.017820	3497.378619
761.344623	3515.020137
761.671379	3563.309349
761.998088	3611.651494
762.324751	3741.781319
762.651366	3984.233092
762.977935	4458.764466
763.304456	4901.730654
763.630931	4993.351105
763.957359	4634.148729
764.283740	4294.135505
764.610074	4101.291205
764.936362	3904.671082
765.262602	3746.109149
765.588796	3633.731748
765.914943	3546.819735
766.241044	3455.786579
766.567097	3427.172990
766.893104	3382.425188
767.219064	3349.952595
767.544978	3322.125426
767.870845	3268.205244
768.196665	3250.881319
768.522438	3256.381218
768.848165	3251.176227
769.173846	3217.647512
769.499479	3196.394008
769.825066	3181.051256
770.150607	3165.796724
770.476101	3181.497398
770.801548	3176.753672
771.126949	3131.789101
771.452303	3116.380814
771.777611	3123.148563
772.102872	3128.456898
772.428087	3102.510079
772.753256	3094.590426
773.078378	3083.210022
773.403453	3048.564692
773.728482	3039.379709
774.053465	3058.954510
774.378401	3045.628220
774.703291	3016.011441
775.028135	3017.380114
775.352932	3014.849455
775.677683	2998.616939
776.002388	2998.306908
776.327046	2999.660458
776.651658	2989.623521
776.976224	2972.539051
777.300743	2978.074238
777.625216	2967.787763
777.949643	2960.450364
778.274024	2967.263483
778.598359	2952.644137
778.922647	2955.469704
779.246889	2960.594037
779.571086	2942.599638
779.895236	2939.471602
780.219339	2950.307562
780.543397	2962.182000
780.867409	2963.104531
781.191374	2955.061370
781.515294	2951.673715
781.839167	2953.554065
782.162995	2942.924792
782.486776	2951.945937
782.810511	2951.950978
783.134201	2937.845830
783.457844	2940.620985
783.781441	2933.870880
784.104993	2914.490164
784.428498	2915.001841
784.751958	2932.068668
785.075372	2925.694128
785.398739	2908.299627
785.722061	2925.331165
786.045337	2936.199893
786.368568	2920.622728
786.691752	2911.374731
787.014891	2962.668471
787.337983	2991.554283
787.661030	3016.961698
787.984031	3084.016606
788.306987	3131.030407
788.629897	3126.274078
788.952760	3108.251953
789.275579	3093.093204
789.598351	3032.642207
789.921078	2987.982625
790.243759	2979.107674
790.566395	2960.803244
790.888984	2938.445727
791.211529	2922.624066
791.534027	2912.642581
791.856480	2903.596231
792.178888	2887.212481
792.501249	2878.536655
792.823566	2877.099926
793.145836	2874.677652
793.468062	2871.826879
793.790241	2866.417721
794.112375	2871.660521
794.434464	2884.868344
794.756507	2891.580640
795.078505	2898.313101
795.400457	2909.464134
795.722364	2946.624999
796.044226	2971.742548
796.366042	2973.169195
796.687812	2961.302319
797.009538	2983.191009
797.331218	2969.446303
797.652852	2955.752008
797.974442	2937.150151
798.295986	2934.488421
798.617484	2930.117741
798.938938	2912.778692
799.260346	2895.893348
799.581709	2891.280692
799.903026	2885.299363
800.224299	2881.757952
800.545526	2867.705736
800.866708	2855.102851
801.187845	2846.036336
801.508936	2845.358301
801.829983	2853.703931
802.150984	2839.737414
802.471940	2825.254179
802.792851	2827.971361
803.113717	2827.830209
803.434538	2832.165601
803.755314	2825.135712
804.076045	2819.149342
804.396731	2816.086841
804.717372	2817.858807
805.037967	2814.516522
805.358518	2820.830567
805.679024	2830.517144
805.999485	2829.183759
806.319901	2831.545539
806.640272	2824.548418
806.960598	2829.145950
807.280879	2839.354287
807.601115	2845.380986
807.921306	2833.562001
808.241453	2827.658810
808.561554	2832.977227
808.881611	2839.321519
809.201623	2833.504027
809.521590	2834.177022
809.841513	2826.436330
810.161390	2831.530416
810.481223	2825.183603
810.801011	2814.312355
811.120755	2811.012920
811.440453	2814.977787
811.760107	2813.455359
812.079716	2812.731953
812.399281	2802.029583
812.718801	2797.230405
813.038276	2793.033644
813.357707	2797.056485
813.677093	2805.775161
813.996434	2800.348359
814.315731	2793.177317
814.634983	2790.482821
814.954191	2791.377625
815.273354	2807.095943
815.592473	2814.287149
815.911547	2813.914104
816.230577	2819.666060
816.549562	2833.471260
816.868502	2831.056547
817.187399	2838.590552
817.506250	2857.346165
817.825058	2848.594722
818.143821	2864.973430
818.462539	2878.203939
818.781213	2904.823752
819.099843	2942.108125
819.418429	2998.349758
819.736970	3061.061712
820.055466	3136.492497
820.373919	3239.478229
820.692327	3379.176164
821.010691	3550.141855
821.329011	3990.710975
821.647286	4892.205394
821.965517	6269.882164
822.283704	7018.203644
822.601847	6995.921744
822.919945	6361.802563
823.237999	5861.049628
823.556010	5277.757881
823.873976	4718.870360
824.191897	4311.119152
824.509775	4015.752907
824.827609	3750.326075
825.145398	3619.374542
825.463144	3612.241309
825.780845	3701.068960
826.098502	3808.672389
826.416116	4088.874843
826.733685	4404.388060
827.051210	4471.601764
827.368692	4356.731512
827.686129	4087.672528
828.003522	3762.790327
828.320872	3502.719721
828.638177	3308.612613
828.955439	3171.906603
829.272656	3088.500713
829.589830	3019.729292
829.906960	2971.684575
830.224046	2924.668254
830.541088	2893.705487
830.858086	2877.818290
831.175041	2857.857842
831.491952	2860.499406
831.808819	2874.140769
832.125642	2898.907958
832.442421	2940.825152
832.759157	3026.512164
833.075849	3202.738300
833.392497	3484.332112
833.709101	3690.898433
834.025662	3637.028662
834.342179	3475.013540
834.658653	3300.014925
834.975083	3147.141935
835.291469	3053.593243
835.607811	2967.298771
835.924110	2911.911614
836.240366	2858.457739
836.556578	2817.122798
836.872746	2794.677061
837.188871	2772.054883
837.504952	2752.923704
837.820990	2745.624113
838.136984	2733.565673
838.452935	2726.402193
838.768842	2725.104096
839.084706	2739.584811
839.400526	2819.824857
839.716303	2954.264868
840.032037	3034.013401
840.347727	3018.824405
840.663373	2957.874334
840.978977	2884.210473
841.294537	2810.541572
841.610054	2761.234046
841.925527	2740.958525
842.240957	2715.679659
842.556344	2696.876155
842.871687	2682.226562
843.186987	2670.115190
843.502244	2666.049500
843.817458	2661.691422
844.132629	2650.484937
844.447756	2642.779533
844.762840	2635.578245
845.077881	2639.734677
845.392879	2637.773668
845.707833	2633.864253
846.022745	2623.134157
846.337613	2627.061216
846.652438	2624.248252
846.967221	2628.321504
847.281960	2624.263375
847.596656	2624.570886
847.911309	2619.318003
848.225919	2617.420009
848.540485	2616.464710
848.855009	2615.827004
849.169490	2617.571244
849.483928	2614.622169
849.798323	2614.828856
850.112675	2614.087806
850.426984	2618.692900
850.741251	2614.778444
851.055474	2614.241562
851.369654	2615.537138
851.683792	2615.869854
851.997887	2613.316510
852.311938	2610.107815
852.625947	2616.091665
852.939914	2615.234669
853.253837	2617.150307
853.567718	2612.575460
853.881555	2612.794750
854.195350	2616.348764
854.509103	2615.179216
854.822812	2613.127467
855.136479	2611.607559
855.450103	2612.517487
855.763685	2617.465379
856.077224	2613.485388
856.390720	2609.001282
856.704173	2615.723661
857.017584	2618.597118
857.330953	2618.332458
857.644278	2621.238683
857.957561	2620.651389
858.270802	2614.362549
858.584000	2616.643671
858.897155	2620.963940
859.210268	2620.018724
859.523339	2615.602673
859.836367	2614.360029
860.149352	2612.945985
860.462295	2611.229472
860.775195	2611.877260
861.088054	2610.158227
861.400869	2609.409616
861.713642	2607.637650
862.026373	2607.221755
862.339062	2608.837445
862.651708	2616.275667
862.964312	2615.862293
863.276873	2616.290791
863.589392	2619.113837
863.901869	2623.003087
864.214303	2627.101545
864.526696	2629.274282
864.839045	2629.856536
865.151353	2634.620426
865.463619	2635.280817
865.775842	2634.018008
866.088023	2633.347535
866.400162	2635.855509
866.712258	2634.885087
867.024313	2632.868625
867.336325	2628.283696
867.648296	2631.021042
867.960224	2637.687968
868.272110	2632.919037
868.583954	2627.318315
868.895755	2627.754374
869.207515	2632.845940
869.519233	2638.844913
869.830909	2637.138482
870.142542	2633.526496
870.454134	2634.128913
870.765684	2640.261477
871.077191	2641.113432
871.388657	2645.489154
871.700081	2642.605614
872.011463	2643.553351
872.322803	2643.719709
872.634101	2648.871768
872.945357	2654.401914
873.256571	2659.380053
873.567744	2658.835608
873.878874	2657.126657
874.189963	2660.025321
874.501010	2662.689571
874.812015	2665.731907
875.122979	2668.406239
875.433900	2660.652944
875.744780	2659.911895
876.055618	2662.256031
876.366415	2667.544202
876.677169	2666.188131
876.987882	2661.446926
877.298554	2663.385250
877.609183	2672.867660
877.919771	2678.722960
878.230317	2688.495237
878.540822	2695.313398
878.851285	2712.165975
879.161707	2733.832854
879.472087	2772.417846
879.782425	2820.661688
880.092722	2936.126796
880.402977	3124.413893
880.713191	3381.210269
881.023363	3680.637164
881.333494	3866.330586
881.643583	4043.222154
881.953631	4038.591854
882.263637	3864.049464
882.573602	3638.621667
882.883526	3508.925382
883.193408	3395.756519
883.503248	3293.965540
883.813048	3179.700227
884.122806	3064.139337
884.432522	2980.108343
884.742197	2915.707603
885.051831	2877.556150
885.361424	2843.298989
885.670975	2809.157775
885.980485	2773.791560
886.289954	2757.541401
886.599382	2742.080182
886.908768	2729.676423
887.218113	2713.701006
887.527417	2699.116948
887.836680	2690.723427
888.145901	2685.765452
888.455082	2677.807991
888.764221	2665.931032
889.073319	2657.824857
889.382376	2656.574651
889.691392	2660.320228
890.000366	2658.477687
890.309300	2659.710249
890.618193	2659.685043
890.927044	2661.875424
891.235855	2662.717297
891.544625	2662.074550
891.853353	2661.855260
892.162041	2669.767351
892.470687	2689.989939
892.779293	2702.701209
893.087858	2708.533824
893.396381	2732.567525
893.704864	2776.007147
894.013306	2845.900225
894.321707	2937.699636
894.630068	2989.212667
894.938387	3012.122191
895.246665	3000.625839
895.554903	2959.434571
895.863100	2914.177613
896.171256	2856.131247
896.479371	2798.445323
896.787446	2755.698859
897.095480	2739.574728
897.403473	2730.500652
897.711425	2717.675956
898.019336	2697.992771
898.327207	2683.426357
898.635038	2682.644978
898.942827	2679.184226
899.250576	2671.254491
899.558284	2657.930721
899.865952	2656.254538
900.173579	2653.814619
900.481165	2648.549134
900.788711	2644.296921
901.096216	2639.046559
901.403681	2630.433748
901.711105	2632.969448
902.018489	2632.084726
902.325832	2632.551032
902.633135	2635.560601
902.940397	2647.004020
903.247619	2687.494568
903.554800	2755.993767
903.861941	2886.942779
904.169041	3012.578415
904.476101	3077.173240
904.783121	3068.875501
905.090100	3011.217303
905.397039	2937.172836
905.703938	2861.046372
906.010796	2797.863070
906.317614	2745.636716
906.624391	2709.844524
906.931129	2680.454597
907.237826	2657.534991
907.544483	2645.809267
907.851099	2626.509209
908.157675	2620.026286
908.464211	2610.652260
908.770707	2600.161619
909.077163	2596.763881
909.383578	2593.996288
909.689954	2594.134919
909.996289	2589.933118
910.302584	2588.239290
910.608839	2585.542273
910.915054	2588.108220
911.221229	2589.396235
911.527363	2591.952100
911.833458	2589.328179
912.139513	2591.952100
912.445527	2591.538725
912.751502	2600.441403
913.057436	2603.566918
913.363331	2608.119080
913.669186	2620.658950
913.975000	2633.314767
914.280775	2652.703045
914.586510	2670.788184
914.892205	2709.012733
915.197859	2773.526900
915.503475	2859.193748
915.809050	2922.424940
916.114585	2939.058227
916.420081	2949.606842
916.725536	2962.182000
917.030952	2939.007816
917.336328	2889.949827
917.641665	2842.908300
917.946961	2789.494754
918.252218	2756.520567
918.557435	2729.502503
918.862612	2711.510625
919.167750	2693.634693
919.472848	2671.914882
919.777906	2656.703200
920.082925	2645.254740
920.387904	2632.871146
920.692843	2629.571710
920.997743	2625.332100
921.302603	2619.454115
921.607423	2613.137549
921.912204	2606.808380
922.216946	2606.218565
922.521647	2603.377875
922.826310	2597.152050
923.130932	2594.480238
923.435516	2588.448498
923.740059	2584.806264
924.044564	2585.814495
924.349028	2584.463466
924.653454	2573.874522
924.957840	2569.718091
925.262186	2571.235478
925.566493	2570.582649
925.870761	2567.381516
926.174989	2565.576783
926.479178	2566.622822
926.783328	2564.334138
927.087438	2563.467060
927.391509	2563.462019
927.695541	2560.381874
927.999533	2559.885320
928.303486	2555.754095
928.607400	2554.844166
928.911275	2557.032027
929.215110	2555.315514
929.518906	2556.971533
929.822663	2558.539332
930.126381	2557.329455
930.430060	2558.254507
930.733699	2560.961607
931.037299	2556.921122
931.340861	2556.265772
931.644383	2558.849363
931.947866	2554.055226
932.251309	2556.772408
932.554714	2554.294681
932.858080	2556.613611
933.161407	2556.169990
933.464694	2554.390463
933.767943	2555.161759
934.071153	2555.214691
934.374323	2554.811399
934.677455	2556.351471
934.980548	2553.243600
935.283602	2554.435833
935.586617	2551.902653
935.889593	2555.376008
936.192530	2553.742674
936.495428	2554.619835
936.798287	2553.362067
937.101108	2555.302911
937.403890	2559.013201
937.706632	2563.366237
938.009336	2564.689540
938.312002	2568.074675
938.614628	2570.804459
938.917216	2576.379976
939.219765	2576.581622
939.522275	2578.023392
939.824747	2575.391909
940.127179	2567.177349
940.429573	2563.522513
940.731929	2573.188925
941.034246	2566.474108
941.336524	2567.862946
941.638763	2568.382185
941.940964	2568.535940
942.243126	2564.346741
942.545250	2565.196176
942.847335	2562.743654
943.149381	2563.376319
943.451389	2561.024621
943.753359	2561.629559
944.055290	2558.897254
944.357182	2559.260217
944.659036	2560.971689
944.960851	2557.309291
945.262628	2555.212171
945.564367	2560.054199
945.866067	2559.597974
946.167729	2556.515309
946.469352	2558.088149
946.770937	2558.811554
947.072484	2556.149825
947.373992	2554.428271
947.675462	2557.672254
947.976893	2556.066646
948.278286	2551.829556
948.579641	2555.239897
948.880958	2552.595812
949.182236	2557.659651
949.483476	2553.228477
949.784678	2551.280071
950.085841	2553.251162
950.386967	2555.416337
950.688054	2554.723179
950.989103	2556.157387
951.290114	2555.771739
951.591087	2558.597305
951.892021	2556.263251
952.192917	2557.679815
952.493776	2560.891030
952.794596	2562.310115
953.095378	2562.055537
953.396122	2562.937739
953.696828	2562.849519
953.997496	2560.114693
954.298126	2555.592778
954.598718	2560.782646
954.899272	2554.420709
955.199788	2553.755277
955.500266	2552.742005
955.800706	2552.646223
956.101108	2543.922507
956.401472	2547.194215
956.701798	2544.630789
957.002087	2545.767569
957.302337	2546.836293
957.602550	2545.512991
957.902724	2544.277908
958.202861	2542.906714
958.502960	2542.042156
958.803022	2544.716488
959.103045	2541.054090
959.403031	2543.844369
959.702979	2542.092568
960.002889	2542.536189
960.302762	2541.341436
960.602596	2540.817156
960.902393	2542.006868
961.202153	2540.504604
961.501875	2538.520910
961.801559	2541.011240
962.101205	2536.743903
962.400814	2542.954605
962.700385	2539.604758
962.999918	2540.471837
963.299414	2539.012423
963.598873	2539.879501
963.898293	2538.155427
964.197677	2537.847916
964.497022	2539.433359
964.796331	2540.471837
965.095601	2537.497556
965.394835	2539.224151
965.694030	2538.344470
965.993189	2538.319264
966.292309	2538.546116
966.591393	2535.947401
966.890439	2538.097453
967.189447	2539.864378
967.488419	2535.014788
967.787353	2538.331867
968.086249	2540.532331
968.385108	2535.491177
968.683930	2540.202135
968.982714	2541.747249
969.281462	2535.574356
969.580172	2539.166178
969.878844	2539.803884
970.177480	2538.984696
970.476078	2539.256919
970.774639	2540.348328
971.073162	2538.556198
971.371649	2536.817000
971.670098	2537.326157
971.968510	2539.367824
972.266885	2535.332380
972.565223	2541.492670
972.863524	2539.105684
973.161788	2542.069882
973.460014	2538.447813
973.758204	2541.162475
974.056356	2540.348328
974.354471	2539.695499
974.652550	2542.770603
974.950591	2541.903524
975.248595	2539.753472
975.546563	2539.440921
975.844493	2538.530992
976.142386	2538.107536
976.440243	2538.011754
976.738062	2537.981507
977.035845	2537.984027
977.333590	2538.089892
977.631299	2536.789274
977.928971	2538.720036
978.226606	2537.885725
978.524204	2537.605941
978.821765	2539.589635
979.119290	2538.747762
979.416777	2536.446475
979.714228	2538.919161
980.011642	2536.426311
980.309020	2541.401930
980.606360	2539.256919
980.903664	2539.730787
981.200931	2538.548637
981.498162	2541.434697
981.795356	2541.469985
982.092513	2544.585418
982.389633	2548.434339
982.686717	2551.259906
982.983764	2550.100441
983.280775	2551.922818
983.577749	2551.965667
983.874686	2552.247972
984.171587	2550.160934
984.468451	2545.717157
984.765279	2544.494678
985.062070	2541.149872
985.358824	2541.394368
985.655543	2539.637526
985.952224	2539.133410
986.248869	2540.786909
986.545478	2534.397246
986.842050	2535.029911
987.138586	2533.724252
987.435086	2531.286854
987.731549	2529.056144
988.027975	2537.898328
988.324366	2534.979500
988.620719	2536.635519
988.917037	2534.649304
989.213318	2535.352545
989.509563	2532.257277
989.805772	2533.477236
990.101944	2531.874149
990.398080	2532.756351
990.694180	2534.583769
990.990244	2536.927906
991.286271	2534.440096
991.582262	2535.471012
991.878217	2534.366999
992.174136	2535.087884
992.470019	2532.625281
992.765865	2537.890766
993.061676	2533.343645
993.357450	2535.110570
993.653188	2535.826413
993.948890	2538.669624
994.244556	2532.509334
994.540186	2534.616537
994.835780	2535.894469
995.131337	2538.440252
995.426859	2536.247350
995.722345	2536.305323
996.017795	2539.060314
996.313208	2538.702392
996.608586	2536.401105
996.903928	2542.087527
997.199234	2540.174409
997.494504	2536.842206
997.789738	2537.570653
998.084936	2537.192566
998.380099	2533.724252
998.675225	2537.956301
998.970316	2534.482946
999.265371	2536.784233
999.560390	2535.952442
999.855373	2533.562935
1000.150320	2534.165353
1000.445232	2533.883049
1000.740108	2535.135775
1001.034948	2534.883718
1001.329752	2531.821217
1001.624521	2531.594365
1001.919254	2530.026566
1002.213951	2533.096629
1002.508613	2528.315094
1002.803239	2531.551515
1003.097829	2528.557070
1003.392384	2534.286341
1003.686903	2529.645959
1003.981386	2534.009077
1004.275834	2534.858512
1004.570246	2531.901875
1004.864623	2531.639735
1005.158964	2532.905065
1005.453270	2530.288706
1005.747540	2533.492359
1006.041775	2531.564118
1006.335974	2535.188708
1006.630138	2532.647966
1006.924266	2534.906403
1007.218359	2533.003367
1007.512416	2532.804242
1007.806438	2535.428162
1008.100425	2533.822555
1008.394376	2533.857843
1008.688292	2530.392050
1008.982172	2532.264838
1009.276017	2534.366999
1009.569827	2531.347348
1009.863602	2535.294572
1010.157341	2532.458923
1010.451045	2532.844571
1010.744714	2532.395908
1011.038347	2531.548994
1011.331945	2530.538243
1011.625508	2534.548481
1011.919036	2534.379602
1012.212528	2532.446320
1012.505986	2532.882380
1012.799408	2533.356248
1013.092795	2532.068233
1013.386147	2532.474046
1013.679464	2533.021011
1013.972745	2532.650487
1014.265992	2530.782739
1014.559204	2531.493542
1014.852380	2531.002029
1015.145521	2533.709129
1015.438628	2531.702750
1015.731699	2531.884231
1016.024736	2531.695188
1016.317737	2532.584952
1016.610703	2532.466484
1016.903635	2529.252749
1017.196531	2526.858201
1017.489393	2528.025228
1017.782219	2526.220495
1018.075011	2529.887934
1018.367768	2530.344159
1018.660490	2531.201155
1018.953177	2531.201155
1019.245829	2531.201155
