Dividing Wavelength (nm)	Counts (n)	Blue Motor Position (mm): 4.800000	Red Motor Position (mm): 0.000000	
326.493990	2157.276089
326.888308	2157.276089
327.282561	2157.276089
327.676750	2116.246138
328.070874	2115.376539
328.464933	2114.499378
328.858929	2118.320573
329.252859	2124.190996
329.646726	2131.414970
330.040528	2144.002731
330.434265	2155.990595
330.827938	2173.748059
331.221547	2191.913857
331.615091	2209.832638
332.008571	2224.648589
332.401986	2246.670870
332.795338	2263.730135
333.188625	2282.843669
333.581847	2301.853861
333.975006	2316.430357
334.368100	2337.547750
334.761129	2355.360668
335.154095	2370.738707
335.546996	2389.569938
335.939833	2406.430077
336.332606	2421.135122
336.725315	2433.722883
337.117960	2444.465582
337.510540	2456.309773
337.903056	2470.450210
338.295508	2478.621920
338.687896	2485.689618
339.080220	2493.400063
339.472480	2499.956083
339.864676	2506.330622
340.256807	2509.892198
340.648875	2516.896881
341.040879	2517.300173
341.432818	2519.873682
341.824694	2524.811492
342.216506	2524.410721
342.608253	2524.105731
342.999937	2525.640762
343.391557	2525.103879
343.783113	2523.243693
344.174605	2524.128416
344.566033	2526.003725
344.957397	2523.818385
345.348697	2520.483662
345.739934	2519.039371
346.131106	2521.436440
346.522215	2518.628517
346.913260	2516.002076
347.304241	2512.662312
347.695159	2507.956394
348.086012	2509.345232
348.476802	2505.990344
348.867528	2503.515138
349.258191	2498.640342
349.648789	2502.690909
350.039324	2495.703870
350.429796	2500.563542
350.820203	2496.639004
351.210548	2497.677482
351.600828	2494.955259
351.991045	2496.029024
352.381198	2491.192037
352.771288	2494.176400
353.161314	2495.005670
353.551276	2491.272696
353.941175	2492.573313
354.331010	2492.278406
354.720782	2492.359064
355.110490	2491.711276
355.500135	2489.530977
355.889717	2489.001656
356.279235	2491.247490
356.668689	2491.164311
357.058080	2488.991574
357.447408	2492.371667
357.836672	2492.984167
358.225873	2493.780670
358.615010	2490.529126
359.004084	2493.392501
359.393095	2494.965341
359.782043	2494.758654
360.170927	2494.798983
360.559748	2494.897285
360.948505	2494.098263
361.337199	2498.766371
361.725830	2495.350989
362.114398	2497.049858
362.502903	2495.678664
362.891344	2498.668068
363.279722	2497.188490
363.668037	2499.550270
364.056289	2498.017760
364.444478	2502.035559
364.832603	2500.916423
365.220665	2501.022287
365.608665	2500.165291
365.996601	2500.498007
366.384474	2501.748213
366.772284	2502.660662
367.160031	2501.881804
367.547715	2503.043790
367.935336	2502.660662
368.322893	2498.950373
368.710388	2500.422390
369.097820	2502.108656
369.485189	2501.077740
369.872495	2503.684017
370.259738	2502.907679
370.646918	2505.022443
371.034035	2504.714933
371.421090	2504.924140
371.808081	2507.306086
372.195010	2504.435148
372.581875	2507.616117
372.968678	2507.855571
373.355418	2505.962618
373.742096	2507.278359
374.128710	2506.663338
374.515262	2510.061076
374.901751	2506.360869
375.288177	2508.145438
375.674540	2509.443535
376.060841	2509.652743
376.447079	2507.434635
376.833254	2510.184584
377.219367	2511.704492
377.605417	2509.917403
377.991404	2508.221055
378.377329	2508.498318
378.763191	2510.295490
379.148991	2508.122753
379.534727	2510.976046
379.920402	2510.111488
380.306013	2512.112826
380.691563	2511.948988
381.077049	2509.481343
381.462474	2512.748011
381.847835	2511.205418
382.233134	2511.618793
382.618371	2512.619462
383.003545	2511.275994
383.388657	2511.936385
383.773706	2513.116015
384.158693	2513.274812
384.543618	2513.670542
384.928480	2512.500995
385.313280	2511.840603
385.698017	2513.635254
386.082692	2512.352281
386.467305	2515.548372
386.851856	2513.201715
387.236344	2513.599966
387.620770	2513.894874
388.005133	2511.611231
388.389435	2514.262878
388.773674	2512.125429
389.157851	2516.186078
389.541965	2512.188443
389.926018	2516.412930
390.310008	2514.847652
390.693936	2516.100378
391.077802	2515.558454
391.461606	2513.579802
391.845348	2514.824967
392.229027	2517.786644
392.612645	2517.433764
392.996200	2518.867972
393.379694	2518.010976
393.763125	2519.752694
394.146494	2516.780934
394.529801	2517.529546
394.913047	2519.001562
395.296230	2517.844618
395.679351	2518.951151
396.062410	2518.595750
396.445408	2520.433250
396.828343	2516.193640
397.211217	2518.852848
397.594028	2519.203209
397.976778	2518.255472
398.359466	2520.897036
398.742092	2519.702283
399.124656	2518.671367
399.507158	2519.117509
399.889598	2523.367202
400.271977	2519.674557
400.654294	2519.861079
401.036549	2521.844773
401.418742	2520.128260
401.800874	2518.295801
402.182944	2522.976512
402.564952	2524.534229
402.946898	2522.459794
403.328783	2522.406862
403.710606	2521.993487
404.092367	2524.267048
404.474067	2522.253107
404.855705	2524.002387
405.237282	2525.507172
405.618797	2523.112623
406.000250	2523.243693
406.381642	2522.421985
406.762972	2521.537263
407.144240	2519.780421
407.525447	2519.606501
407.906593	2517.597601
408.287677	2520.713034
408.668700	2525.376102
409.049661	2524.884589
409.430560	2527.412728
409.811399	2523.813344
410.192176	2524.451050
410.572891	2524.108251
410.953545	2523.697397
411.334138	2526.333921
411.714669	2527.538757
412.095139	2524.861904
412.475547	2526.356606
412.855894	2526.714528
413.236180	2527.379960
413.616405	2526.434744
413.996568	2528.065557
414.376670	2526.981709
414.756711	2527.155629
415.136691	2526.346524
415.516609	2530.260980
415.896466	2526.049096
416.276262	2526.850639
416.655997	2525.083715
417.035670	2527.193437
417.415283	2525.630680
417.794834	2525.688653
418.174324	2528.078160
418.553753	2526.399456
418.933121	2526.059178
419.312428	2527.851308
419.691674	2528.720907
420.070859	2527.929446
420.449983	2529.046062
420.829045	2527.667306
421.208047	2529.189734
421.586988	2529.245187
421.965867	2531.957328
422.344686	2528.476411
422.723444	2530.916330
423.102141	2530.739889
423.480777	2528.713345
423.859352	2532.315250
424.237866	2529.053623
424.616319	2531.057482
424.994712	2527.569003
425.373044	2529.731658
425.751314	2525.658406
426.129524	2530.029087
426.507673	2528.680578
426.885762	2528.751154
427.263789	2530.560928
427.641756	2528.320135
428.019662	2531.790970
428.397508	2530.744930
428.775292	2533.633512
429.153016	2530.634025
429.530679	2532.191742
429.908282	2530.359282
430.285824	2531.168387
430.663305	2532.955476
431.040726	2528.736031
431.418086	2531.922040
431.795385	2532.282482
432.172624	2532.380785
432.549802	2533.681402
432.926920	2531.496062
433.303977	2530.651669
433.680974	2535.677699
434.057910	2533.517565
434.434786	2533.648635
434.811601	2533.888090
435.188355	2531.186031
435.565050	2533.928419
435.941683	2531.614529
436.318257	2533.880528
436.694770	2533.842719
437.071222	2534.450178
437.447614	2534.538399
437.823946	2534.833306
438.200218	2532.501772
438.576429	2535.569315
438.952580	2534.240971
439.328670	2533.089067
439.704700	2535.128214
440.080670	2536.726259
440.456580	2532.993285
440.832429	2536.224665
441.208218	2533.578059
441.583947	2536.239788
441.959616	2535.256763
442.335224	2532.242153
442.710773	2537.421939
443.086261	2534.379602
443.461689	2535.551671
443.837057	2539.277083
444.212365	2534.722401
444.587612	2532.547143
444.962800	2530.941535
445.337927	2534.477905
445.712995	2529.169570
446.088002	2533.983872
446.462949	2536.121321
446.837837	2535.486136
447.212664	2537.003523
447.587431	2537.890766
447.962139	2536.817000
448.336786	2538.462937
448.711374	2534.500590
449.085901	2538.117618
449.460369	2536.766589
449.834776	2539.682896
450.209124	2540.156765
450.583412	2537.369007
450.957640	2535.647452
451.331808	2537.081661
451.705917	2536.287679
452.079965	2536.149047
452.453954	2536.340611
452.827883	2536.738862
453.201752	2537.472350
453.575562	2537.250539
453.949311	2536.214582
454.323001	2537.769778
454.696632	2538.694830
455.070202	2537.318595
455.443713	2539.617361
455.817164	2537.474871
456.190556	2537.444624
456.563888	2538.586445
456.937160	2538.823379
457.310373	2537.479912
457.683526	2537.033770
458.056619	2537.333718
458.429653	2539.362783
458.802628	2539.614841
459.175542	2536.892618
459.548398	2538.165509
459.921194	2541.303627
460.293930	2539.100643
460.666607	2541.931251
461.039224	2538.011754
461.411782	2539.019984
461.784280	2540.739018
462.156719	2541.689275
462.529099	2542.606765
462.901419	2542.200953
463.273680	2537.111908
463.645882	2534.906403
464.018024	2538.699871
464.390106	2532.368182
464.762130	2541.278421
465.134094	2538.904038
465.505999	2540.050900
465.877845	2539.793802
466.249631	2541.449821
466.621358	2541.948895
466.993026	2540.403781
467.364634	2544.106509
467.736184	2540.123997
468.107674	2540.081147
468.479105	2541.023843
468.850477	2542.727753
469.221790	2539.224151
469.593043	2542.153062
469.964238	2540.497043
470.335373	2542.694986
470.706449	2543.103319
471.077467	2538.886394
471.448425	2540.877650
471.819324	2541.475026
472.190164	2541.727084
472.560945	2539.929913
472.931667	2542.032074
473.302330	2541.454862
473.672934	2541.860675
474.043479	2541.107022
474.413965	2542.047197
474.784393	2541.601055
475.154761	2537.298430
475.525070	2541.790098
475.895321	2542.299255
476.265513	2540.706250
476.635645	2542.513504
477.005719	2541.832948
477.375734	2544.174564
477.745691	2540.625592
478.115588	2543.325130
478.485427	2543.950233
478.855207	2543.098278
479.224928	2545.049204
479.594591	2542.962167
479.964194	2541.543082
480.333739	2542.079965
480.703226	2542.430325
481.072653	2543.869574
481.442022	2543.171375
481.811333	2543.816642
482.180584	2538.465457
482.549777	2538.505787
482.918912	2536.726259
483.287988	2544.328319
483.657005	2541.583411
484.025964	2543.501570
484.394864	2544.129194
484.763706	2543.425953
485.132489	2542.821014
485.501213	2543.383103
485.869879	2543.007537
486.238487	2543.645243
486.607036	2542.437887
486.975527	2544.247661
487.343959	2544.295552
487.712333	2543.413350
488.080648	2544.998793
488.448905	2542.894111
488.817104	2543.047866
489.185244	2543.355377
489.553326	2543.279759
489.921350	2546.876623
490.289315	2544.109029
490.657222	2546.808567
491.025070	2544.560212
491.392861	2541.442259
491.760593	2542.765562
492.128267	2543.080634
492.495883	2545.780172
492.863440	2545.669266
493.230939	2544.517363
493.598380	2544.038453
493.965763	2541.064172
494.333088	2544.161961
494.700354	2541.878319
495.067563	2545.495347
495.434713	2545.021478
495.801805	2544.887887
496.168839	2542.495860
496.535815	2546.241437
496.902733	2547.388300
497.269593	2542.964687
497.636395	2546.591797
498.003139	2546.879143
498.369825	2542.871426
498.736453	2546.997610
499.103023	2546.526262
499.469535	2546.064997
499.835989	2544.855120
500.202385	2544.156920
500.568723	2540.723894
500.935003	2544.517363
501.301226	2542.142979
501.667390	2542.135417
502.033497	2544.429143
502.399546	2544.217414
502.765537	2545.074410
503.131470	2545.197918
503.497345	2546.959802
503.863163	2547.128680
504.228923	2546.619524
504.594625	2544.345963
504.960269	2545.823022
505.325856	2543.252033
505.691385	2543.652805
506.056856	2544.114070
506.422270	2545.775131
506.787625	2546.899308
507.152924	2544.915614
507.518164	2546.289328
507.883347	2545.979297
508.248472	2548.207487
508.613540	2546.133053
508.978550	2545.732281
509.343503	2546.506098
509.708398	2544.638350
510.073236	2543.773793
510.438016	2545.311344
510.802738	2544.673638
511.167403	2547.423588
511.532010	2547.163968
511.896561	2547.448794
512.261053	2545.021478
512.625488	2548.512477
512.989866	2545.671787
513.354186	2547.486602
513.718449	2544.272867
514.082655	2546.312013
514.446803	2548.678835
514.810894	2544.018288
515.174927	2546.236396
515.538904	2545.666746
515.902822	2548.003321
516.266684	2546.483413
516.630488	2547.416026
516.994235	2545.021478
517.357925	2549.198074
517.721558	2547.045501
518.085133	2545.775131
518.448651	2546.826211
518.812112	2544.552651
519.175516	2544.507280
519.538863	2542.246323
519.902152	2544.666077
520.265385	2545.906201
520.628560	2547.857127
520.991678	2547.882333
521.354739	2545.021478
521.717743	2545.661705
522.080690	2546.886705
522.443580	2546.480892
522.806413	2548.376366
523.169189	2547.426108
523.531908	2545.639019
523.894569	2547.776469
524.257174	2546.291849
524.619722	2545.510470
524.982213	2546.349822
525.344647	2549.167827
525.707025	2548.925852
526.069345	2546.732950
526.431608	2547.040460
526.793815	2546.773279
527.155964	2546.843855
527.518057	2547.771428
527.880093	2546.148176
528.242072	2546.531304
528.603995	2547.138763
528.965860	2548.000800
529.327669	2548.789741
529.689421	2548.537683
530.051117	2550.997766
530.412755	2549.555996
530.774337	2546.223793
531.135862	2547.214380
531.497331	2546.317055
531.858743	2547.905018
532.220098	2547.975594
532.581396	2549.475337
532.942638	2550.012220
533.303824	2550.201264
533.664953	2547.221942
534.026025	2548.328475
534.387040	2545.782692
534.747999	2546.059956
535.108902	2548.993907
535.469748	2547.582384
535.830537	2550.118085
536.191270	2547.335368
536.551947	2543.577188
536.912567	2543.234389
537.273131	2546.266643
537.633638	2542.468134
537.994089	2545.190357
538.354483	2546.816129
538.714821	2547.839483
539.075103	2548.275543
539.435328	2547.398382
539.795497	2546.823691
540.155609	2546.856458
540.515665	2544.686241
540.875665	2549.049360
541.235609	2547.781510
541.595496	2547.108516
541.955328	2547.174051
542.315102	2548.799823
542.674821	2547.836963
543.034483	2548.358722
543.394090	2549.659340
543.753640	2546.518701
544.113134	2548.086500
544.472571	2546.309493
544.831953	2548.487271
545.191278	2546.211190
545.550548	2550.652447
545.909761	2548.494833
546.268918	2547.284956
546.628019	2547.781510
546.987064	2548.545245
547.346053	2547.272353
547.704986	2546.611962
548.063863	2546.369987
548.422684	2550.183620
548.781449	2548.119267
549.140158	2551.224618
549.498811	2548.164637
549.857408	2546.906870
550.215949	2548.756973
550.574434	2546.430481
550.932864	2547.158927
551.291237	2548.462066
551.649555	2549.636654
552.007817	2546.306972
552.366022	2549.606408
552.724173	2547.342929
553.082267	2547.446273
553.440305	2546.107847
553.798288	2548.628424
554.156215	2549.251006
554.514086	2545.144986
554.871902	2544.598021
555.229661	2546.158258
555.587365	2542.032074
555.945014	2547.247148
556.302606	2550.448280
556.660143	2546.080120
557.017625	2547.622713
557.375050	2550.266799
557.732421	2547.020296
558.089735	2548.260419
558.446994	2546.347302
558.804197	2547.955430
559.161345	2547.156407
559.518437	2548.267981
559.875474	2548.394010
560.232455	2548.812426
560.589381	2547.032898
560.946251	2549.336706
561.303065	2550.178578
561.659825	2547.466438
562.016528	2548.716644
562.373177	2547.607590
562.729770	2547.690769
563.086307	2550.367622
563.442789	2549.006510
563.799216	2551.532128
564.155587	2546.528783
564.511904	2548.756973
564.868164	2547.721016
565.224370	2549.215718
565.580520	2549.450132
565.936615	2548.391489
566.292654	2548.769576
566.648638	2548.295708
567.004567	2547.491643
567.360441	2547.300080
567.716260	2547.269833
568.072023	2549.450132
568.427732	2548.424257
568.783385	2545.908721
569.138982	2550.632282
569.494525	2547.784030
569.850013	2547.647919
570.205445	2550.042467
570.560823	2548.295707
570.916145	2548.245296
571.271412	2547.226983
571.626625	2552.381563
571.981782	2548.709082
572.336884	2545.981818
572.691931	2544.119112
573.046923	2544.068700
573.401860	2544.010727
573.756743	2549.533311
574.111570	2546.889226
574.466342	2551.191850
574.821059	2547.947868
575.175722	2549.001469
575.530330	2548.245296
575.884882	2550.886861
576.239380	2550.259237
576.593823	2551.625390
576.948211	2547.489123
577.302544	2551.428785
577.656823	2547.683207
578.011047	2550.274360
578.365216	2550.236552
578.719330	2549.021634
579.073389	2550.886861
579.427394	2550.070194
579.781344	2548.898125
580.135239	2549.583722
580.489080	2548.212528
580.842866	2550.387786
581.196597	2550.712941
581.550273	2549.417364
581.903895	2550.271840
582.257463	2550.660009
582.610975	2548.633465
582.964434	2550.148332
583.317837	2551.653116
583.671186	2549.608928
584.024481	2546.037271
584.377721	2548.613300
584.730906	2548.550286
585.084037	2548.641027
585.437113	2551.227138
585.790135	2548.078938
586.143103	2548.497354
586.496016	2551.965668
586.848874	2551.930379
587.201679	2553.717468
587.554428	2549.107333
587.907124	2551.098589
588.259765	2549.566078
588.612352	2549.797971
588.964884	2548.308310
589.317362	2552.079093
589.669786	2549.003990
590.022155	2547.282436
590.374470	2545.265974
590.726731	2547.962991
591.078937	2544.643392
591.431090	2547.297559
591.783188	2549.162786
592.135232	2548.817467
592.487222	2548.388969
592.839157	2548.835111
593.191038	2551.925338
593.542866	2552.444577
593.894639	2547.499205
594.246358	2550.720503
594.598022	2550.728064
594.949633	2551.038095
595.301190	2551.085986
595.652692	2551.025492
596.004141	2547.836963
596.355535	2549.654298
596.706876	2551.164124
597.058162	2549.419885
597.409395	2549.409802
597.760573	2551.693445
598.111698	2549.384597
598.462768	2549.087169
598.813785	2551.002807
599.164748	2549.664381
599.515657	2547.773948
599.866511	2550.622200
600.217312	2549.193033
600.568060	2552.104299
600.918753	2552.121943
601.269392	2548.462066
601.619978	2548.439380
601.970510	2550.385266
602.320988	2549.550955
602.671412	2550.521377
603.021783	2548.623383
603.372100	2550.763352
603.722363	2549.669422
604.072572	2550.143290
604.422728	2547.680687
604.772830	2550.133208
605.122878	2549.828218
605.472872	2548.444422
605.822813	2546.579195
606.172701	2548.126829
606.522534	2549.014072
606.872314	2552.484906
607.222041	2548.285625
607.571714	2547.297559
607.921333	2545.608773
608.270899	2547.214380
608.620411	2548.567930
608.969870	2551.227138
609.319276	2555.774259
609.668627	2557.137891
610.017926	2561.576627
610.367171	2563.330949
610.716362	2565.576783
611.065500	2561.755588
611.414585	2561.193500
611.763616	2556.442212
612.112594	2554.637479
612.461518	2555.068498
612.810389	2554.259392
613.159207	2553.624207
613.507971	2551.111192
613.856682	2552.363919
614.205340	2550.914587
614.553945	2551.970709
614.902496	2551.022972
615.250994	2550.891902
615.599439	2549.094730
615.947830	2550.740667
616.296169	2552.431974
616.644454	2551.421223
616.992686	2548.399051
617.340864	2551.297715
617.688990	2545.767569
618.037063	2552.830225
618.385082	2550.168496
618.733048	2552.212684
619.080961	2549.765204
619.428821	2553.364588
619.776628	2549.291335
620.124382	2551.176727
620.472083	2550.788558
620.819731	2551.821995
621.167326	2549.245965
621.514868	2550.269319
621.862357	2548.905687
622.209793	2552.419371
622.557176	2551.020451
622.904506	2549.823177
623.251783	2550.881819
623.599007	2551.670760
623.946179	2551.486758
624.293297	2551.552293
624.640363	2551.849721
624.987376	2550.702858
625.334336	2547.408464
625.681243	2543.373021
626.028097	2547.320244
626.374899	2545.835624
626.721647	2549.785368
627.068343	2549.467776
627.414987	2548.895605
627.761577	2546.473330
628.108115	2549.503064
628.454600	2548.474668
628.801032	2550.052550
629.147412	2551.196892
629.493739	2549.137580
629.840014	2549.893753
630.186236	2549.084648
630.532405	2551.030533
630.878521	2546.680018
631.224585	2549.608928
631.570597	2547.597508
631.916556	2550.334854
632.262462	2546.702703
632.608316	2550.276881
632.954117	2549.316541
633.299866	2548.114226
633.645562	2551.262427
633.991206	2547.557178
634.336797	2551.388455
634.682336	2548.635985
635.027823	2548.177240
635.373257	2550.042467
635.718639	2547.330327
636.063968	2551.360729
636.409245	2548.015923
636.754470	2549.301418
637.099642	2549.278733
637.444762	2548.280584
637.789829	2548.499874
638.134845	2547.952909
638.479808	2549.767724
638.824719	2549.533311
639.169577	2548.787220
639.514383	2547.466438
639.859137	2547.600028
640.203839	2549.974412
640.548489	2550.208825
640.893086	2546.382590
641.237632	2550.130688
641.582125	2548.419216
641.926566	2548.346119
642.270955	2545.036602
642.615292	2543.882177
642.959576	2544.446787
643.303809	2543.095757
643.647990	2547.791592
643.992118	2549.402241
644.336195	2549.946685
644.680219	2547.632796
645.024192	2548.966181
645.368112	2550.223949
645.711981	2552.084135
646.055797	2545.449976
646.399562	2548.121788
646.743274	2550.654968
647.086935	2548.477189
647.430544	2549.157745
647.774101	2548.557847
648.117606	2546.896787
648.461059	2550.337375
648.804460	2551.922818
649.147810	2551.025492
649.491108	2547.262271
649.834354	2547.761345
650.177548	2546.513660
650.520690	2549.984494
650.863781	2550.032385
651.206820	2551.285112
651.549807	2548.116747
651.892742	2550.077755
652.235626	2548.825029
652.578458	2546.899308
652.921238	2548.358722
653.263967	2549.659340
653.606644	2547.055584
653.949269	2547.632796
654.291843	2550.861655
654.634365	2548.956099
654.976836	2546.717826
655.319255	2548.676315
655.661622	2546.062476
656.003938	2551.201933
656.346203	2548.603218
656.688416	2549.256047
657.030577	2548.383928
657.372687	2549.359391
657.714746	2547.289997
658.056753	2548.066335
658.398708	2545.588608
658.740612	2547.494164
659.082465	2548.512477
659.424266	2546.392672
659.766016	2543.836807
660.107715	2548.220090
660.449362	2542.657177
660.790958	2548.245296
661.132503	2546.493495
661.473996	2549.064483
661.815438	2546.722867
662.156829	2550.249155
662.498168	2547.342929
662.839456	2548.900646
663.180693	2547.637837
663.521879	2549.707231
663.863013	2547.630275
664.204097	2549.429967
664.545129	2544.769420
664.886110	2548.666232
665.227040	2546.801005
665.567918	2547.879812
665.908746	2546.584236
666.249522	2549.878630
666.590248	2548.099102
666.930922	2548.462066
667.271545	2547.332847
667.612118	2549.810574
667.952639	2547.869730
668.293109	2546.183464
668.633528	2549.913918
668.973896	2546.916952
669.314213	2547.083310
669.654480	2549.936603
669.994695	2546.707744
670.334859	2550.959957
670.674973	2545.964174
671.015035	2546.458207
671.355047	2548.126829
671.695008	2548.764535
672.034918	2545.936447
672.374777	2547.050543
672.714585	2548.179761
673.054342	2548.862837
673.394049	2545.616334
673.733705	2548.366284
674.073310	2547.746222
674.412864	2548.300749
674.752368	2547.239586
675.091820	2548.325954
675.431223	2549.364432
675.770574	2547.743701
676.109875	2546.138094
676.449125	2547.027857
676.788324	2543.098278
677.127473	2544.464431
677.466571	2542.947043
677.805619	2547.552137
678.144616	2546.690100
678.483562	2548.966181
678.822458	2546.468289
679.161303	2549.177909
679.500098	2547.710934
679.838842	2549.026675
680.177535	2546.967363
680.516179	2549.404761
680.854771	2546.672456
681.193314	2547.925183
681.531805	2547.842004
681.870247	2546.163299
682.208638	2546.778320
682.546978	2549.452652
682.885268	2545.802857
683.223508	2547.138763
683.561697	2543.942671
683.899836	2547.519370
684.237925	2548.310831
684.575963	2546.059956
684.913951	2548.699000
685.251889	2546.949719
685.589776	2545.765048
685.927614	2548.414175
686.265401	2547.658002
686.603137	2548.951057
686.940824	2549.498023
687.278460	2548.310831
687.616046	2548.895605
687.953582	2546.508618
688.291068	2545.328988
688.628504	2548.993907
688.965889	2546.362425
689.303224	2548.202446
689.640510	2546.309493
689.977745	2548.245296
690.314930	2547.060625
690.652065	2547.453835
690.989150	2548.227652
691.326185	2548.003321
691.663170	2547.242106
692.000105	2547.042981
692.336990	2547.915100
692.673825	2548.520039
693.010610	2548.522559
693.347345	2543.123484
693.684030	2544.020809
694.020665	2545.071890
694.357251	2543.131045
694.693786	2549.177909
695.030272	2549.871068
695.366707	2549.286294
695.703093	2547.710934
696.039429	2548.230172
696.375716	2548.963660
696.711952	2543.952753
697.048139	2547.751263
697.384276	2549.929041
697.720363	2545.810419
698.056400	2548.222611
698.392388	2546.339740
698.728326	2548.136911
699.064214	2546.685059
699.400053	2548.509957
699.735842	2546.460727
700.071581	2549.424926
700.407270	2548.663712
700.742910	2545.371838
701.078501	2547.801674
701.414042	2548.043650
701.749533	2546.722868
702.084974	2546.286808
702.420366	2547.410985
702.755709	2547.839483
703.091002	2548.031047
703.426246	2545.951571
703.761440	2548.111705
704.096584	2548.028526
704.431679	2546.009544
704.766725	2547.121119
705.101721	2549.298897
705.436668	2546.304452
705.771565	2548.041129
706.106413	2550.281922
706.441212	2546.770758
706.775961	2548.497354
707.110661	2547.574822
707.445311	2548.527601
707.779913	2548.910728
708.114465	2550.239072
708.448967	2549.664381
708.783421	2548.540203
709.117825	2543.080634
709.452180	2549.666901
709.786485	2548.668753
710.120742	2546.047353
710.454949	2542.909235
710.789107	2545.225645
711.123216	2544.376210
711.457275	2548.951058
711.791286	2546.864020
712.125247	2547.499205
712.459159	2549.543393
712.793023	2545.981818
713.126837	2546.460727
713.460602	2547.617672
713.794318	2548.230172
714.127985	2545.780172
714.461602	2548.817467
714.795171	2549.843342
715.128691	2546.795964
715.462162	2545.684390
715.795584	2547.136242
716.128957	2545.961653
716.462281	2546.352343
716.795556	2546.823691
717.128782	2544.661036
717.461960	2547.842004
717.795088	2545.190357
718.128167	2547.068187
718.461198	2548.310831
718.794180	2546.924514
719.127113	2546.347302
719.459997	2545.371838
719.792833	2546.087682
720.125619	2544.925696
720.458357	2548.464586
720.791046	2546.538865
721.123686	2545.253371
721.456278	2545.046684
721.788821	2544.774462
722.121315	2547.320244
722.453761	2545.754966
722.786158	2548.910728
723.118506	2546.483413
723.450805	2543.541899
723.783056	2546.067518
724.115259	2545.908721
724.447412	2547.884853
724.779518	2547.539534
725.111574	2546.937117
725.443582	2547.403423
725.775542	2545.944009
726.107453	2545.676828
726.439315	2547.733619
726.771129	2548.353681
727.102895	2544.572815
727.434612	2543.262115
727.766281	2540.542413
728.097901	2546.511139
728.429473	2546.216232
728.760996	2550.763352
729.092471	2546.458207
729.423897	2547.592467
729.755276	2543.224307
730.086606	2546.082641
730.417887	2547.007693
730.749120	2547.405944
731.080305	2548.373845
731.411442	2546.760676
731.742530	2544.424101
732.073570	2548.610780
732.404562	2544.063659
732.735506	2546.556509
733.066401	2544.555171
733.397249	2547.733619
733.728048	2548.063814
734.058798	2546.639688
734.389501	2546.992569
734.720156	2545.283618
735.050762	2547.897456
735.381320	2546.304452
735.711831	2544.729091
736.042293	2547.645399
736.372707	2546.465769
736.703073	2548.096582
737.033391	2544.978628
737.363661	2546.773279
737.693883	2544.356046
738.024056	2545.976777
738.354182	2543.798998
738.684260	2546.891746
739.014290	2546.874102
739.344272	2547.592467
739.674207	2545.268495
740.004093	2545.036602
740.333931	2544.928217
740.663722	2545.505429
740.993464	2546.493495
741.323159	2545.719678
741.652806	2543.549461
741.982405	2548.719164
742.311956	2547.171530
742.641460	2546.743032
742.970915	2543.902342
743.300323	2543.569626
743.629683	2544.366128
743.958996	2544.119112
744.288260	2539.405633
744.617477	2545.359235
744.946647	2545.641540
745.275768	2545.802857
745.604842	2546.972405
745.933869	2545.323947
746.262847	2545.414688
746.591778	2546.334699
746.920662	2546.201108
747.249498	2549.661860
747.578286	2545.255892
747.907027	2545.570964
748.235720	2548.676315
748.564365	2548.530121
748.892963	2545.732281
749.221514	2546.702703
749.550017	2547.390820
749.878473	2547.332847
750.206881	2546.420398
750.535242	2546.107847
750.863555	2546.072559
751.191821	2546.886705
751.520039	2545.621375
751.848210	2544.305634
752.176334	2548.116747
752.504411	2548.061294
752.832440	2545.359235
753.160421	2545.218083
753.488356	2543.942671
753.816243	2545.855789
754.144082	2547.169010
754.471875	2548.724206
754.799620	2545.757487
755.127318	2545.586087
755.454969	2546.012065
755.782572	2546.586756
756.110129	2546.569112
756.437638	2545.901159
756.765100	2544.855120
757.092515	2544.797147
757.419882	2544.855120
757.747203	2545.432332
758.074477	2546.599359
758.401703	2545.921324
758.728882	2547.005172
759.056014	2547.499205
759.383099	2546.352343
759.710138	2543.846889
760.037129	2541.820345
760.364073	2545.949050
760.690970	2539.879501
761.017820	2545.906201
761.344623	2544.794626
761.671379	2545.497867
761.998088	2547.650440
762.324751	2546.901828
762.651366	2545.192877
762.977935	2543.607434
763.304456	2544.426622
763.630931	2546.745553
763.957359	2544.726571
764.283740	2545.477703
764.610074	2547.358053
764.936362	2545.306303
765.262602	2546.541386
765.588796	2548.285625
765.914943	2546.543907
766.241044	2546.420398
766.567097	2546.521221
766.893104	2547.403423
767.219064	2545.709596
767.544978	2544.386293
767.870845	2544.436704
768.196665	2545.830583
768.522438	2544.250182
768.848165	2547.852086
769.173846	2546.286808
769.499479	2544.774462
769.825066	2548.487271
770.150607	2544.794626
770.476101	2547.138763
770.801548	2545.283618
771.126949	2544.048535
771.452303	2547.206818
771.777611	2546.929555
772.102872	2546.780841
772.428087	2545.434853
772.753256	2543.499050
773.078378	2541.606096
773.403453	2548.328475
773.728482	2544.950902
774.053465	2545.956612
774.378401	2543.720860
774.703291	2546.848896
775.028135	2546.929555
775.352932	2545.752445
775.677683	2544.713968
776.002388	2542.221117
776.327046	2542.790767
776.651658	2543.599873
776.976224	2539.314892
777.300743	2545.218083
777.625216	2548.494833
777.949643	2546.788403
778.274024	2545.843186
778.598359	2544.464431
778.922647	2546.375028
779.246889	2543.156251
779.571086	2542.579039
779.895236	2547.453835
780.219339	2545.724719
780.543397	2541.815304
780.867409	2548.141952
781.191374	2546.433001
781.515294	2544.003165
781.839167	2546.642209
782.162995	2543.821683
782.486776	2543.882177
782.810511	2545.311344
783.134201	2546.740512
783.457844	2543.708258
783.781441	2545.510470
784.104993	2543.546941
784.428498	2545.573484
784.751958	2544.784544
785.075372	2543.577187
785.398739	2545.505429
785.722061	2546.364946
786.045337	2545.344112
786.368568	2545.737322
786.691752	2546.785882
787.014891	2548.313352
787.337983	2543.541899
787.661030	2543.975439
787.984031	2546.727909
788.306987	2547.786551
788.629897	2543.549461
788.952760	2545.296221
789.275579	2545.903680
789.598351	2544.678680
789.921078	2544.759338
790.243759	2549.377035
790.566395	2545.326468
790.888984	2545.840666
791.211529	2543.627599
791.534027	2548.308310
791.856480	2543.645243
792.178888	2538.770447
792.501249	2541.948895
792.823566	2542.614327
793.145836	2538.495704
793.468062	2543.035263
793.790241	2545.331509
794.112375	2544.224976
794.434464	2543.365459
794.756507	2544.338402
795.078505	2544.076262
795.400457	2545.041643
795.722364	2543.970398
796.044226	2546.044832
796.366042	2543.849410
796.687812	2542.808412
797.009538	2545.583567
797.331218	2542.838658
797.652852	2543.370500
797.974442	2544.156920
798.295986	2545.654143
798.617484	2545.129863
798.938938	2544.414019
799.260346	2545.336550
799.581709	2544.257743
799.903026	2545.850748
800.224299	2543.501570
800.545526	2544.655994
800.866708	2542.737835
801.187845	2544.474513
801.508936	2546.203629
801.829983	2547.405944
802.150984	2545.291180
802.471940	2546.879143
802.792851	2544.340922
803.113717	2546.748073
803.434538	2542.810932
803.755314	2548.411654
804.076045	2547.211859
804.396731	2544.207332
804.717372	2541.222969
805.037967	2544.698844
805.358518	2545.417209
805.679024	2545.787733
805.999485	2544.804708
806.319901	2543.005017
806.640272	2546.306972
806.960598	2544.960984
807.280879	2547.562220
807.601115	2547.945347
807.921306	2546.884184
808.241453	2543.186498
808.561554	2539.314892
808.881611	2543.307486
809.201623	2541.578370
809.521590	2543.408309
809.841513	2544.839997
810.161390	2544.991231
810.481223	2544.083823
810.801011	2545.215563
811.120755	2545.424770
811.440453	2543.438556
811.760107	2544.703885
812.079716	2545.094575
812.399281	2546.367466
812.718801	2545.160110
813.038276	2544.724050
813.357707	2545.109698
813.677093	2546.543907
813.996434	2542.006868
814.315731	2546.276725
814.634983	2543.408309
814.954191	2543.980480
815.273354	2543.685572
815.592473	2542.717671
815.911547	2543.118443
816.230577	2545.273536
816.549562	2545.298742
816.868502	2542.853782
817.187399	2544.078782
817.506250	2546.664894
817.825058	2543.395706
818.143821	2543.171375
818.462539	2545.460058
818.781213	2544.439225
819.099843	2544.378731
819.418429	2544.386293
819.736970	2544.388813
820.055466	2547.090872
820.373919	2546.188505
820.692327	2544.837476
821.010691	2546.503577
821.329011	2545.739842
821.647286	2549.876109
821.965517	2550.155893
822.283704	2548.862837
822.601847	2552.467262
822.919945	2550.944834
823.237999	2551.403579
823.556010	2550.758311
823.873976	2547.529452
824.191897	2543.191539
824.509775	2543.741025
824.827609	2543.037784
825.145398	2542.727753
825.463144	2547.572302
825.780845	2545.843186
826.098502	2547.988197
826.416116	2546.518701
826.733685	2546.165820
827.051210	2545.243289
827.368692	2549.450132
827.686129	2547.668084
828.003522	2548.991387
828.320872	2547.456355
828.638177	2544.978628
828.955439	2546.879143
829.272656	2545.402085
829.589830	2545.747404
829.906960	2546.102806
830.224046	2542.349667
830.541088	2545.071890
830.858086	2542.205994
831.175041	2544.572815
831.491952	2543.161292
831.808819	2545.142466
832.125642	2543.327650
832.442421	2544.618186
832.759157	2544.741694
833.075849	2544.081303
833.392497	2546.584236
833.709101	2546.579195
834.025662	2547.161448
834.342179	2547.721016
834.658653	2544.905532
834.975083	2543.849410
835.291469	2551.214536
835.607811	2544.489636
835.924110	2542.894111
836.240366	2545.074410
836.556578	2544.035932
836.872746	2546.614483
837.188871	2543.244471
837.504952	2542.067362
837.820990	2541.144831
838.136984	2543.983000
838.452935	2544.421581
838.768842	2544.378731
839.084706	2540.544933
839.400526	2544.834955
839.716303	2542.589121
840.032037	2541.505273
840.347727	2539.738349
840.663373	2542.795809
840.978977	2538.977135
841.294537	2543.078113
841.610054	2543.468803
841.925527	2544.587939
842.240957	2542.783206
842.556344	2544.287990
842.871687	2543.315047
843.186987	2542.233720
843.502244	2542.228679
843.817458	2542.122815
844.132629	2541.981662
844.447756	2542.921838
844.762840	2543.302445
845.077881	2545.487785
845.392879	2544.587939
845.707833	2542.745397
846.022745	2544.411498
846.337613	2543.988042
846.652438	2543.539379
846.967221	2543.587270
847.281960	2544.391334
847.596656	2544.265305
847.911309	2541.717002
848.225919	2540.764224
848.540485	2543.672969
848.855009	2543.171375
849.169490	2543.345294
849.483928	2541.706919
849.798323	2541.525438
850.112675	2543.146169
850.426984	2542.447969
850.741251	2545.008875
851.055474	2542.586601
851.369654	2541.217928
851.683792	2542.934440
851.997887	2545.129863
852.311938	2541.459903
852.625947	2545.064328
852.939914	2543.914945
853.253837	2543.423432
853.567718	2543.995603
853.881555	2543.355377
854.195350	2543.468803
854.509103	2542.248843
854.822812	2540.393699
855.136479	2543.269677
855.450103	2543.148689
855.763685	2544.015768
856.077224	2540.050900
856.390720	2542.233720
856.704173	2538.783050
857.017584	2543.148689
857.330953	2542.773123
857.644278	2542.727753
857.957561	2545.485264
858.270802	2542.495860
858.584000	2544.545089
858.897155	2542.730274
859.210268	2542.788247
859.523339	2545.402085
859.836367	2542.299255
860.149352	2540.416384
860.462295	2542.541230
860.775195	2542.158103
861.088054	2545.354194
861.400869	2543.738504
861.713642	2541.777496
862.026373	2541.853113
862.339062	2537.784902
862.651708	2543.395706
862.964312	2544.847558
863.276873	2542.276570
863.589392	2544.386293
863.901869	2542.841179
864.214303	2541.946374
864.526696	2543.798998
864.839045	2543.662887
865.151353	2541.553164
865.463619	2545.376879
865.775842	2544.106509
866.088023	2542.808412
866.400162	2543.337733
866.712258	2540.940664
867.024313	2543.128525
867.336325	2541.495191
867.648296	2544.955943
867.960224	2542.049718
868.272110	2543.451159
868.583954	2543.274718
868.895755	2542.679862
869.207515	2543.282280
869.519233	2544.043494
869.830909	2543.040305
870.142542	2542.848741
870.454134	2544.887887
870.765684	2545.460058
871.077191	2543.224307
871.388657	2544.787064
871.700081	2538.120138
872.011463	2540.434028
872.322803	2540.292876
872.634101	2543.554502
872.945357	2542.208514
873.256571	2543.667928
873.567744	2542.480737
873.878874	2541.550644
874.189963	2540.759182
874.501010	2541.560726
874.812015	2541.114584
875.122979	2544.562733
875.433900	2545.119781
875.744780	2542.279090
876.055618	2541.348998
876.366415	2543.909904
876.677169	2540.456713
876.987882	2542.899152
877.298554	2542.412681
877.609183	2542.556354
877.919771	2543.930068
878.230317	2542.576518
878.540822	2543.655325
878.851285	2545.124822
879.161707	2541.212886
879.472087	2544.759338
879.782425	2542.208514
880.092722	2546.601880
880.402977	2540.655839
880.713191	2543.844369
881.023363	2543.715819
881.333494	2547.005172
881.643583	2546.944678
881.953631	2544.126673
882.263637	2548.227652
882.573602	2544.860161
882.883526	2545.054246
883.193408	2544.305634
883.503248	2545.074410
883.813048	2543.506611
884.122806	2543.539379
884.432522	2544.424101
884.742197	2542.579039
885.051831	2541.822866
885.361424	2543.665408
885.670975	2543.166333
885.980485	2545.729760
886.289954	2543.993083
886.599382	2543.330171
886.908768	2540.096271
887.218113	2538.074768
887.527417	2542.140459
887.836680	2537.981507
888.145901	2540.386137
888.455082	2539.965201
888.764221	2542.211035
889.073319	2543.763710
889.382376	2542.785726
889.691392	2540.756662
890.000366	2541.084337
890.309300	2541.928730
890.618193	2543.851930
890.927044	2543.488967
891.235855	2541.512835
891.544625	2541.729605
891.853353	2541.903524
892.162041	2543.995603
892.470687	2545.820501
892.779293	2543.761190
893.087858	2541.931251
893.396381	2542.382434
893.704864	2542.528627
894.013306	2541.548123
894.321707	2541.810263
894.630068	2543.683052
894.938387	2544.696324
895.246665	2543.405788
895.554903	2540.207176
895.863100	2544.885367
896.171256	2544.852599
896.479371	2542.332022
896.787446	2542.397558
897.095480	2541.432177
897.403473	2542.884029
897.711425	2543.186498
898.019336	2543.098278
898.327207	2540.227341
898.635038	2543.960315
898.942827	2541.873277
899.250576	2542.216076
899.558284	2543.587270
899.865952	2541.737166
900.173579	2540.827238
900.481165	2541.197763
900.788711	2540.101312
901.096216	2538.611651
901.403681	2540.247505
901.711105	2542.725232
902.018489	2540.184491
902.325832	2539.987886
902.633135	2538.425128
902.940397	2542.435366
903.247619	2537.159799
903.554800	2541.192722
903.861941	2543.557023
904.169041	2541.096940
904.476101	2544.877805
904.783121	2543.612476
905.090100	2542.818494
905.397039	2544.983669
905.703938	2541.149872
906.010796	2540.799512
906.317614	2543.115922
906.624391	2542.853782
906.931129	2540.103832
907.237826	2542.369831
907.544483	2541.132228
907.851099	2540.008051
908.157675	2544.197249
908.464211	2543.914945
908.770707	2540.176929
909.077163	2543.683052
909.383578	2545.540717
909.689954	2541.439738
909.996289	2541.855633
910.302584	2541.553164
910.608839	2541.162475
910.915054	2540.307999
911.221229	2543.604914
911.527363	2541.603576
911.833458	2543.723381
912.139513	2541.845551
912.445527	2541.631302
912.751502	2541.837989
913.057436	2540.749100
913.363331	2540.887732
913.669186	2541.432177
913.975000	2541.855633
914.280775	2540.330684
914.586510	2541.714481
914.892205	2541.948895
915.197859	2544.250182
915.503475	2541.389327
915.809050	2543.030222
916.114585	2542.296734
916.420081	2541.228010
916.725536	2544.948381
917.030952	2544.839997
917.336328	2543.352856
917.641665	2539.158616
917.946961	2537.061496
918.252218	2540.134079
918.557435	2539.191384
918.862612	2540.786909
919.167750	2541.974101
919.472848	2541.205325
919.777906	2537.391692
920.082925	2542.468134
920.387904	2541.086858
920.692843	2541.732125
920.997743	2539.831610
921.302603	2541.487629
921.607423	2543.365459
921.912204	2540.446631
922.216946	2539.055273
922.521647	2542.276570
922.826310	2539.942516
923.130932	2540.302958
923.435516	2541.984183
923.740059	2542.649615
924.044564	2542.382434
924.349028	2540.255067
924.653454	2540.807073
924.957840	2541.101981
925.262186	2540.779347
925.566493	2539.788760
925.870761	2540.212217
926.174989	2542.624409
926.479178	2541.772454
926.783328	2543.680531
927.087438	2540.320602
927.391509	2540.534851
927.695541	2534.888759
927.999533	2540.461754
928.303486	2541.129707
928.607400	2537.489994
928.911275	2542.669780
929.215110	2542.440407
929.518906	2541.895963
929.822663	2539.398071
930.126381	2542.112732
930.430060	2541.064172
930.733699	2541.298586
931.037299	2538.936805
931.340861	2543.400747
931.644383	2540.066024
931.947866	2541.880839
932.251309	2541.714481
932.554714	2540.547454
932.858080	2539.869419
933.161407	2536.418749
933.464694	2536.280117
933.767943	2534.107380
934.071153	2538.929244
934.374323	2538.215920
934.677455	2540.459234
934.980548	2539.592155
935.283602	2540.862526
935.586617	2542.077444
935.889593	2541.044008
936.192530	2539.229192
936.495428	2538.447813
936.798287	2541.502753
937.101108	2542.193391
937.403890	2541.049049
937.706632	2541.895963
938.009336	2542.155582
938.312002	2539.846734
938.614628	2541.578370
938.917216	2542.911755
939.219765	2541.021322
939.522275	2540.943185
939.824747	2540.139121
940.127179	2541.071734
940.429573	2540.509645
940.731929	2541.185160
941.034246	2540.837320
941.336524	2541.049049
941.638763	2540.446631
941.940964	2541.447300
942.243126	2539.924872
942.545250	2541.880839
942.847335	2542.793288
943.149381	2540.066024
943.451389	2540.444110
943.753359	2540.343287
944.055290	2539.007382
944.357182	2538.941847
944.659036	2539.781199
944.960851	2541.137269
945.262628	2540.847403
945.564367	2541.094419
945.866067	2541.815304
946.167729	2541.633823
946.469352	2539.168698
946.770937	2542.032074
947.072484	2541.386806
947.373992	2542.705068
947.675462	2540.567619
947.976893	2537.706764
948.278286	2538.374717
948.579641	2538.014274
948.880958	2535.881866
949.182236	2538.818338
949.483476	2537.893287
949.784678	2540.247505
950.085841	2540.907897
950.386967	2537.807587
950.688054	2542.289173
950.989103	2540.560057
951.290114	2541.701878
951.591087	2541.192722
951.892021	2540.136600
952.192917	2536.771630
952.493776	2540.159285
952.794596	2539.440921
953.095378	2540.549975
953.396122	2538.841023
953.696828	2543.519214
953.997496	2539.468647
954.298126	2538.576363
954.598718	2542.142979
954.899272	2541.321271
955.199788	2539.120808
955.500266	2539.955118
955.800706	2539.425797
956.101108	2539.945036
956.401472	2541.003678
956.701798	2537.618544
957.002087	2541.412012
957.302337	2540.388658
957.602550	2541.154913
957.902724	2537.754655
958.202861	2538.762886
958.502960	2541.664070
958.803022	2541.497712
959.103045	2538.987217
959.403031	2541.225489
959.702979	2538.026877
960.002889	2539.740869
960.302762	2539.778678
960.602596	2541.560726
960.902393	2541.364121
961.202153	2539.945036
961.501875	2539.705581
961.801559	2539.052752
962.101205	2540.086188
962.400814	2540.640715
962.700385	2540.290355
962.999918	2536.648122
963.299414	2534.230888
963.598873	2537.943698
963.898293	2536.174253
964.197677	2538.641898
964.497022	2539.382948
964.796331	2543.088196
965.095601	2536.728780
965.394835	2539.635005
965.694030	2539.347659
965.993189	2538.901517
966.292309	2540.103833
966.591393	2538.712474
966.890439	2541.094419
967.189447	2540.272711
967.488419	2541.013761
967.787353	2540.539892
968.086249	2537.227854
968.385108	2536.872453
968.683930	2539.924872
968.982714	2541.192722
969.281462	2539.256919
969.580172	2539.985365
969.878844	2541.112063
970.177480	2539.105684
970.476078	2541.230530
970.774639	2539.214069
971.073162	2541.112063
971.371649	2536.771630
971.670098	2538.677186
971.968510	2539.824048
972.266885	2538.684748
972.565223	2539.415715
972.863524	2540.086188
973.161788	2537.500077
973.460014	2541.906045
973.758204	2540.270191
974.056356	2538.379758
974.354471	2539.274563
974.652550	2540.126518
974.950591	2541.908566
975.248595	2537.888245
975.546563	2540.466796
975.844493	2540.549975
976.142386	2539.395550
976.440243	2540.030736
976.738062	2539.415715
977.035845	2541.270860
977.333590	2541.243133
977.631299	2540.292876
977.928971	2539.120807
978.226606	2536.242309
978.524204	2538.556198
978.821765	2535.380271
979.119290	2542.044677
979.416777	2538.800694
979.714228	2543.352856
980.011642	2537.999151
980.309020	2540.688606
980.606360	2539.569470
980.903664	2537.893287
981.200931	2541.409491
981.498162	2540.227341
981.795356	2536.512010
982.092513	2539.771116
982.389633	2539.735828
982.686717	2537.852957
982.983764	2538.757844
983.280775	2541.129707
983.577749	2539.375386
983.874686	2539.075437
984.171587	2538.694830
984.468451	2541.081816
984.765279	2540.917979
985.062070	2541.117104
985.358824	2538.271373
985.655543	2539.103163
985.952224	2539.574511
986.248869	2536.605272
986.545478	2536.378420
986.842050	2539.322454
987.138586	2538.036959
987.435086	2539.874460
987.731549	2538.447813
988.027975	2539.428318
988.324366	2538.866229
988.620719	2540.857485
988.917037	2536.317926
989.213318	2539.113246
989.509563	2540.237423
989.805772	2539.786240
990.101944	2540.731456
990.398080	2541.477547
990.694180	2536.733821
990.990244	2538.712474
991.286271	2537.739531
991.582262	2536.554860
991.878217	2536.091074
992.174136	2540.938143
992.470019	2538.725077
992.765865	2538.420087
993.061676	2534.402288
993.357450	2535.221475
993.653188	2533.759540
993.948890	2537.991589
994.244556	2537.608461
994.540186	2540.030736
994.835780	2539.042670
995.131337	2538.175591
995.426859	2537.520241
995.722345	2538.236085
996.017795	2539.314892
996.313208	2536.653163
996.608586	2536.244829
996.903928	2540.227341
997.199234	2541.288504
997.494504	2538.515869
997.789738	2538.415046
998.084936	2541.233051
998.380099	2537.479912
998.675225	2538.611651
998.970316	2537.537885
999.265371	2539.345139
999.560390	2541.152392
999.855373	2539.395550
1000.150320	2539.554347
1000.445232	2538.467978
1000.740108	2537.094264
1001.034948	2539.783719
1001.329752	2539.025026
1001.624521	2539.549306
1001.919254	2540.544933
1002.213951	2537.878163
1002.508613	2537.918492
1002.803239	2536.512010
1003.097829	2538.962011
1003.392384	2538.362114
1003.686903	2537.941177
1003.981386	2537.910931
1004.275834	2541.167516
1004.570246	2539.829090
1004.864623	2536.055786
1005.158964	2540.867567
1005.453270	2537.852957
1005.747540	2538.256250
1006.041775	2539.844213
1006.335974	2538.732639
1006.630138	2537.931095
1006.924266	2540.542413
1007.218359	2536.166691
1007.512416	2534.467822
1007.806438	2536.302803
1008.100425	2537.268183
1008.394376	2534.994623
1008.688292	2536.408667
1008.982172	2536.317926
1009.276017	2539.415715
1009.569827	2539.214069
1009.863602	2539.476209
1010.157341	2540.935623
1010.451045	2538.541075
1010.744714	2537.144675
1011.038347	2539.352701
1011.331945	2539.017464
1011.625508	2536.711136
1011.919036	2539.138452
1012.212528	2539.549306
1012.505986	2537.308513
1012.799408	2541.323792
1013.092795	2536.842206
1013.386147	2538.576363
1013.679464	2538.901517
1013.972745	2539.536703
1014.265992	2538.841023
1014.559204	2538.203317
1014.852380	2536.917823
1015.145521	2537.495035
1015.438628	2538.258770
1015.731699	2539.642567
1016.024736	2541.273380
1016.317737	2538.651980
1016.610703	2538.289017
1016.903635	2540.890252
1017.196531	2537.900848
1017.489393	2538.513348
1017.782219	2538.465457
1018.075011	2536.597710
1018.367768	2539.125849
1018.660490	2539.629964
1018.953177	2539.629964
1019.245829	2539.629964
