Dividing Wavelength (nm)	Counts (n)	Blue Motor Position (mm): 42.000000	Red Motor Position (mm): 0.000000	
326.493990	2152.562610
326.888308	2152.562610
327.282561	2152.562610
327.676750	2127.634104
328.070874	2130.230298
328.464933	2133.829682
328.858929	2143.765797
329.252859	2155.161325
329.646726	2169.939467
330.040528	2182.610408
330.434265	2205.371217
330.827938	2220.529967
331.221547	2241.806157
331.615091	2259.223343
332.008571	2281.895933
332.401986	2303.734211
332.795338	2321.118630
333.188625	2344.118894
333.581847	2362.269569
333.975006	2382.497199
334.368100	2398.795249
334.761129	2419.249731
335.154095	2434.693306
335.546996	2458.646348
335.939833	2489.183138
336.332606	2503.799963
336.725315	2515.218177
337.117960	2522.689167
337.510540	2530.447502
337.903056	2536.963194
338.295508	2549.003990
338.687896	2554.148487
339.080220	2561.208623
339.472480	2568.258677
339.864676	2572.362176
340.256807	2576.213617
340.648875	2576.458113
341.040879	2577.181519
341.432818	2581.494226
341.824694	2580.612024
342.216506	2580.710327
342.608253	2580.170923
342.999937	2576.014492
343.391557	2576.765624
343.783113	2575.580953
344.174605	2574.030798
344.566033	2571.318657
344.957397	2573.551888
345.348697	2569.350087
345.739934	2570.859912
346.131106	2567.147102
346.522215	2566.428738
346.913260	2563.094015
347.304241	2565.687688
347.695159	2559.537481
348.086012	2558.766184
348.476802	2555.829712
348.867528	2556.467418
349.258191	2555.549928
349.648789	2553.485575
350.039324	2551.219577
350.429796	2552.139587
350.820203	2551.267468
351.210548	2550.448280
351.600828	2547.360573
351.991045	2549.979453
352.381198	2545.598690
352.771288	2549.031716
353.161314	2548.825029
353.551276	2549.616490
353.941175	2546.677497
354.331010	2547.340409
354.720782	2545.820501
355.110490	2548.164638
355.500135	2545.795295
355.889717	2549.888712
356.279235	2547.315203
356.668689	2549.939124
357.058080	2550.493651
357.447408	2545.626417
357.836672	2546.438042
358.225873	2547.295038
358.615010	2544.461910
359.004084	2553.790565
359.393095	2553.087324
359.782043	2556.026317
360.170927	2554.216543
360.559748	2552.923487
360.948505	2553.818292
361.337199	2556.255689
361.725830	2556.091852
362.114398	2556.515309
362.502903	2557.417675
362.891344	2559.527398
363.279722	2555.426420
363.668037	2558.234342
364.056289	2558.267110
364.444478	2558.617470
364.832603	2559.537481
365.220665	2560.119734
365.608665	2557.432799
365.996601	2558.415824
366.384474	2558.665361
366.772284	2561.377502
367.160031	2561.627039
367.547715	2561.765671
367.935336	2561.082594
368.322893	2563.804817
368.710388	2565.022256
369.097820	2563.726679
369.485189	2562.105948
369.872495	2563.842626
370.259738	2561.735424
370.646918	2563.532595
371.034035	2564.805486
371.421090	2565.959911
371.808081	2564.399673
372.195010	2566.088460
372.581875	2563.330949
372.968678	2567.021073
373.355418	2563.066288
373.742096	2565.279355
374.128710	2567.464695
374.515262	2568.162895
374.901751	2567.068964
375.288177	2568.712381
375.674540	2567.777247
376.060841	2570.771692
376.447079	2568.404870
376.833254	2571.301013
377.219367	2566.587534
377.605417	2566.232133
377.991404	2566.360682
378.377329	2569.229099
378.763191	2566.779098
379.148991	2568.876218
379.534727	2568.412432
379.920402	2571.764799
380.306013	2568.992165
380.691563	2572.145406
381.077049	2572.190777
381.462474	2572.773030
381.847835	2572.462999
382.233134	2573.264542
382.618371	2572.173133
383.003545	2575.903587
383.388657	2572.964594
383.773706	2575.911148
384.158693	2573.551888
384.543618	2574.706312
384.928480	2577.708320
385.313280	2577.582291
385.698017	2575.540623
386.082692	2579.497929
386.467305	2576.528690
386.851856	2580.919535
387.236344	2584.425657
387.620770	2583.238465
388.005133	2581.872313
388.389435	2583.888774
388.773674	2585.411203
389.157851	2586.361460
389.541965	2589.955803
389.926018	2591.465628
390.310008	2592.862028
390.693936	2595.543922
391.077802	2596.032914
391.461606	2602.946856
391.845348	2604.912906
392.229027	2607.665376
392.612645	2615.237189
392.996200	2619.194495
393.379694	2624.124744
393.763125	2634.136475
394.146494	2638.224851
394.529801	2643.732312
394.913047	2656.108344
395.296230	2658.533139
395.679351	2664.393481
396.062410	2672.965963
396.445408	2676.681293
396.828343	2687.744105
397.211217	2694.037986
397.594028	2698.264993
397.976778	2709.693289
398.359466	2718.850545
398.742092	2726.319014
399.124656	2744.235275
399.507158	2753.926893
399.889598	2765.917278
400.271977	2778.121911
400.654294	2791.707821
401.036549	2804.121662
401.418742	2816.255720
401.800874	2836.989985
402.182944	2847.546162
402.564952	2874.970038
402.946898	2874.730584
403.328783	2892.994684
403.710606	2910.311048
404.092367	2934.906837
404.474067	2962.116465
404.855705	2962.393728
405.237282	2976.347642
405.618797	3006.150944
406.000250	3029.483924
406.381642	3062.979871
406.762972	3074.292220
407.144240	3079.106522
407.525447	3107.049638
407.906593	3115.624641
408.287677	3141.667242
408.668700	3164.785973
409.049661	3172.904751
409.430560	3191.935107
409.811399	3206.892211
410.192176	3233.806931
410.572891	3246.336719
410.953545	3291.903708
411.334138	3268.086777
411.714669	3324.290601
412.095139	3281.551699
412.475547	3332.313598
412.855894	3333.178156
413.236180	3365.738968
413.616405	3355.041640
413.996568	3382.604148
414.376670	3392.018503
414.756711	3391.950448
415.136691	3419.233172
415.516609	3447.466154
415.896466	3455.600056
416.276262	3487.445025
416.655997	3517.727236
417.035670	3530.320038
417.415283	3598.610029
417.794834	3621.612814
418.174324	3605.944908
418.553753	3611.417080
418.933121	3654.899553
419.312428	3650.528872
419.691674	3642.858757
420.070859	3686.331147
420.449983	3668.228364
420.829045	3720.787434
421.208047	3703.150957
421.586988	3752.186260
421.965867	3782.294552
422.344686	3790.925007
422.723444	3830.717355
423.102141	3734.690936
423.480777	3839.413345
423.859352	3807.543171
424.237866	3904.787028
424.616319	3890.530645
424.994712	3949.514666
425.373044	3940.629632
425.751314	4005.426103
426.129524	3937.093263
426.507673	4036.141854
426.885762	4012.513966
427.263789	4041.704767
427.641756	4045.026887
428.019662	4074.431938
428.397508	4078.106939
428.775292	4115.557671
429.153016	4119.305769
429.530679	4129.564517
429.908282	4143.226044
430.285824	4120.498002
430.663305	4193.748488
431.040726	4151.425480
431.418086	4145.058503
431.795385	4219.493660
432.172624	4247.202362
432.549802	4219.846541
432.926920	4237.951845
433.303977	4230.755598
433.680974	4270.013583
434.057910	4292.907984
434.434786	4301.540960
434.811601	4292.973519
435.188355	4400.266917
435.565050	4368.696691
435.941683	4365.767780
436.318257	4460.349909
436.694770	4463.609015
437.071222	4519.172612
437.447614	4451.664001
437.823946	4454.970998
438.200218	4472.579748
438.576429	4457.234476
438.952580	4481.711798
439.328670	4489.502901
439.704700	4531.049571
440.080670	4494.188654
440.456580	4553.386923
440.832429	4586.499743
441.208218	4491.564733
441.583947	4543.165984
441.959616	4558.763314
442.335224	4585.496553
442.710773	4607.128144
443.086261	4661.270136
443.461689	4616.434114
443.837057	4622.100371
444.212365	4696.943862
444.587612	4702.809244
444.962800	4671.967465
445.337927	4708.122620
445.712995	4599.684880
446.088002	4793.837359
446.462949	4812.131706
446.837837	4833.291950
447.212664	4821.770392
447.587431	5046.915885
447.962139	5347.779508
448.336786	5680.256207
448.711374	5664.852962
449.085901	5310.374147
449.460369	5249.880301
449.834776	5187.415363
450.209124	5427.054173
450.583412	5432.175985
450.957640	5550.154109
451.331808	5417.218882
451.705917	5265.863279
452.079965	5258.735087
452.453954	5296.631961
452.827883	5263.065438
453.201752	5269.255975
453.575562	5294.323113
453.949311	5432.717909
454.323001	5439.778045
454.696632	5432.428043
455.070202	5586.268935
455.443713	5615.386640
455.817164	5704.935176
456.190556	5778.762874
456.563888	5752.584162
456.937160	5833.267829
457.310373	5673.622049
457.683526	5731.280246
458.056619	5723.378237
458.429653	5705.207398
458.802628	5752.493421
459.175542	5780.940653
459.548398	5924.293424
459.921194	6107.549448
460.293930	6170.826012
460.666607	6424.413694
461.039224	6637.893957
461.411782	6766.322392
461.784280	6683.072777
462.156719	6682.298960
462.529099	6641.866386
462.901419	6501.629047
463.273680	6374.123143
463.645882	6358.840885
464.018024	6361.600917
464.390106	6428.209683
464.762130	6691.403284
465.134094	7081.651606
465.505999	7723.836633
465.877845	8425.482069
466.249631	8775.562477
466.621358	8697.626239
466.993026	8499.274479
467.364634	8282.577961
467.736184	8003.509766
468.107674	7848.171651
468.479105	7762.804752
468.850477	7696.765637
469.221790	7526.220882
469.593043	7303.895915
469.964238	7201.825152
470.335373	7178.424116
470.706449	7336.794485
471.077467	7527.473608
471.448425	8183.920059
471.819324	8769.127445
472.190164	8805.660687
472.560945	8311.799009
472.931667	7844.249634
473.302330	7654.248545
473.672934	7532.492077
474.043479	7614.141125
474.413965	7510.726895
474.784393	7461.552960
475.154761	7624.341900
475.525070	7629.282231
475.895321	7583.135508
476.265513	7684.515633
476.635645	7847.362546
477.005719	7837.325609
477.375734	7927.282479
477.745691	8028.604630
478.115588	8233.580466
478.485427	8473.919996
478.855207	8956.033265
479.224928	9387.545952
479.594591	9768.906719
479.964194	9772.261607
480.333739	9859.748312
480.703226	9858.964412
481.072653	9965.632707
481.442022	10075.907948
481.811333	10223.157531
482.180584	10069.014170
482.549777	10004.144602
482.918912	9936.315877
483.287988	9929.558210
483.657005	9838.585548
484.025964	9756.094627
484.394864	9813.339449
484.763706	9779.783009
485.132489	9688.422178
485.501213	9677.175363
485.869879	9735.357841
486.238487	9680.573101
486.607036	9751.885263
486.975527	9698.537253
487.343959	9754.194112
487.712333	9800.507192
488.080648	9841.758954
488.448905	9941.183111
488.817104	9944.676631
489.185244	10120.960739
489.553326	10329.546042
489.921350	10801.221601
490.289315	11437.856317
490.657222	11719.349307
491.025070	11894.607541
491.392861	11811.128554
491.760593	11656.546613
492.128267	11399.253682
492.495883	11165.157621
492.863440	10925.876733
493.230939	10690.880826
493.598380	10521.737511
493.965763	10489.232151
494.333088	10367.062308
494.700354	10297.459097
495.067563	10267.529767
495.434713	10276.084605
495.801805	10316.681017
496.168839	10271.650910
496.535815	10243.904399
496.902733	10295.384663
497.269593	10249.384134
497.636395	10258.317058
498.003139	10365.421413
498.369825	10296.818871
498.736453	10383.625019
499.103023	10328.431947
499.469535	10332.878244
499.835989	10386.969825
500.202385	10354.585453
500.568723	10378.266273
500.935003	10436.257186
501.301226	10413.153578
501.667390	10577.038969
502.033497	10677.345328
502.399546	10605.171128
502.765537	10508.398618
503.131470	10611.636408
503.497345	10703.539163
503.863163	10471.565428
504.228923	10608.959555
504.594625	10725.576567
504.960269	10634.487958
505.325856	10782.544126
505.691385	10668.392238
506.056856	10732.772814
506.422270	10834.934318
506.787625	10761.905642
507.152924	10820.259519
507.518164	10880.720597
507.883347	10748.176060
508.248472	10824.209263
508.613540	10931.200191
508.978550	11006.537715
509.343503	10990.305200
509.708398	11038.544001
510.073236	11164.744246
510.438016	11185.513800
510.802738	11093.910993
511.167403	11222.558719
511.532010	11277.232553
511.896561	11378.859694
512.261053	11571.262892
512.625488	11492.038639
512.989866	11484.895324
513.354186	11457.017743
513.718449	11465.819598
514.082655	11606.624066
514.446803	11569.228787
514.810894	11673.769715
515.174927	11667.984991
515.538904	11658.058959
515.902822	11818.992754
516.266684	11691.824607
516.630488	11782.313319
516.994235	11776.001794
517.357925	11890.292313
517.721558	11950.839092
518.085133	12010.221363
518.448651	12043.901312
518.812112	12006.153152
519.175516	12015.925429
519.538863	12102.272833
519.902152	12111.006632
520.265385	12214.819113
520.628560	12242.550500
520.991678	12183.667303
521.354739	12237.423647
521.717743	12323.468581
522.080690	12289.360134
522.443580	12416.981985
522.806413	12444.741099
523.169189	12422.658324
523.531908	12487.890855
523.894569	12451.183693
524.257174	12464.020992
524.619722	12580.113723
524.982213	12550.345710
525.344647	12545.972509
525.707025	12559.450034
526.069345	12654.846309
526.431608	12632.425777
526.793815	12719.473901
527.155964	12605.695059
527.518057	12636.609935
527.880093	12594.150816
528.242072	12716.492058
528.603995	12627.049386
528.965860	12656.237667
529.327669	12688.720342
529.689421	12630.396713
530.051117	12649.379177
530.412755	12680.868745
530.774337	12682.018128
531.135862	12635.889050
531.497331	12699.231148
531.858743	12655.181545
532.220098	12754.225095
532.581396	12676.006552
532.942638	12603.527363
533.303824	12672.495388
533.664953	12648.396152
534.026025	12599.020571
534.387040	12701.809698
534.747999	12673.725430
535.108902	12718.367368
535.469748	12600.424532
535.830537	12619.520423
536.191270	12667.605469
536.551947	12597.346908
536.912567	12662.697906
537.273131	12690.651104
537.633638	12565.262484
537.994089	12622.063685
538.354483	12545.291953
538.714821	12670.294925
539.075103	12750.257707
539.435328	12688.062471
539.795497	12663.179336
540.155609	12657.208089
540.515665	12761.827155
540.875665	12613.201337
541.235609	12714.498282
541.595496	12671.409020
541.955328	12853.228315
542.315102	12701.701313
542.674821	12642.903815
543.034483	12658.854026
543.394090	12659.126248
543.753640	12622.920681
544.113134	12864.855737
544.472571	12624.927061
544.831953	12907.340061
545.191278	12725.044376
545.550548	12656.434272
545.909761	12774.286367
546.268918	12820.836381
546.628019	12873.524001
546.987064	12773.862910
547.346053	12628.564253
547.704986	12819.243377
548.063863	12695.122607
548.422684	12751.943973
548.781449	12702.185264
549.140158	12809.040081
549.498811	12754.895568
549.857408	12621.418418
550.215949	12826.240498
550.574434	12790.201289
550.932864	12739.381418
551.291237	12936.525821
551.649555	12821.716063
552.007817	12882.915670
552.366022	12800.074389
552.724173	12847.327645
553.082267	12937.556737
553.440305	13028.993185
553.798288	12853.543387
554.156215	12915.683170
554.514086	12976.048467
554.871902	12910.021955
555.229661	12933.506170
555.587365	12892.692988
555.945014	12903.501222
556.302606	12879.384342
556.660143	12950.968727
557.017625	12976.562665
557.375050	12949.269858
557.732421	13040.504660
558.089735	13039.756049
558.446994	13009.577181
558.804197	13122.879635
559.161345	13120.051547
559.518437	12931.358638
559.875474	13027.387578
560.232455	13047.390876
560.589381	13093.734204
560.946251	13024.834233
561.303065	13206.366183
561.659825	13147.440136
562.016528	13075.124784
562.373177	13009.919980
562.729770	13149.499447
563.086307	13023.531095
563.442789	13133.516469
563.799216	13173.782686
564.155587	13113.210702
564.511904	13137.186429
564.868164	13153.282833
565.224370	13208.332233
565.580520	13156.201662
565.936615	13226.855953
566.292654	13160.799194
566.648638	13231.589597
567.004567	13235.070513
567.360441	13233.457344
567.716260	13202.965925
568.072023	13284.617494
568.427732	13270.731636
568.783385	13172.971060
569.138982	13280.962658
569.494525	13278.008541
569.850013	13225.532650
570.205445	13212.982698
570.560823	13222.797824
570.916145	13179.993387
571.271412	13185.957072
571.626625	13142.187254
571.981782	13148.506340
572.336884	13100.103702
572.691931	13181.127647
573.046923	13071.681676
573.401860	13050.523953
573.756743	13050.934807
574.111570	13072.689907
574.466342	13043.342830
574.821059	13104.512191
575.175722	12974.084938
575.530330	12990.433400
575.884882	12920.762133
576.239380	12928.689347
576.593823	12908.721337
576.948211	12909.175041
577.302544	12781.384311
577.656823	12803.928351
578.011047	12865.932023
578.365216	12800.770068
578.719330	12736.996952
579.073389	12697.189480
579.427394	12733.054769
579.781344	12720.741751
580.135239	12646.639310
580.489080	12664.111949
580.842866	12545.140719
581.196597	12636.877116
581.550273	12631.982155
581.903895	12590.271648
582.257463	12699.823483
582.610975	12535.524718
582.964434	12602.884615
583.317837	12530.476002
583.671186	12484.755257
584.024481	12541.493444
584.377721	12430.935899
584.730906	12502.835356
585.084037	12511.853980
585.437113	12432.677618
585.790135	12454.251235
586.143103	12363.573481
586.496016	12385.152140
586.848874	12391.751010
587.201679	12391.183880
587.554428	12274.153494
587.907124	12318.515647
588.259765	12253.920823
588.612352	12322.074702
588.964884	12188.978158
589.317362	12236.990108
589.669786	12228.324364
590.022155	12176.455932
590.374470	12285.705298
590.726731	12175.344358
591.078937	12063.924775
591.431090	12080.051427
591.783188	12015.650686
592.135232	11931.929724
592.487222	12000.141576
592.839157	12007.148780
593.191038	11935.544231
593.542866	11888.086809
593.894639	11736.884961
594.246358	11802.246041
594.598022	11804.582616
594.949633	11701.117974
595.301190	11695.398785
595.652692	11648.349696
596.004141	11740.542318
596.355535	11520.861436
596.706876	11502.057932
597.058162	11476.365692
597.409395	11565.843652
597.760573	11591.135121
598.111698	11480.806948
598.462768	11477.283182
598.813785	11496.172385
599.164748	11365.588857
599.515657	11447.729417
599.866511	11318.411218
600.217312	11447.631115
600.568060	11221.661394
600.918753	11376.235773
601.269392	11378.196782
601.619978	11287.670262
601.970510	11321.060345
602.320988	11358.962260
602.671412	11429.006572
603.021783	11357.780109
603.372100	11284.867381
603.722363	11306.035186
604.072572	11302.768518
604.422728	11310.930146
604.772830	11257.415777
605.122878	11269.630493
605.472872	11240.119578
605.822813	11301.944289
606.172701	11258.698751
606.522534	11292.837445
606.872314	11348.476660
607.222041	11280.763881
607.571714	11357.654080
607.921333	11234.077756
608.270899	11280.078284
608.620411	11331.926552
608.969870	11285.946187
609.319276	11278.039138
609.668627	11288.005499
610.017926	11366.690349
610.367171	11402.916080
610.716362	11390.517362
611.065500	11359.448731
611.414585	11371.146729
611.763616	11437.548807
612.112594	11396.344936
612.461518	11425.555902
612.810389	11478.361989
613.159207	11425.213104
613.507971	11410.808007
613.856682	11511.169818
614.205340	11463.188116
614.553945	11613.601023
614.902496	11483.572021
615.250994	11551.685571
615.599439	11542.099817
615.947830	11582.272772
616.296169	11541.961186
616.644454	11547.060313
616.992686	11568.573437
617.340864	11665.933241
617.688990	11543.465970
618.037063	11682.135509
618.385082	11650.434213
618.733048	11695.126563
619.080961	11685.122393
619.428821	11657.408650
619.776628	11673.189982
620.124382	11613.669078
620.472083	11638.164045
620.819731	11662.162458
621.167326	11590.149575
621.514868	11569.891698
621.862357	11464.284567
622.209793	11458.903135
622.557176	11377.725434
622.904506	11315.903244
623.251783	11234.254196
623.599007	11176.661534
623.946179	11132.470779
624.293297	11099.567168
624.640363	10964.360901
624.987376	10946.890783
625.334336	10887.747966
625.681243	10803.757302
626.028097	10774.309401
626.374899	10740.710111
626.721647	10711.552077
627.068343	10676.556387
627.414987	10610.935687
627.761577	10547.182735
628.108115	10598.141239
628.454600	10466.365477
628.801032	10489.040587
629.147412	10465.747936
629.493739	10432.625035
629.840014	10357.035453
630.186236	10404.470191
630.532405	10303.674840
630.878521	10344.891314
631.224585	10296.700404
631.570597	10217.849196
631.916556	10220.654598
632.262462	10210.133710
632.608316	10193.076966
632.954117	10164.433130
633.299866	10145.647270
633.645562	10124.297983
633.991206	10013.095171
634.336797	9914.838041
634.682336	9913.141693
635.027823	9858.576243
635.373257	9817.165685
635.718639	9748.200180
636.063968	9722.727230
636.409245	9604.504610
636.754470	9593.172096
637.099642	9540.610506
637.444762	9439.497563
637.789829	9443.419580
638.134845	9365.800934
638.479808	9346.727729
638.824719	9321.153955
639.169577	9230.932425
639.514383	9233.596675
639.859137	9169.354731
640.203839	9197.933032
640.548489	9122.419068
640.893086	9127.205643
641.237632	9068.181294
641.582125	9066.164832
641.926566	9046.234630
642.270955	9039.976038
642.615292	9034.587044
642.959576	9011.173405
643.303809	9002.089246
643.647990	9016.970732
643.992118	8997.653031
644.336195	8976.185277
644.680219	8969.644380
645.024192	9002.553032
645.368112	9083.171165
645.711981	9050.179333
646.055797	9191.437505
646.399562	9144.559816
646.743274	9307.752048
647.086935	9381.725939
647.430544	9351.663018
647.774101	9375.633705
648.117606	9405.512624
648.461059	9468.577458
648.804460	9400.675637
649.147810	9284.247668
649.491108	9249.866999
649.834354	9179.648767
650.177548	9047.817553
650.520690	8955.695507
650.863781	8943.311913
651.206820	8925.259541
651.549807	8835.453906
651.892742	8736.039831
652.235626	8700.018267
652.578458	8653.473293
652.921238	8549.466728
653.263967	8586.282274
653.606644	8526.413531
653.949269	8498.309098
654.291843	8417.930421
654.634365	8494.797935
654.976836	8414.555368
655.319255	8410.537569
655.661622	8404.770489
656.003938	8359.412707
656.346203	8323.507089
656.688416	8352.208898
657.030577	8312.635840
657.372687	8274.270139
657.714746	8306.959501
658.056753	8323.111358
658.398708	8224.135864
658.740612	8223.057057
659.082465	8258.549301
659.424266	8216.944658
659.766016	8229.938232
660.107715	8201.750620
660.449362	8218.814926
660.790958	8218.756953
661.132503	8211.659008
661.473996	8212.407620
661.815438	8226.888334
662.156829	8260.648941
662.498168	8208.520890
662.839456	8194.226698
663.180693	8223.994712
663.521879	8239.178667
663.863013	8229.164415
664.204097	8218.968681
664.545129	8294.578427
664.886110	8285.539638
665.227040	8285.474103
665.567918	8299.276783
665.908746	8315.579874
666.249522	8336.488060
666.590248	8330.975558
666.930922	8343.470058
667.271545	8335.280703
667.612118	8351.936676
667.952639	8314.067528
668.293109	8320.177407
668.633528	8296.315105
668.973896	8279.575953
669.314213	8285.993342
669.654480	8239.932320
669.994695	8236.524500
670.334859	8217.206798
670.674973	8194.824075
671.015035	8223.535967
671.355047	8209.128349
671.695008	8201.256587
672.034918	8175.277001
672.374777	8178.994852
672.714585	8151.558372
673.054342	8184.590533
673.394049	8151.076942
673.733705	8196.454888
674.073310	8140.157803
674.412864	8149.279771
674.752368	8092.743230
675.091820	8143.958833
675.431223	8072.316475
675.770574	8028.581945
676.109875	7998.287131
676.449125	7956.004453
676.788324	7937.301772
677.127473	7853.227929
677.466571	7833.655649
677.805619	7775.742873
678.144616	7780.335365
678.483562	7747.756908
678.822458	7707.503294
679.161303	7692.654576
679.500098	7669.440062
679.838842	7647.669839
680.177535	7664.683734
680.516179	7697.753703
680.854771	7721.353865
681.193314	7837.008016
681.531805	7989.538208
681.870247	8119.783979
682.208638	8267.179756
682.546978	8335.759613
682.885268	8370.841003
683.223508	8295.170763
683.561697	8247.657888
683.899836	8219.518167
684.237925	8134.920044
684.575963	8104.622709
684.913951	8023.702108
685.251889	8043.539048
685.589776	8039.901856
685.927614	8018.013166
686.265401	8038.374386
686.603137	8036.738532
686.940824	8110.472968
687.278460	8171.488574
687.616046	8175.287083
687.953582	8287.745143
688.291068	8270.307792
688.628504	8330.584869
688.965889	8329.657296
689.303224	8290.679095
689.640510	8251.799196
689.977745	8138.519428
690.314930	8017.161211
690.652065	7950.789379
690.989150	7837.096236
691.326185	7678.471289
691.663170	7576.413130
692.000105	7449.522246
692.336990	7337.285997
692.673825	7263.773371
693.010610	7168.387179
693.347345	7073.134577
693.684030	6959.764068
694.020665	6917.877121
694.357251	6797.930427
694.693786	6788.047244
695.030272	6746.351861
695.366707	6655.391802
695.703093	6603.425067
696.039429	6598.542710
696.375716	6551.901954
696.711952	6536.360077
697.048139	6509.800758
697.384276	6474.840356
697.720363	6505.331775
698.056400	6475.767928
698.392388	6438.271826
698.728326	6436.338543
699.064214	6409.862403
699.400053	6410.366519
699.735842	6345.345717
700.071581	6299.529190
700.407270	6257.896821
700.742910	6224.761317
701.078501	6183.300347
701.414042	6143.311394
701.749533	6086.595893
702.084974	6027.017016
702.420366	6068.404889
702.755709	5995.862685
703.091002	5945.244459
703.426246	5949.416014
703.761440	5932.767603
704.096584	5888.856633
704.431679	5881.914964
704.766725	5865.258992
705.101721	5848.464388
705.436668	5864.470051
705.771565	5807.313449
706.106413	5866.032809
706.441212	5864.195308
706.775961	5881.824223
707.110661	5891.283948
707.445311	5953.690913
707.779913	5914.846302
708.114465	5958.089319
708.448967	6004.659498
708.783421	6120.706860
709.117825	6164.617831
709.452180	6197.884405
709.786485	6260.014105
710.120742	6386.710904
710.454949	6391.416822
710.789107	6467.858358
711.123216	6591.853098
711.457275	6623.100691
711.791286	6727.087092
712.125247	6745.005873
712.459159	6715.182407
712.793023	6849.251893
713.126837	6675.977353
713.460602	6732.713019
713.794318	6684.769126
714.127985	6632.280632
714.461602	6486.251008
714.795171	6494.901628
715.128691	6323.177242
715.462162	6234.757925
715.795584	6162.424929
716.128957	6121.387416
716.462281	6051.166663
716.795556	6022.719432
717.128782	5935.157110
717.461960	5834.228169
717.795088	5822.378937
718.128167	5750.860088
718.461198	5669.395041
718.794180	5645.575589
719.127113	5585.807669
719.459997	5553.977824
719.792833	5491.293597
720.125619	5485.468543
720.458357	5428.727836
720.791046	5395.569647
721.123686	5370.305904
721.456278	5323.529038
721.788821	5313.608047
722.121315	5277.178149
722.453761	5286.990755
722.786158	5268.343527
723.118506	5269.813023
723.450805	5248.932564
723.783056	5269.107261
724.115259	5254.712247
724.447412	5247.584055
724.779518	5293.012413
725.111574	5291.961332
725.443582	5329.878371
725.775542	5318.152647
726.107453	5404.036265
726.439315	5376.158684
726.771129	5447.496052
727.102895	5507.689949
727.434612	5554.131579
727.766281	5582.057051
728.097901	5639.117871
728.429473	5654.538761
728.760996	5662.874309
729.092471	5686.237536
729.423897	5671.900495
729.755276	5646.273789
730.086606	5653.941384
730.417887	5747.011167
730.749120	5836.882337
731.080305	5879.424634
731.411442	5952.047496
731.742530	5968.794209
732.073570	5987.353217
732.404562	6055.020625
732.735506	6055.058434
733.066401	6034.024220
733.397249	5965.530062
733.728048	5871.580599
734.058798	5728.220266
734.389501	5601.042036
734.720156	5519.539182
735.050762	5411.363582
735.381320	5335.083362
735.711831	5277.873828
736.042293	5200.033371
736.372707	5196.123957
736.703073	5153.223737
737.033391	5183.662224
737.363661	5166.751674
737.693883	5179.999826
738.024056	5201.979257
738.354182	5231.908587
738.684260	5281.508500
739.014290	5317.303213
739.344272	5348.429817
739.674207	5408.550618
740.004093	5436.602118
740.333931	5445.035969
740.663722	5469.304083
740.993464	5484.835878
741.323159	5458.846210
741.652806	5414.005146
741.982405	5383.909458
742.311956	5330.153114
742.641460	5318.036701
742.970915	5270.286891
743.300323	5204.280543
743.629683	5172.400287
743.958996	5125.630982
744.288260	5075.763888
744.617477	5011.600082
744.946647	4997.676415
745.275768	4944.613229
745.604842	4913.884876
745.933869	4883.022932
746.262847	4868.174214
746.591778	4855.649467
746.920662	4833.866641
747.249498	4829.485878
747.578286	4848.211244
747.907027	4869.046333
748.235720	4910.280451
748.564365	4922.502729
748.892963	4909.703239
749.221514	4931.087814
749.550017	4902.519595
749.878473	4899.719234
750.206881	4860.337740
750.535242	4845.738558
750.863555	4832.669367
751.191821	4808.428979
751.520039	4814.616995
751.848210	4795.717709
752.176334	4795.085045
752.504411	4782.789670
752.832440	4753.477881
753.160421	4769.115541
753.488356	4744.537395
753.816243	4728.798913
754.144082	4692.084189
754.471875	4680.945760
754.799620	4672.910161
755.127318	4663.493285
755.454969	4660.592101
755.782572	4652.233868
756.110129	4655.364425
756.437638	4638.877331
756.765100	4630.037668
757.092515	4639.840191
757.419882	4641.115603
757.747203	4635.731651
758.074477	4651.550792
758.401703	4645.428310
758.728882	4671.241539
759.056014	4684.013302
759.383099	4704.298905
759.710138	4728.413264
760.037129	4753.303962
760.364073	4767.819964
760.690970	4763.048512
761.017820	4766.700828
761.344623	4800.335406
761.671379	4860.027709
761.998088	4950.334939
762.324751	5180.231719
762.651366	5641.401514
762.977935	6333.758624
763.304456	6900.601086
763.630931	7207.123405
763.957359	7132.295038
764.283740	6845.047571
764.610074	6522.970772
764.936362	6121.435307
765.262602	5797.392458
765.588796	5456.300427
765.914943	5199.158731
766.241044	4974.224967
766.567097	4805.333710
766.893104	4653.746214
767.219064	4557.475299
767.544978	4461.887461
767.870845	4378.985686
768.196665	4327.485258
768.522438	4278.553298
768.848165	4239.199531
769.173846	4199.467677
769.499479	4167.723531
769.825066	4136.130620
770.150607	4091.929783
770.476101	4077.905293
770.801548	4054.368145
771.126949	4028.252448
771.452303	4008.513810
771.777611	3969.790187
772.102872	3967.229281
772.428087	3942.547791
772.753256	3914.645005
773.078378	3897.379053
773.403453	3862.917725
773.728482	3840.600537
774.053465	3824.718382
774.378401	3804.047131
774.703291	3784.275725
775.028135	3759.175820
775.352932	3748.730549
775.677683	3729.493506
776.002388	3711.408367
776.327046	3714.581773
776.651658	3690.220397
776.976224	3673.506452
777.300743	3670.746420
777.625216	3657.457938
777.949643	3646.886639
778.274024	3646.979900
778.598359	3628.546921
778.922647	3631.402735
779.246889	3621.585088
779.571086	3621.048205
779.895236	3619.976960
780.219339	3619.704737
780.543397	3620.546610
780.867409	3635.881800
781.191374	3635.934732
781.515294	3628.551962
781.839167	3642.369765
782.162995	3639.070330
782.486776	3635.090339
782.810511	3624.272023
783.134201	3614.756845
783.457844	3611.427163
783.781441	3602.234619
784.104993	3595.030810
784.428498	3588.124429
784.751958	3583.710899
785.075372	3580.754262
785.398739	3568.489135
785.722061	3578.644539
786.045337	3576.675969
786.368568	3599.018363
786.691752	3598.993157
787.014891	3642.483191
787.337983	3689.302907
787.661030	3778.407822
787.984031	3875.094632
788.306987	3952.620017
788.629897	3998.497037
788.952760	4009.779140
789.275579	3990.794154
789.598351	3941.123665
789.921078	3888.932600
790.243759	3828.620235
790.566395	3782.196249
790.888984	3730.537025
791.211529	3691.621838
791.534027	3646.183398
791.856480	3612.896659
792.178888	3594.655244
792.501249	3571.254208
792.823566	3541.445865
793.145836	3537.453271
793.468062	3525.193185
793.790241	3507.712984
794.112375	3516.144314
794.434464	3539.663817
794.756507	3539.142058
795.078505	3556.213925
795.400457	3596.049123
795.722364	3645.664159
796.044226	3691.087476
796.366042	3739.636308
796.687812	3737.486256
797.009538	3760.821757
797.331218	3750.729367
797.652852	3743.213007
797.974442	3720.726940
798.295986	3708.484498
798.617484	3681.506763
798.938938	3658.269564
799.260346	3640.529744
799.581709	3606.141513
799.903026	3595.731530
800.224299	3575.740835
800.545526	3542.605330
800.866708	3525.276364
801.187845	3514.374869
801.508936	3492.881909
801.829983	3484.306907
802.150984	3451.075621
802.471940	3445.769806
802.792851	3436.673044
803.113717	3429.998556
803.434538	3424.712907
803.755314	3413.836617
804.076045	3408.808066
804.396731	3395.769122
804.717372	3396.966396
805.037967	3396.429513
805.358518	3396.023700
805.679024	3412.546082
805.999485	3409.692789
806.319901	3414.675969
806.640272	3414.282759
806.960598	3427.659461
807.280879	3423.739964
807.601115	3439.833848
807.921306	3428.720624
808.241453	3432.007456
808.561554	3438.744958
808.881611	3434.613733
809.201623	3436.310081
809.521590	3427.669543
809.841513	3424.954882
810.161390	3433.953342
810.481223	3413.143458
810.801011	3409.423087
811.120755	3407.862850
811.440453	3394.725603
811.760107	3389.195457
812.079716	3385.011299
812.399281	3371.732900
812.718801	3372.257180
813.038276	3363.089842
813.357707	3358.336034
813.677093	3364.564379
813.996434	3350.003007
814.315731	3355.906198
814.634983	3353.816639
814.954191	3353.539376
815.273354	3372.395812
815.592473	3381.298490
815.911547	3407.189856
816.230577	3416.059766
816.549562	3443.657563
816.868502	3459.532156
817.187399	3479.674086
817.506250	3505.550329
817.825058	3518.720343
818.143821	3562.989236
818.462539	3607.542954
818.781213	3665.163342
819.099843	3750.099223
819.418429	3903.688057
819.736970	4052.654153
820.055466	4241.684819
820.373919	4477.499914
820.692327	4815.461388
821.010691	5331.317620
821.329011	6408.773514
821.647286	8148.148032
821.965517	10319.869547
822.283704	11943.380705
822.601847	13037.878219
822.919945	12626.288172
823.237999	11943.882299
823.556010	11047.955835
823.873976	10097.335372
824.191897	9120.833625
824.509775	8352.856686
824.827609	7548.139818
825.145398	7002.828125
825.463144	6619.478622
825.780845	6489.222768
826.098502	6546.893568
826.416116	6931.508401
826.733685	7433.118332
827.051210	7724.481901
827.368692	7629.420863
827.686129	7187.132709
828.003522	6638.561909
828.320872	6065.942285
828.638177	5600.323672
828.955439	5234.096448
829.272656	4900.813164
829.589830	4615.849340
829.906960	4349.593238
830.224046	4141.779233
830.541088	3971.141216
830.858086	3852.704347
831.175041	3760.249586
831.491952	3711.577246
831.808819	3691.470603
832.125642	3731.381418
832.442421	3834.994774
832.759157	4050.660377
833.075849	4425.228190
833.392497	4894.378131
833.709101	5282.161329
834.025662	5396.076283
834.342179	5268.308238
834.658653	4996.118698
834.975083	4721.615268
835.291469	4476.806755
835.607811	4248.755038
835.924110	4095.629990
836.240366	3932.848611
836.556578	3773.220475
836.872746	3637.673930
837.188871	3523.053215
837.504952	3424.430602
837.820990	3351.139787
838.136984	3293.794141
838.452935	3266.667692
838.768842	3254.384921
839.084706	3285.871968
839.400526	3420.009510
839.716303	3646.954694
840.032037	3856.898587
840.347727	3924.639092
840.663373	3832.675843
840.978977	3683.175385
841.294537	3552.458266
841.610054	3446.997327
841.925527	3371.206100
842.240957	3304.960297
842.556344	3243.475864
842.871687	3184.774148
843.186987	3122.200826
843.502244	3069.384657
843.817458	3028.783204
844.132629	2998.034686
844.447756	2974.172384
844.762840	2954.050619
845.077881	2935.980603
845.392879	2922.482913
845.707833	2911.674680
846.022745	2900.183369
846.337613	2896.026938
846.652438	2886.297511
846.967221	2884.144938
847.281960	2874.637322
847.596656	2870.785881
847.911309	2861.928573
848.225919	2861.860518
848.540485	2855.460773
848.855009	2853.875330
849.169490	2848.446007
849.483928	2847.097499
849.798323	2842.207580
850.112675	2839.815552
850.426984	2838.209945
850.741251	2836.982424
851.055474	2835.112156
851.369654	2837.806652
851.683792	2833.509069
851.997887	2836.669872
852.311938	2834.124089
852.625947	2837.186590
852.939914	2830.985971
853.253837	2836.526199
853.567718	2834.837413
853.881555	2833.110817
854.195350	2833.022597
854.509103	2833.894717
854.822812	2832.200889
855.136479	2831.734582
855.450103	2834.812207
855.763685	2832.052175
856.077224	2829.261897
856.390720	2830.214675
856.704173	2835.933864
857.017584	2834.988647
857.330953	2837.695747
857.644278	2843.586335
857.957561	2842.494925
858.270802	2842.384020
858.584000	2845.595235
858.897155	2842.051304
859.210268	2840.153309
859.523339	2838.202383
859.836367	2834.149295
860.149352	2835.056703
860.462295	2835.810355
860.775195	2829.607216
861.088054	2831.117041
861.400869	2829.140909
861.713642	2828.936742
862.026373	2831.195179
862.339062	2833.395643
862.651708	2836.926971
862.964312	2841.282528
863.276873	2841.910152
863.589392	2852.557068
863.901869	2855.864065
864.214303	2859.891947
864.526696	2870.690099
864.839045	2876.547920
865.151353	2884.487737
865.463619	2887.162069
865.775842	2888.213150
866.088023	2896.019376
866.400162	2891.804972
866.712258	2893.498799
867.024313	2896.147926
867.336325	2898.187073
867.648296	2896.848646
867.960224	2897.093142
868.272110	2904.112949
868.583954	2902.429203
868.895755	2902.522465
869.207515	2900.649676
869.519233	2909.925399
869.830909	2913.408837
870.142542	2915.697520
870.454134	2915.639547
870.765684	2920.131215
871.077191	2929.611105
871.388657	2934.127979
871.700081	2942.405553
872.011463	2946.796398
872.322803	2953.428036
872.634101	2957.387863
872.945357	2963.021352
873.256571	2973.433855
873.567744	2980.277222
873.878874	2987.773418
874.189963	2995.740961
874.501010	2992.673419
874.812015	2996.111486
875.122979	3001.762619
875.433900	3007.043228
875.744780	3007.562467
876.055618	3016.450021
876.366415	3015.532531
876.677169	3021.428161
876.987882	3026.103831
877.298554	3037.524565
877.609183	3050.873540
877.919771	3069.876170
878.230317	3092.579006
878.540822	3128.749285
878.851285	3180.882377
879.161707	3249.681524
879.472087	3352.271526
879.782425	3516.756814
880.092722	3792.810399
880.402977	4214.739852
880.713191	4761.248820
881.023363	5362.108988
881.333494	5801.924455
881.643583	6084.652528
881.953631	6170.072359
882.263637	6120.094360
882.573602	5976.728986
882.883526	5805.521319
883.193408	5605.374908
883.503248	5384.252256
883.813048	5169.113454
884.122806	4952.406853
884.432522	4706.038103
884.742197	4480.945543
885.051831	4273.244963
885.361424	4070.025969
885.670975	3902.735279
885.980485	3750.799943
886.289954	3628.085656
886.599382	3525.155376
886.908768	3442.407357
887.218113	3363.112527
887.527417	3295.747588
887.836680	3240.526789
888.145901	3193.613811
888.455082	3155.747184
888.764221	3120.194447
889.073319	3092.246290
889.382376	3072.439596
889.691392	3056.189437
890.000366	3048.242058
890.309300	3037.128834
890.618193	3036.123124
890.927044	3029.942669
891.235855	3032.382588
891.544625	3032.349820
891.853353	3040.745862
892.162041	3056.108778
892.470687	3079.948395
892.779293	3113.724126
893.087858	3160.362361
893.396381	3240.592324
893.704864	3344.694672
894.013306	3503.082684
894.321707	3689.872558
894.630068	3844.351156
894.938387	3922.688166
895.246665	3930.166717
895.554903	3870.734034
895.863100	3782.463430
896.171256	3710.715208
896.479371	3636.660658
896.787446	3560.324986
897.095480	3489.055674
897.403473	3430.578289
897.711425	3376.922768
898.019336	3323.640293
898.327207	3274.937705
898.635038	3221.287225
898.942827	3172.350224
899.250576	3130.601909
899.558284	3091.963985
899.865952	3066.959862
900.173579	3035.624050
900.481165	3013.440452
900.788711	2993.575786
901.096216	2979.591625
901.403681	2962.633183
901.711105	2957.397945
902.018489	2952.051801
902.325832	2960.389870
902.633135	2967.197948
902.940397	3006.680265
903.247619	3096.445571
903.554800	3271.905451
903.861941	3554.487330
904.169041	3814.237823
904.476101	3981.508349
904.783121	4006.588089
905.090100	3942.262966
905.397039	3831.730627
905.703938	3728.150039
906.010796	3621.955612
906.317614	3536.765154
906.624391	3454.193574
906.931129	3384.668501
907.237826	3314.364569
907.544483	3249.144642
907.851099	3178.921368
908.157675	3100.170984
908.464211	3031.611291
908.770707	2976.055255
909.077163	2925.648758
909.383578	2887.668705
909.689954	2861.119468
909.996289	2839.051817
910.302584	2828.737617
910.608839	2818.493992
910.915054	2809.346818
911.221229	2802.392547
911.527363	2805.351704
911.833458	2805.931437
912.139513	2808.976293
912.445527	2813.155410
912.751502	2824.707214
913.057436	2837.698267
913.363331	2857.008407
913.669186	2888.061915
913.975000	2925.144643
914.280775	2986.162769
914.586510	3064.504820
914.892205	3174.969104
915.197859	3321.185251
915.503475	3501.958507
915.809050	3679.127338
916.114585	3815.838389
916.420081	3889.414030
916.725536	3919.003082
917.030952	3880.942371
917.336328	3847.249819
917.641665	3800.936739
917.946961	3739.643870
918.252218	3675.167512
918.557435	3607.679065
918.862612	3537.796070
919.167750	3476.697285
919.472848	3404.379413
919.777906	3335.557580
920.082925	3261.813061
920.387904	3194.193544
920.692843	3139.870070
920.997743	3089.995415
921.302603	3036.904503
921.607423	3001.513082
921.912204	2965.289871
922.216946	2939.847168
922.521647	2915.422778
922.826310	2893.390415
923.130932	2873.934081
923.435516	2852.000021
923.740059	2843.687158
924.044564	2825.813747
924.349028	2816.127170
924.653454	2797.568162
924.957840	2782.699279
925.262186	2776.475975
925.566493	2766.363420
925.870761	2753.720206
926.174989	2746.960019
926.479178	2741.044225
926.783328	2733.278327
927.087438	2723.947152
927.391509	2720.398179
927.695541	2714.555482
927.999533	2705.178936
928.303486	2700.977134
928.607400	2698.401104
928.911275	2696.442616
929.215110	2693.198634
929.518906	2690.088242
929.822663	2689.314425
930.126381	2687.323169
930.430060	2690.264682
930.733699	2690.688139
931.037299	2692.621422
931.340861	2685.495751
931.644383	2691.852646
931.947866	2692.074456
932.251309	2688.381811
932.554714	2690.849456
932.858080	2690.942717
933.161407	2688.212932
933.464694	2685.790658
933.767943	2685.185720
934.071153	2682.037519
934.374323	2680.215142
934.677455	2684.646316
934.980548	2679.325378
935.283602	2678.528876
935.586617	2678.788495
935.889593	2679.842097
936.192530	2679.534586
936.495428	2680.356294
936.798287	2685.284022
937.101108	2689.203519
937.403890	2696.712318
937.706632	2705.506611
938.009336	2716.259392
938.312002	2727.758264
938.614628	2734.122721
938.917216	2749.775503
939.219765	2756.951586
939.522275	2762.564911
939.824747	2767.031373
940.127179	2762.766557
940.429573	2765.617329
940.731929	2766.998605
941.034246	2764.568769
941.336524	2763.847884
941.638763	2766.035745
941.940964	2764.500714
942.243126	2756.341606
942.545250	2753.480751
942.847335	2746.549165
943.149381	2739.352918
943.451389	2737.651528
943.753359	2733.308574
944.055290	2726.490414
944.357182	2721.494630
944.659036	2716.874413
944.960851	2714.996583
945.262628	2709.254709
945.564367	2712.002137
945.866067	2709.635316
946.167729	2708.339739
946.469352	2708.586756
946.770937	2706.446786
947.072484	2703.588452
947.373992	2701.718184
947.675462	2699.666434
947.976893	2700.223482
948.278286	2699.457226
948.579641	2699.384129
948.880958	2696.538398
949.182236	2695.870445
949.483476	2694.698377
949.784678	2695.026052
950.085841	2694.239632
950.386967	2697.433203
950.688054	2696.344314
950.989103	2698.136444
951.290114	2700.793132
951.591087	2704.342104
951.892021	2708.737990
952.192917	2715.228476
952.493776	2719.367263
952.794596	2723.218705
953.095378	2724.408417
953.396122	2725.754405
953.696828	2725.094014
953.997496	2722.149980
954.298126	2719.994887
954.598718	2719.367263
954.899272	2711.619010
955.199788	2710.426777
955.500266	2702.305478
955.800706	2696.067050
956.101108	2689.085052
956.401472	2683.179340
956.701798	2675.927641
957.002087	2670.952022
957.302337	2668.043276
957.602550	2662.298881
957.902724	2656.156235
958.202861	2652.355205
958.502960	2645.486633
958.803022	2645.539565
959.103045	2638.975983
959.403031	2634.474232
959.702979	2632.641773
960.002889	2630.388377
960.302762	2628.467698
960.602596	2626.647841
960.902393	2622.854373
961.202153	2621.047119
961.501875	2620.285905
961.801559	2615.743825
962.101205	2614.052518
962.400814	2614.503702
962.700385	2612.797271
962.999918	2613.097220
963.299414	2611.237034
963.598873	2609.996910
963.898293	2608.532455
964.197677	2608.356014
964.497022	2609.442383
964.796331	2608.252671
965.095601	2607.869543
965.394835	2603.902155
965.694030	2604.275200
965.993189	2601.999119
966.292309	2604.111363
966.591393	2604.595314
966.890439	2604.817124
967.189447	2602.097422
967.488419	2604.897783
967.787353	2603.972731
968.086249	2606.362238
968.385108	2607.075561
968.683930	2604.635643
968.982714	2607.708226
969.281462	2606.445417
969.580172	2606.011878
969.878844	2607.309975
970.177480	2610.584204
970.476078	2609.202928
970.774639	2612.368773
971.073162	2612.336005
971.371649	2613.608897
971.670098	2612.928341
971.968510	2613.626541
972.266885	2612.885491
972.565223	2616.931017
972.863524	2621.649537
973.161788	2620.817747
973.460014	2622.246914
973.758204	2620.953858
974.056356	2621.470576
974.354471	2622.798920
974.652550	2622.216667
974.950591	2622.554424
975.248595	2621.301697
975.546563	2622.892182
975.844493	2621.762963
976.142386	2621.722634
976.440243	2619.161728
976.738062	2619.086110
977.035845	2616.958743
977.333590	2616.694083
977.631299	2615.201901
977.928971	2616.741974
978.226606	2614.654936
978.524204	2612.048660
978.821765	2613.089658
979.119290	2614.468413
979.416777	2608.754266
979.714228	2611.295007
980.011642	2614.002107
980.309020	2614.503702
980.606360	2618.029989
980.903664	2618.327417
981.200931	2623.282871
981.498162	2632.087246
981.795356	2644.236427
982.092513	2657.610608
982.389633	2676.041067
982.686717	2695.169725
982.983764	2713.330482
983.280775	2722.888509
983.577749	2727.748182
983.874686	2733.285889
984.171587	2725.583006
984.468451	2719.959599
984.765279	2715.112529
985.062070	2709.516849
985.358824	2699.500076
985.655543	2690.453725
985.952224	2681.185564
986.248869	2669.704336
986.545478	2654.215391
986.842050	2639.918679
987.138586	2631.784777
987.435086	2623.542490
987.731549	2612.832559
988.027975	2610.967332
988.324366	2604.897783
988.620719	2606.566405
988.917037	2602.379727
989.213318	2601.968872
989.509563	2597.217585
989.805772	2597.646083
990.101944	2597.840167
990.398080	2596.635332
990.694180	2593.514858
990.990244	2594.424786
991.286271	2592.529312
991.582262	2593.502255
991.878217	2594.341607
992.174136	2594.250866
992.470019	2595.312029
992.765865	2597.048706
993.061676	2597.830085
993.357450	2600.388471
993.653188	2599.889397
993.948890	2601.535333
994.244556	2604.209665
994.540186	2610.735439
994.835780	2615.368259
995.131337	2619.832201
995.426859	2628.813017
995.722345	2634.890128
996.017795	2648.927221
996.313208	2654.540545
996.608586	2660.539518
996.903928	2664.902637
997.199234	2668.532268
997.494504	2667.145951
997.789738	2666.132679
998.084936	2663.924653
998.380099	2658.031544
998.675225	2651.906542
998.970316	2648.884371
999.265371	2645.103505
999.560390	2632.727473
999.855373	2630.312760
1000.150320	2625.122892
1000.445232	2614.997735
1000.740108	2610.984976
1001.034948	2610.009513
1001.329752	2603.312340
1001.624521	2602.702360
1001.919254	2594.676843
1002.213951	2593.661051
1002.508613	2591.568972
1002.803239	2592.461256
1003.097829	2586.762232
1003.392384	2591.510999
1003.686903	2588.115782
1003.981386	2590.071749
1004.275834	2585.320462
1004.570246	2589.383632
1004.864623	2586.963878
1005.158964	2585.456573
1005.453270	2585.126377
1005.747540	2585.655699
1006.041775	2581.179154
1006.335974	2583.792992
1006.630138	2583.558579
1006.924266	2584.831470
1007.218359	2581.700913
1007.512416	2584.569330
1007.806438	2583.288877
1008.100425	2581.474062
1008.394376	2583.896336
1008.688292	2583.583784
1008.982172	2582.762076
1009.276017	2582.298290
1009.569827	2582.978846
1009.863602	2582.373907
1010.157341	2583.979515
1010.451045	2582.585636
1010.744714	2579.855851
1011.038347	2582.358784
1011.331945	2579.283680
1011.625508	2581.499267
1011.919036	2580.438104
1012.212528	2579.928948
1012.505986	2580.044894
1012.799408	2577.181519
1013.092795	2581.252251
1013.386147	2578.441807
1013.679464	2577.945254
1013.972745	2576.763103
1014.265992	2579.306365
1014.559204	2579.644123
1014.852380	2577.791499
1015.145521	2579.621437
1015.438628	2580.327199
1015.731699	2580.339802
1016.024736	2581.751325
1016.317737	2581.267374
1016.610703	2583.276274
1016.903635	2576.548854
1017.196531	2575.522979
1017.489393	2578.346026
1017.782219	2576.498443
1018.075011	2578.162023
1018.367768	2581.947930
1018.660490	2582.794844
1018.953177	2582.794844
1019.245829	2582.794844
