Dividing Wavelength (nm)	Counts (n)	Blue Motor Position (mm): 43.000000	Red Motor Position (mm): 0.000000	
326.493990	2048.455221
326.888308	2048.455221
327.282561	2048.455221
327.676750	2024.812210
328.070874	2025.684329
328.464933	2032.313447
328.858929	2039.842410
329.252859	2052.105017
329.646726	2062.250339
330.040528	2081.774728
330.434265	2095.075812
330.827938	2119.170007
331.221547	2141.376290
331.615091	2160.464619
332.008571	2182.232321
332.401986	2199.795701
332.795338	2221.046685
333.188625	2238.945302
333.581847	2258.520102
333.975006	2278.898967
334.368100	2295.191976
334.761129	2310.461631
335.154095	2329.466781
335.546996	2379.028885
335.939833	2485.493013
336.332606	2495.557677
336.725315	2508.982269
337.117960	2519.120030
337.510540	2529.018335
337.903056	2540.615510
338.295508	2544.892929
338.687896	2554.125802
339.080220	2555.123950
339.472480	2562.317677
339.864676	2566.844633
340.256807	2567.847823
340.648875	2571.147258
341.040879	2572.765468
341.432818	2575.437280
341.824694	2573.488874
342.216506	2574.774368
342.608253	2573.025088
342.999937	2571.162381
343.391557	2571.661456
343.783113	2570.731363
344.174605	2569.392936
344.566033	2567.759602
344.957397	2567.888152
345.348697	2561.816082
345.739934	2562.607543
346.131106	2561.332131
346.522215	2559.035886
346.913260	2558.393139
347.304241	2555.040771
347.695159	2553.021789
348.086012	2551.572458
348.476802	2548.141952
348.867528	2546.120450
349.258191	2544.051056
349.648789	2542.024512
350.039324	2539.801363
350.429796	2548.346119
350.820203	2545.981818
351.210548	2542.901673
351.600828	2540.411343
351.991045	2543.597352
352.381198	2539.627443
352.771288	2539.955118
353.161314	2540.968390
353.551276	2539.148534
353.941175	2538.437731
354.331010	2541.875798
354.720782	2542.170706
355.110490	2549.994576
355.500135	2539.884542
355.889717	2543.110881
356.279235	2540.111394
356.668689	2545.112219
357.058080	2543.340253
357.447408	2545.001313
357.836672	2542.878988
358.225873	2545.134904
358.615010	2545.901159
359.004084	2546.790923
359.393095	2547.718495
359.782043	2547.244627
360.170927	2546.034750
360.559748	2550.818805
360.948505	2549.087169
361.337199	2551.708569
361.725830	2551.471634
362.114398	2550.249155
362.502903	2550.949875
362.891344	2552.220246
363.279722	2550.912066
363.668037	2553.044474
364.056289	2552.608415
364.444478	2550.831408
364.832603	2553.694783
365.220665	2553.253682
365.608665	2555.625545
365.996601	2553.586398
366.384474	2556.096893
366.772284	2556.066646
367.160031	2553.316697
367.547715	2557.105124
367.935336	2555.625545
368.322893	2554.052705
368.710388	2553.924156
369.097820	2556.812737
369.485189	2552.605894
369.872495	2560.394477
370.259738	2558.115875
370.646918	2560.097049
371.034035	2561.952193
371.421090	2559.325752
371.808081	2561.851370
372.195010	2561.992523
372.581875	2560.114693
372.968678	2563.840105
373.355418	2564.460167
373.742096	2563.572924
374.128710	2564.878583
374.515262	2565.354972
374.901751	2565.090312
375.288177	2567.779767
375.674540	2566.070816
376.060841	2566.249777
376.447079	2565.435631
376.833254	2569.022412
377.219367	2567.076526
377.605417	2567.290775
377.991404	2567.772205
378.377329	2568.021743
378.763191	2569.271949
379.148991	2572.258832
379.534727	2569.213975
379.920402	2572.752865
380.306013	2570.529717
380.691563	2573.851837
381.077049	2570.875036
381.462474	2574.025757
381.847835	2573.642629
382.233134	2575.893504
382.618371	2572.359655
383.003545	2575.149934
383.388657	2580.249061
383.773706	2576.868967
384.158693	2580.254102
384.543618	2581.655543
384.928480	2580.531366
385.313280	2583.770307
385.698017	2584.786100
386.082692	2587.478076
386.467305	2588.607294
386.851856	2594.679364
387.236344	2600.484253
387.620770	2601.487442
388.005133	2603.138420
388.389435	2613.936572
388.773674	2612.845162
389.157851	2621.697428
389.541965	2630.698408
389.926018	2642.771972
390.310008	2649.506953
390.693936	2657.235042
391.077802	2666.833399
391.461606	2680.542817
391.845348	2687.388704
392.229027	2700.523430
392.612645	2715.122612
392.996200	2729.426886
393.379694	2743.267374
393.763125	2766.723862
394.146494	2780.836573
394.529801	2797.109417
394.913047	2823.895588
395.296230	2834.285406
395.679351	2857.164683
396.062410	2882.057901
396.445408	2890.496792
396.828343	2920.680701
397.211217	2944.124587
397.594028	2950.645319
397.976778	2981.141780
398.359466	3015.172089
398.742092	3031.792773
399.124656	3057.686660
399.507158	3101.458998
399.889598	3121.016155
400.271977	3168.292096
400.654294	3183.251720
401.036549	3232.355079
401.418742	3251.488778
401.800874	3308.176553
402.182944	3341.433045
402.564952	3407.300761
402.946898	3426.066456
403.328783	3445.795012
403.710606	3501.366171
404.092367	3561.544945
404.474067	3628.070532
404.855705	3642.694919
405.237282	3644.570229
405.618797	3732.339238
406.000250	3804.163077
406.381642	3883.243657
406.762972	3909.881114
407.144240	3902.992378
407.525447	3977.384685
407.906593	4009.650590
408.287677	4092.186882
408.668700	4134.711535
409.049661	4186.975697
409.430560	4235.905137
409.811399	4245.218668
410.192176	4301.193120
410.572891	4383.507601
410.953545	4485.260770
411.334138	4419.894649
411.714669	4529.028068
412.095139	4477.837671
412.475547	4584.614351
412.855894	4600.640179
413.236180	4701.974933
413.616405	4659.112522
413.996568	4755.650619
414.376670	4776.770533
414.756711	4775.711890
415.136691	4855.803222
415.516609	4939.758598
415.896466	4986.021267
416.276262	5067.277105
416.655997	5181.786915
417.035670	5264.212301
417.415283	5401.603908
417.794834	5463.537003
418.174324	5428.521149
418.553753	5438.003559
418.933121	5593.697075
419.312428	5613.493686
419.691674	5558.217434
420.070859	5761.910297
420.449983	5662.488661
420.829045	5847.930025
421.208047	5778.389829
421.586988	5934.060659
421.965867	6006.161762
422.344686	6079.515592
422.723444	6247.481797
423.102141	5894.351491
423.480777	6253.808445
423.859352	6089.963383
424.237866	6430.180774
424.616319	6422.266162
424.994712	6579.842549
425.373044	6503.093503
425.751314	6795.568646
426.129524	6540.755963
426.507673	6788.778212
426.885762	6834.279666
427.263789	6864.975252
427.641756	6959.890097
428.019662	7020.852770
428.397508	7058.346352
428.775292	7057.403656
429.153016	7201.179884
429.530679	7152.752040
429.908282	7203.224072
430.285824	7144.202243
430.663305	7394.926550
431.040726	7299.709236
431.418086	7300.687220
431.795385	7439.472706
432.172624	7614.660364
432.549802	7494.940522
432.926920	7624.525902
433.303977	7581.013183
433.680974	7632.410267
434.057910	7810.869633
434.434786	7857.160029
434.811601	7816.240983
435.188355	8153.889906
435.565050	8044.832104
435.941683	8062.967655
436.318257	8374.485757
436.694770	8313.984349
437.071222	8527.290692
437.447614	8298.097153
437.823946	8273.329964
438.200218	8420.476203
438.576429	8308.907907
438.952580	8469.519069
439.328670	8484.017427
439.704700	8561.414262
440.080670	8447.343033
440.456580	8706.854071
440.832429	8690.669447
441.208218	8434.478008
441.583947	8552.617449
441.959616	8651.731574
442.335224	8690.523253
442.710773	8776.212786
443.086261	8945.214948
443.461689	8680.130915
443.837057	8832.409049
444.212365	9034.607209
444.587612	9029.704687
444.962800	8929.315149
445.337927	9063.729955
445.712995	8621.673695
446.088002	9255.878575
446.462949	9319.371907
446.837837	9326.343823
447.212664	9382.063697
447.587431	10286.411409
447.962139	11243.587892
448.336786	11990.863333
448.711374	11600.791451
449.085901	10457.752666
449.460369	10432.728378
449.834776	10359.649292
450.209124	11282.898810
450.583412	11051.933305
450.957640	11260.783268
451.331808	10849.236071
451.705917	10373.048679
452.079965	10283.961408
452.453954	10482.845009
452.827883	10437.734244
453.201752	10404.704604
453.575562	10425.060783
453.949311	10776.671182
454.323001	10853.047183
454.696632	10768.171797
455.070202	11347.503717
455.443713	11411.518809
455.817164	11564.905997
456.190556	11872.187009
456.563888	11708.510826
456.937160	11921.784402
457.310373	11423.531879
457.683526	11467.052160
458.056619	11508.682008
458.429653	11585.368041
458.802628	11756.817683
459.175542	11818.407980
459.548398	12357.892100
459.921194	12936.737549
460.293930	13256.800407
460.666607	14084.419237
461.039224	14807.615606
461.411782	15075.124435
461.784280	14682.877295
462.156719	14590.384725
462.529099	14504.612013
462.901419	13924.256738
463.273680	13581.788472
463.645882	13802.470023
464.018024	13767.708747
464.390106	14171.752186
464.762130	15330.534494
465.134094	17005.460380
465.505999	19265.044166
465.877845	21263.503744
466.249631	22160.766114
466.621358	21520.857168
466.993026	20697.077177
467.364634	19985.954372
467.736184	19293.370409
468.107674	18751.612729
468.479105	18600.078165
468.850477	18331.215786
469.221790	17913.301612
469.593043	17280.586393
469.964238	16941.349506
470.335373	17051.236578
470.706449	17922.214372
471.077467	19048.577020
471.448425	21389.840101
471.819324	22872.864383
472.190164	22355.309282
472.560945	20688.539983
472.931667	19283.709038
473.302330	19039.424805
473.672934	18591.046938
474.043479	19020.006280
474.413965	18836.543568
474.784393	18674.785544
475.154761	19307.924221
475.525070	19445.300704
475.895321	19279.320714
476.265513	19795.207192
476.635645	20374.919720
477.005719	20441.435225
477.375734	20814.236113
477.745691	21425.806213
478.115588	22084.866502
478.485427	23354.433207
478.855207	25209.474479
479.224928	26926.037775
479.594591	28096.351723
479.964194	27564.106700
480.333739	27943.118290
480.703226	28236.652075
481.072653	28745.763243
481.442022	29238.520908
481.811333	29537.637772
482.180584	29033.749239
482.549777	28821.062958
482.918912	28631.560944
483.287988	28582.603779
483.657005	28405.205575
484.025964	28079.973014
484.394864	28256.458769
484.763706	28204.892806
485.132489	27710.947949
485.501213	27783.371686
485.869879	27990.580753
486.238487	27950.087685
486.607036	28217.712460
486.975527	27932.917515
487.343959	28264.932948
487.712333	28576.680423
488.080648	28566.056191
488.448905	28986.001951
488.817104	28928.076572
489.185244	29821.500104
489.553326	30975.720168
489.921350	32901.609816
490.289315	35271.673008
490.657222	35952.359848
491.025070	36342.978695
491.392861	35962.051466
491.760593	35169.970250
492.128267	34159.886857
492.495883	33222.456573
492.863440	32394.517630
493.230939	31510.183299
493.598380	31014.005211
493.965763	30906.852965
494.333088	30444.760639
494.700354	30270.258578
495.067563	30252.969941
495.434713	30177.914722
495.801805	30458.850664
496.168839	30321.779170
496.535815	30199.684945
496.902733	30348.928304
497.269593	30170.267292
497.636395	30333.152013
498.003139	30629.889452
498.369825	30394.986807
498.736453	30820.150160
499.103023	30669.013847
499.469535	30762.197056
499.835989	30895.979196
500.202385	30767.528076
500.568723	30839.873675
500.935003	31173.572853
501.301226	31069.344477
501.667390	31775.040481
502.033497	31970.322178
502.399546	31777.513167
502.765537	31392.636194
503.131470	31850.952696
503.497345	32288.164407
503.863163	31285.090738
504.228923	32065.799111
504.594625	32448.523511
504.960269	31958.067133
505.325856	32626.186375
505.691385	32308.883549
506.056856	32635.262973
506.422270	33129.026348
506.787625	32673.943746
507.152924	33141.261228
507.518164	33359.540669
507.883347	32918.664039
508.248472	33080.646395
508.613540	33754.595732
508.978550	34016.524003
509.343503	33878.930750
509.708398	34227.990325
510.073236	34838.970609
510.438016	34930.560813
510.802738	34630.874299
511.167403	35203.642637
511.532010	35460.668387
511.896561	35950.164425
512.261053	36703.887501
512.625488	36481.862483
512.989866	36423.962311
513.354186	36492.491756
513.718449	36462.277600
514.082655	37342.279060
514.446803	37065.315547
514.810894	37663.211517
515.174927	37703.008906
515.538904	37680.732047
515.902822	38350.756846
516.266684	38046.455155
516.630488	38411.101978
516.994235	38430.916233
517.357925	39015.790902
517.721558	39288.000607
518.085133	39666.069501
518.448651	39861.845232
518.812112	39737.096838
519.175516	39907.815513
519.538863	40349.723060
519.902152	40427.911356
520.265385	40959.463220
520.628560	40993.420433
520.991678	40945.340428
521.354739	41176.583196
521.717743	41556.706360
522.080690	41449.536471
522.443580	42142.445587
522.806413	42167.795030
523.169189	42303.880978
523.531908	42539.229766
523.894569	42409.117585
524.257174	42590.190790
524.619722	42931.199642
524.982213	43087.235956
525.344647	43126.352789
525.707025	43253.921708
526.069345	43700.663721
526.431608	43602.318371
526.793815	43992.627187
527.155964	43552.536977
527.518057	43817.265609
527.880093	43661.801466
528.242072	44291.696159
528.603995	44022.488462
528.965860	43958.478411
529.327669	44187.137588
529.689421	44245.761166
530.051117	44184.498543
530.412755	44475.688193
530.774337	44538.952153
531.135862	44499.757182
531.497331	44625.392818
531.858743	44627.502541
532.220098	45029.519436
532.581396	44766.489673
532.942638	44526.175348
533.303824	44795.798941
533.664953	44842.290983
534.026025	44516.856775
534.387040	45090.711482
534.747999	45154.335885
535.108902	45477.501573
535.469748	44817.377600
535.830537	45064.815075
536.191270	45315.420915
536.551947	45049.996603
536.912567	45339.391602
537.273131	45487.984652
537.633638	45101.665910
537.994089	45307.385316
538.354483	45059.819292
538.714821	45711.476646
539.075103	45997.000038
539.435328	45844.724425
539.795497	45615.114991
540.155609	45712.343725
540.515665	46304.908674
540.875665	45617.794364
541.235609	45902.138126
541.595496	46022.843514
541.955328	46609.119624
542.315102	46032.746860
542.674821	45923.013544
543.034483	45817.794581
543.394090	45834.440471
543.753640	45815.710064
544.113134	46877.258597
544.472571	45977.606720
544.831953	47110.616129
545.191278	46376.840898
545.550548	46056.725109
545.909761	46715.460243
546.268918	46859.486009
546.628019	47265.729912
546.987064	46702.428861
547.346053	45992.793196
547.704986	46899.991680
548.063863	46552.991417
548.422684	46748.920902
548.781449	46336.589806
549.140158	46884.132210
549.498811	46658.326326
549.857408	46021.416867
550.215949	46886.604896
550.574434	46708.669809
550.932864	46636.641803
551.291237	47373.459370
551.649555	47122.263715
552.007817	47299.089748
552.366022	46971.966754
552.724173	47030.275260
553.082267	47458.201166
553.440305	47796.528124
553.798288	47055.980103
554.156215	47436.430943
554.514086	47645.754774
554.871902	47255.085516
555.229661	47445.265565
555.587365	47118.205586
555.945014	47250.460257
556.302606	47271.696118
556.660143	47375.531284
557.017625	47594.594624
557.375050	47292.334602
557.732421	47703.133187
558.089735	47762.979245
558.446994	47620.743089
558.804197	48108.303325
559.161345	47979.585023
559.518437	47314.437541
559.875474	47568.932631
560.232455	47793.294224
560.589381	47848.462091
560.946251	47660.573246
561.303065	48319.605809
561.659825	47998.353239
562.016528	47814.373809
562.373177	47387.796411
562.729770	48028.650573
563.086307	47552.344714
563.442789	48088.098380
563.799216	47930.184236
564.155587	47829.063731
564.511904	47798.733629
564.868164	47846.009570
565.224370	48145.433943
565.580520	47891.327022
565.936615	48078.583202
566.292654	47727.418946
566.648638	48092.262373
567.004567	48039.708344
567.360441	48153.620777
567.716260	47870.391110
568.072023	48209.355774
568.427732	48146.406886
568.783385	47682.124179
569.138982	48094.876212
569.494525	48221.724245
569.850013	47814.835074
570.205445	47954.386816
570.560823	47737.347498
570.916145	47595.776775
571.271412	47836.023044
571.626625	47487.374323
571.981782	47554.661124
572.336884	47161.630085
572.691931	47482.000453
573.046923	47151.547778
573.401860	46991.576842
573.756743	46991.347470
574.111570	47128.010630
574.466342	47040.816313
574.821059	47192.406329
575.175722	46703.328707
575.530330	46807.012638
575.884882	46445.922350
576.239380	46336.269692
576.593823	46439.361288
576.948211	46367.403858
577.302544	45903.388332
577.656823	45895.584626
578.011047	46165.745102
578.365216	45970.213867
578.719330	45698.856118
579.073389	45698.092383
579.427394	45723.479634
579.781344	45659.242731
580.135239	45421.045691
580.489080	45484.894425
580.842866	44972.831661
581.196597	45459.804602
581.550273	45458.309900
581.903895	45389.389765
582.257463	45836.310739
582.610975	45263.040806
582.964434	45598.431292
583.317837	45107.019615
583.671186	45063.176700
584.024481	45331.252659
584.377721	44887.079114
584.730906	45095.639210
585.084037	45201.533688
585.437113	44910.442341
585.790135	45043.962342
586.143103	44598.750320
586.496016	44752.921407
586.848874	44875.993617
587.201679	44894.035906
587.554428	44382.636054
587.907124	44675.380899
588.259765	44434.829641
588.612352	44605.901196
588.964884	44052.175817
589.317362	44359.242580
589.669786	44366.627870
590.022155	44212.560126
590.374470	44670.627091
590.726731	44239.618520
591.078937	43593.198924
591.431090	43914.355712
591.783188	43448.437150
592.135232	43235.597114
592.487222	43513.528528
592.839157	43662.391281
593.191038	43293.618274
593.542866	43109.764873
593.894639	42505.393541
594.246358	42806.080724
594.598022	42806.733553
594.949633	42382.054150
595.301190	42345.725075
595.652692	42283.857515
596.004141	42777.141980
596.355535	41686.780733
596.706876	41710.353168
597.058162	41412.322673
597.409395	41929.151848
597.760573	42133.222797
598.111698	41728.894532
598.462768	41654.477019
598.813785	41684.489528
599.164748	41269.796651
599.515657	41550.034393
599.866511	41049.760368
600.217312	41760.701692
600.568060	40679.094408
600.918753	41510.552076
601.269392	41428.734149
601.619978	41149.529844
601.970510	41349.008301
602.320988	41493.311330
602.671412	41745.056471
603.021783	41632.275777
603.372100	41197.904756
603.722363	41308.442136
604.072572	41325.166164
604.422728	41323.121976
604.772830	41115.945677
605.122878	41268.788420
605.472872	41115.910389
605.822813	41376.341438
606.172701	41140.365026
606.522534	41456.493263
606.872314	41666.689214
607.222041	41499.983297
607.571714	41824.162257
607.921333	41327.260764
608.270899	41539.566437
608.620411	41933.144442
608.969870	41658.232678
609.319276	41673.111644
609.668627	41705.032230
610.017926	42110.043571
610.367171	42228.414905
610.716362	42289.044862
611.065500	42171.187726
611.414585	42396.577715
611.763616	42577.925662
612.112594	42458.825882
612.461518	42601.364507
612.810389	42990.050072
613.159207	42779.604584
613.507971	42754.676078
613.856682	43237.356477
614.205340	43080.846294
614.553945	43774.110812
614.902496	43085.050616
615.250994	43525.229046
615.599439	43576.684104
615.947830	43677.958364
616.296169	43673.484340
616.644454	43722.007966
616.992686	43884.217173
617.340864	44331.775853
617.688990	43856.271537
618.037063	44543.655549
618.385082	44355.549935
618.733048	44699.336462
619.080961	44569.405763
619.428821	44582.364049
619.776628	44609.190549
620.124382	44412.681331
620.472083	44529.822623
620.819731	44631.159898
621.167326	44185.254717
621.514868	44169.579249
621.862357	43644.033919
622.209793	43726.844953
622.557176	43312.003362
622.904506	43060.875763
623.251783	42675.328317
623.599007	42368.470761
623.946179	42287.885397
624.293297	42012.403983
624.640363	41480.116110
624.987376	41326.590290
625.334336	41120.205452
625.681243	40714.087577
626.028097	40632.531790
626.374899	40444.050610
626.721647	40410.574828
627.068343	40207.101256
627.414987	39902.028269
627.761577	39643.815328
628.108115	39978.333694
628.454600	39224.653468
628.801032	39462.253131
629.147412	39357.283705
629.493739	39245.264225
629.840014	38818.858227
630.186236	39231.695960
630.532405	38691.987508
630.878521	38916.243237
631.224585	38714.579439
631.570597	38351.666774
631.916556	38520.371508
632.262462	38410.242461
632.608316	38360.319914
632.954117	38213.634940
633.299866	38180.247378
633.645562	38070.206552
633.991206	37553.672285
634.336797	37144.219687
634.682336	37027.227109
635.027823	36788.941849
635.373257	36667.598755
635.718639	36337.584660
636.063968	36244.237614
636.409245	35585.988951
636.754470	35534.110437
637.099642	35308.778421
637.444762	34743.216412
637.789829	34903.192389
638.134845	34503.779249
638.479808	34436.449598
638.824719	34371.665730
639.169577	33860.883419
639.514383	33969.255624
639.859137	33578.835903
640.203839	33750.482150
640.548489	33456.784527
640.893086	33456.532469
641.237632	33173.539737
641.582125	33279.701395
641.926566	33067.231884
642.270955	33089.236521
642.615292	33022.781510
642.959576	32919.878957
643.303809	32921.867693
643.647990	33003.857019
643.992118	32951.008082
644.336195	32797.812458
644.680219	32889.569020
645.024192	33092.873713
645.368112	33616.498363
645.711981	33630.169972
646.055797	34362.422774
646.399562	34169.094524
646.743274	35060.173919
647.086935	35444.393022
647.430544	35407.801806
647.774101	35450.734793
648.117606	35716.320422
648.461059	35865.531014
648.804460	35462.634437
649.147810	34955.000327
649.491108	34604.892192
649.834354	34465.511850
650.177548	33628.461021
650.520690	33152.911335
650.863781	33123.781028
651.206820	32946.289562
651.549807	32550.700138
651.892742	31956.184262
652.235626	31860.178007
652.578458	31738.184605
652.921238	31051.055171
653.263967	31357.035565
653.606644	31067.023026
653.949269	30968.004682
654.291843	30562.670707
654.634365	30953.720573
654.976836	30479.900002
655.319255	30554.803986
655.661622	30437.728229
656.003938	30295.567691
656.346203	30108.717324
656.688416	30357.813338
657.030577	30120.649735
657.372687	29946.765215
657.714746	30101.737846
658.056753	30304.092282
658.398708	29671.649285
658.740612	29749.499824
659.082465	29957.162595
659.424266	29847.189824
659.766016	29864.798574
660.107715	29716.389526
660.449362	29824.630660
660.790958	29795.331474
661.132503	29722.000330
661.473996	29796.226279
661.815438	29893.291176
662.156829	29990.935805
662.498168	29807.122733
662.839456	29783.628436
663.180693	29906.720810
663.521879	29991.439921
663.863013	29962.561671
664.204097	29937.252558
664.545129	30350.211278
664.886110	30280.618149
665.227040	30385.005322
665.567918	30369.806243
665.908746	30463.667487
666.249522	30534.664577
666.590248	30571.202860
666.930922	30661.878094
667.271545	30659.402888
667.612118	30714.447246
667.952639	30530.513187
668.293109	30576.896843
668.633528	30428.646591
668.973896	30387.467926
669.314213	30365.420439
669.654480	30183.117193
669.994695	30159.476702
670.334859	30071.160728
670.674973	29919.028787
671.015035	30096.679048
671.355047	30037.606808
671.695008	29981.397942
672.034918	29885.474867
672.374777	29986.577728
672.714585	29844.233187
673.054342	29974.136160
673.394049	29828.744242
673.733705	30054.676154
674.073310	29771.675860
674.412864	29829.371866
674.752368	29529.390444
675.091820	29749.386398
675.431223	29355.972231
675.770574	29144.112700
676.109875	28995.988476
676.449125	28790.571539
676.788324	28683.726804
677.127473	28204.302991
677.466571	28109.045348
677.805619	27818.117839
678.144616	27758.022244
678.483562	27707.961066
678.822458	27381.964770
679.161303	27340.637391
679.500098	27258.280060
679.838842	27167.793869
680.177535	27261.329958
680.516179	27503.065888
680.854771	27630.770918
681.193314	28390.876095
681.531805	29415.669575
681.870247	30148.703756
682.208638	30890.489380
682.546978	31152.790697
682.885268	31288.738013
683.223508	30860.489473
683.561697	30591.322105
683.899836	30422.950087
684.237925	30017.341369
684.575963	29867.089779
684.913951	29505.931435
685.251889	29664.455559
685.589776	29707.098679
685.927614	29705.024244
686.265401	29876.249555
686.603137	29987.638891
686.940824	30490.526754
687.278460	30831.820431
687.616046	30991.289772
687.953582	31664.760199
688.291068	31581.117374
688.628504	31911.265060
688.965889	31906.743145
689.303224	31646.450728
689.640510	31364.534282
689.977745	30729.326212
690.314930	29992.160806
690.652065	29551.637056
690.989150	28901.867613
691.326185	28054.101812
691.663170	27408.450992
692.000105	26670.279876
692.336990	26064.285292
692.673825	25641.355170
693.010610	25160.121583
693.347345	24647.297605
693.684030	24023.038921
694.020665	23833.310055
694.357251	23144.315394
694.693786	23148.746568
695.030272	22910.564652
695.366707	22416.340011
695.703093	22138.156539
696.039429	22212.558929
696.375716	21964.511474
696.711952	21976.411118
697.048139	21831.934169
697.384276	21666.717914
697.720363	21787.912293
698.056400	21681.254081
698.392388	21525.847911
698.728326	21518.984380
699.064214	21363.583251
699.400053	21366.915453
699.735842	20980.861371
700.071581	20773.158271
700.407270	20533.017867
700.742910	20358.402380
701.078501	20109.203022
701.414042	19903.312216
701.749533	19602.972873
702.084974	19280.850704
702.420366	19517.681591
702.755709	19107.487944
703.091002	18795.427918
703.426246	18866.596407
703.761440	18802.510739
704.096584	18547.619918
704.431679	18493.072113
704.766725	18441.778373
705.101721	18369.768010
705.436668	18495.811980
705.771565	18207.110140
706.106413	18532.700623
706.441212	18606.987066
706.775961	18696.651549
707.110661	18784.654972
707.445311	19146.130908
707.779913	19011.128808
708.114465	19307.742739
708.448967	19620.382498
708.783421	20248.711913
709.117825	20614.833273
709.452180	20843.018581
709.786485	21296.477931
710.120742	22062.539232
710.454949	22159.067245
710.789107	22684.703316
711.123216	23388.224061
711.457275	23610.284368
711.791286	24162.391537
712.125247	24326.019829
712.459159	24059.299941
712.793023	24810.636031
713.126837	23785.880359
713.460602	24038.053998
713.794318	23710.217681
714.127985	23450.867960
714.461602	22542.232746
714.795171	22523.802288
715.128691	21540.734438
715.462162	21027.678567
715.795584	20599.596385
716.128957	20321.854014
716.462281	19952.145873
716.795556	19675.462145
717.128782	19187.470891
717.461960	18586.030990
717.795088	18550.942038
718.128167	18202.368935
718.461198	17754.724556
718.794180	17617.824462
719.127113	17282.970858
719.459997	17093.070593
719.792833	16718.205352
720.125619	16761.027433
720.458357	16426.236845
720.791046	16285.258457
721.123686	16142.974410
721.456278	15915.187353
721.788821	15906.871970
722.121315	15647.439069
722.453761	15751.327168
722.786158	15628.812006
723.118506	15706.639859
723.450805	15588.921355
723.783056	15772.099242
724.115259	15663.122099
724.447412	15658.244782
724.779518	15875.372320
725.111574	15921.259423
725.443582	16190.769590
725.775542	16152.295503
726.107453	16658.341650
726.439315	16588.141062
726.771129	17000.598188
727.102895	17419.424811
727.434612	17693.701389
727.766281	17850.519082
728.097901	18173.382301
728.429473	18259.853212
728.760996	18282.361964
729.092471	18406.570954
729.423897	18310.821798
729.755276	18166.329726
730.086606	18280.121172
730.417887	18862.271097
730.749120	19407.791999
731.080305	19628.067737
731.411442	20038.059738
731.742530	20152.050309
732.073570	20311.116357
732.404562	20647.033643
732.735506	20479.543827
733.066401	20276.546644
733.397249	19778.372259
733.728048	19158.574997
734.058798	18303.025654
734.389501	17534.584929
734.720156	17030.817384
735.050762	16444.523630
735.381320	16058.008283
735.711831	15781.589214
736.042293	15411.077009
736.372707	15450.627382
736.703073	15226.459873
737.033391	15424.599905
737.363661	15421.905408
737.693883	15548.428287
738.024056	15747.145531
738.354182	15960.310721
738.684260	16324.224055
739.014290	16602.528515
739.344272	16827.908421
739.674207	17178.021597
740.004093	17347.558122
740.333931	17403.693890
740.663722	17494.759814
740.993464	17528.938837
741.323159	17382.442906
741.652806	17088.871312
741.982405	16920.010302
742.311956	16564.072073
742.641460	16455.145341
742.970915	16121.670494
743.300323	15774.763492
743.629683	15562.064608
743.958996	15242.082409
744.288260	14926.843936
744.617477	14628.458039
744.946647	14593.464870
745.275768	14267.183749
745.604842	14071.569336
745.933869	13890.871697
746.262847	13868.788922
746.591778	13783.069142
746.920662	13658.731603
747.249498	13671.016895
747.578286	13827.824506
747.907027	13998.434796
748.235720	14269.842958
748.564365	14336.630684
748.892963	14263.612092
749.221514	14364.241084
749.550017	14232.472884
749.878473	14212.154514
750.206881	13982.600532
750.535242	13908.180498
750.863555	13826.604547
751.191821	13714.204460
751.520039	13743.695210
751.848210	13671.563860
752.176334	13714.567423
752.504411	13635.791833
752.832440	13458.491931
753.160421	13579.635899
753.488356	13461.985451
753.816243	13377.538562
754.144082	13207.460114
754.471875	13151.652020
754.799620	13123.605561
755.127318	13105.906070
755.454969	13092.085746
755.782572	13062.937795
756.110129	13066.698496
756.437638	12978.201040
756.765100	12985.243532
757.092515	13004.813291
757.419882	13051.154098
757.747203	13057.989902
758.074477	13149.862411
758.401703	13127.325932
758.728882	13326.696005
759.056014	13368.903066
759.383099	13537.716185
759.710138	13661.892407
760.037129	13782.128967
760.364073	13851.699411
760.690970	13869.194735
761.017820	13890.115524
761.344623	14113.887302
761.671379	14498.434079
761.998088	15188.436970
762.324751	16958.315510
762.651366	20346.172540
762.977935	24808.382635
763.304456	27799.616804
763.630931	28885.347752
763.957359	27705.445530
764.283740	25451.994308
764.610074	23186.577908
764.936362	20547.942203
765.262602	18677.490123
765.588796	16732.784369
765.914943	15445.825683
766.241044	14338.753010
766.567097	13547.375035
766.893104	12834.944050
767.219064	12360.700023
767.544978	11878.213709
767.870845	11495.438897
768.196665	11271.404979
768.522438	11034.110306
768.848165	10826.243368
769.173846	10618.381472
769.499479	10485.844496
769.825066	10320.693775
770.150607	10087.905894
770.476101	10007.312967
770.801548	9887.678825
771.126949	9730.815761
771.452303	9619.113874
771.777611	9422.105582
772.102872	9410.954549
772.428087	9269.240153
772.753256	9113.652501
773.078378	9019.763532
773.403453	8834.670006
773.728482	8729.801403
774.053465	8647.870051
774.378401	8549.544865
774.703291	8428.683202
775.028135	8305.356414
775.352932	8270.010364
775.677683	8164.251997
776.002388	8051.798979
776.327046	8065.173160
776.651658	7967.926782
776.976224	7869.757872
777.300743	7870.950105
777.625216	7778.334027
777.949643	7734.808704
778.274024	7747.209943
778.598359	7658.142837
778.922647	7677.281577
779.246889	7629.201572
779.571086	7638.182388
779.895236	7639.712378
780.219339	7651.773339
780.543397	7651.914491
780.867409	7730.662355
781.191374	7746.063080
781.515294	7711.294242
781.839167	7804.941237
782.162995	7775.654653
782.486776	7723.493834
782.810511	7678.612442
783.134201	7582.074346
783.457844	7585.983760
783.781441	7526.954369
784.104993	7462.344421
784.428498	7437.448683
784.751958	7428.755213
785.075372	7396.237250
785.398739	7339.178950
785.722061	7391.102835
786.045337	7393.041159
786.368568	7547.928090
786.691752	7575.379693
787.014891	7910.268584
787.337983	8268.916434
787.661030	8857.287143
787.984031	9486.465993
788.306987	9895.396831
788.629897	10100.607081
788.952760	10054.820801
789.275579	9836.395167
789.598351	9436.369527
789.921078	9082.397347
790.243759	8665.909820
790.566395	8376.333340
790.888984	8121.192982
791.211529	7913.399141
791.534027	7691.734565
791.856480	7497.080492
792.178888	7421.448061
792.501249	7318.996691
792.823566	7161.926940
793.145836	7160.767475
793.468062	7135.632282
793.790241	7086.060095
794.112375	7150.236504
794.434464	7310.537635
794.756507	7346.178592
795.078505	7504.513673
795.400457	7819.255593
795.722364	8165.827358
796.044226	8454.236811
796.366042	8731.384326
796.687812	8681.653343
797.009538	8761.157380
797.331218	8655.651072
797.652852	8576.850275
797.974442	8424.849404
798.295986	8332.676948
798.617484	8142.078482
798.938938	7999.113880
799.260346	7897.854743
799.581709	7692.125255
799.903026	7618.491641
800.224299	7507.510639
800.545526	7336.933116
800.866708	7243.777634
801.187845	7172.674680
801.508936	7067.518731
801.829983	7033.911879
802.150984	6879.466049
802.471940	6835.446693
802.792851	6820.663510
803.113717	6787.011287
803.434538	6747.929742
803.755314	6695.675662
804.076045	6696.003337
804.396731	6643.383773
804.717372	6677.242683
805.037967	6679.894330
805.358518	6715.736934
805.679024	6793.663090
805.999485	6802.795140
806.319901	6851.187696
806.640272	6868.471292
806.960598	6956.661238
807.280879	6955.388346
807.601115	7032.759976
807.921306	6982.865155
808.241453	6999.372414
808.561554	7014.901688
808.881611	6982.076215
809.201623	6992.554253
809.521590	6934.028978
809.841513	6915.749754
810.161390	6955.900023
810.481223	6824.429252
810.801011	6805.262785
811.120755	6788.548839
811.440453	6703.290325
811.760107	6671.526014
812.079716	6649.234032
812.399281	6577.150573
812.718801	6567.368214
813.038276	6521.309712
813.357707	6461.267049
813.677093	6501.356825
813.996434	6414.061685
814.315731	6454.990813
814.634983	6443.640655
814.954191	6453.201203
815.273354	6562.478295
815.592473	6629.427339
815.911547	6752.134064
816.230577	6836.432239
816.549562	6983.780125
816.868502	7088.452123
817.187399	7187.520878
817.506250	7335.584608
817.825058	7367.651387
818.143821	7638.275649
818.462539	7909.247751
818.781213	8280.246427
819.099843	8829.528029
819.418429	9823.474689
819.736970	10798.128853
820.055466	11984.526602
820.373919	13530.035987
820.692327	15871.122627
821.010691	20016.115595
821.329011	29002.791513
821.647286	42009.986750
821.965517	55482.848490
822.283704	60905.864699
822.601847	62928.310087
822.919945	60277.482351
823.237999	56144.573029
823.556010	50054.811292
823.873976	43311.428671
824.191897	36752.237208
824.509775	31889.565414
824.827609	27314.045304
825.145398	24693.129255
825.463144	23303.681391
825.780845	23599.319858
826.098502	25350.921694
826.416116	29127.040832
826.733685	32775.386885
827.051210	33960.511743
827.368692	32180.167768
827.686129	28231.686539
828.003522	24096.924593
828.320872	20382.022706
828.638177	17517.739914
828.955439	15347.729870
829.272656	13527.890976
829.589830	12037.650282
829.906960	10755.289128
830.224046	9808.081526
830.541088	9060.627125
830.858086	8597.587062
831.175041	8207.573153
831.491952	8093.721214
831.808819	8136.409705
832.125642	8526.529478
832.442421	9416.267926
832.759157	11202.109278
833.075849	14128.960352
833.392497	17355.966766
833.709101	19570.386854
834.025662	19418.862373
834.342179	17737.393069
834.658653	15540.629622
834.975083	13604.481226
835.291469	11978.820016
835.607811	10652.797429
835.924110	9735.415814
836.240366	8857.219087
836.556578	8052.731592
836.872746	7397.293372
837.188871	6896.547999
837.504952	6478.538042
837.820990	6156.864536
838.136984	5941.168686
838.452935	5844.025652
838.768842	5871.187389
839.084706	6290.959228
839.400526	7496.387333
839.716303	9087.317514
840.032037	10190.027068
840.347727	10134.571855
840.663373	9162.904574
840.978977	8113.129656
841.294537	7292.540716
841.610054	6694.788419
841.925527	6251.454226
842.240957	5890.984000
842.556344	5559.545778
842.871687	5270.385194
843.186987	4989.257688
843.502244	4761.274026
843.817458	4594.285805
844.132629	4457.645330
844.447756	4363.267368
844.762840	4283.385244
845.077881	4207.548646
845.392879	4144.516579
845.707833	4095.095627
846.022745	4051.056107
846.337613	4019.919421
846.652438	3978.957525
846.967221	3962.732571
847.281960	3926.486675
847.596656	3912.348759
847.911309	3894.520719
848.225919	3866.353272
848.540485	3851.847351
848.855009	3841.180270
849.169490	3810.018377
849.483928	3803.056544
849.798323	3795.540183
850.112675	3776.560239
850.426984	3785.377217
850.741251	3767.203858
851.055474	3762.558434
851.369654	3764.806789
851.683792	3764.126233
851.997887	3769.668982
852.311938	3773.187707
852.625947	3778.301958
852.939914	3766.180503
853.253837	3775.330198
853.567718	3773.913633
853.881555	3764.171604
854.195350	3777.351700
854.509103	3772.930608
854.822812	3771.186369
855.136479	3761.237652
855.450103	3770.629322
855.763685	3759.732868
856.077224	3760.831839
856.390720	3777.117287
856.704173	3801.173673
857.017584	3811.873522
857.330953	3825.817353
857.644278	3845.079602
857.957561	3850.703009
858.270802	3849.427597
858.584000	3856.701982
858.897155	3846.125642
859.210268	3832.312880
859.523339	3808.143068
859.836367	3808.082574
860.149352	3801.423210
860.462295	3789.200932
860.775195	3779.098460
861.088054	3780.028553
861.400869	3775.622585
861.713642	3775.625105
862.026373	3786.811426
862.339062	3789.024492
862.651708	3812.811177
862.964312	3841.371834
863.276873	3858.398331
863.589392	3917.488216
863.901869	3960.511943
864.214303	4007.286289
864.526696	4039.121176
864.839045	4083.019543
865.151353	4115.681179
865.463619	4121.821304
865.775842	4130.902943
866.088023	4148.683093
866.400162	4137.877379
866.712258	4147.586642
867.024313	4148.115963
867.336325	4144.970283
867.648296	4152.683248
867.960224	4151.818690
868.272110	4161.318745
868.583954	4164.043488
868.895755	4179.340870
869.207515	4176.164943
869.519233	4222.639340
869.830909	4232.930856
870.142542	4257.700565
870.454134	4271.407463
870.765684	4299.239673
871.077191	4337.542360
871.388657	4360.467007
871.700081	4401.746495
872.011463	4438.861990
872.322803	4476.302640
872.634101	4507.882948
872.945357	4546.941808
873.256571	4603.183441
873.567744	4633.750477
873.878874	4652.392664
874.189963	4690.844065
874.501010	4699.943348
874.812015	4697.727761
875.122979	4742.823403
875.433900	4738.208226
875.744780	4754.188684
876.055618	4780.208600
876.366415	4783.674393
876.677169	4808.265141
876.987882	4845.955328
877.298554	4898.751332
877.609183	4983.601513
877.919771	5090.295014
878.230317	5240.231532
878.540822	5455.541733
878.851285	5777.240446
879.161707	6238.241362
879.472087	7001.860223
879.782425	8237.731856
880.092722	10427.581360
880.402977	13749.943720
880.713191	17514.017022
881.023363	21281.024274
881.333494	23519.934288
881.643583	24754.676702
881.953631	24755.009418
882.263637	23920.978241
882.573602	22450.939971
882.883526	20894.776108
883.193408	19208.711792
883.503248	17498.086975
883.813048	15937.915395
884.122806	14498.799563
884.432522	13030.218186
884.742197	11747.794018
885.051831	10636.443926
885.361424	9627.199885
885.670975	8794.693656
885.980485	8102.437369
886.289954	7516.556990
886.599382	7036.608897
886.908768	6658.209807
887.218113	6290.210617
887.527417	5997.911914
887.836680	5725.671962
888.145901	5504.745916
888.455082	5345.205999
888.764221	5188.773954
889.073319	5052.199014
889.382376	4981.930371
889.691392	4918.043828
890.000366	4889.820928
890.309300	4876.086305
890.618193	4878.475812
890.927044	4867.080283
891.235855	4882.362541
891.544625	4914.167181
891.853353	4977.927695
892.162041	5097.758442
892.470687	5284.230723
892.779293	5537.122726
893.087858	5911.995529
893.396381	6489.081616
893.704864	7297.944832
894.013306	8450.092982
894.321707	9640.695054
894.630068	10461.205857
894.938387	10674.176962
895.246665	10439.365057
895.554903	9839.087143
895.863100	9137.179566
896.171256	8571.105880
896.479371	8057.745020
896.787446	7561.753454
897.095480	7124.360262
897.403473	6803.727753
897.711425	6485.076419
898.019336	6214.058947
898.327207	5944.004335
898.635038	5712.673347
898.942827	5462.536334
899.250576	5266.969812
899.558284	5073.341613
899.865952	4953.306699
900.173579	4803.271878
900.481165	4688.406667
900.788711	4594.273202
901.096216	4526.084034
901.403681	4458.913180
901.711105	4434.821506
902.018489	4417.235440
902.325832	4492.499867
902.633135	4608.627887
902.940397	4951.494404
903.247619	5748.820941
903.554800	7195.783329
903.861941	9120.914283
904.169041	10656.222893
904.476101	11309.821092
904.783121	10959.730602
905.090100	10218.706192
905.397039	9371.951142
905.703938	8619.513560
906.010796	7914.372084
906.317614	7359.119234
906.624391	6820.093859
906.931129	6386.136213
907.237826	5986.297096
907.544483	5605.689980
907.851099	5226.023040
908.157675	4872.214698
908.464211	4546.157909
908.770707	4309.430365
909.077163	4103.476546
909.383578	3954.722178
909.689954	3836.421421
909.996289	3767.960031
910.302584	3701.724310
910.608839	3666.282478
910.915054	3638.578817
911.221229	3622.575674
911.527363	3636.421203
911.833458	3647.400837
912.139513	3678.313192
912.445527	3705.870659
912.751502	3786.942496
913.057436	3890.606263
913.363331	4024.237169
913.669186	4233.016555
913.975000	4491.965505
914.280775	4917.459054
914.586510	5500.082848
914.892205	6299.539272
915.197859	7348.058943
915.503475	8567.198986
915.809050	9632.851018
916.114585	10289.799064
916.420081	10558.139683
916.725536	10522.276915
917.030952	10080.717208
917.336328	9677.497997
917.641665	9263.246221
917.946961	8780.754866
918.252218	8355.881379
918.557435	7841.908018
918.862612	7407.786534
919.167750	7029.241250
919.472848	6605.668381
919.777906	6222.780143
920.082925	5865.027099
920.387904	5493.055480
920.692843	5227.222835
920.997743	4978.935925
921.302603	4736.947938
921.607423	4573.856529
921.912204	4410.145058
922.216946	4292.660967
922.521647	4166.720341
922.826310	4061.461049
923.130932	3971.025269
923.435516	3867.079198
923.740059	3799.588230
924.044564	3722.395562
924.349028	3656.507681
924.653454	3594.146087
924.957840	3525.654451
925.262186	3479.192656
925.566493	3416.647060
925.870761	3359.389635
926.174989	3322.294304
926.479178	3286.799540
926.783328	3242.510483
927.087438	3213.402861
927.391509	3176.794002
927.695541	3148.550937
927.999533	3121.749643
928.303486	3097.423555
928.607400	3083.076431
928.911275	3073.515883
929.215110	3055.980229
929.518906	3045.913045
929.822663	3043.752910
930.126381	3042.482540
930.430060	3051.334806
930.733699	3051.057542
931.037299	3062.322001
931.340861	3057.414437
931.644383	3068.676375
931.947866	3064.988771
932.251309	3060.262689
932.554714	3060.371074
932.858080	3054.815723
933.161407	3043.941954
933.464694	3036.181097
933.767943	3029.357896
934.071153	3025.627442
934.374323	3014.763755
934.677455	3011.378620
934.980548	3001.213134
935.283602	2996.497134
935.586617	2993.099397
935.889593	3006.135820
936.192530	3010.551871
936.495428	3022.217101
936.798287	3044.062941
937.101108	3075.176943
937.403890	3127.758698
937.706632	3187.897143
938.009336	3268.911006
938.312002	3343.716688
938.614628	3407.270514
938.917216	3460.933597
939.219765	3490.583143
939.522275	3525.803165
939.824747	3530.564534
940.127179	3529.783156
940.429573	3524.195037
940.731929	3520.756970
941.034246	3506.624095
941.336524	3495.765449
941.638763	3475.729383
941.940964	3463.023155
942.243126	3421.723502
942.545250	3399.958321
942.847335	3359.056919
943.149381	3325.225735
943.451389	3294.457053
943.753359	3257.273502
944.055290	3237.292889
944.357182	3209.400185
944.659036	3193.412165
944.960851	3182.913962
945.262628	3169.698577
945.564367	3172.196469
945.866067	3163.805469
946.167729	3160.243893
946.469352	3158.295487
946.770937	3157.128460
947.072484	3138.637508
947.373992	3143.439207
947.675462	3136.479894
947.976893	3118.883747
948.278286	3110.391923
948.579641	3101.842126
948.880958	3092.599171
949.182236	3099.727362
949.483476	3091.535487
949.784678	3093.146136
950.085841	3094.794593
950.386967	3107.324381
950.688054	3120.393572
950.989103	3137.122641
951.290114	3162.865293
951.591087	3191.836805
951.892021	3218.199519
952.192917	3246.525762
952.493776	3272.074330
952.794596	3277.745628
953.095378	3283.497584
953.396122	3281.455917
953.696828	3276.180350
953.997496	3261.944131
954.298126	3236.355234
954.598718	3219.076679
954.899272	3193.845704
955.199788	3165.960562
955.500266	3131.902527
955.800706	3096.566559
956.101108	3056.897719
956.401472	3026.040816
956.701798	2997.079388
957.002087	2955.346195
957.302337	2925.099272
957.602550	2897.390570
957.902724	2868.545088
958.202861	2844.123218
958.502960	2819.356029
958.803022	2800.998667
959.103045	2781.978394
959.403031	2762.501896
959.702979	2747.292735
960.002889	2734.790673
960.302762	2722.628890
960.602596	2711.089689
960.902393	2701.481249
961.202153	2692.548325
961.501875	2683.277643
961.801559	2677.936540
962.101205	2670.886487
962.400814	2666.699808
962.700385	2659.800989
962.999918	2653.862510
963.299414	2647.104843
963.598873	2644.808598
963.898293	2639.026394
964.197677	2640.299286
964.497022	2637.382978
964.796331	2636.911630
965.095601	2633.002216
965.394835	2631.517596
965.694030	2624.780094
965.993189	2626.017697
966.292309	2626.473921
966.591393	2624.512912
966.890439	2622.869496
967.189447	2625.127933
967.488419	2624.522995
967.787353	2625.992491
968.086249	2626.753705
968.385108	2628.313942
968.683930	2630.791670
968.982714	2634.141516
969.281462	2636.072278
969.580172	2645.542086
969.878844	2649.070893
970.177480	2659.289312
970.476078	2666.125117
970.774639	2674.407733
971.073162	2681.253620
971.371649	2686.715710
971.670098	2691.580423
971.968510	2699.807586
972.266885	2701.224151
972.565223	2704.052238
972.863524	2705.705736
973.161788	2708.183463
973.460014	2716.151007
973.758204	2717.398693
974.056356	2719.621842
974.354471	2721.973540
974.652550	2720.662840
974.950591	2719.354660
975.248595	2718.104454
975.546563	2715.510781
975.844493	2713.885008
976.142386	2706.535006
976.440243	2701.526620
976.738062	2697.110569
977.035845	2690.433561
977.333590	2687.746626
977.631299	2680.210101
977.928971	2675.806653
978.226606	2667.584531
978.524204	2665.754592
978.821765	2658.502892
979.119290	2664.627894
979.416777	2662.329128
979.714228	2668.159222
980.011642	2669.119562
980.309020	2679.390913
980.606360	2691.719055
980.903664	2716.148487
981.200931	2751.156779
981.498162	2802.301806
981.795356	2874.019781
982.092513	2964.505972
982.389633	3069.745100
982.686717	3169.363341
982.983764	3244.365628
983.280775	3292.964871
983.577749	3302.827889
983.874686	3291.361784
984.171587	3252.333171
984.468451	3215.865464
984.765279	3171.694874
985.062070	3120.960702
985.358824	3076.099474
985.655543	3021.085362
985.952224	2970.053762
986.248869	2903.006416
986.545478	2843.916531
986.842050	2787.337141
987.138586	2743.438773
987.435086	2703.706919
987.731549	2672.376148
988.027975	2646.988897
988.324366	2628.117337
988.620719	2616.174844
988.917037	2605.253184
989.213318	2595.516196
989.509563	2588.556883
989.805772	2583.432550
990.101944	2579.896180
990.398080	2574.686148
990.694180	2573.009964
990.990244	2578.567836
991.286271	2575.152455
991.582262	2575.948957
991.878217	2578.484657
992.174136	2578.807291
992.470019	2580.339802
992.765865	2588.440936
993.061676	2590.883375
993.357450	2602.394850
993.653188	2606.785695
993.948890	2626.678088
994.244556	2647.137611
994.540186	2665.905827
994.835780	2702.660879
995.131337	2737.192783
995.426859	2777.736263
995.722345	2827.068995
996.017795	2876.787374
996.313208	2915.896646
996.608586	2943.542334
996.903928	2960.974644
997.199234	2954.209415
997.494504	2956.261165
997.789738	2937.296344
998.084936	2913.635688
998.380099	2882.191491
998.675225	2854.739888
998.970316	2823.202430
999.265371	2786.669188
999.560390	2750.103178
999.855373	2719.485730
1000.150320	2692.475228
1000.445232	2667.705519
1000.740108	2642.807260
1001.034948	2626.080711
1001.329752	2610.735439
1001.624521	2598.946701
1001.919254	2587.954465
1002.213951	2580.685121
1002.508613	2567.883111
1002.803239	2563.822461
1003.097829	2556.033879
1003.392384	2552.215205
1003.686903	2549.044319
1003.981386	2543.055428
1004.275834	2541.971580
1004.570246	2540.653318
1004.864623	2534.223327
1005.158964	2531.513706
1005.453270	2531.551515
1005.747540	2527.596730
1006.041775	2526.099507
1006.335974	2527.800897
1006.630138	2523.077335
1006.924266	2526.918695
1007.218359	2522.142201
1007.512416	2519.334279
1007.806438	2519.513240
1008.100425	2518.482324
1008.394376	2516.453259
1008.688292	2519.140194
1008.982172	2516.912004
1009.276017	2517.748836
1009.569827	2516.433095
1009.863602	2516.664988
1010.157341	2518.739422
1010.451045	2515.497961
1010.744714	2516.619617
1011.038347	2512.896725
1011.331945	2513.610048
1011.625508	2514.217508
1011.919036	2511.878412
1012.212528	2509.947650
1012.505986	2508.392454
1012.799408	2511.200377
1013.092795	2510.184584
1013.386147	2506.620489
1013.679464	2508.440345
1013.972745	2507.679131
1014.265992	2506.496980
1014.559204	2506.774244
1014.852380	2506.302896
1015.145521	2507.903462
1015.438628	2508.934378
1015.731699	2510.101405
1016.024736	2508.513442
1016.317737	2511.764986
1016.610703	2511.258350
1016.903635	2513.385717
1017.196531	2511.946468
1017.489393	2517.380832
1017.782219	2516.586850
1018.075011	2517.837056
1018.367768	2520.466018
1018.660490	2516.843949
1018.953177	2516.843949
1019.245829	2516.843949
