Dividing Wavelength (nm)	Counts (n)	Blue Motor Position (mm): 2.600000	Red Motor Position (mm): 0.000000	
326.493990	2162.256749
326.888308	2162.256749
327.282561	2162.256749
327.676750	2121.294853
328.070874	2120.581530
328.464933	2119.464914
328.858929	2120.231170
329.252859	2129.481687
329.646726	2136.882101
330.040528	2146.561116
330.434265	2162.970072
330.827938	2180.273833
331.221547	2195.377130
331.615091	2215.314893
332.008571	2234.846844
332.401986	2252.004411
332.795338	2270.276073
333.188625	2287.171500
333.581847	2308.190591
333.975006	2323.404793
334.368100	2344.065962
334.761129	2360.101873
335.154095	2379.008720
335.546996	2396.209137
335.939833	2408.348236
336.332606	2424.379105
336.725315	2438.688420
337.117960	2449.567230
337.510540	2466.394602
337.903056	2474.256281
338.295508	2484.295739
338.687896	2492.603560
339.080220	2498.320229
339.472480	2506.212155
339.864676	2509.327588
340.256807	2516.385204
340.648875	2521.844773
341.040879	2523.944414
341.432818	2527.047244
341.824694	2528.428520
342.216506	2529.522451
342.608253	2528.693181
342.999937	2533.628470
343.391557	2527.954652
343.783113	2530.392050
344.174605	2527.909281
344.566033	2530.157636
344.957397	2528.889786
345.348697	2526.966586
345.739934	2525.852491
346.131106	2523.780576
346.522215	2522.248066
346.913260	2520.188754
347.304241	2518.565503
347.695159	2514.151972
348.086012	2514.887981
348.476802	2511.454955
348.867528	2508.354646
349.258191	2501.874242
349.648789	2502.869870
350.039324	2500.896258
350.429796	2505.564367
350.820203	2499.935919
351.210548	2503.868019
351.600828	2499.179746
351.991045	2499.484735
352.381198	2497.024652
352.771288	2499.346104
353.161314	2495.345948
353.551276	2496.686895
353.941175	2497.206134
354.331010	2494.640187
354.720782	2495.782008
355.110490	2496.278562
355.500135	2496.679333
355.889717	2495.166987
356.279235	2494.367964
356.668689	2496.860815
357.058080	2494.032727
357.447408	2497.821155
357.836672	2496.291164
358.225873	2498.466422
358.615010	2495.298057
359.004084	2499.071361
359.393095	2496.031545
359.782043	2498.383243
360.170927	2495.272851
360.559748	2499.709067
360.948505	2498.418531
361.337199	2501.662514
361.725830	2499.701505
362.114398	2499.686382
362.502903	2500.314005
362.891344	2501.919613
363.279722	2502.632936
363.668037	2501.833913
364.056289	2505.718122
364.444478	2505.191322
364.832603	2504.339367
365.220665	2504.475478
365.608665	2505.967659
365.996601	2506.265087
366.384474	2507.848010
366.772284	2506.010509
367.160031	2509.801457
367.547715	2511.041581
367.935336	2508.175685
368.322893	2506.900273
368.710388	2502.874911
369.097820	2507.396826
369.485189	2503.341218
369.872495	2509.514111
370.259738	2507.482526
370.646918	2509.861951
371.034035	2507.769872
371.421090	2511.109636
371.808081	2510.703823
372.195010	2513.068124
372.581875	2513.547034
372.968678	2512.155676
373.355418	2512.606859
373.742096	2513.748680
374.128710	2512.314472
374.515262	2513.116015
374.901751	2514.250275
375.288177	2514.988804
375.674540	2513.189112
376.060841	2514.197343
376.447079	2512.735408
376.833254	2514.499812
377.219367	2513.272291
377.605417	2514.514936
377.991404	2514.295645
378.377329	2513.912518
378.763191	2514.396468
379.148991	2516.768331
379.534727	2514.255316
379.920402	2517.942920
380.306013	2516.125584
380.691563	2517.239679
381.077049	2517.549710
381.462474	2514.703979
381.847835	2519.006604
382.233134	2514.698938
382.618371	2515.991994
383.003545	2516.483506
383.388657	2517.721109
383.773706	2517.232117
384.158693	2519.404855
384.543618	2516.869154
384.928480	2518.646161
385.313280	2519.916532
385.698017	2519.465349
386.082692	2519.210770
386.467305	2516.728002
386.851856	2520.032478
387.236344	2518.840246
387.620770	2517.826974
388.005133	2517.930317
388.389435	2517.045595
388.773674	2515.800430
389.157851	2519.145235
389.541965	2519.982067
389.926018	2519.850997
390.310008	2520.987777
390.693936	2520.670184
391.077802	2524.667819
391.461606	2523.664630
391.845348	2522.313601
392.229027	2521.580113
392.612645	2523.694877
392.996200	2524.312418
393.379694	2525.509692
393.763125	2521.078518
394.146494	2523.238652
394.529801	2525.018180
394.913047	2523.084897
395.296230	2524.572038
395.679351	2523.518436
396.062410	2524.468694
396.445408	2525.108920
396.828343	2524.423323
397.211217	2527.190917
397.594028	2525.819723
397.976778	2523.921729
398.359466	2526.452388
398.742092	2525.383663
399.124656	2525.560104
399.507158	2526.699404
399.889598	2526.076822
400.271977	2525.255114
400.654294	2524.874507
401.036549	2526.661596
401.418742	2525.655886
401.800874	2525.282840
402.182944	2526.036493
402.564952	2525.718900
402.946898	2528.448685
403.328783	2528.259642
403.710606	2526.991791
404.092367	2527.737882
404.474067	2526.790145
404.855705	2528.297450
405.237282	2528.962882
405.618797	2527.332069
406.000250	2530.230733
406.381642	2529.351051
406.762972	2526.563293
407.144240	2523.820906
407.525447	2526.449867
407.906593	2523.652027
408.287677	2528.408356
408.668700	2529.310722
409.049661	2531.964890
409.430560	2530.387008
409.811399	2529.779549
410.192176	2533.462112
410.572891	2529.071267
410.953545	2530.560928
411.334138	2530.563449
411.714669	2531.627132
412.095139	2531.543953
412.475547	2532.852133
412.855894	2532.219468
413.236180	2531.319622
413.616405	2530.064375
413.996568	2532.894982
414.376670	2532.688295
414.756711	2532.710980
415.136691	2531.826258
415.516609	2531.518747
415.896466	2530.167718
416.276262	2533.822555
416.655997	2531.581762
417.035670	2531.977493
417.415283	2532.050589
417.794834	2532.274921
418.174324	2534.566125
418.553753	2535.236598
418.933121	2534.616537
419.312428	2534.314067
419.691674	2537.827752
420.070859	2533.245343
420.449983	2535.453368
420.829045	2532.872297
421.208047	2536.922864
421.586988	2533.958666
421.965867	2533.930940
422.344686	2533.517565
422.723444	2533.469674
423.102141	2533.779705
423.480777	2535.221475
423.859352	2533.426824
424.237866	2534.886238
424.616319	2535.685261
424.994712	2535.062679
425.373044	2537.489994
425.751314	2536.504449
426.129524	2530.268541
426.507673	2533.061341
426.885762	2529.651000
427.263789	2538.914120
427.641756	2533.522606
428.019662	2534.389685
428.397508	2536.769109
428.775292	2537.595858
429.153016	2536.582587
429.530679	2535.350024
429.908282	2538.611651
430.285824	2540.252547
430.663305	2536.731301
431.040726	2538.503266
431.418086	2538.034439
431.795385	2539.173740
432.172624	2537.764737
432.549802	2540.386137
432.926920	2535.987730
433.303977	2537.164840
433.680974	2538.258770
434.057910	2540.255067
434.434786	2537.363965
434.811601	2538.672145
435.188355	2539.418236
435.565050	2539.456044
435.941683	2540.103833
436.318257	2536.769109
436.694770	2539.740869
437.071222	2538.820859
437.447614	2540.071065
437.823946	2541.898483
438.200218	2536.993441
438.576429	2538.548637
438.952580	2538.397402
439.328670	2539.362783
439.704700	2538.624254
440.080670	2542.306817
440.456580	2540.507125
440.832429	2539.887063
441.208218	2540.050900
441.583947	2541.341436
441.959616	2539.335057
442.335224	2542.624409
442.710773	2541.414532
443.086261	2542.324461
443.461689	2537.646270
443.837057	2540.277752
444.212365	2540.766744
444.587612	2538.732639
444.962800	2536.892618
445.337927	2539.735828
445.712995	2535.191228
446.088002	2540.398740
446.462949	2540.421425
446.837837	2542.737835
447.212664	2542.624409
447.587431	2543.604914
447.962139	2540.686086
448.336786	2539.922351
448.711374	2542.001827
449.085901	2539.982845
449.460369	2541.364121
449.834776	2540.860006
450.209124	2543.315048
450.583412	2540.970911
450.957640	2543.451159
451.331808	2541.764893
451.705917	2541.041487
452.079965	2544.020809
452.453954	2544.618186
452.827883	2542.805891
453.201752	2541.066693
453.575562	2541.601055
453.949311	2544.267826
454.323001	2540.638195
454.696632	2545.460058
455.070202	2543.539379
455.443713	2541.459903
455.817164	2540.169368
456.190556	2544.371169
456.563888	2543.710778
456.937160	2541.558205
457.310373	2544.403937
457.683526	2544.103988
458.056619	2544.414019
458.429653	2545.641540
458.802628	2544.582898
459.175542	2543.453679
459.548398	2543.688093
459.921194	2543.942671
460.293930	2546.382590
460.666607	2545.888557
461.039224	2544.512322
461.411782	2543.438556
461.784280	2547.342929
462.156719	2545.117260
462.529099	2544.098947
462.901419	2542.765562
463.273680	2541.893442
463.645882	2540.676003
464.018024	2545.714637
464.390106	2541.442259
464.762130	2543.597352
465.134094	2542.427804
465.505999	2545.276056
465.877845	2543.115922
466.249631	2547.917621
466.621358	2544.580377
466.993026	2547.209339
467.364634	2551.300235
467.736184	2546.853938
468.107674	2544.441745
468.479105	2546.518701
468.850477	2545.271015
469.221790	2544.335881
469.593043	2546.241437
469.964238	2546.828732
470.335373	2543.468803
470.706449	2546.952240
471.077467	2545.263453
471.448425	2548.330996
471.819324	2545.611293
472.190164	2546.927034
472.560945	2546.107847
472.931667	2546.173382
473.302330	2545.202960
473.672934	2548.003321
474.043479	2547.811757
474.413965	2547.526932
474.784393	2548.444422
475.154761	2549.679504
475.525070	2546.674977
475.895321	2548.076417
476.265513	2548.146993
476.635645	2547.040460
477.005719	2549.130018
477.375734	2547.915100
477.745691	2548.686397
478.115588	2548.867878
478.485427	2551.212015
478.855207	2548.514998
479.224928	2546.228834
479.594591	2547.594987
479.964194	2546.725388
480.333739	2548.671273
480.703226	2545.797816
481.072653	2548.971222
481.442022	2546.901828
481.811333	2545.434853
482.180584	2544.477033
482.549777	2545.051725
482.918912	2541.958977
483.287988	2545.003834
483.657005	2548.731767
484.025964	2548.918290
484.394864	2546.145655
484.763706	2547.131201
485.132489	2551.020451
485.501213	2550.380225
485.869879	2551.774104
486.238487	2548.807385
486.607036	2548.469627
486.975527	2547.098433
487.343959	2550.518856
487.712333	2548.260419
488.080648	2549.114895
488.448905	2547.937786
488.817104	2547.741181
489.185244	2548.129349
489.553326	2549.286294
489.921350	2548.983825
490.289315	2548.552806
490.657222	2549.719833
491.025070	2548.356201
491.392861	2549.641696
491.760593	2550.370142
492.128267	2550.281922
492.495883	2546.914431
492.863440	2550.352498
493.230939	2549.155224
493.598380	2550.546583
493.965763	2551.136398
494.333088	2549.003990
494.700354	2549.568599
495.067563	2549.132539
495.434713	2548.678835
495.801805	2548.825029
496.168839	2550.390307
496.535815	2551.333003
496.902733	2547.249668
497.269593	2551.854762
497.636395	2545.835624
498.003139	2551.466593
498.369825	2547.839483
498.736453	2549.034237
499.103023	2548.341078
499.469535	2550.022303
499.835989	2548.363763
500.202385	2544.356046
500.568723	2543.625078
500.935003	2546.793444
501.301226	2547.902497
501.667390	2548.673794
502.033497	2548.850234
502.399546	2550.092879
502.765537	2549.019113
503.131470	2550.675132
503.497345	2552.469783
503.863163	2549.762683
504.228923	2549.742519
504.594625	2550.866696
504.960269	2547.786551
505.325856	2551.254865
505.691385	2550.644885
506.056856	2550.589433
506.422270	2549.863506
506.787625	2551.622869
507.152924	2550.602035
507.518164	2549.271171
507.883347	2550.596994
508.248472	2550.841490
508.613540	2550.007179
508.978550	2552.610935
509.343503	2549.913918
509.708398	2550.246634
510.073236	2552.043805
510.438016	2552.313507
510.802738	2551.829556
511.167403	2551.000287
511.532010	2549.324103
511.896561	2551.098589
512.261053	2551.832077
512.625488	2550.707900
512.989866	2549.981973
513.354186	2552.759649
513.718449	2550.511295
514.082655	2550.188661
514.446803	2549.099772
514.810894	2551.025492
515.174927	2552.550441
515.538904	2553.064639
515.902822	2553.599001
516.266684	2552.036244
516.630488	2551.398538
516.994235	2550.292004
517.357925	2549.850903
517.721558	2552.242931
518.085133	2550.861655
518.448651	2548.797302
518.812112	2547.758825
519.175516	2547.874771
519.538863	2547.330327
519.902152	2551.070863
520.265385	2551.660678
520.628560	2551.360729
520.991678	2551.093548
521.354739	2550.849052
521.717743	2549.689587
522.080690	2550.808723
522.443580	2552.502550
522.806413	2553.672098
523.169189	2553.871224
523.531908	2549.450132
523.894569	2553.513302
524.257174	2554.145967
524.619722	2553.961964
524.982213	2551.005328
525.344647	2551.416182
525.707025	2552.918446
526.069345	2552.946172
526.431608	2551.726213
526.793815	2555.328117
527.155964	2550.322251
527.518057	2554.735782
527.880093	2552.195040
528.242072	2552.391645
528.603995	2552.731923
528.965860	2553.644372
529.327669	2552.230328
529.689421	2552.278219
530.051117	2553.336861
530.412755	2551.771583
530.774337	2552.401727
531.135862	2550.478527
531.497331	2552.505071
531.858743	2550.629762
532.220098	2550.750749
532.581396	2555.360885
532.942638	2549.742519
533.303824	2552.449618
533.664953	2554.045143
534.026025	2555.134033
534.387040	2550.992725
534.747999	2552.825184
535.108902	2551.905174
535.469748	2551.171686
535.830537	2554.375339
536.191270	2550.654967
536.551947	2550.957437
536.912567	2548.774617
537.273131	2548.378887
537.633638	2548.358722
537.994089	2555.391132
538.354483	2554.458518
538.714821	2551.567416
539.075103	2551.282591
539.435328	2550.418033
539.795497	2550.513815
540.155609	2555.784342
540.515665	2553.150339
540.875665	2552.240410
541.235609	2555.098745
541.595496	2551.111192
541.955328	2552.711758
542.315102	2551.872406
542.674821	2552.946172
543.034483	2552.041285
543.394090	2552.661347
543.753640	2552.560524
544.113134	2555.360885
544.472571	2550.760832
544.831953	2552.558003
545.191278	2552.933569
545.550548	2550.675132
545.909761	2553.165462
546.268918	2552.840308
546.628019	2552.207643
546.987064	2550.087838
547.346053	2556.472459
547.704986	2553.621687
548.063863	2553.309135
548.422684	2552.003476
548.781449	2551.194371
549.140158	2555.345761
549.498811	2553.941800
549.857408	2551.416182
550.215949	2552.931048
550.574434	2553.914073
550.932864	2554.735782
551.291237	2553.397355
551.649555	2553.639331
552.007817	2553.513302
552.366022	2553.152859
552.724173	2551.501881
553.082267	2554.612273
553.440305	2552.285781
553.798288	2554.203940
554.156215	2552.520194
554.514086	2550.717982
554.871902	2547.852086
555.229661	2552.661347
555.587365	2548.401572
555.945014	2553.838456
556.302606	2551.829556
556.660143	2553.442726
557.017625	2553.964485
557.375050	2551.234700
557.732421	2553.903991
558.089735	2551.232180
558.446994	2552.752087
558.804197	2551.713610
559.161345	2551.113712
559.518437	2554.501368
559.875474	2552.464742
560.232455	2552.409289
560.589381	2553.132695
560.946251	2553.667057
561.303065	2552.467262
561.659825	2556.469938
562.016528	2551.237221
562.373177	2553.228477
562.729770	2551.731254
563.086307	2553.520863
563.442789	2553.291491
563.799216	2553.987170
564.155587	2555.013045
564.511904	2552.719320
564.868164	2552.684032
565.224370	2554.176213
565.580520	2553.160421
565.936615	2555.370967
566.292654	2553.167983
566.648638	2551.733774
567.004567	2554.098076
567.360441	2554.196378
567.716260	2554.181255
568.072023	2554.115720
568.427732	2555.302911
568.783385	2554.087993
569.138982	2552.600853
569.494525	2551.257385
569.850013	2554.589588
570.205445	2552.331151
570.560823	2556.258210
570.916145	2557.296688
571.271412	2553.185627
571.626625	2556.865669
571.981782	2552.195040
572.336884	2553.311656
572.691931	2549.959288
573.046923	2552.119423
573.401860	2547.408464
573.756743	2554.438353
574.111570	2555.320555
574.466342	2555.214691
574.821059	2553.286450
575.175722	2554.019938
575.530330	2550.639844
575.884882	2555.575134
576.239380	2551.748898
576.593823	2552.530277
576.948211	2557.929353
577.302544	2553.654454
577.656823	2554.022458
578.011047	2554.622356
578.365216	2555.265103
578.719330	2556.011193
579.073389	2554.844166
579.427394	2554.274516
579.781344	2555.134033
580.135239	2552.915925
580.489080	2554.866852
580.842866	2553.062118
581.196597	2553.384752
581.550273	2554.168652
581.903895	2554.529094
582.257463	2553.447767
582.610975	2555.605381
582.964434	2553.364588
583.317837	2551.169165
583.671186	2557.210988
584.024481	2553.367108
584.377721	2554.352654
584.730906	2551.937941
585.084037	2554.352654
585.437113	2553.954403
585.790135	2552.663867
586.143103	2554.834084
586.496016	2556.961451
586.848874	2555.496996
587.201679	2556.064126
587.554428	2554.251831
587.907124	2555.136553
588.259765	2555.272664
588.612352	2554.367777
588.964884	2553.656975
589.317362	2556.921122
589.669786	2554.186296
590.022155	2549.848383
590.374470	2551.937941
590.726731	2550.687735
591.078937	2549.916438
591.431090	2551.920297
591.783188	2556.250648
592.135232	2553.780483
592.487222	2554.009855
592.839157	2553.946841
593.191038	2553.878785
593.542866	2555.587737
593.894639	2553.876265
594.246358	2552.605894
594.598022	2554.236707
594.949633	2554.745864
595.301190	2556.018755
595.652692	2554.229146
596.004141	2553.409958
596.355535	2554.730740
596.706876	2558.367933
597.058162	2555.491955
597.409395	2552.759649
597.760573	2554.516491
598.111698	2553.246121
598.462768	2555.764177
598.813785	2555.237376
599.164748	2555.580175
599.515657	2553.664536
599.866511	2557.243756
600.217312	2551.446429
600.568060	2553.394835
600.918753	2559.194682
601.269392	2553.445246
601.619978	2554.695452
601.970510	2552.222766
602.320988	2555.607901
602.671412	2556.467418
603.021783	2551.176727
603.372100	2554.481203
603.722363	2555.239897
604.072572	2553.548590
604.422728	2555.496996
604.772830	2553.188147
605.122878	2556.172510
605.472872	2553.702345
605.822813	2555.212171
606.172701	2555.118909
606.522534	2553.183106
606.872314	2556.192675
607.222041	2554.148487
607.571714	2553.974567
607.921333	2550.919628
608.270899	2551.799309
608.620411	2551.453990
608.969870	2556.422047
609.319276	2558.017573
609.668627	2562.564693
610.017926	2566.350600
610.367171	2569.695406
610.716362	2567.457133
611.065500	2566.625343
611.414585	2562.920095
611.763616	2560.081925
612.112594	2559.275341
612.461518	2559.429096
612.810389	2557.858776
613.159207	2557.352140
613.507971	2558.100752
613.856682	2558.390618
614.205340	2556.177552
614.553945	2555.076059
614.902496	2557.299208
615.250994	2556.091852
615.599439	2557.518498
615.947830	2557.967161
616.296169	2555.023127
616.644454	2556.033879
616.992686	2554.052705
617.340864	2556.782490
617.688990	2555.343241
618.037063	2552.716799
618.385082	2557.268961
618.733048	2557.102603
619.080961	2558.415824
619.428821	2553.011707
619.776628	2556.631255
620.124382	2554.602191
620.472083	2552.447098
620.819731	2555.439022
621.167326	2554.632438
621.514868	2558.221739
621.862357	2555.673436
622.209793	2555.023127
622.557176	2556.109496
622.904506	2556.797613
623.251783	2556.774928
623.599007	2555.428940
623.946179	2552.462221
624.293297	2555.207129
624.640363	2553.190668
624.987376	2553.052036
625.334336	2550.546583
625.681243	2552.331151
626.028097	2550.115564
626.374899	2552.285781
626.721647	2557.178221
627.068343	2554.113199
627.414987	2552.646223
627.761577	2555.524722
628.108115	2554.735782
628.454600	2557.470607
628.801032	2555.360885
629.147412	2555.998591
629.493739	2553.982129
629.840014	2556.492624
630.186236	2555.098745
630.532405	2556.943807
630.878521	2555.454146
631.224585	2557.785680
631.570597	2553.893909
631.916556	2553.556152
632.262462	2553.420040
632.608316	2556.424568
632.954117	2553.150339
633.299866	2553.644372
633.645562	2555.630586
633.991206	2553.974567
634.336797	2553.462890
634.682336	2554.398024
635.027823	2554.032541
635.373257	2552.870555
635.718639	2554.415668
636.063968	2555.638148
636.409245	2554.158569
636.754470	2553.099927
637.099642	2556.101934
637.444762	2555.827191
637.789829	2554.808878
638.134845	2555.978426
638.479808	2554.357695
638.824719	2554.811399
639.169577	2555.461708
639.514383	2553.452808
639.859137	2555.794424
640.203839	2553.777962
640.548489	2555.343241
640.893086	2555.363405
641.237632	2552.005997
641.582125	2553.493137
641.926566	2552.855431
642.270955	2550.483568
642.615292	2548.814946
642.959576	2552.701676
643.303809	2548.890564
643.647990	2553.765359
643.992118	2555.570092
644.336195	2555.643189
644.680219	2552.316028
645.024192	2553.006666
645.368112	2552.956254
645.711981	2552.379042
646.055797	2552.691594
646.399562	2554.002294
646.743274	2553.997252
647.086935	2549.848383
647.430544	2551.983312
647.774101	2552.003476
648.117606	2553.903991
648.461059	2556.986657
648.804460	2556.583364
649.147810	2555.744012
649.491108	2552.878116
649.834354	2554.645041
650.177548	2551.620348
650.520690	2555.242418
650.863781	2553.203271
651.206820	2554.277037
651.549807	2551.075904
651.892742	2552.797458
652.235626	2553.432643
652.578458	2551.764021
652.921238	2552.174875
653.263967	2552.560524
653.606644	2551.355688
653.949269	2555.625545
654.291843	2553.510781
654.634365	2552.618497
654.976836	2555.096224
655.319255	2554.516491
655.661622	2552.419371
656.003938	2551.436346
656.346203	2555.181924
656.688416	2554.579506
657.030577	2550.440718
657.372687	2552.207643
657.714746	2553.072201
658.056753	2554.246790
658.398708	2554.640000
658.740612	2552.870555
659.082465	2554.914742
659.424266	2550.302087
659.766016	2550.619679
660.107715	2552.414330
660.449362	2548.845193
660.790958	2554.443395
661.132503	2553.263765
661.473996	2552.459701
661.815438	2554.607232
662.156829	2556.064126
662.498168	2553.596481
662.839456	2552.903322
663.180693	2552.716799
663.521879	2553.662016
663.863013	2552.810061
664.204097	2554.798796
664.545129	2554.244269
664.886110	2553.898950
665.227040	2555.769218
665.567918	2556.762325
665.908746	2554.909701
666.249522	2552.295863
666.590248	2551.249824
666.930922	2554.183775
667.271545	2553.745195
667.612118	2553.682180
667.952639	2553.500699
668.293109	2552.908363
668.633528	2553.054557
668.973896	2552.517674
669.314213	2553.402396
669.654480	2555.827191
669.994695	2552.782334
670.334859	2554.967675
670.674973	2553.964485
671.015035	2553.283929
671.355047	2549.697148
671.695008	2553.299053
672.034918	2552.888199
672.374777	2557.190823
672.714585	2553.946841
673.054342	2550.609597
673.394049	2551.774104
673.733705	2553.515822
674.073310	2555.454146
674.412864	2550.677653
674.752368	2551.658157
675.091820	2553.765359
675.431223	2553.745195
675.770574	2554.297201
676.109875	2553.493137
676.449125	2551.020451
676.788324	2549.366953
677.127473	2549.765204
677.466571	2550.891902
677.805619	2551.229659
678.144616	2551.370811
678.483562	2555.207129
678.822458	2552.948693
679.161303	2554.337530
679.500098	2551.491799
679.838842	2553.513302
680.177535	2551.804351
680.516179	2552.724361
680.854771	2555.807027
681.193314	2552.237890
681.531805	2552.099258
681.870247	2553.926676
682.208638	2552.721841
682.546978	2551.716130
682.885268	2552.036244
683.223508	2554.214022
683.561697	2552.381563
683.899836	2553.946841
684.237925	2552.124464
684.575963	2552.419371
684.913951	2549.858465
685.251889	2552.777293
685.589776	2554.894578
685.927614	2553.818292
686.265401	2551.277550
686.603137	2552.429454
686.940824	2554.050185
687.278460	2551.302756
687.616046	2551.653116
687.953582	2554.128322
688.291068	2550.869217
688.628504	2552.003476
688.965889	2554.554300
689.303224	2554.866852
689.640510	2552.361398
689.977745	2553.404917
690.314930	2553.031872
690.652065	2555.350802
690.989150	2551.217056
691.326185	2551.509443
691.663170	2553.024310
692.000105	2551.637992
692.336990	2553.692263
692.673825	2554.037582
693.010610	2552.759649
693.347345	2552.177396
693.684030	2548.517518
694.020665	2552.684032
694.357251	2548.066335
694.693786	2553.052036
695.030272	2554.745864
695.366707	2554.133364
695.703093	2550.435677
696.039429	2553.659495
696.375716	2550.372663
696.711952	2551.494320
697.048139	2552.048847
697.384276	2552.477345
697.720363	2553.137736
698.056400	2552.583209
698.392388	2553.818292
698.728326	2552.154711
699.064214	2550.947354
699.400053	2551.990873
699.735842	2552.986501
700.071581	2553.601522
700.407270	2549.939124
700.742910	2551.597663
701.078501	2554.418189
701.414042	2554.544218
701.749533	2552.172355
702.084974	2553.861141
702.420366	2550.768393
702.755709	2550.912066
703.091002	2552.371480
703.426246	2552.021120
703.761440	2553.450287
704.096584	2553.898950
704.431679	2551.189330
704.766725	2553.220915
705.101721	2555.925494
705.436668	2552.905843
705.771565	2554.176213
706.106413	2552.280740
706.441212	2554.692932
706.775961	2553.659495
707.110661	2550.964998
707.445311	2552.142108
707.779913	2551.212015
708.114465	2552.187478
708.448967	2553.924156
708.783421	2553.185627
709.117825	2552.270657
709.452180	2555.484393
709.786485	2553.772921
710.120742	2551.101110
710.454949	2547.872251
710.789107	2552.560524
711.123216	2547.695810
711.457275	2552.709238
711.791286	2551.222097
712.125247	2553.634289
712.459159	2552.910884
712.793023	2550.458363
713.126837	2551.854762
713.460602	2552.774773
713.794318	2551.532128
714.127985	2552.812581
714.461602	2551.111192
714.795171	2551.978270
715.128691	2551.950544
715.462162	2551.275029
715.795584	2553.135215
716.128957	2556.049002
716.462281	2554.183775
716.795556	2551.663198
717.128782	2549.878630
717.461960	2553.788045
717.795088	2552.326110
718.128167	2549.404761
718.461198	2551.733774
718.794180	2552.893240
719.127113	2550.453321
719.459997	2549.165307
719.792833	2552.689073
720.125619	2550.720502
720.458357	2550.939793
720.791046	2553.712427
721.123686	2551.358208
721.456278	2550.576830
721.788821	2550.723023
722.121315	2551.955585
722.453761	2550.970040
722.786158	2552.212684
723.118506	2551.033054
723.450805	2550.476007
723.783056	2551.605225
724.115259	2554.115720
724.447412	2550.712941
724.779518	2551.496840
725.111574	2553.664536
725.443582	2552.663867
725.775542	2550.337375
726.107453	2553.427602
726.439315	2551.191850
726.771129	2551.965667
727.102895	2546.985007
727.434612	2547.915100
727.766281	2546.735470
728.097901	2551.297715
728.429473	2550.518856
728.760996	2550.178578
729.092471	2549.498023
729.423897	2556.669064
729.755276	2550.788558
730.086606	2552.747046
730.417887	2550.027344
730.749120	2554.372818
731.080305	2549.903836
731.411442	2552.893240
731.742530	2551.549772
732.073570	2551.249824
732.404562	2550.896943
732.735506	2550.299566
733.066401	2550.697817
733.397249	2550.148332
733.728048	2550.854093
734.058798	2551.519525
734.389501	2550.677653
734.720156	2550.874258
735.050762	2551.098589
735.381320	2549.848383
735.711831	2549.555996
736.042293	2555.058415
736.372707	2551.902653
736.703073	2548.071376
737.033391	2551.201933
737.363661	2551.209494
737.693883	2549.601366
738.024056	2551.111192
738.354182	2549.019113
738.684260	2550.670091
739.014290	2551.872406
739.344272	2549.820657
739.674207	2551.756460
740.004093	2548.807385
740.333931	2551.643034
740.663722	2549.384597
740.993464	2549.866027
741.323159	2549.936603
741.652806	2551.307797
741.982405	2547.441232
742.311956	2551.315359
742.641460	2552.041285
742.970915	2552.807540
743.300323	2548.477189
743.629683	2545.296221
743.958996	2552.489947
744.288260	2547.431150
744.617477	2550.765873
744.946647	2551.587581
745.275768	2550.697817
745.604842	2548.678835
745.933869	2552.774773
746.262847	2552.699155
746.591778	2551.378373
746.920662	2549.606407
747.249498	2553.611604
747.578286	2549.762683
747.907027	2551.668239
748.235720	2552.184958
748.564365	2548.956099
748.892963	2550.680173
749.221514	2552.008517
749.550017	2550.539021
749.878473	2550.806202
750.206881	2551.743857
750.535242	2551.045657
750.863555	2547.320244
751.191821	2551.055739
751.520039	2550.660009
751.848210	2550.536500
752.176334	2548.101623
752.504411	2550.864175
752.832440	2549.755122
753.160421	2548.290666
753.488356	2548.651109
753.816243	2551.829556
754.144082	2552.137067
754.471875	2550.133208
754.799620	2549.051881
755.127318	2550.521377
755.454969	2551.670760
755.782572	2550.586912
756.110129	2551.040616
756.437638	2547.824360
756.765100	2550.506253
757.092515	2552.321069
757.419882	2549.994576
757.747203	2551.002807
758.074477	2549.742519
758.401703	2549.218239
758.728882	2547.917621
759.056014	2552.517674
759.383099	2550.415513
759.710138	2548.830070
760.037129	2545.591128
760.364073	2546.985007
760.690970	2547.471479
761.017820	2550.473486
761.344623	2551.232180
761.671379	2549.855945
761.998088	2550.808723
762.324751	2550.528939
762.651366	2549.215718
762.977935	2550.231511
763.304456	2551.267468
763.630931	2550.627241
763.957359	2551.998435
764.283740	2552.255534
764.610074	2552.071532
764.936362	2549.515667
765.262602	2550.891902
765.588796	2551.499361
765.914943	2549.094730
766.241044	2550.448280
766.567097	2549.727395
766.893104	2552.144628
767.219064	2549.956768
767.544978	2549.732436
767.870845	2549.137580
768.196665	2551.154042
768.522438	2549.510626
768.848165	2551.166645
769.173846	2549.263609
769.499479	2547.842004
769.825066	2548.943496
770.150607	2550.644885
770.476101	2548.653629
770.801548	2550.339895
771.126949	2549.581202
771.452303	2549.810574
771.777611	2547.761345
772.102872	2552.701676
772.428087	2551.028013
772.753256	2551.295194
773.078378	2551.002807
773.403453	2549.538352
773.728482	2551.885009
774.053465	2552.003476
774.378401	2550.932231
774.703291	2546.417878
775.028135	2550.957437
775.352932	2550.997766
775.677683	2551.176727
776.002388	2547.353012
776.327046	2545.102137
776.651658	2549.024154
776.976224	2543.937630
777.300743	2549.124977
777.625216	2549.472817
777.949643	2551.116233
778.274024	2548.762014
778.598359	2550.090358
778.922647	2549.732436
779.246889	2549.563558
779.571086	2549.051881
779.895236	2553.016748
780.219339	2546.019627
780.543397	2551.194371
780.867409	2548.293187
781.191374	2549.888712
781.515294	2548.255378
781.839167	2549.843342
782.162995	2550.786037
782.486776	2548.701520
782.810511	2550.450801
783.134201	2549.881150
783.457844	2550.816284
783.781441	2549.351829
784.104993	2549.621531
784.428498	2549.941644
784.751958	2550.612118
785.075372	2548.096582
785.398739	2550.995245
785.722061	2548.426777
786.045337	2550.186140
786.368568	2550.239072
786.691752	2551.786707
787.014891	2551.063301
787.337983	2549.351829
787.661030	2549.518187
787.984031	2550.017262
788.306987	2551.648075
788.629897	2549.563558
788.952760	2549.495502
789.275579	2549.951727
789.598351	2547.237065
789.921078	2549.591284
790.243759	2548.270502
790.566395	2547.615152
790.888984	2547.834442
791.211529	2551.743857
791.534027	2549.198074
791.856480	2549.573640
792.178888	2545.023999
792.501249	2545.243289
792.823566	2546.445604
793.145836	2545.870912
793.468062	2548.883002
793.790241	2551.280071
794.112375	2552.492468
794.434464	2548.020965
794.756507	2548.514998
795.078505	2545.588608
795.400457	2550.549103
795.722364	2549.336706
796.044226	2550.453321
796.366042	2548.063814
796.687812	2549.828218
797.009538	2550.022303
797.331218	2551.592622
797.652852	2550.163455
797.974442	2550.009700
798.295986	2547.652960
798.617484	2549.276212
798.938938	2550.168496
799.260346	2551.383414
799.581709	2549.908877
799.903026	2550.302087
800.224299	2550.223949
800.545526	2548.499874
800.866708	2550.213867
801.187845	2549.661860
801.508936	2549.119936
801.829983	2551.461552
802.150984	2549.873589
802.471940	2550.917107
802.792851	2548.978784
803.113717	2547.476520
803.434538	2548.782179
803.755314	2548.497354
804.076045	2552.424413
804.396731	2550.269319
804.717372	2550.675132
805.037967	2547.121119
805.358518	2549.238403
805.679024	2551.287632
805.999485	2550.241593
806.319901	2550.607077
806.640272	2548.492312
806.960598	2549.273691
807.280879	2549.195553
807.601115	2549.329144
807.921306	2549.732436
808.241453	2544.832435
808.561554	2543.700696
808.881611	2545.744884
809.201623	2547.169010
809.521590	2551.058260
809.841513	2548.835111
810.161390	2550.533980
810.481223	2550.322251
810.801011	2549.777807
811.120755	2550.004659
811.440453	2551.569937
811.760107	2549.845862
812.079716	2552.129505
812.399281	2548.623382
812.718801	2550.317210
813.038276	2547.889895
813.357707	2548.769576
813.677093	2547.030378
813.996434	2548.081458
814.315731	2549.538352
814.634983	2549.432488
814.954191	2549.881150
815.273354	2549.828218
815.592473	2549.460214
815.911547	2549.583722
816.230577	2550.443239
816.549562	2548.089020
816.868502	2547.345450
817.187399	2552.227808
817.506250	2549.135060
817.825058	2548.313352
818.143821	2546.448125
818.462539	2549.752601
818.781213	2548.366284
819.099843	2550.105482
819.418429	2548.346119
819.736970	2548.220090
820.055466	2549.094730
820.373919	2546.054915
820.692327	2549.160265
821.010691	2546.039791
821.329011	2548.784699
821.647286	2549.162786
821.965517	2548.535162
822.283704	2550.377704
822.601847	2546.743032
822.919945	2546.730429
823.237999	2550.193702
823.556010	2550.052550
823.873976	2549.034237
824.191897	2550.062632
824.509775	2546.884184
824.827609	2546.680018
825.145398	2544.040974
825.463144	2549.324103
825.780845	2548.809905
826.098502	2550.110523
826.416116	2547.592467
826.733685	2548.545245
827.051210	2548.416695
827.368692	2547.741181
827.686129	2548.759494
828.003522	2549.291335
828.320872	2549.399720
828.638177	2548.825029
828.955439	2549.437529
829.272656	2549.513146
829.589830	2549.407282
829.906960	2550.188661
830.224046	2548.683876
830.541088	2548.114226
830.858086	2548.656150
831.175041	2548.978784
831.491952	2547.902498
831.808819	2552.956254
832.125642	2548.063814
832.442421	2547.587425
832.759157	2547.635316
833.075849	2551.746377
833.392497	2547.826880
833.709101	2549.036757
834.025662	2546.649771
834.342179	2549.193033
834.658653	2549.198074
834.975083	2549.722354
835.291469	2553.596481
835.607811	2546.352343
835.924110	2549.185471
836.240366	2547.317724
836.556578	2548.083979
836.872746	2549.079607
837.188871	2547.680687
837.504952	2549.142621
837.820990	2548.978784
838.136984	2549.495502
838.452935	2548.207487
838.768842	2544.991231
839.084706	2547.413506
839.400526	2549.334185
839.716303	2547.877292
840.032037	2548.799823
840.347727	2544.877805
840.663373	2544.779503
840.978977	2542.551313
841.294537	2549.059442
841.610054	2546.080120
841.925527	2547.852086
842.240957	2550.443239
842.556344	2548.169679
842.871687	2546.556509
843.186987	2546.551468
843.502244	2547.448794
843.817458	2551.055739
844.132629	2547.627755
844.447756	2549.099772
844.762840	2548.136911
845.077881	2547.274874
845.392879	2546.657333
845.707833	2546.896787
846.022745	2548.610780
846.337613	2548.769576
846.652438	2550.503733
846.967221	2549.613969
847.281960	2545.979297
847.596656	2549.586243
847.911309	2550.891902
848.225919	2548.013403
848.540485	2547.148845
848.855009	2550.261757
849.169490	2547.121119
849.483928	2547.277394
849.798323	2548.106664
850.112675	2548.565409
850.426984	2545.444935
850.741251	2547.166489
851.055474	2544.101467
851.369654	2549.404761
851.683792	2546.624565
851.997887	2548.232693
852.311938	2543.310006
852.625947	2549.074566
852.939914	2544.960984
853.253837	2547.537014
853.567718	2545.865871
853.881555	2546.574153
854.195350	2548.739329
854.509103	2545.223124
854.822812	2545.487785
855.136479	2551.159083
855.450103	2544.857641
855.763685	2546.019627
856.077224	2543.403268
856.390720	2547.055584
856.704173	2545.361756
857.017584	2548.467107
857.330953	2546.218752
857.644278	2548.628424
857.957561	2551.713610
858.270802	2547.705893
858.584000	2544.696324
858.897155	2547.751263
859.210268	2546.942158
859.523339	2547.829401
859.836367	2546.004503
860.149352	2545.260933
860.462295	2547.746222
860.775195	2549.240924
861.088054	2546.213711
861.400869	2546.097764
861.713642	2548.865358
862.026373	2547.663043
862.339062	2548.724206
862.651708	2548.809905
862.964312	2548.290666
863.276873	2548.731767
863.589392	2548.502395
863.901869	2546.117929
864.214303	2548.464586
864.526696	2544.658515
864.839045	2549.916438
865.151353	2547.078269
865.463619	2549.059442
865.775842	2547.153886
866.088023	2545.245809
866.400162	2544.570295
866.712258	2546.526262
867.024313	2546.485933
867.336325	2549.661860
867.648296	2547.113557
867.960224	2547.118598
868.272110	2548.837632
868.583954	2547.544576
868.895755	2548.517518
869.207515	2547.859648
869.519233	2548.051212
869.830909	2548.467107
870.142542	2546.264123
870.454134	2549.624052
870.765684	2549.114895
871.077191	2546.211190
871.388657	2545.734801
871.700081	2543.637681
872.011463	2543.383103
872.322803	2542.798329
872.634101	2547.910059
872.945357	2548.300749
873.256571	2546.727909
873.567744	2547.388300
873.878874	2547.234545
874.189963	2546.392672
874.501010	2547.962991
874.812015	2545.265974
875.122979	2549.248486
875.433900	2548.774617
875.744780	2548.341078
876.055618	2546.972405
876.366415	2548.905687
876.677169	2544.658515
876.987882	2549.218239
877.298554	2547.158927
877.609183	2547.373176
877.919771	2546.213711
878.230317	2546.803526
878.540822	2549.969371
878.851285	2548.010882
879.161707	2550.135729
879.472087	2547.509287
879.782425	2545.311344
880.092722	2548.280584
880.402977	2545.356715
880.713191	2548.315872
881.023363	2545.271015
881.333494	2547.637837
881.643583	2546.879143
881.953631	2548.603218
882.263637	2544.628268
882.573602	2545.545758
882.883526	2546.944678
883.193408	2546.932075
883.503248	2547.337888
883.813048	2544.635830
884.122806	2547.826880
884.432522	2546.737991
884.742197	2543.947712
885.051831	2548.255378
885.361424	2545.339071
885.670975	2544.565254
885.980485	2548.993907
886.289954	2548.772097
886.599382	2546.647250
886.908768	2545.349153
887.218113	2542.889070
887.527417	2543.277239
887.836680	2545.364277
888.145901	2546.717826
888.455082	2547.703372
888.764221	2548.489792
889.073319	2544.915614
889.382376	2545.704554
889.691392	2546.059956
890.000366	2549.528270
890.309300	2546.430481
890.618193	2545.908721
890.927044	2544.761859
891.235855	2547.925183
891.544625	2544.933258
891.853353	2547.506767
892.162041	2546.314534
892.470687	2547.000131
892.779293	2544.610624
893.087858	2546.034750
893.396381	2545.465100
893.704864	2545.273536
894.013306	2548.308310
894.321707	2546.203629
894.630068	2546.609442
894.938387	2546.672456
895.246665	2546.191026
895.554903	2546.105326
895.863100	2547.479041
896.171256	2546.178423
896.479371	2548.136911
896.787446	2548.167158
897.095480	2547.778989
897.403473	2547.879812
897.711425	2547.393341
898.019336	2548.593136
898.327207	2546.909390
898.635038	2544.020809
898.942827	2544.867723
899.250576	2545.061807
899.558284	2545.603731
899.865952	2547.705892
900.173579	2546.309493
900.481165	2545.079451
900.788711	2546.589277
901.096216	2545.230686
901.403681	2544.542568
901.711105	2546.354863
902.018489	2550.019782
902.325832	2544.668597
902.633135	2543.100798
902.940397	2544.323278
903.247619	2541.603576
903.554800	2546.017106
903.861941	2546.228834
904.169041	2547.002652
904.476101	2548.885523
904.783121	2546.924514
905.090100	2545.765048
905.397039	2547.955430
905.703938	2544.764379
906.010796	2547.857127
906.317614	2545.979297
906.624391	2546.901828
906.931129	2545.069369
907.237826	2547.451314
907.544483	2544.242620
907.851099	2545.218083
908.157675	2543.098278
908.464211	2547.342929
908.770707	2548.832590
909.077163	2548.227652
909.383578	2546.178423
909.689954	2547.486602
909.996289	2545.540717
910.302584	2547.373176
910.608839	2544.487116
910.915054	2545.913762
911.221229	2546.201108
911.527363	2545.328988
911.833458	2544.978628
912.139513	2547.695810
912.445527	2545.225645
912.751502	2545.127342
913.057436	2544.814791
913.363331	2548.832590
913.669186	2544.623227
913.975000	2544.895449
914.280775	2546.122970
914.586510	2547.398382
914.892205	2547.645399
915.197859	2545.792775
915.503475	2545.918803
915.809050	2546.248999
916.114585	2546.997610
916.420081	2543.468803
916.725536	2546.559030
917.030952	2549.054401
917.336328	2544.824873
917.641665	2542.566436
917.946961	2543.718340
918.252218	2545.762528
918.557435	2540.371014
918.862612	2545.220604
919.167750	2547.095913
919.472848	2546.339740
919.777906	2544.585418
920.082925	2548.028526
920.387904	2545.162630
920.692843	2546.594318
920.997743	2546.022147
921.302603	2546.889226
921.607423	2545.341591
921.912204	2544.222455
922.216946	2545.946530
922.521647	2545.243289
922.826310	2544.542568
923.130932	2546.115408
923.435516	2546.405275
923.740059	2547.874771
924.044564	2542.611807
924.349028	2545.626417
924.653454	2544.071221
924.957840	2545.490305
925.262186	2543.965356
925.566493	2545.631458
925.870761	2544.106509
926.174989	2542.001827
926.479178	2547.254709
926.783328	2545.061807
927.087438	2546.677497
927.391509	2546.375028
927.695541	2546.508618
927.999533	2544.136756
928.303486	2548.154555
928.607400	2547.537014
928.911275	2547.163968
929.215110	2545.528114
929.518906	2545.659184
929.822663	2546.546427
930.126381	2545.623896
930.430060	2549.074566
930.733699	2546.458207
931.037299	2546.440563
931.340861	2545.996941
931.644383	2543.695655
931.947866	2545.054246
932.251309	2546.657332
932.554714	2546.657332
932.858080	2544.121632
933.161407	2542.727753
933.464694	2543.657846
933.767943	2539.952598
934.071153	2547.448794
934.374323	2543.181457
934.677455	2546.105326
934.980548	2546.856458
935.283602	2542.994934
935.586617	2544.434184
935.889593	2546.614483
936.192530	2545.583567
936.495428	2545.467620
936.798287	2547.103475
937.101108	2544.872764
937.403890	2544.358566
937.706632	2545.828063
938.009336	2546.682538
938.312002	2545.495347
938.614628	2544.890408
938.917216	2544.729091
939.219765	2546.823691
939.522275	2544.794626
939.824747	2545.200439
940.127179	2547.325285
940.429573	2545.036602
940.731929	2545.341591
941.034246	2544.348484
941.336524	2547.161448
941.638763	2544.620706
941.940964	2545.197918
942.243126	2545.749925
942.545250	2547.990718
942.847335	2546.264122
943.149381	2545.475182
943.451389	2545.162630
943.753359	2547.194215
944.055290	2545.213042
944.357182	2545.656663
944.659036	2545.505429
944.960851	2546.445604
945.262628	2544.189688
945.564367	2545.603731
945.866067	2543.375541
946.167729	2544.890408
946.469352	2545.835624
946.770937	2546.455686
947.072484	2544.174564
947.373992	2545.949050
947.675462	2544.136756
947.976893	2542.891591
948.278286	2541.628782
948.579641	2541.908566
948.880958	2541.588452
949.182236	2546.062476
949.483476	2544.046015
949.784678	2546.102806
950.085841	2545.586087
950.386967	2546.304452
950.688054	2546.422919
950.989103	2545.258412
951.290114	2544.920655
951.591087	2544.731612
951.892021	2544.366128
952.192917	2545.034081
952.493776	2545.369318
952.794596	2544.093906
953.095378	2544.214893
953.396122	2546.982487
953.696828	2545.268495
953.997496	2544.625748
954.298126	2542.536189
954.598718	2545.875954
954.899272	2544.461910
955.199788	2543.226827
955.500266	2545.679349
955.800706	2547.035419
956.101108	2545.016437
956.401472	2544.852599
956.701798	2545.729760
957.002087	2544.824873
957.302337	2544.943340
957.602550	2545.858310
957.902724	2542.251364
958.202861	2545.558361
958.502960	2543.972918
958.803022	2543.466282
959.103045	2543.980480
959.403031	2544.068700
959.702979	2544.217414
960.002889	2544.209852
960.302762	2546.932075
960.602596	2545.820501
960.902393	2544.814791
961.202153	2544.605583
961.501875	2547.932744
961.801559	2541.679193
962.101205	2544.698844
962.400814	2545.245809
962.700385	2544.240099
962.999918	2544.164482
963.299414	2539.667773
963.598873	2544.189688
963.898293	2539.682896
964.197677	2545.941489
964.497022	2541.928730
964.796331	2546.327137
965.095601	2544.693803
965.394835	2545.066848
965.694030	2545.853268
965.993189	2546.160779
966.292309	2541.739687
966.591393	2544.247661
966.890439	2543.725902
967.189447	2543.070552
967.488419	2542.934440
967.787353	2544.625747
968.086249	2543.993083
968.385108	2545.323947
968.683930	2544.151879
968.982714	2545.475182
969.281462	2543.806560
969.580172	2544.839997
969.878844	2543.526776
970.177480	2545.066848
970.476078	2543.998124
970.774639	2546.243958
971.073162	2544.852599
971.371649	2543.015099
971.670098	2542.498381
971.968510	2543.637681
972.266885	2544.245140
972.565223	2544.623227
972.863524	2542.858823
973.161788	2545.366797
973.460014	2542.455531
973.758204	2543.549461
974.056356	2543.375541
974.354471	2545.346633
974.652550	2543.665408
974.950591	2543.383103
975.248595	2545.510470
975.546563	2545.092054
975.844493	2544.154400
976.142386	2544.509801
976.440243	2542.735315
976.738062	2543.604914
977.035845	2542.999975
977.333590	2545.520552
977.631299	2544.529966
977.928971	2540.791950
978.226606	2540.318082
978.524204	2544.103988
978.821765	2539.556867
979.119290	2543.723381
979.416777	2544.787064
979.714228	2545.896118
980.011642	2544.033412
980.309020	2545.949050
980.606360	2544.905532
980.903664	2545.074410
981.200931	2542.132897
981.498162	2542.573998
981.795356	2544.635830
982.092513	2544.729091
982.389633	2542.904193
982.686717	2542.649615
982.983764	2545.008875
983.280775	2543.640202
983.577749	2544.287990
983.874686	2544.464431
984.171587	2543.279759
984.468451	2543.549461
984.765279	2542.637012
985.062070	2543.733463
985.358824	2547.637837
985.655543	2546.007024
985.952224	2544.424101
986.248869	2546.652291
986.545478	2543.975439
986.842050	2543.985521
987.138586	2544.363607
987.435086	2542.246323
987.731549	2544.013247
988.027975	2544.676159
988.324366	2546.140614
988.620719	2542.233720
988.917037	2544.247661
989.213318	2547.214380
989.509563	2542.936961
989.805772	2544.814791
990.101944	2541.512835
990.398080	2541.820345
990.694180	2542.997455
990.990244	2545.754966
991.286271	2545.744884
991.582262	2541.371683
991.878217	2541.164995
992.174136	2543.829245
992.470019	2544.270346
992.765865	2542.145500
993.061676	2540.161806
993.357450	2541.704399
993.653188	2540.035777
993.948890	2546.589277
994.244556	2544.348484
994.540186	2542.989893
994.835780	2545.119781
995.131337	2543.741025
995.426859	2542.480737
995.722345	2543.186498
996.017795	2544.666077
996.313208	2545.714637
996.608586	2544.895449
996.903928	2542.095088
997.199234	2543.703216
997.494504	2541.989224
997.789738	2543.183977
998.084936	2547.080789
998.380099	2539.967721
998.675225	2544.335881
998.970316	2542.808412
999.265371	2545.402085
999.560390	2545.729760
999.855373	2545.959133
1000.150320	2542.291693
1000.445232	2543.650284
1000.740108	2547.095913
1001.034948	2543.609955
1001.329752	2541.989224
1001.624521	2544.509801
1001.919254	2542.727753
1002.213951	2544.091385
1002.508613	2542.362269
1002.803239	2544.076262
1003.097829	2543.035263
1003.392384	2543.816642
1003.686903	2545.606252
1003.981386	2542.836138
1004.275834	2543.584749
1004.570246	2543.761190
1004.864623	2543.630120
1005.158964	2543.516694
1005.453270	2545.210521
1005.747540	2542.803370
1006.041775	2544.015768
1006.335974	2544.189688
1006.630138	2544.078782
1006.924266	2544.358566
1007.218359	2542.442928
1007.512416	2537.729449
1007.806438	2538.747762
1008.100425	2541.210366
1008.394376	2537.999151
1008.688292	2544.608103
1008.982172	2544.330840
1009.276017	2544.217414
1009.569827	2541.681714
1009.863602	2543.501570
1010.157341	2546.107847
1010.451045	2542.175747
1010.744714	2543.897301
1011.038347	2543.206663
1011.331945	2542.044677
1011.625508	2544.106509
1011.919036	2544.222455
1012.212528	2543.665408
1012.505986	2543.912424
1012.799408	2544.101468
1013.092795	2543.670449
1013.386147	2543.846889
1013.679464	2544.771941
1013.972745	2542.044677
1014.265992	2544.653474
1014.559204	2544.807229
1014.852380	2538.551157
1015.145521	2546.243958
1015.438628	2542.576518
1015.731699	2542.876467
1016.024736	2542.024512
1016.317737	2543.607434
1016.610703	2543.448638
1016.903635	2544.678680
1017.196531	2540.829759
1017.489393	2544.625748
1017.782219	2541.946374
1018.075011	2541.490150
1018.367768	2542.750438
1018.660490	2544.630789
1018.953177	2544.630789
1019.245829	2544.630789
