Dividing Wavelength (nm)	Counts (n)	Blue Motor Position (mm): 45.600000	Red Motor Position (mm): 0.000000	
326.493990	2129.090998
326.888308	2129.090998
327.282561	2129.090998
327.676750	2097.624115
328.070874	2094.266707
328.464933	2097.777871
328.858929	2102.715681
329.252859	2114.048195
329.646726	2128.788528
330.040528	2141.819911
330.434265	2157.994453
330.827938	2173.443069
331.221547	2192.508713
331.615091	2211.702906
332.008571	2229.515823
332.401986	2250.297980
332.795338	2269.867739
333.188625	2290.866666
333.581847	2306.368214
333.975006	2323.855977
334.368100	2343.392968
334.761129	2361.858715
335.154095	2379.621220
335.546996	2400.481515
335.939833	2426.947573
336.332606	2439.615992
336.725315	2451.218208
337.117960	2462.719600
337.510540	2468.234623
337.903056	2483.398413
338.295508	2486.965030
338.687896	2499.489777
339.080220	2502.668224
339.472480	2509.849348
339.864676	2516.932169
340.256807	2520.713034
340.648875	2523.455422
341.040879	2525.161853
341.432818	2528.466329
341.824694	2527.841226
342.216506	2530.984385
342.608253	2530.303829
342.999937	2529.668644
343.391557	2529.315763
343.783113	2527.730320
344.174605	2529.295599
344.566033	2524.929959
344.957397	2524.156142
345.348697	2521.411234
345.739934	2522.356450
346.131106	2520.193795
346.522215	2519.359484
346.913260	2515.598784
347.304241	2514.482168
347.695159	2512.493433
348.086012	2511.001251
348.476802	2508.841117
348.867528	2509.100736
349.258191	2505.665190
349.648789	2503.822648
350.039324	2503.552947
350.429796	2502.121259
350.820203	2501.717967
351.210548	2500.969355
351.600828	2501.483553
351.991045	2499.439365
352.381198	2499.336021
352.771288	2497.846360
353.161314	2497.448109
353.551276	2499.444406
353.941175	2497.448109
354.331010	2496.119765
354.720782	2495.582882
355.110490	2498.340393
355.500135	2497.354848
355.889717	2497.463233
356.279235	2498.305105
356.668689	2501.864160
357.058080	2498.083295
357.447408	2495.855105
357.836672	2495.313181
358.225873	2499.724190
358.615010	2496.023983
359.004084	2498.622698
359.393095	2499.245281
359.782043	2503.888183
360.170927	2502.118738
360.559748	2505.922289
360.948505	2505.483708
361.337199	2503.500014
361.725830	2505.977742
362.114398	2507.684172
362.502903	2508.110150
362.891344	2509.307424
363.279722	2507.661487
363.668037	2510.040912
364.056289	2509.708195
364.444478	2509.884636
364.832603	2512.642147
365.220665	2510.971004
365.608665	2512.143073
365.996601	2509.536796
366.384474	2512.443021
366.772284	2515.316479
367.160031	2515.200532
367.547715	2515.644154
367.935336	2511.245747
368.322893	2513.887312
368.710388	2514.010820
369.097820	2516.551562
369.485189	2515.800430
369.872495	2517.012827
370.259738	2517.244720
370.646918	2515.613907
371.034035	2515.785306
371.421090	2517.852179
371.808081	2520.589526
372.195010	2520.566841
372.581875	2519.253620
372.968678	2522.235463
373.355418	2524.478776
373.742096	2526.991791
374.128710	2529.015815
374.515262	2531.929602
374.901751	2538.281455
375.288177	2542.337064
375.674540	2547.111036
376.060841	2555.270144
376.447079	2564.629046
376.833254	2573.919892
377.219367	2579.296283
377.605417	2600.547267
377.991404	2602.629264
378.377329	2621.397479
378.763191	2630.965589
379.148991	2652.750936
379.534727	2672.287927
379.920402	2690.294929
380.306013	2704.493339
380.691563	2735.302351
381.077049	2756.689446
381.462474	2775.465223
381.847835	2805.477733
382.233134	2829.277020
382.618371	2844.193794
383.003545	2893.773542
383.388657	2911.939340
383.773706	2947.469393
384.158693	2972.075264
384.543618	3007.703619
384.928480	3045.633261
385.313280	3090.827205
385.698017	3108.526696
386.082692	3160.576610
386.467305	3183.266843
386.851856	3221.708162
387.236344	3255.395672
387.620770	3296.453350
388.005133	3335.444154
388.389435	3374.104763
388.773674	3396.295922
389.157851	3449.273408
389.541965	3477.314826
389.926018	3459.267496
390.310008	3537.818755
390.693936	3564.675502
391.077802	3616.652319
391.461606	3620.395375
391.845348	3688.085469
392.229027	3696.655430
392.612645	3717.707289
392.996200	3802.459167
393.379694	3845.697144
393.763125	3917.573915
394.146494	3892.763877
394.529801	3960.829536
394.913047	4012.042618
395.296230	3984.540603
395.679351	4044.815159
396.062410	4070.552770
396.445408	4058.917787
396.828343	4091.793672
397.211217	4118.327785
397.594028	4046.009912
397.976778	4112.238071
398.359466	4136.067605
398.742092	4170.312163
399.124656	4095.118312
399.507158	4174.468595
399.889598	4204.097976
400.271977	4264.062501
400.654294	4234.740630
401.036549	4246.635233
401.418742	4215.664904
401.800874	4317.718022
402.182944	4338.936239
402.564952	4402.250611
402.946898	4389.904825
403.328783	4387.575812
403.710606	4300.676402
404.092367	4493.316534
404.474067	4459.054332
404.855705	4465.116320
405.237282	4398.280702
405.618797	4504.361702
406.000250	4536.395714
406.381642	4619.715905
406.762972	4577.876849
407.144240	4587.346656
407.525447	4592.949899
407.906593	4651.949043
408.287677	4690.828942
408.668700	4623.166575
409.049661	4672.872352
409.430560	4717.365576
409.811399	4639.164677
410.192176	4802.707269
410.572891	4740.451540
410.953545	4844.480791
411.334138	4723.598962
411.714669	4792.400630
412.095139	4686.407850
412.475547	4825.883974
412.855894	4812.653466
413.236180	4816.724197
413.616405	4772.651910
413.996568	4858.565774
414.376670	4802.946724
414.756711	4755.343108
415.136691	4788.839055
415.516609	4867.460890
415.896466	4907.102004
416.276262	4938.710038
416.655997	4918.631123
417.035670	5098.950675
417.415283	5192.224624
417.794834	5132.449142
418.174324	5090.000106
418.553753	4996.635417
418.933121	5182.404456
419.312428	5250.391978
419.691674	5183.402605
420.070859	5315.291792
420.449983	5226.867433
420.829045	5342.821533
421.208047	5246.830402
421.586988	5317.835054
421.965867	5333.119833
422.344686	5462.279236
422.723444	5314.878418
423.102141	5136.696314
423.480777	5439.407521
423.859352	5201.414648
424.237866	5465.326613
424.616319	5457.706909
424.994712	5561.221962
425.373044	5442.563283
425.751314	5585.527885
426.129524	5387.292072
426.507673	5580.232153
426.885762	5660.376417
427.263789	5594.881746
427.641756	5477.206092
428.019662	5595.990800
428.397508	5601.576399
428.775292	5552.309202
429.153016	5654.064892
429.530679	5581.895734
429.908282	5666.811450
430.285824	5533.969484
430.663305	5805.896885
431.040726	5543.300660
431.418086	5544.366864
431.795385	5645.250435
432.172624	5660.915821
432.549802	5656.212424
432.926920	5669.105175
433.303977	5676.152708
433.680974	5716.181990
434.057910	5733.004321
434.434786	5740.412296
434.811601	5705.401483
435.188355	5940.593995
435.565050	5818.000695
435.941683	5800.039064
436.318257	6014.867835
436.694770	5998.252192
437.071222	6034.815681
437.447614	5961.451769
437.823946	5874.295260
438.200218	6024.090626
438.576429	5895.483230
438.952580	5993.853785
439.328670	6035.710486
439.704700	5944.243790
440.080670	5931.093940
440.456580	6198.582605
440.832429	6084.251756
441.208218	5928.618734
441.583947	6087.473053
441.959616	6092.098312
442.335224	6020.854205
442.710773	6157.129197
443.086261	6181.470408
443.461689	5976.237473
443.837057	6120.721983
444.212365	6278.177383
444.587612	6174.125447
444.962800	6327.535320
445.337927	6303.242000
445.712995	5916.565335
446.088002	6498.193501
446.462949	6328.369631
446.837837	6260.089723
447.212664	6430.079951
447.587431	6568.709161
447.962139	7115.883561
448.336786	8038.676855
448.711374	7779.017103
449.085901	6857.552153
449.460369	6774.846983
449.834776	6708.679318
450.209124	7099.832527
450.583412	7252.685353
450.957640	7396.292703
451.331808	7165.186046
451.705917	6716.372119
452.079965	6635.227186
452.453954	6852.145516
452.827883	6724.271607
453.201752	6819.093190
453.575562	6616.534588
453.949311	6829.656928
454.323001	6712.331634
454.696632	6789.816689
455.070202	6923.480363
455.443713	7083.126144
455.817164	7180.435536
456.190556	7263.831344
456.563888	7334.067220
456.937160	7380.665126
457.310373	7039.152159
457.683526	7063.319450
458.056619	6950.556400
458.429653	6945.432068
458.802628	6873.852724
459.175542	6982.003118
459.548398	7339.667942
459.921194	7498.857498
460.293930	7499.338929
460.666607	8035.125362
461.039224	8341.390582
461.411782	8463.104200
461.784280	8489.295515
462.156719	8376.033391
462.529099	8254.445802
462.901419	7839.279056
463.273680	7737.175526
463.645882	7743.325734
464.018024	7616.407124
464.390106	7784.708566
464.762130	8168.163933
465.134094	8638.969893
465.505999	9663.720524
465.877845	10883.626823
466.249631	11531.440298
466.621358	11149.444344
466.993026	10513.906079
467.364634	10263.990877
467.736184	9903.697091
468.107674	9565.627232
468.479105	9601.968910
468.850477	9363.005615
469.221790	9134.873238
469.593043	8813.008168
469.964238	8662.766660
470.335373	8673.542127
470.706449	8736.612002
471.077467	8721.770845
471.448425	10029.161328
471.819324	11107.383477
472.190164	11124.518359
472.560945	9878.796312
472.931667	9088.771887
473.302330	8957.016290
473.672934	8596.112524
474.043479	8956.829767
474.413965	8899.766426
474.784393	8779.250082
475.154761	8937.408722
475.525070	9021.384263
475.895321	8845.447993
476.265513	9032.258031
476.635645	9195.228453
477.005719	9191.150159
477.375734	9316.296804
477.745691	9552.699193
478.115588	9681.357001
478.485427	9928.829763
478.855207	10467.111568
479.224928	11278.797831
479.594591	11912.092783
479.964194	11713.375540
480.333739	11658.043835
480.703226	11579.578276
481.072653	11666.472644
481.442022	11899.600804
481.811333	12084.792632
482.180584	11902.280177
482.549777	11607.481062
482.918912	11426.019688
483.287988	11446.214551
483.657005	11467.062242
484.025964	11143.553756
484.394864	11271.495720
484.763706	11247.096535
485.132489	11002.555203
485.501213	10967.927518
485.869879	11041.591378
486.238487	10892.511856
486.607036	10993.095478
486.975527	10771.869483
487.343959	10970.201078
487.712333	11013.103818
488.080648	10941.920205
488.448905	10994.151600
488.817104	10927.517628
489.185244	11196.362363
489.553326	11350.788029
489.921350	11886.566901
490.289315	12955.525930
490.657222	13288.592444
491.025070	13205.509187
491.392861	13074.945823
491.760593	12691.419880
492.128267	12340.658916
492.495883	12011.998370
492.863440	11676.063440
493.230939	11339.836122
493.598380	11270.200143
493.965763	11141.406224
494.333088	11038.337313
494.700354	10968.560183
495.067563	11024.040601
495.434713	10852.782523
495.801805	10975.574948
496.168839	10906.997612
496.535815	10839.559576
496.902733	10841.760040
497.269593	10771.700604
497.636395	10868.702487
498.003139	10863.494975
498.369825	10734.837167
498.736453	10892.607638
499.103023	10813.038066
499.469535	10845.659372
499.835989	10833.190078
500.202385	10796.261106
500.568723	10645.686882
500.935003	10870.610563
501.301226	10675.301140
501.667390	10935.752353
502.033497	11033.500326
502.399546	10884.831658
502.765537	10795.225149
503.131470	10870.812209
503.497345	11043.081039
503.863163	10654.027471
504.228923	10965.006169
504.594625	11028.265088
504.960269	10772.005594
505.325856	10998.277784
505.691385	10787.620568
506.056856	10945.557398
506.422270	10968.454318
506.787625	10859.089006
507.152924	10971.879782
507.518164	10954.268511
507.883347	10880.103056
508.248472	10806.267796
508.613540	11031.511591
508.978550	10912.142109
509.343503	10891.400282
509.708398	11015.377378
510.073236	11125.105653
510.438016	11133.776438
510.802738	11080.637635
511.167403	11129.773762
511.532010	11029.900943
511.896561	11262.219997
512.261053	11342.344096
512.625488	11200.607015
512.989866	11182.514313
513.354186	11166.564103
513.718449	11081.746689
514.082655	11261.569688
514.446803	11154.762762
514.810894	11288.847372
515.174927	11146.659107
515.538904	11173.848570
515.902822	11319.283338
516.266684	11206.923580
516.630488	11149.325877
516.994235	11209.386184
517.357925	11268.140832
517.721558	11357.898576
518.085133	11373.977337
518.448651	11377.916998
518.812112	11264.571695
519.175516	11280.216916
519.538863	11402.769887
519.902152	11316.145220
520.265385	11473.061215
520.628560	11384.001671
520.991678	11368.900895
521.354739	11431.653178
521.717743	11363.582477
522.080690	11343.387615
522.443580	11476.252266
522.806413	11434.708117
523.169189	11466.575771
523.531908	11524.153310
523.894569	11340.385608
524.257174	11345.089004
524.619722	11467.347067
524.982213	11410.470249
525.344647	11464.624844
525.707025	11412.975703
526.069345	11507.978768
526.431608	11427.549678
526.793815	11532.360308
527.155964	11329.494195
527.518057	11376.376926
527.880093	11323.270891
528.242072	11388.521065
528.603995	11292.103957
528.965860	11222.919162
529.327669	11276.562080
529.689421	11215.319622
530.051117	11196.029647
530.412755	11297.568568
530.774337	11187.726867
531.135862	11160.189564
531.497331	11190.277690
531.858743	11037.185410
532.220098	11205.582633
532.581396	11078.558159
532.942638	11059.926055
533.303824	11031.486385
533.664953	11039.685822
534.026025	10945.547315
534.387040	11047.423993
534.747999	11052.906248
535.108902	11117.722884
535.469748	10868.178207
535.830537	10975.834568
536.191270	10951.498397
536.551947	10974.092849
536.912567	10968.600512
537.273131	10903.451160
537.633638	10877.905113
537.994089	10871.359175
538.354483	10818.230454
538.714821	10962.848555
539.075103	10972.033538
539.435328	10935.270923
539.795497	10761.076373
540.155609	10918.683006
540.515665	11001.786428
540.875665	10740.097611
541.235609	10813.471605
541.595496	10809.206789
541.955328	10961.086672
542.315102	10847.567449
542.674821	10794.065683
543.034483	10799.129522
543.394090	10802.615480
543.753640	10729.664943
544.113134	10949.998654
544.472571	10807.270986
544.831953	10943.412387
545.191278	10750.749569
545.550548	10780.207551
545.909761	10917.654611
546.268918	10890.848275
546.628019	10975.852212
546.987064	10844.406646
547.346053	10760.917576
547.704986	10863.227793
548.063863	10845.291368
548.422684	10838.594195
548.781449	10755.954560
549.140158	10859.872906
549.498811	10736.188196
549.857408	10590.193860
550.215949	10825.320837
550.574434	10677.942704
550.932864	10775.804103
551.291237	10836.474390
551.649555	10776.454412
552.007817	10787.623089
552.366022	10753.580177
552.724173	10749.678324
553.082267	10733.697866
553.440305	10874.784639
553.798288	10668.430047
554.156215	10819.783130
554.514086	10801.082969
554.871902	10646.604372
555.229661	10688.682883
555.587365	10658.294807
555.945014	10559.349560
556.302606	10678.497231
556.660143	10574.336911
557.017625	10735.225336
557.375050	10628.572164
557.732421	10766.389749
558.089735	10675.505307
558.446994	10674.633187
558.804197	10711.463857
559.161345	10714.405370
559.518437	10560.604807
559.875474	10650.629733
560.232455	10676.148054
560.589381	10632.663061
560.946251	10628.672987
561.303065	10740.818496
561.659825	10666.123719
562.016528	10601.599471
562.373177	10479.974072
562.729770	10599.809861
563.086307	10515.216779
563.442789	10599.809861
563.799216	10481.972890
564.155587	10529.243789
564.511904	10484.019598
564.868164	10473.067692
565.224370	10492.418161
565.580520	10418.134238
565.936615	10421.085834
566.292654	10295.251072
566.648638	10423.172871
567.004567	10380.101253
567.360441	10362.951247
567.716260	10274.121076
568.072023	10358.880516
568.427732	10317.275873
568.783385	10227.112316
569.138982	10297.441453
569.494525	10306.833123
569.850013	10188.860041
570.205445	10265.568758
570.560823	10159.419702
570.916145	10090.804557
571.271412	10158.154373
571.626625	10095.631462
571.981782	10076.548174
572.336884	10061.633920
572.691931	10053.605883
573.046923	10001.992029
573.401860	9953.765831
573.756743	9896.568899
574.111570	9935.990723
574.466342	9918.971787
574.821059	9953.526376
575.175722	9836.236370
575.530330	9838.895579
575.884882	9845.885139
576.239380	9763.371533
576.593823	9745.064582
576.948211	9761.924721
577.302544	9640.856371
577.656823	9656.052929
578.011047	9657.961006
578.365216	9634.043251
578.719330	9560.059277
579.073389	9569.423221
579.427394	9521.310448
579.781344	9496.505451
580.135239	9441.060320
580.489080	9451.379562
580.842866	9352.976239
581.196597	9357.412454
581.550273	9399.387622
581.903895	9373.362665
582.257463	9431.983723
582.610975	9309.037542
582.964434	9330.767436
583.317837	9260.955017
583.671186	9242.247295
584.024481	9235.908044
584.377721	9152.411413
584.730906	9129.655644
585.084037	9164.883227
585.437113	9100.623639
585.790135	9116.573850
586.143103	9016.771607
586.496016	8996.554059
586.848874	9048.246051
587.201679	9034.203917
587.554428	8921.340044
587.907124	8968.857960
588.259765	8935.924102
588.612352	8943.548847
588.964884	8821.106782
589.317362	8830.934511
589.669786	8832.116662
590.022155	8881.245227
590.374470	8900.704081
590.726731	8836.142023
591.078937	8689.731792
591.431090	8802.187332
591.783188	8672.690172
592.135232	8667.258328
592.487222	8662.817072
592.839157	8719.083910
593.191038	8654.022779
593.542866	8595.510106
593.894639	8495.748192
594.246358	8544.937251
594.598022	8564.139006
594.949633	8463.890620
595.301190	8434.863657
595.652692	8464.273748
596.004141	8573.916324
596.355535	8352.100513
596.706876	8328.414652
597.058162	8266.416021
597.409395	8342.179523
597.760573	8406.509687
598.111698	8320.328641
598.462768	8296.486504
598.813785	8267.265456
599.164748	8235.231444
599.515657	8227.614260
599.866511	8133.367368
600.217312	8261.485773
600.568060	8118.314483
600.918753	8217.819298
601.269392	8199.187194
601.619978	8100.970393
601.970510	8168.801639
602.320988	8164.839292
602.671412	8220.143270
603.021783	8156.385277
603.372100	8131.436607
603.722363	8134.957852
604.072572	8107.382741
604.422728	8114.584029
604.772830	8050.258906
605.122878	8052.744195
605.472872	8048.446611
605.822813	8079.167403
606.172701	8020.566510
606.522534	8098.172553
606.872314	8098.459899
607.222041	8068.341525
607.571714	8125.069629
607.921333	8084.785769
608.270899	8084.989936
608.620411	8174.414964
608.969870	8081.987928
609.319276	8077.337464
609.668627	8094.613498
610.017926	8128.323694
610.367171	8174.296497
610.716362	8147.916138
611.065500	8137.657390
611.414585	8171.917072
611.763616	8159.135226
612.112594	8143.560582
612.461518	8160.254362
612.810389	8213.483906
613.159207	8150.610635
613.507971	8105.346115
613.856682	8217.297539
614.205340	8170.394643
614.553945	8249.389524
614.902496	8153.073239
615.250994	8209.894604
615.599439	8193.258797
615.947830	8206.789254
616.296169	8175.367742
616.644454	8189.475411
616.992686	8191.653189
617.340864	8243.385510
617.688990	8152.264134
618.037063	8238.160354
618.385082	8185.258486
618.733048	8276.316848
619.080961	8212.523566
619.428821	8231.359838
619.776628	8235.914520
620.124382	8183.347888
620.472083	8170.687030
620.819731	8196.893469
621.167326	8088.909433
621.514868	8097.083664
621.862357	7985.598546
622.209793	8005.107812
622.557176	7938.446114
622.904506	7908.912514
623.251783	7843.548913
623.599007	7795.778939
623.946179	7798.009650
624.293297	7752.903926
624.640363	7672.275711
624.987376	7657.116962
625.334336	7601.886080
625.681243	7556.324132
626.028097	7542.218983
626.374899	7521.391456
626.721647	7510.615990
627.068343	7440.566637
627.414987	7417.163080
627.761577	7366.237344
628.108115	7405.492809
628.454600	7298.564894
628.801032	7350.166145
629.147412	7310.335989
629.493739	7297.549102
629.840014	7235.978969
630.186236	7295.303268
630.532405	7176.601739
630.878521	7227.900520
631.224585	7181.146339
631.570597	7107.404341
631.916556	7136.383413
632.262462	7138.566233
632.608316	7097.135510
632.954117	7078.112716
633.299866	7063.332053
633.645562	7056.133285
633.991206	6972.820656
634.336797	6918.565238
634.682336	6876.277519
635.027823	6839.925759
635.373257	6836.379307
635.718639	6765.684686
636.063968	6781.334948
636.409245	6674.689338
636.754470	6671.226066
637.099642	6631.791640
637.444762	6574.461118
637.789829	6580.253403
638.134845	6524.084867
638.479808	6509.725141
638.824719	6511.915522
639.169577	6444.275840
639.514383	6461.952646
639.859137	6389.367592
640.203839	6398.061062
640.548489	6386.925153
640.893086	6361.900866
641.237632	6336.536300
641.582125	6354.266038
641.926566	6320.139947
642.270955	6339.026630
642.615292	6333.514128
642.959576	6347.155491
643.303809	6335.424726
643.647990	6343.094841
643.992118	6334.426577
644.336195	6281.053361
644.680219	6303.925076
645.024192	6299.874509
645.368112	6391.290793
645.711981	6412.143526
646.055797	6490.770402
646.399562	6444.369102
646.743274	6572.764769
647.086935	6629.180322
647.430544	6624.008098
647.774101	6646.652961
648.117606	6652.246122
648.461059	6643.230018
648.804460	6603.354491
649.147810	6515.174628
649.491108	6481.335883
649.834354	6459.689168
650.177548	6372.499892
650.520690	6286.369258
650.863781	6266.907883
651.206820	6285.529906
651.549807	6204.480755
651.892742	6146.777187
652.235626	6150.046375
652.578458	6142.056147
652.921238	6050.551642
653.263967	6090.530513
653.606644	6027.352252
653.949269	6033.343664
654.291843	5972.920394
654.634365	6022.459813
654.976836	5975.372915
655.319255	5975.299818
655.661622	5952.324760
656.003938	5944.321928
656.346203	5910.762967
656.688416	5940.634324
657.030577	5891.160440
657.372687	5864.780082
657.714746	5850.158215
658.056753	5895.231172
658.398708	5831.906718
658.740612	5822.492363
659.082465	5870.277460
659.424266	5869.576740
659.766016	5859.794381
660.107715	5841.537842
660.449362	5850.178380
660.790958	5850.995047
661.132503	5838.303942
661.473996	5871.404158
661.815438	5859.610379
662.156829	5860.631213
662.498168	5848.981106
662.839456	5821.237116
663.180693	5857.228434
663.521879	5862.561974
663.863013	5846.800807
664.204097	5873.166042
664.545129	5910.488224
664.886110	5903.728037
665.227040	5943.235559
665.567918	5910.891516
665.908746	5934.204332
666.249522	5939.507626
666.590248	5923.859885
666.930922	5949.037928
667.271545	5965.366225
667.612118	5966.513087
667.952639	5943.187668
668.293109	5961.061079
668.633528	5918.881745
668.973896	5924.880718
669.314213	5913.172638
669.654480	5896.819135
669.994695	5888.597013
670.334859	5877.914808
670.674973	5869.566658
671.015035	5876.059664
671.355047	5874.799375
671.695008	5861.578949
672.034918	5837.762018
672.374777	5841.323593
672.714585	5830.666594
673.054342	5833.018292
673.394049	5827.677190
673.733705	5858.554257
674.073310	5844.106310
674.412864	5808.188089
674.752368	5796.270801
675.091820	5796.994207
675.431223	5737.400207
675.770574	5736.137398
676.109875	5683.757289
676.449125	5694.817580
676.788324	5658.485984
677.127473	5599.358291
677.466571	5593.228248
677.805619	5585.815231
678.144616	5570.943827
678.483562	5551.172422
678.822458	5520.673441
679.161303	5512.600033
679.500098	5505.912943
679.838842	5485.312267
680.177535	5495.019009
680.516179	5504.380432
680.854771	5516.126320
681.193314	5601.639413
681.531805	5705.096493
681.870247	5856.726839
682.208638	5962.601152
682.546978	5966.601308
682.885268	5954.217713
683.223508	5859.990986
683.561697	5810.809489
683.899836	5781.013749
684.237925	5741.680146
684.575963	5699.523497
684.913951	5661.956819
685.251889	5719.524275
685.589776	5688.248957
685.927614	5659.947919
686.265401	5732.437191
686.603137	5719.362958
686.940824	5793.924144
687.278460	5812.563811
687.616046	5830.127191
687.953582	5897.106481
688.291068	5876.727617
688.628504	5940.470487
688.965889	5901.741822
689.303224	5846.568914
689.640510	5798.854393
689.977745	5722.052414
690.314930	5622.136745
690.652065	5565.310338
690.989150	5474.183920
691.326185	5400.578033
691.663170	5345.246328
692.000105	5268.209936
692.336990	5188.405950
692.673825	5161.405530
693.010610	5098.413792
693.347345	5026.824366
693.684030	5015.068396
694.020665	4970.476869
694.357251	4877.737282
694.693786	4889.896546
695.030272	4861.653481
695.366707	4828.240713
695.703093	4791.334426
696.039429	4812.298064
696.375716	4794.512874
696.711952	4765.173358
697.048139	4753.661883
697.384276	4737.139502
697.720363	4748.797170
698.056400	4756.507615
698.392388	4708.094894
698.728326	4686.639743
699.064214	4665.590405
699.400053	4659.999766
699.735842	4621.341677
700.071581	4602.129840
700.407270	4576.117486
700.742910	4558.501174
701.078501	4503.240046
701.414042	4499.892719
701.749533	4471.659737
702.084974	4404.345210
702.420366	4461.864775
702.755709	4408.547012
703.091002	4346.994523
703.426246	4397.108634
703.761440	4355.635061
704.096584	4316.792971
704.431679	4335.697297
704.766725	4321.972756
705.101721	4311.832475
705.436668	4340.430941
705.771565	4288.824649
706.106413	4311.361127
706.441212	4346.623998
706.775961	4357.444835
707.110661	4336.667720
707.445311	4362.571689
707.779913	4386.844844
708.114465	4400.607194
708.448967	4420.408847
708.783421	4483.423270
709.117825	4526.227707
709.452180	4529.721227
709.786485	4574.789142
710.120742	4658.421884
710.454949	4645.345131
710.789107	4711.807704
711.123216	4787.775372
711.457275	4774.728865
711.791286	4851.919013
712.125247	4866.288822
712.459159	4771.648720
712.793023	4844.548846
713.126837	4805.522754
713.460602	4802.064522
713.794318	4719.540834
714.127985	4726.666505
714.461602	4644.041993
714.795171	4610.525882
715.128691	4543.995254
715.462162	4489.603724
715.795584	4436.477525
716.128957	4421.288528
716.462281	4368.058985
716.795556	4345.005788
717.128782	4305.367195
717.461960	4237.150302
717.795088	4247.908124
718.128167	4205.285168
718.461198	4148.811642
718.794180	4139.399808
719.127113	4123.671408
719.459997	4097.664095
719.792833	4056.082138
720.125619	4047.325653
720.458357	4011.614120
720.791046	4018.376827
721.123686	3991.386490
721.456278	3947.654480
721.788821	3962.646872
722.121315	3939.772636
722.453761	3915.363369
722.786158	3923.033485
723.118506	3946.842854
723.450805	3901.575813
723.783056	3926.310235
724.115259	3940.513686
724.447412	3942.494859
724.779518	3938.164508
725.111574	3942.459571
725.443582	3971.693222
725.775542	3958.024134
726.107453	4004.281761
726.439315	4005.975589
726.771129	4023.541490
727.102895	4059.431984
727.434612	4101.903706
727.766281	4115.393833
728.097901	4116.775109
728.429473	4125.214001
728.760996	4132.110299
729.092471	4127.182572
729.423897	4108.477370
729.755276	4116.608751
730.086606	4116.323926
730.417887	4153.121829
730.749120	4215.024677
731.080305	4283.322230
731.411442	4309.831137
731.742530	4279.737969
732.073570	4282.099750
732.404562	4336.077905
732.735506	4326.464424
733.066401	4289.737098
733.397249	4229.344075
733.728048	4150.550840
734.058798	4065.728386
734.389501	3996.778004
734.720156	3933.733334
735.050762	3888.103330
735.381320	3882.162330
735.711831	3829.910770
736.042293	3801.181235
736.372707	3821.343329
736.703073	3797.299546
737.033391	3787.035757
737.363661	3804.906647
737.693883	3826.931448
738.024056	3837.258252
738.354182	3834.493179
738.684260	3895.294536
739.014290	3917.420160
739.344272	3913.808173
739.674207	3956.446252
740.004093	3960.204433
740.333931	3956.317703
740.663722	3955.967343
740.993464	3954.228145
741.323159	3928.556069
741.652806	3901.013725
741.982405	3874.124210
742.311956	3841.954087
742.641460	3833.616018
742.970915	3810.603151
743.300323	3768.764095
743.629683	3731.535174
743.958996	3720.684090
744.288260	3692.433464
744.617477	3660.258299
744.946647	3653.616579
745.275768	3622.888226
745.604842	3622.033750
745.933869	3573.815114
746.262847	3565.207344
746.591778	3605.667644
746.920662	3575.859302
747.249498	3544.687327
747.578286	3587.867330
747.907027	3608.810804
748.235720	3603.489866
748.564365	3629.565234
748.892963	3631.566572
749.221514	3613.771299
749.550017	3589.220880
749.878473	3590.216508
750.206881	3556.203843
750.535242	3554.131929
750.863555	3558.235428
751.191821	3551.472720
751.520039	3532.369267
751.848210	3509.726925
752.176334	3544.571380
752.504411	3550.855179
752.832440	3506.724918
753.160421	3491.750170
753.488356	3501.252745
753.816243	3517.538193
754.144082	3471.356183
754.471875	3455.179120
754.799620	3477.090495
755.127318	3466.612457
755.454969	3466.743527
755.782572	3471.411635
756.110129	3451.410857
756.437638	3438.865946
756.765100	3451.819191
757.092515	3462.665233
757.419882	3468.049186
757.747203	3445.011113
758.074477	3444.746452
758.401703	3460.794965
758.728882	3481.325064
759.056014	3487.775221
759.383099	3492.385356
759.710138	3486.401506
760.037129	3505.883045
760.364073	3536.727345
760.690970	3521.203112
761.017820	3495.586488
761.344623	3514.654653
761.671379	3563.024524
761.998088	3612.306844
762.324751	3742.446751
762.651366	3991.116788
762.977935	4467.513388
763.304456	4912.480915
763.630931	5005.623794
763.957359	4641.312208
764.283740	4302.511382
764.610074	4107.133903
764.936362	3907.728542
765.262602	3749.345570
765.588796	3640.247439
765.914943	3550.562792
766.241044	3460.739513
766.567097	3430.215326
766.893104	3382.306720
767.219064	3349.090558
767.544978	3326.657423
767.870845	3271.726490
768.196665	3253.608583
768.522438	3258.886671
768.848165	3255.511619
769.173846	3218.325547
769.499479	3203.655790
769.825066	3186.309179
770.150607	3165.390912
770.476101	3182.855989
770.801548	3177.625792
771.126949	3134.050058
771.452303	3116.234620
771.777611	3123.584623
772.102872	3127.884727
772.428087	3102.719287
772.753256	3091.754777
773.078378	3085.160948
773.403453	3050.487892
773.728482	3039.152858
774.053465	3064.993812
774.378401	3046.946481
774.703291	3015.514887
775.028135	3017.491019
775.352932	3012.802746
775.677683	3000.915706
776.002388	2995.183914
776.327046	3001.482835
776.651658	2987.947337
776.976224	2977.025678
777.300743	2976.032570
777.625216	2964.495890
777.949643	2961.176290
778.274024	2965.776343
778.598359	2951.411575
778.922647	2958.073460
779.246889	2956.596402
779.571086	2944.563167
779.895236	2937.132507
780.219339	2948.520473
780.543397	2959.575723
780.867409	2963.848101
781.191374	2954.910136
781.515294	2954.799230
781.839167	2954.756380
782.162995	2945.445369
782.486776	2952.447532
782.810511	2951.656071
783.134201	2938.407918
783.457844	2943.890173
783.781441	2937.034204
784.104993	2915.677356
784.428498	2914.091913
784.751958	2928.381063
785.075372	2925.704211
785.398739	2907.997158
785.722061	2925.283274
786.045337	2934.765685
786.368568	2922.845877
786.691752	2914.727098
787.014891	2960.412555
787.337983	2991.133347
787.661030	3019.313397
787.984031	3085.476020
788.306987	3132.419245
788.629897	3124.847432
788.952760	3108.509052
789.275579	3092.579006
789.598351	3035.407280
789.921078	2986.707213
790.243759	2978.641367
790.566395	2961.236784
790.888984	2941.087292
791.211529	2920.814292
791.534027	2912.511511
791.856480	2903.908782
792.178888	2890.325393
792.501249	2880.530431
792.823566	2874.528938
793.145836	2873.777806
793.468062	2870.017105
793.790241	2867.655324
794.112375	2872.688916
794.434464	2884.926317
794.756507	2889.067625
795.078505	2896.558780
795.400457	2909.943043
795.722364	2948.638940
796.044226	2973.302785
796.366042	2974.169864
796.687812	2964.949593
797.009538	2980.947695
797.331218	2970.013433
797.652852	2954.277471
797.974442	2937.684513
798.295986	2935.897424
798.617484	2929.785025
798.938938	2914.538055
799.260346	2900.967269
799.581709	2895.522823
799.903026	2886.307593
800.224299	2881.223590
800.545526	2873.636653
800.866708	2857.651154
801.187845	2844.844103
801.508936	2847.039526
801.829983	2854.530680
802.150984	2840.130624
802.471940	2827.016062
802.792851	2828.999757
803.113717	2826.411124
803.434538	2833.735921
803.755314	2827.268120
804.076045	2821.848880
804.396731	2819.081286
804.717372	2819.356029
805.037967	2814.677838
805.358518	2821.001966
805.679024	2834.426559
805.999485	2829.869356
806.319901	2833.123420
806.640272	2823.542707
806.960598	2830.486897
807.280879	2839.437466
807.601115	2846.520287
807.921306	2832.480673
808.241453	2832.273986
808.561554	2838.310768
808.881611	2838.073833
809.201623	2835.018894
809.521590	2831.671568
809.841513	2826.174190
810.161390	2831.195179
810.481223	2826.484221
810.801011	2816.505257
811.120755	2811.002837
811.440453	2814.803867
811.760107	2814.604742
812.079716	2813.299083
812.399281	2804.963535
812.718801	2795.241670
813.038276	2793.063891
813.357707	2798.538584
813.677093	2806.188535
813.996434	2798.750313
814.315731	2794.485497
814.634983	2791.181020
814.954191	2791.334776
815.273354	2804.529996
815.592473	2812.421922
815.911547	2816.273364
816.230577	2824.409786
816.549562	2832.115190
816.868502	2833.166270
817.187399	2843.641788
817.506250	2856.746267
817.825058	2851.074969
818.143821	2865.076774
818.462539	2879.537324
818.781213	2908.140831
819.099843	2943.330605
819.418429	3002.188597
819.736970	3063.841908
820.055466	3139.126500
820.373919	3242.054259
820.692327	3384.587843
821.010691	3556.503792
821.329011	4007.732431
821.647286	4912.801028
821.965517	6310.773483
822.283704	7064.322640
822.601847	7052.304529
822.919945	6404.372587
823.237999	5894.255709
823.556010	5295.059121
823.873976	4741.190069
824.191897	4329.680680
824.509775	4031.829147
824.827609	3759.105244
825.145398	3629.958444
825.463144	3617.375724
825.780845	3705.212789
826.098502	3816.007268
826.416116	4103.337914
826.733685	4424.933282
827.051210	4490.460721
827.368692	4370.849263
827.686129	4104.086525
828.003522	3772.744086
828.320872	3509.794981
828.638177	3313.613438
828.955439	3178.346677
829.272656	3092.483224
829.589830	3023.802544
829.906960	2971.175418
830.224046	2927.428285
830.541088	2895.996691
830.858086	2875.721170
831.175041	2858.508151
831.491952	2863.619881
831.808819	2873.157744
832.125642	2898.058523
832.442421	2945.410081
832.759157	3025.803882
833.075849	3208.583518
833.392497	3490.701610
833.709101	3696.587375
834.025662	3649.082061
834.342179	3483.848162
834.658653	3308.239568
834.975083	3154.585198
835.291469	3059.118347
835.607811	2971.921509
835.924110	2910.787437
836.240366	2861.832792
836.556578	2817.485761
836.872746	2795.239149
837.188871	2772.057403
837.504952	2754.559558
837.820990	2747.943044
838.136984	2733.230436
838.452935	2725.562841
838.768842	2724.020248
839.084706	2741.089595
839.400526	2820.417192
839.716303	2954.398458
840.032037	3038.016077
840.347727	3023.406813
840.663373	2962.744089
840.978977	2887.761966
841.294537	2811.519556
841.610054	2761.894437
841.925527	2739.433576
842.240957	2720.229301
842.556344	2693.848942
842.871687	2679.678259
843.186987	2672.088802
843.502244	2666.740138
843.817458	2663.715445
844.132629	2649.169196
844.447756	2638.139151
844.762840	2631.880559
845.077881	2637.083030
845.392879	2634.875004
845.707833	2632.482977
846.022745	2621.929321
846.337613	2626.486524
846.652438	2624.517954
846.967221	2625.374950
847.281960	2621.962089
847.596656	2623.434106
847.911309	2621.125257
848.225919	2619.643158
848.540485	2613.873557
848.855009	2616.169803
849.169490	2614.695265
849.483928	2615.622838
849.798323	2614.213835
850.112675	2611.738629
850.426984	2611.597476
850.741251	2612.131839
851.055474	2612.877929
851.369654	2616.436984
851.683792	2615.416150
851.997887	2614.002107
852.311938	2613.926489
852.625947	2613.860954
852.939914	2616.701645
853.253837	2618.506378
853.567718	2611.453803
853.881555	2611.254678
854.195350	2614.400358
854.509103	2617.130143
854.822812	2610.052363
855.136479	2612.910697
855.450103	2610.594287
855.763685	2613.455142
856.077224	2612.903135
856.390720	2610.228803
856.704173	2610.364914
857.017584	2619.219701
857.330953	2618.206429
857.644278	2620.845473
857.957561	2617.155348
858.270802	2615.048146
858.584000	2618.771038
858.897155	2622.120885
859.210268	2620.487551
859.523339	2615.343054
859.836367	2611.113526
860.149352	2611.310131
860.462295	2615.020420
860.775195	2610.584204
861.088054	2610.347270
861.400869	2610.299379
861.713642	2606.808380
862.026373	2607.433483
862.339062	2609.207969
862.651708	2616.076542
862.964312	2616.068980
863.276873	2615.343054
863.589392	2615.038064
863.901869	2622.332613
864.214303	2625.818571
864.526696	2632.147740
864.839045	2630.370733
865.151353	2634.564973
865.463619	2634.191928
865.775842	2633.816362
866.088023	2630.731176
866.400162	2634.925416
866.712258	2634.025570
867.024313	2632.760240
867.336325	2628.528192
867.648296	2630.045579
867.960224	2637.839203
868.272110	2634.373409
868.583954	2627.893006
868.895755	2631.351238
869.207515	2633.077833
869.519233	2639.676703
869.830909	2638.499594
870.142542	2632.883748
870.454134	2634.960704
870.765684	2641.415901
871.077191	2641.398257
871.388657	2646.666263
871.700081	2643.462610
872.011463	2644.599390
872.322803	2645.453866
872.634101	2650.172386
872.945357	2652.274547
873.256571	2659.851401
873.567744	2659.296874
873.878874	2659.130516
874.189963	2659.158242
874.501010	2662.331649
874.812015	2669.273318
875.122979	2668.260046
875.433900	2657.494662
875.744780	2658.765032
876.055618	2665.414314
876.366415	2671.148627
876.677169	2668.751558
876.987882	2663.223933
877.298554	2659.266627
877.609183	2672.323216
877.919771	2679.579957
878.230317	2686.405679
878.540822	2697.813810
878.851285	2710.023485
879.161707	2734.747824
879.472087	2775.674431
879.782425	2824.072029
880.092722	2942.345060
880.402977	3135.038124
880.713191	3399.325656
881.023363	3702.709856
881.333494	3896.464083
881.643583	4071.881114
881.953631	4066.111513
882.263637	3894.399731
882.573602	3665.405317
882.883526	3530.872045
883.193408	3413.781164
883.503248	3308.786533
883.813048	3192.499716
884.122806	3077.286666
884.432522	2991.166114
884.742197	2925.384098
885.051831	2884.611245
885.361424	2848.325020
885.670975	2810.135759
885.980485	2776.992693
886.289954	2761.100455
886.599382	2744.522621
886.908768	2734.707494
887.218113	2713.910214
887.527417	2700.926722
887.836680	2693.501103
888.145901	2686.924918
888.455082	2677.477795
888.764221	2669.800118
889.073319	2659.856442
889.382376	2658.989364
889.691392	2659.521205
890.000366	2660.625218
890.309300	2660.027841
890.618193	2658.825526
890.927044	2664.585044
891.235855	2665.487411
891.544625	2661.819972
891.853353	2660.597492
892.162041	2670.354645
892.470687	2692.679395
892.779293	2702.945705
893.087858	2714.008517
893.396381	2734.773029
893.704864	2777.262395
894.013306	2853.449353
894.321707	2947.855041
894.630068	2999.451250
894.938387	3018.617717
895.246665	3014.743591
895.554903	2970.825058
895.863100	2922.979467
896.171256	2867.032742
896.479371	2802.493370
896.787446	2761.652462
897.095480	2739.030284
897.403473	2731.584500
897.711425	2717.784341
898.019336	2699.673996
898.327207	2685.311748
898.635038	2685.896522
898.942827	2682.410564
899.250576	2672.555109
899.558284	2659.876607
899.865952	2655.853766
900.173579	2653.134063
900.481165	2652.755977
900.788711	2641.017650
901.096216	2637.927423
901.403681	2628.639097
901.711105	2633.579428
902.018489	2631.449540
902.325832	2636.974645
902.633135	2637.166209
902.940397	2651.747746
903.247619	2691.146884
903.554800	2764.382247
903.861941	2895.197668
904.169041	3025.806403
904.476101	3090.368460
904.783121	3082.625248
905.090100	3021.954961
905.397039	2943.622992
905.703938	2868.635829
906.010796	2805.611323
906.317614	2750.365318
906.624391	2715.583877
906.931129	2686.135977
907.237826	2662.407266
907.544483	2645.012765
907.851099	2628.253449
908.157675	2620.754732
908.464211	2613.185440
908.770707	2601.568101
909.077163	2598.001484
909.383578	2593.867738
909.689954	2592.894796
909.996289	2590.180134
910.302584	2590.076791
910.608839	2587.606625
910.915054	2589.270206
911.221229	2590.291040
911.527363	2591.574013
911.833458	2590.679208
912.139513	2589.436564
912.445527	2593.837491
912.751502	2599.917123
913.057436	2606.165633
913.363331	2612.222579
913.669186	2623.461832
913.975000	2636.921713
914.280775	2657.136740
914.586510	2674.876560
914.892205	2710.126828
915.197859	2779.866151
915.503475	2866.442927
915.809050	2935.627722
916.114585	2955.104220
916.420081	2967.714666
916.725536	2976.995431
917.030952	2947.008127
917.336328	2901.970458
917.641665	2848.708147
917.946961	2798.347021
918.252218	2763.061464
918.557435	2737.651528
918.862612	2709.794112
919.167750	2694.965558
919.472848	2676.658608
919.777906	2660.647903
920.082925	2648.612148
920.387904	2637.766106
920.692843	2631.623460
920.997743	2624.669188
921.302603	2618.012345
921.607423	2613.588732
921.912204	2606.899121
922.216946	2604.958277
922.521647	2603.065323
922.826310	2598.692122
923.130932	2591.808427
923.435516	2589.660895
923.740059	2584.897005
924.044564	2582.288208
924.349028	2581.776531
924.653454	2574.832341
924.957840	2570.000395
925.262186	2569.723132
925.566493	2569.279510
925.870761	2559.872717
926.174989	2565.564180
926.479178	2563.789694
926.783328	2560.548232
927.087438	2562.468912
927.391509	2560.127296
927.695541	2559.623180
927.999533	2557.722665
928.303486	2557.349620
928.607400	2554.650082
928.911275	2560.424724
929.215110	2553.846018
929.518906	2556.666543
929.822663	2558.831719
930.126381	2552.759649
930.430060	2557.455484
930.733699	2556.653941
931.037299	2558.632593
931.340861	2556.971533
931.644383	2558.317521
931.947866	2555.673436
932.251309	2557.808365
932.554714	2557.362223
932.858080	2558.758622
933.161407	2555.759136
933.464694	2555.567572
933.767943	2555.224773
934.071153	2553.099927
934.374323	2552.721841
934.677455	2555.181924
934.980548	2551.222097
935.283602	2551.390976
935.586617	2551.111192
935.889593	2552.079093
936.192530	2552.457180
936.495428	2551.806871
936.798287	2555.368446
937.101108	2556.104455
937.403890	2557.745350
937.706632	2560.805331
938.009336	2565.443192
938.312002	2569.844120
938.614628	2571.129614
938.917216	2577.915007
939.219765	2577.766293
939.522275	2578.217476
939.824747	2574.550037
940.127179	2571.694223
940.429573	2568.472926
940.731929	2568.677092
941.034246	2562.657955
941.336524	2567.517627
941.638763	2565.138203
941.940964	2566.199365
942.243126	2565.995199
942.545250	2564.490414
942.847335	2561.170814
943.149381	2559.560166
943.451389	2556.532953
943.753359	2556.679146
944.055290	2559.676112
944.357182	2554.667726
944.659036	2557.117727
944.960851	2556.308622
945.262628	2559.610577
945.564367	2558.022614
945.866067	2559.839950
946.167729	2556.676626
946.469352	2555.403734
946.770937	2556.905998
947.072484	2554.201419
947.373992	2555.955741
947.675462	2557.969682
947.976893	2554.022458
948.278286	2552.810061
948.579641	2553.120092
948.880958	2549.639175
949.182236	2554.592109
949.483476	2552.676470
949.784678	2552.086655
950.085841	2550.685214
950.386967	2552.492468
950.688054	2552.759649
950.989103	2554.554300
951.290114	2553.762839
951.591087	2557.321893
951.892021	2558.897254
952.192917	2560.328942
952.493776	2560.767522
952.794596	2558.214178
953.095378	2563.625856
953.396122	2563.381360
953.696828	2560.613767
953.997496	2560.913716
954.298126	2551.761501
954.598718	2557.067315
954.899272	2554.760987
955.199788	2550.087838
955.500266	2550.624721
955.800706	2547.635316
956.101108	2546.932075
956.401472	2547.544576
956.701798	2542.848741
957.002087	2542.649615
957.302337	2544.953422
957.602550	2543.657846
957.902724	2541.578370
958.202861	2542.853782
958.502960	2540.643236
958.803022	2540.285314
959.103045	2541.722043
959.403031	2539.705581
959.702979	2540.237423
960.002889	2538.752803
960.302762	2538.412525
960.602596	2539.098122
960.902393	2539.506456
961.202153	2542.079965
961.501875	2540.345808
961.801559	2539.763555
962.101205	2541.895963
962.400814	2538.455375
962.700385	2538.009233
962.999918	2537.086702
963.299414	2540.179450
963.598873	2539.322454
963.898293	2539.551826
964.197677	2538.213400
964.497022	2536.993441
964.796331	2537.704243
965.095601	2533.507483
965.394835	2539.559388
965.694030	2535.521424
965.993189	2539.027546
966.292309	2535.380271
966.591393	2537.802546
966.890439	2539.261960
967.189447	2537.792463
967.488419	2536.660724
967.787353	2533.252904
968.086249	2535.904551
968.385108	2537.318595
968.683930	2537.648791
968.982714	2532.640404
969.281462	2534.939170
969.580172	2538.649460
969.878844	2535.917154
970.177480	2537.089223
970.476078	2535.549150
970.774639	2539.698020
971.073162	2536.643080
971.371649	2535.833975
971.670098	2531.150743
971.968510	2535.241640
972.266885	2533.663758
972.565223	2535.181146
972.863524	2540.040818
973.161788	2538.052083
973.460014	2540.996117
973.758204	2539.030067
974.056356	2538.808256
974.354471	2540.706250
974.652550	2538.082330
974.950591	2538.440252
975.248595	2536.733821
975.546563	2535.985210
975.844493	2537.782381
976.142386	2537.986548
976.440243	2535.307175
976.738062	2539.428318
977.035845	2536.965714
977.333590	2535.281969
977.631299	2534.664427
977.928971	2536.297761
978.226606	2538.157947
978.524204	2534.117462
978.821765	2535.128214
979.119290	2535.954963
979.416777	2533.714170
979.714228	2535.103008
980.011642	2534.467822
980.309020	2536.408667
980.606360	2534.500590
980.903664	2537.356404
981.200931	2540.928061
981.498162	2539.007382
981.795356	2541.069213
982.092513	2543.962836
982.389633	2547.443752
982.686717	2552.626059
982.983764	2550.786038
983.280775	2554.425751
983.577749	2552.247972
983.874686	2552.361398
984.171587	2548.303269
984.468451	2546.551468
984.765279	2541.117104
985.062070	2542.372352
985.358824	2537.822710
985.655543	2538.452855
985.952224	2539.254398
986.248869	2535.735673
986.545478	2530.008922
986.842050	2532.884900
987.138586	2530.399611
987.435086	2533.270548
987.731549	2529.517409
988.027975	2531.370033
988.324366	2531.125538
988.620719	2534.067051
988.917037	2531.911957
989.213318	2533.711649
989.509563	2534.271217
989.805772	2532.796680
990.101944	2533.996475
990.398080	2536.464119
990.694180	2531.458254
990.990244	2533.371372
991.286271	2532.622760
991.582262	2531.584283
991.878217	2532.461443
992.174136	2534.150230
992.470019	2533.031094
992.765865	2533.895652
993.061676	2533.361289
993.357450	2534.160312
993.653188	2534.987061
993.948890	2533.401618
994.244556	2533.865405
994.540186	2537.058976
994.835780	2533.232740
995.131337	2532.708460
995.426859	2536.015457
995.722345	2535.090405
996.017795	2536.827083
996.313208	2539.382948
996.608586	2539.821528
996.903928	2537.757175
997.199234	2537.089223
997.494504	2539.143493
997.789738	2537.464788
998.084936	2535.644932
998.380099	2533.126876
998.675225	2534.792977
998.970316	2534.167874
999.265371	2533.731814
999.560390	2530.772657
999.855373	2536.189377
1000.150320	2532.088398
1000.445232	2534.666948
1000.740108	2532.244674
1001.034948	2532.287523
1001.329752	2532.506814
1001.624521	2532.365661
1001.919254	2527.165711
1002.213951	2530.485311
1002.508613	2529.015815
1002.803239	2530.860877
1003.097829	2528.115969
1003.392384	2529.986237
1003.686903	2531.727955
1003.981386	2531.745599
1004.275834	2531.153264
1004.570246	2531.130579
1004.864623	2530.046731
1005.158964	2530.049251
1005.453270	2530.437420
1005.747540	2530.654190
1006.041775	2531.609488
1006.335974	2530.991947
1006.630138	2527.942049
1006.924266	2531.307019
1007.218359	2532.088398
1007.512416	2530.651669
1007.806438	2529.739220
1008.100425	2530.744930
1008.394376	2529.368695
1008.688292	2532.453882
1008.982172	2530.137471
1009.276017	2531.894313
1009.569827	2529.943387
1009.863602	2534.044366
1010.157341	2532.221988
1010.451045	2530.124868
1010.744714	2530.112266
1011.038347	2530.727286
1011.331945	2530.044210
1011.625508	2532.640404
1011.919036	2529.204858
1012.212528	2530.994468
1012.505986	2532.088398
1012.799408	2528.315094
1013.092795	2529.721576
1013.386147	2527.705115
1013.679464	2530.137471
1013.972745	2533.031094
1014.265992	2531.727955
1014.559204	2530.344159
1014.852380	2530.001360
1015.145521	2530.727286
1015.438628	2530.117307
1015.731699	2531.067564
1016.024736	2528.728469
1016.317737	2529.056144
1016.610703	2531.758202
1016.903635	2528.577234
1017.196531	2525.008097
1017.489393	2523.704959
1017.782219	2526.364168
1018.075011	2529.003212
1018.367768	2529.247708
1018.660490	2531.609488
1018.953177	2531.609488
1019.245829	2531.609488
