Dividing Wavelength (nm)	Counts (n)	Blue Motor Position (mm): 8.700000	Red Motor Position (mm): 0.000000	
326.493990	2092.078846
326.888308	2092.078846
327.282561	2092.078846
327.676750	1991.255769
328.070874	2018.982115
328.464933	2084.517115
328.858929	2041.667308
329.252859	2119.805192
329.646726	2079.475962
330.040528	2076.955385
330.434265	2099.640577
330.827938	2175.257885
331.221547	2167.696154
331.615091	2177.778462
332.008571	2107.202308
332.401986	2192.901923
332.795338	2220.628269
333.188625	2263.478077
333.581847	2298.766154
333.975006	2238.272308
334.368100	2316.410192
334.761129	2182.819615
335.154095	2271.039808
335.546996	2354.218846
335.939833	2374.383462
336.332606	2336.574808
336.725315	2467.644808
337.117960	2323.971923
337.510540	2427.315577
337.903056	2407.150962
338.295508	2432.356731
338.687896	2402.109808
339.080220	2447.480192
339.472480	2412.192115
339.864676	2507.974038
340.256807	2475.206538
340.648875	2520.576923
341.040879	2492.850577
341.432818	2505.453462
341.824694	2442.439038
342.216506	2462.603654
342.608253	2414.712692
342.999937	2455.041923
343.391557	2432.356731
343.783113	2515.535769
344.174605	2576.029615
344.566033	2477.727115
344.957397	2392.027500
345.348697	2515.535769
345.739934	2437.397885
346.131106	2477.727115
346.522215	2497.891731
346.913260	2510.494615
347.304241	2502.932885
347.695159	2487.809423
348.086012	2548.303269
348.476802	2543.262115
348.867528	2495.371154
349.258191	2394.548077
349.648789	2422.274423
350.039324	2427.315577
350.429796	2485.288846
350.820203	2457.562500
351.210548	2417.233269
351.600828	2460.083077
351.991045	2497.891731
352.381198	2417.233269
352.771288	2457.562500
353.161314	2472.685962
353.551276	2450.000769
353.941175	2507.974038
354.331010	2417.233269
354.720782	2361.780577
355.110490	2455.041923
355.500135	2439.918462
355.889717	2452.521346
356.279235	2376.904038
356.668689	2510.494615
357.058080	2427.315577
357.447408	2535.700385
357.836672	2404.630385
358.225873	2437.397885
358.615010	2404.630385
359.004084	2497.891731
359.393095	2381.945192
359.782043	2376.904038
360.170927	2462.603654
360.559748	2376.904038
360.948505	2447.480192
361.337199	2530.659231
361.725830	2472.685962
362.114398	2409.671538
362.502903	2376.904038
362.891344	2462.603654
363.279722	2384.465769
363.668037	2384.465769
364.056289	2490.330000
364.444478	2497.891731
364.832603	2495.371154
365.220665	2417.233269
365.608665	2472.685962
365.996601	2475.206538
366.384474	2432.356731
366.772284	2467.644808
367.160031	2437.397885
367.547715	2404.630385
367.935336	2422.274423
368.322893	2495.371154
368.710388	2452.521346
369.097820	2533.179808
369.485189	2407.150962
369.872495	2455.041923
370.259738	2442.439038
370.646918	2419.753846
371.034035	2470.165385
371.421090	2528.138654
371.808081	2492.850577
372.195010	2434.877308
372.581875	2475.206538
372.968678	2505.453462
373.355418	2407.150962
373.742096	2419.753846
374.128710	2502.932885
374.515262	2528.138654
374.901751	2381.945192
375.288177	2472.685962
375.674540	2485.288846
376.060841	2530.659231
376.447079	2472.685962
376.833254	2394.548077
377.219367	2470.165385
377.605417	2497.891731
377.991404	2525.618077
378.377329	2550.823846
378.763191	2477.727115
379.148991	2490.330000
379.534727	2492.850577
379.920402	2452.521346
380.306013	2455.041923
380.691563	2492.850577
381.077049	2525.618077
381.462474	2450.000769
381.847835	2535.700385
382.233134	2513.015192
382.618371	2450.000769
383.003545	2487.809423
383.388657	2444.959615
383.773706	2558.385577
384.158693	2434.877308
384.543618	2475.206538
384.928480	2376.904038
385.313280	2407.150962
385.698017	2457.562500
386.082692	2482.768269
386.467305	2437.397885
386.851856	2518.056346
387.236344	2427.315577
387.620770	2533.179808
388.005133	2465.124231
388.389435	2442.439038
388.773674	2412.192115
389.157851	2417.233269
389.541965	2429.836154
389.926018	2502.932885
390.310008	2510.494615
390.693936	2510.494615
391.077802	2427.315577
391.461606	2475.206538
391.845348	2480.247692
392.229027	2500.412308
392.612645	2434.877308
392.996200	2528.138654
393.379694	2558.385577
393.763125	2525.618077
394.146494	2414.712692
394.529801	2432.356731
394.913047	2407.150962
395.296230	2487.809423
395.679351	2442.439038
396.062410	2452.521346
396.445408	2505.453462
396.828343	2422.274423
397.211217	2457.562500
397.594028	2455.041923
397.976778	2545.782692
398.359466	2467.644808
398.742092	2510.494615
399.124656	2447.480192
399.507158	2412.192115
399.889598	2381.945192
400.271977	2467.644808
400.654294	2490.330000
401.036549	2477.727115
401.418742	2369.342308
401.800874	2419.753846
402.182944	2407.150962
402.564952	2525.618077
402.946898	2533.179808
403.328783	2384.465769
403.710606	2525.618077
404.092367	2437.397885
404.474067	2533.179808
404.855705	2485.288846
405.237282	2497.891731
405.618797	2432.356731
406.000250	2477.727115
406.381642	2480.247692
406.762972	2397.068654
407.144240	2533.179808
407.525447	2414.712692
407.906593	2462.603654
408.287677	2394.548077
408.668700	2427.315577
409.049661	2505.453462
409.430560	2502.932885
409.811399	2500.412308
410.192176	2457.562500
410.572891	2447.480192
410.953545	2402.109808
411.334138	2495.371154
411.714669	2505.453462
412.095139	2437.397885
412.475547	2452.521346
412.855894	2500.412308
413.236180	2467.644808
413.616405	2457.562500
413.996568	2457.562500
414.376670	2495.371154
414.756711	2450.000769
415.136691	2402.109808
415.516609	2412.192115
415.896466	2523.097500
416.276262	2462.603654
416.655997	2470.165385
417.035670	2485.288846
417.415283	2570.988462
417.794834	2470.165385
418.174324	2500.412308
418.553753	2424.795000
418.933121	2442.439038
419.312428	2475.206538
419.691674	2495.371154
420.070859	2495.371154
420.449983	2573.509038
420.829045	2460.083077
421.208047	2523.097500
421.586988	2538.220962
421.965867	2452.521346
422.344686	2429.836154
422.723444	2535.700385
423.102141	2570.988462
423.480777	2513.015192
423.859352	2490.330000
424.237866	2545.782692
424.616319	2477.727115
424.994712	2535.700385
425.373044	2470.165385
425.751314	2434.877308
426.129524	2487.809423
426.507673	2513.015192
426.885762	2392.027500
427.263789	2515.535769
427.641756	2422.274423
428.019662	2507.974038
428.397508	2439.918462
428.775292	2389.506923
429.153016	2513.015192
429.530679	2550.823846
429.908282	2462.603654
430.285824	2505.453462
430.663305	2485.288846
431.040726	2424.795000
431.418086	2495.371154
431.795385	2515.535769
432.172624	2482.768269
432.549802	2432.356731
432.926920	2462.603654
433.303977	2462.603654
433.680974	2513.015192
434.057910	2465.124231
434.434786	2495.371154
434.811601	2505.453462
435.188355	2570.988462
435.565050	2465.124231
435.941683	2507.974038
436.318257	2482.768269
436.694770	2442.439038
437.071222	2434.877308
437.447614	2432.356731
437.823946	2477.727115
438.200218	2434.877308
438.576429	2419.753846
438.952580	2502.932885
439.328670	2480.247692
439.704700	2457.562500
440.080670	2417.233269
440.456580	2520.576923
440.832429	2510.494615
441.208218	2480.247692
441.583947	2497.891731
441.959616	2507.974038
442.335224	2510.494615
442.710773	2419.753846
443.086261	2460.083077
443.461689	2452.521346
443.837057	2477.727115
444.212365	2485.288846
444.587612	2475.206538
444.962800	2530.659231
445.337927	2465.124231
445.712995	2558.385577
446.088002	2462.603654
446.462949	2558.385577
446.837837	2515.535769
447.212664	2533.179808
447.587431	2452.521346
447.962139	2500.412308
448.336786	2482.768269
448.711374	2457.562500
449.085901	2540.741538
449.460369	2520.576923
449.834776	2490.330000
450.209124	2460.083077
450.583412	2568.467885
450.957640	2500.412308
451.331808	2520.576923
451.705917	2495.371154
452.079965	2409.671538
452.453954	2412.192115
452.827883	2570.988462
453.201752	2419.753846
453.575562	2427.315577
453.949311	2565.947308
454.323001	2475.206538
454.696632	2515.535769
455.070202	2475.206538
455.443713	2497.891731
455.817164	2381.945192
456.190556	2472.685962
456.563888	2457.562500
456.937160	2513.015192
457.310373	2538.220962
457.683526	2555.865000
458.056619	2470.165385
458.429653	2487.809423
458.802628	2460.083077
459.175542	2548.303269
459.548398	2538.220962
459.921194	2404.630385
460.293930	2356.739423
460.666607	2485.288846
461.039224	2482.768269
461.411782	2497.891731
461.784280	2492.850577
462.156719	2442.439038
462.529099	2553.344423
462.901419	2465.124231
463.273680	2548.303269
463.645882	2465.124231
464.018024	2510.494615
464.390106	2490.330000
464.762130	2548.303269
465.134094	2507.974038
465.505999	2513.015192
465.877845	2525.618077
466.249631	2535.700385
466.621358	2397.068654
466.993026	2502.932885
467.364634	2480.247692
467.736184	2538.220962
468.107674	2492.850577
468.479105	2467.644808
468.850477	2525.618077
469.221790	2450.000769
469.593043	2467.644808
469.964238	2490.330000
470.335373	2497.891731
470.706449	2543.262115
471.077467	2530.659231
471.448425	2482.768269
471.819324	2570.988462
472.190164	2482.768269
472.560945	2510.494615
472.931667	2576.029615
473.302330	2560.906154
473.672934	2475.206538
474.043479	2535.700385
474.413965	2535.700385
474.784393	2452.521346
475.154761	2591.153077
475.525070	2523.097500
475.895321	2447.480192
476.265513	2568.467885
476.635645	2470.165385
477.005719	2525.618077
477.375734	2565.947308
477.745691	2437.397885
478.115588	2563.426731
478.485427	2480.247692
478.855207	2502.932885
479.224928	2427.315577
479.594591	2422.274423
479.964194	2475.206538
480.333739	2525.618077
480.703226	2455.041923
481.072653	2482.768269
481.442022	2495.371154
481.811333	2563.426731
482.180584	2528.138654
482.549777	2502.932885
482.918912	2601.235385
483.287988	2492.850577
483.657005	2490.330000
484.025964	2573.509038
484.394864	2510.494615
484.763706	2434.877308
485.132489	2505.453462
485.501213	2495.371154
485.869879	2480.247692
486.238487	2399.589231
486.607036	2513.015192
486.975527	2462.603654
487.343959	2482.768269
487.712333	2555.865000
488.080648	2550.823846
488.448905	2455.041923
488.817104	2490.330000
489.185244	2490.330000
489.553326	2558.385577
489.921350	2419.753846
490.289315	2432.356731
490.657222	2520.576923
491.025070	2525.618077
491.392861	2462.603654
491.760593	2404.630385
492.128267	2565.947308
492.495883	2515.535769
492.863440	2573.509038
493.230939	2480.247692
493.598380	2492.850577
493.965763	2543.262115
494.333088	2381.945192
494.700354	2611.317692
495.067563	2555.865000
495.434713	2465.124231
495.801805	2480.247692
496.168839	2455.041923
496.535815	2490.330000
496.902733	2452.521346
497.269593	2477.727115
497.636395	2475.206538
498.003139	2507.974038
498.369825	2334.054231
498.736453	2500.412308
499.103023	2492.850577
499.469535	2507.974038
499.835989	2442.439038
500.202385	2507.974038
500.568723	2560.906154
500.935003	2570.988462
501.301226	2553.344423
501.667390	2419.753846
502.033497	2437.397885
502.399546	2444.959615
502.765537	2565.947308
503.131470	2490.330000
503.497345	2510.494615
503.863163	2538.220962
504.228923	2477.727115
504.594625	2523.097500
504.960269	2525.618077
505.325856	2465.124231
505.691385	2462.603654
506.056856	2502.932885
506.422270	2525.618077
506.787625	2533.179808
507.152924	2492.850577
507.518164	2465.124231
507.883347	2485.288846
508.248472	2422.274423
508.613540	2530.659231
508.978550	2444.959615
509.343503	2523.097500
509.708398	2487.809423
510.073236	2500.412308
510.438016	2530.659231
510.802738	2553.344423
511.167403	2510.494615
511.532010	2412.192115
511.896561	2535.700385
512.261053	2500.412308
512.625488	2505.453462
512.989866	2465.124231
513.354186	2505.453462
513.718449	2507.974038
514.082655	2591.153077
514.446803	2578.550192
514.810894	2437.397885
515.174927	2467.644808
515.538904	2417.233269
515.902822	2500.412308
516.266684	2548.303269
516.630488	2432.356731
516.994235	2447.480192
517.357925	2548.303269
517.721558	2429.836154
518.085133	2563.426731
518.448651	2545.782692
518.812112	2563.426731
519.175516	2497.891731
519.538863	2485.288846
519.902152	2419.753846
520.265385	2467.644808
520.628560	2601.235385
520.991678	2477.727115
521.354739	2502.932885
521.717743	2444.959615
522.080690	2513.015192
522.443580	2465.124231
522.806413	2518.056346
523.169189	2570.988462
523.531908	2518.056346
523.894569	2480.247692
524.257174	2538.220962
524.619722	2533.179808
524.982213	2540.741538
525.344647	2417.233269
525.707025	2424.795000
526.069345	2502.932885
526.431608	2424.795000
526.793815	2545.782692
527.155964	2442.439038
527.518057	2518.056346
527.880093	2505.453462
528.242072	2568.467885
528.603995	2422.274423
528.965860	2510.494615
529.327669	2442.439038
529.689421	2543.262115
530.051117	2422.274423
530.412755	2460.083077
530.774337	2465.124231
531.135862	2606.276538
531.497331	2545.782692
531.858743	2500.412308
532.220098	2490.330000
532.581396	2422.274423
532.942638	2518.056346
533.303824	2538.220962
533.664953	2510.494615
534.026025	2424.795000
534.387040	2596.194231
534.747999	2528.138654
535.108902	2487.809423
535.469748	2576.029615
535.830537	2507.974038
536.191270	2482.768269
536.551947	2513.015192
536.912567	2543.262115
537.273131	2543.262115
537.633638	2518.056346
537.994089	2535.700385
538.354483	2424.795000
538.714821	2540.741538
539.075103	2500.412308
539.435328	2472.685962
539.795497	2442.439038
540.155609	2472.685962
540.515665	2520.576923
540.875665	2480.247692
541.235609	2500.412308
541.595496	2576.029615
541.955328	2455.041923
542.315102	2424.795000
542.674821	2540.741538
543.034483	2475.206538
543.394090	2507.974038
543.753640	2407.150962
544.113134	2533.179808
544.472571	2480.247692
544.831953	2482.768269
545.191278	2457.562500
545.550548	2502.932885
545.909761	2450.000769
546.268918	2520.576923
546.628019	2500.412308
546.987064	2553.344423
547.346053	2450.000769
547.704986	2495.371154
548.063863	2475.206538
548.422684	2515.535769
548.781449	2606.276538
549.140158	2485.288846
549.498811	2533.179808
549.857408	2482.768269
550.215949	2462.603654
550.574434	2513.015192
550.932864	2528.138654
551.291237	2444.959615
551.649555	2510.494615
552.007817	2409.671538
552.366022	2530.659231
552.724173	2442.439038
553.082267	2462.603654
553.440305	2515.535769
553.798288	2485.288846
554.156215	2540.741538
554.514086	2455.041923
554.871902	2555.865000
555.229661	2528.138654
555.587365	2533.179808
555.945014	2480.247692
556.302606	2472.685962
556.660143	2548.303269
557.017625	2528.138654
557.375050	2510.494615
557.732421	2409.671538
558.089735	2601.235385
558.446994	2548.303269
558.804197	2432.356731
559.161345	2520.576923
559.518437	2545.782692
559.875474	2500.412308
560.232455	2492.850577
560.589381	2455.041923
560.946251	2465.124231
561.303065	2472.685962
561.659825	2490.330000
562.016528	2444.959615
562.373177	2477.727115
562.729770	2407.150962
563.086307	2540.741538
563.442789	2530.659231
563.799216	2472.685962
564.155587	2543.262115
564.511904	2593.673654
564.868164	2470.165385
565.224370	2515.535769
565.580520	2460.083077
565.936615	2560.906154
566.292654	2480.247692
566.648638	2515.535769
567.004567	2548.303269
567.360441	2515.535769
567.716260	2475.206538
568.072023	2455.041923
568.427732	2558.385577
568.783385	2523.097500
569.138982	2477.727115
569.494525	2472.685962
569.850013	2487.809423
570.205445	2502.932885
570.560823	2429.836154
570.916145	2502.932885
571.271412	2490.330000
571.626625	2452.521346
571.981782	2515.535769
572.336884	2424.795000
572.691931	2505.453462
573.046923	2510.494615
573.401860	2485.288846
573.756743	2507.974038
574.111570	2472.685962
574.466342	2513.015192
574.821059	2540.741538
575.175722	2583.591346
575.530330	2407.150962
575.884882	2444.959615
576.239380	2505.453462
576.593823	2520.576923
576.948211	2475.206538
577.302544	2462.603654
577.656823	2553.344423
578.011047	2502.932885
578.365216	2505.453462
578.719330	2553.344423
579.073389	2576.029615
579.427394	2475.206538
579.781344	2510.494615
580.135239	2533.179808
580.489080	2540.741538
580.842866	2452.521346
581.196597	2477.727115
581.550273	2576.029615
581.903895	2495.371154
582.257463	2540.741538
582.610975	2450.000769
582.964434	2528.138654
583.317837	2361.780577
583.671186	2523.097500
584.024481	2480.247692
584.377721	2540.741538
584.730906	2507.974038
585.084037	2419.753846
585.437113	2576.029615
585.790135	2470.165385
586.143103	2500.412308
586.496016	2497.891731
586.848874	2520.576923
587.201679	2417.233269
587.554428	2505.453462
587.907124	2520.576923
588.259765	2462.603654
588.612352	2505.453462
588.964884	2492.850577
589.317362	2513.015192
589.669786	2490.330000
590.022155	2480.247692
590.374470	2462.603654
590.726731	2515.535769
591.078937	2404.630385
591.431090	2495.371154
591.783188	2480.247692
592.135232	2525.618077
592.487222	2452.521346
592.839157	2578.550192
593.191038	2513.015192
593.542866	2530.659231
593.894639	2457.562500
594.246358	2505.453462
594.598022	2548.303269
594.949633	2480.247692
595.301190	2505.453462
595.652692	2487.809423
596.004141	2462.603654
596.355535	2558.385577
596.706876	2525.618077
597.058162	2558.385577
597.409395	2452.521346
597.760573	2555.865000
598.111698	2467.644808
598.462768	2472.685962
598.813785	2553.344423
599.164748	2490.330000
599.515657	2402.109808
599.866511	2518.056346
600.217312	2540.741538
600.568060	2560.906154
600.918753	2460.083077
601.269392	2525.618077
601.619978	2528.138654
601.970510	2550.823846
602.320988	2409.671538
602.671412	2490.330000
603.021783	2477.727115
603.372100	2528.138654
603.722363	2545.782692
604.072572	2525.618077
604.422728	2444.959615
604.772830	2513.015192
605.122878	2462.603654
605.472872	2528.138654
605.822813	2427.315577
606.172701	2528.138654
606.522534	2490.330000
606.872314	2520.576923
607.222041	2518.056346
607.571714	2563.426731
607.921333	2608.797115
608.270899	2495.371154
608.620411	2399.589231
608.969870	2513.015192
609.319276	2510.494615
609.668627	2507.974038
610.017926	2492.850577
610.367171	2550.823846
610.716362	2480.247692
611.065500	2520.576923
611.414585	2563.426731
611.763616	2505.453462
612.112594	2515.535769
612.461518	2450.000769
612.810389	2490.330000
613.159207	2525.618077
613.507971	2502.932885
613.856682	2553.344423
614.205340	2500.412308
614.553945	2480.247692
614.902496	2507.974038
615.250994	2545.782692
615.599439	2470.165385
615.947830	2505.453462
616.296169	2394.548077
616.644454	2492.850577
616.992686	2442.439038
617.340864	2450.000769
617.688990	2538.220962
618.037063	2497.891731
618.385082	2450.000769
618.733048	2495.371154
619.080961	2404.630385
619.428821	2563.426731
619.776628	2513.015192
620.124382	2495.371154
620.472083	2422.274423
620.819731	2487.809423
621.167326	2525.618077
621.514868	2465.124231
621.862357	2533.179808
622.209793	2485.288846
622.557176	2513.015192
622.904506	2513.015192
623.251783	2447.480192
623.599007	2505.453462
623.946179	2427.315577
624.293297	2596.194231
624.640363	2470.165385
624.987376	2492.850577
625.334336	2472.685962
625.681243	2492.850577
626.028097	2407.150962
626.374899	2495.371154
626.721647	2444.959615
627.068343	2545.782692
627.414987	2601.235385
627.761577	2467.644808
628.108115	2528.138654
628.454600	2513.015192
628.801032	2427.315577
629.147412	2460.083077
629.493739	2462.603654
629.840014	2497.891731
630.186236	2490.330000
630.532405	2578.550192
630.878521	2485.288846
631.224585	2409.671538
631.570597	2543.262115
631.916556	2414.712692
632.262462	2573.509038
632.608316	2583.591346
632.954117	2540.741538
633.299866	2444.959615
633.645562	2513.015192
633.991206	2490.330000
634.336797	2470.165385
634.682336	2495.371154
635.027823	2462.603654
635.373257	2515.535769
635.718639	2555.865000
636.063968	2394.548077
636.409245	2548.303269
636.754470	2480.247692
637.099642	2447.480192
637.444762	2528.138654
637.789829	2477.727115
638.134845	2573.509038
638.479808	2495.371154
638.824719	2507.974038
639.169577	2523.097500
639.514383	2528.138654
639.859137	2465.124231
640.203839	2477.727115
640.548489	2492.850577
640.893086	2550.823846
641.237632	2447.480192
641.582125	2518.056346
641.926566	2422.274423
642.270955	2490.330000
642.615292	2475.206538
642.959576	2482.768269
643.303809	2497.891731
643.647990	2480.247692
643.992118	2485.288846
644.336195	2533.179808
644.680219	2475.206538
645.024192	2568.467885
645.368112	2520.576923
645.711981	2573.509038
646.055797	2505.453462
646.399562	2507.974038
646.743274	2467.644808
647.086935	2515.535769
647.430544	2465.124231
647.774101	2573.509038
648.117606	2492.850577
648.461059	2533.179808
648.804460	2487.809423
649.147810	2462.603654
649.491108	2434.877308
649.834354	2480.247692
650.177548	2465.124231
650.520690	2447.480192
650.863781	2540.741538
651.206820	2442.439038
651.549807	2439.918462
651.892742	2563.426731
652.235626	2432.356731
652.578458	2525.618077
652.921238	2586.111923
653.263967	2439.918462
653.606644	2545.782692
653.949269	2520.576923
654.291843	2543.262115
654.634365	2528.138654
654.976836	2576.029615
655.319255	2553.344423
655.661622	2470.165385
656.003938	2470.165385
656.346203	2523.097500
656.688416	2518.056346
657.030577	2500.412308
657.372687	2581.070769
657.714746	2540.741538
658.056753	2475.206538
658.398708	2487.809423
658.740612	2520.576923
659.082465	2450.000769
659.424266	2525.618077
659.766016	2538.220962
660.107715	2523.097500
660.449362	2560.906154
660.790958	2646.605769
661.132503	2487.809423
661.473996	2482.768269
661.815438	2414.712692
662.156829	2535.700385
662.498168	2462.603654
662.839456	2528.138654
663.180693	2409.671538
663.521879	2492.850577
663.863013	2538.220962
664.204097	2530.659231
664.545129	2528.138654
664.886110	2606.276538
665.227040	2460.083077
665.567918	2533.179808
665.908746	2500.412308
666.249522	2487.809423
666.590248	2523.097500
666.930922	2434.877308
667.271545	2490.330000
667.612118	2455.041923
667.952639	2422.274423
668.293109	2515.535769
668.633528	2452.521346
668.973896	2545.782692
669.314213	2548.303269
669.654480	2505.453462
669.994695	2518.056346
670.334859	2475.206538
670.674973	2523.097500
671.015035	2548.303269
671.355047	2447.480192
671.695008	2528.138654
672.034918	2442.439038
672.374777	2525.618077
672.714585	2477.727115
673.054342	2543.262115
673.394049	2543.262115
673.733705	2419.753846
674.073310	2507.974038
674.412864	2523.097500
674.752368	2389.506923
675.091820	2570.988462
675.431223	2460.083077
675.770574	2412.192115
676.109875	2560.906154
676.449125	2439.918462
676.788324	2465.124231
677.127473	2450.000769
677.466571	2555.865000
677.805619	2505.453462
678.144616	2500.412308
678.483562	2447.480192
678.822458	2444.959615
679.161303	2553.344423
679.500098	2513.015192
679.838842	2535.700385
680.177535	2507.974038
680.516179	2588.632500
680.854771	2480.247692
681.193314	2490.330000
681.531805	2482.768269
681.870247	2447.480192
682.208638	2437.397885
682.546978	2480.247692
682.885268	2455.041923
683.223508	2485.288846
683.561697	2417.233269
683.899836	2407.150962
684.237925	2570.988462
684.575963	2477.727115
684.913951	2513.015192
685.251889	2427.315577
685.589776	2598.714808
685.927614	2434.877308
686.265401	2507.974038
686.603137	2495.371154
686.940824	2603.755962
687.278460	2578.550192
687.616046	2492.850577
687.953582	2523.097500
688.291068	2442.439038
688.628504	2560.906154
688.965889	2482.768269
689.303224	2591.153077
689.640510	2510.494615
689.977745	2545.782692
690.314930	2515.535769
690.652065	2565.947308
690.989150	2510.494615
691.326185	2535.700385
691.663170	2452.521346
692.000105	2518.056346
692.336990	2482.768269
692.673825	2409.671538
693.010610	2437.397885
693.347345	2490.330000
693.684030	2568.467885
694.020665	2475.206538
694.357251	2490.330000
694.693786	2437.397885
695.030272	2550.823846
695.366707	2467.644808
695.703093	2422.274423
696.039429	2525.618077
696.375716	2437.397885
696.711952	2495.371154
697.048139	2497.891731
697.384276	2450.000769
697.720363	2472.685962
698.056400	2603.755962
698.392388	2533.179808
698.728326	2518.056346
699.064214	2510.494615
699.400053	2510.494615
699.735842	2520.576923
700.071581	2444.959615
700.407270	2477.727115
700.742910	2455.041923
701.078501	2520.576923
701.414042	2515.535769
701.749533	2497.891731
702.084974	2518.056346
702.420366	2513.015192
702.755709	2399.589231
703.091002	2472.685962
703.426246	2563.426731
703.761440	2598.714808
704.096584	2460.083077
704.431679	2495.371154
704.766725	2550.823846
705.101721	2500.412308
705.436668	2472.685962
705.771565	2545.782692
706.106413	2553.344423
706.441212	2525.618077
706.775961	2565.947308
707.110661	2520.576923
707.445311	2523.097500
707.779913	2581.070769
708.114465	2482.768269
708.448967	2462.603654
708.783421	2515.535769
709.117825	2545.782692
709.452180	2530.659231
709.786485	2470.165385
710.120742	2480.247692
710.454949	2573.509038
710.789107	2568.467885
711.123216	2510.494615
711.457275	2596.194231
711.791286	2510.494615
712.125247	2500.412308
712.459159	2578.550192
712.793023	2500.412308
713.126837	2502.932885
713.460602	2475.206538
713.794318	2439.918462
714.127985	2467.644808
714.461602	2565.947308
714.795171	2510.494615
715.128691	2492.850577
715.462162	2515.535769
715.795584	2548.303269
716.128957	2513.015192
716.462281	2470.165385
716.795556	2495.371154
717.128782	2422.274423
717.461960	2593.673654
717.795088	2444.959615
718.128167	2591.153077
718.461198	2477.727115
718.794180	2490.330000
719.127113	2591.153077
719.459997	2397.068654
719.792833	2455.041923
720.125619	2457.562500
720.458357	2535.700385
720.791046	2465.124231
721.123686	2487.809423
721.456278	2492.850577
721.788821	2427.315577
722.121315	2507.974038
722.453761	2513.015192
722.786158	2548.303269
723.118506	2450.000769
723.450805	2487.809423
723.783056	2513.015192
724.115259	2535.700385
724.447412	2487.809423
724.779518	2576.029615
725.111574	2447.480192
725.443582	2475.206538
725.775542	2422.274423
726.107453	2563.426731
726.439315	2427.315577
726.771129	2518.056346
727.102895	2472.685962
727.434612	2520.576923
727.766281	2565.947308
728.097901	2568.467885
728.429473	2447.480192
728.760996	2530.659231
729.092471	2424.795000
729.423897	2467.644808
729.755276	2528.138654
730.086606	2538.220962
730.417887	2510.494615
730.749120	2563.426731
731.080305	2492.850577
731.411442	2492.850577
731.742530	2497.891731
732.073570	2520.576923
732.404562	2465.124231
732.735506	2586.111923
733.066401	2530.659231
733.397249	2462.603654
733.728048	2545.782692
734.058798	2432.356731
734.389501	2467.644808
734.720156	2439.918462
735.050762	2515.535769
735.381320	2513.015192
735.711831	2470.165385
736.042293	2442.439038
736.372707	2565.947308
736.703073	2487.809423
737.033391	2500.412308
737.363661	2515.535769
737.693883	2530.659231
738.024056	2452.521346
738.354182	2492.850577
738.684260	2475.206538
739.014290	2563.426731
739.344272	2495.371154
739.674207	2530.659231
740.004093	2485.288846
740.333931	2497.891731
740.663722	2560.906154
740.993464	2457.562500
741.323159	2576.029615
741.652806	2452.521346
741.982405	2513.015192
742.311956	2560.906154
742.641460	2472.685962
742.970915	2447.480192
743.300323	2460.083077
743.629683	2389.506923
743.958996	2560.906154
744.288260	2495.371154
744.617477	2548.303269
744.946647	2490.330000
745.275768	2475.206538
745.604842	2570.988462
745.933869	2623.920577
746.262847	2588.632500
746.591778	2510.494615
746.920662	2543.262115
747.249498	2560.906154
747.578286	2525.618077
747.907027	2407.150962
748.235720	2515.535769
748.564365	2576.029615
748.892963	2576.029615
749.221514	2533.179808
749.550017	2513.015192
749.878473	2427.315577
750.206881	2412.192115
750.535242	2518.056346
750.863555	2515.535769
751.191821	2480.247692
751.520039	2533.179808
751.848210	2450.000769
752.176334	2568.467885
752.504411	2558.385577
752.832440	2429.836154
753.160421	2475.206538
753.488356	2485.288846
753.816243	2507.974038
754.144082	2558.385577
754.471875	2570.988462
754.799620	2432.356731
755.127318	2462.603654
755.454969	2513.015192
755.782572	2518.056346
756.110129	2485.288846
756.437638	2470.165385
756.765100	2500.412308
757.092515	2455.041923
757.419882	2507.974038
757.747203	2513.015192
758.074477	2525.618077
758.401703	2505.453462
758.728882	2462.603654
759.056014	2543.262115
759.383099	2550.823846
759.710138	2472.685962
760.037129	2497.891731
760.364073	2515.535769
760.690970	2404.630385
761.017820	2550.823846
761.344623	2444.959615
761.671379	2513.015192
761.998088	2513.015192
762.324751	2533.179808
762.651366	2495.371154
762.977935	2513.015192
763.304456	2510.494615
763.630931	2495.371154
763.957359	2439.918462
764.283740	2558.385577
764.610074	2439.918462
764.936362	2515.535769
765.262602	2528.138654
765.588796	2485.288846
765.914943	2538.220962
766.241044	2429.836154
766.567097	2442.439038
766.893104	2548.303269
767.219064	2472.685962
767.544978	2513.015192
767.870845	2470.165385
768.196665	2490.330000
768.522438	2447.480192
768.848165	2460.083077
769.173846	2515.535769
769.499479	2439.918462
769.825066	2510.494615
770.150607	2356.739423
770.476101	2495.371154
770.801548	2447.480192
771.126949	2444.959615
771.452303	2520.576923
771.777611	2513.015192
772.102872	2482.768269
772.428087	2437.397885
772.753256	2432.356731
773.078378	2505.453462
773.403453	2409.671538
773.728482	2510.494615
774.053465	2558.385577
774.378401	2525.618077
774.703291	2558.385577
775.028135	2470.165385
775.352932	2495.371154
775.677683	2492.850577
776.002388	2447.480192
776.327046	2452.521346
776.651658	2470.165385
776.976224	2497.891731
777.300743	2545.782692
777.625216	2502.932885
777.949643	2439.918462
778.274024	2525.618077
778.598359	2422.274423
778.922647	2402.109808
779.246889	2500.412308
779.571086	2530.659231
779.895236	2467.644808
780.219339	2570.988462
780.543397	2480.247692
780.867409	2485.288846
781.191374	2555.865000
781.515294	2533.179808
781.839167	2520.576923
782.162995	2560.906154
782.486776	2538.220962
782.810511	2452.521346
783.134201	2520.576923
783.457844	2480.247692
783.781441	2535.700385
784.104993	2487.809423
784.428498	2480.247692
784.751958	2444.959615
785.075372	2450.000769
785.398739	2497.891731
785.722061	2427.315577
786.045337	2485.288846
786.368568	2513.015192
786.691752	2525.618077
787.014891	2573.509038
787.337983	2487.809423
787.661030	2487.809423
787.984031	2515.535769
788.306987	2563.426731
788.629897	2444.959615
788.952760	2392.027500
789.275579	2563.426731
789.598351	2452.521346
789.921078	2586.111923
790.243759	2477.727115
790.566395	2510.494615
790.888984	2480.247692
791.211529	2550.823846
791.534027	2528.138654
791.856480	2528.138654
792.178888	2621.400000
792.501249	2470.165385
792.823566	2495.371154
793.145836	2583.591346
793.468062	2543.262115
793.790241	2475.206538
794.112375	2460.083077
794.434464	2351.698269
794.756507	2475.206538
795.078505	2550.823846
795.400457	2442.439038
795.722364	2455.041923
796.044226	2419.753846
796.366042	2538.220962
796.687812	2510.494615
797.009538	2480.247692
797.331218	2472.685962
797.652852	2525.618077
797.974442	2583.591346
798.295986	2480.247692
798.617484	2530.659231
798.938938	2409.671538
799.260346	2447.480192
799.581709	2550.823846
799.903026	2495.371154
800.224299	2505.453462
800.545526	2465.124231
800.866708	2507.974038
801.187845	2475.206538
801.508936	2467.644808
801.829983	2457.562500
802.150984	2487.809423
802.471940	2487.809423
802.792851	2467.644808
803.113717	2497.891731
803.434538	2392.027500
803.755314	2513.015192
804.076045	2457.562500
804.396731	2533.179808
804.717372	2563.426731
805.037967	2515.535769
805.358518	2404.630385
805.679024	2502.932885
805.999485	2434.877308
806.319901	2450.000769
806.640272	2467.644808
806.960598	2513.015192
807.280879	2485.288846
807.601115	2513.015192
807.921306	2475.206538
808.241453	2507.974038
808.561554	2455.041923
808.881611	2487.809423
809.201623	2485.288846
809.521590	2457.562500
809.841513	2467.644808
810.161390	2487.809423
810.481223	2492.850577
810.801011	2543.262115
811.120755	2447.480192
811.440453	2487.809423
811.760107	2497.891731
812.079716	2525.618077
812.399281	2450.000769
812.718801	2528.138654
813.038276	2507.974038
813.357707	2513.015192
813.677093	2462.603654
813.996434	2530.659231
814.315731	2452.521346
814.634983	2523.097500
814.954191	2490.330000
815.273354	2465.124231
815.592473	2540.741538
815.911547	2485.288846
816.230577	2475.206538
816.549562	2576.029615
816.868502	2528.138654
817.187399	2485.288846
817.506250	2583.591346
817.825058	2502.932885
818.143821	2497.891731
818.462539	2432.356731
818.781213	2462.603654
819.099843	2485.288846
819.418429	2500.412308
819.736970	2407.150962
820.055466	2444.959615
820.373919	2495.371154
820.692327	2482.768269
821.010691	2460.083077
821.329011	2507.974038
821.647286	2538.220962
821.965517	2447.480192
822.283704	2520.576923
822.601847	2455.041923
822.919945	2553.344423
823.237999	2507.974038
823.556010	2613.838269
823.873976	2495.371154
824.191897	2397.068654
824.509775	2460.083077
824.827609	2502.932885
825.145398	2576.029615
825.463144	2437.397885
825.780845	2497.891731
826.098502	2515.535769
826.416116	2525.618077
826.733685	2432.356731
827.051210	2507.974038
827.368692	2381.945192
827.686129	2492.850577
828.003522	2422.274423
828.320872	2555.865000
828.638177	2492.850577
828.955439	2500.412308
829.272656	2550.823846
829.589830	2424.795000
829.906960	2513.015192
830.224046	2460.083077
830.541088	2510.494615
830.858086	2419.753846
831.175041	2467.644808
831.491952	2465.124231
831.808819	2530.659231
832.125642	2485.288846
832.442421	2450.000769
832.759157	2462.603654
833.075849	2507.974038
833.392497	2434.877308
833.709101	2573.509038
834.025662	2505.453462
834.342179	2570.988462
834.658653	2578.550192
834.975083	2543.262115
835.291469	2460.083077
835.607811	2457.562500
835.924110	2475.206538
836.240366	2513.015192
836.556578	2409.671538
836.872746	2545.782692
837.188871	2487.809423
837.504952	2533.179808
837.820990	2505.453462
838.136984	2520.576923
838.452935	2502.932885
838.768842	2518.056346
839.084706	2485.288846
839.400526	2553.344423
839.716303	2465.124231
840.032037	2525.618077
840.347727	2432.356731
840.663373	2447.480192
840.978977	2475.206538
841.294537	2502.932885
841.610054	2462.603654
841.925527	2490.330000
842.240957	2487.809423
842.556344	2487.809423
842.871687	2460.083077
843.186987	2485.288846
843.502244	2480.247692
843.817458	2477.727115
844.132629	2502.932885
844.447756	2465.124231
844.762840	2558.385577
845.077881	2450.000769
845.392879	2528.138654
845.707833	2535.700385
846.022745	2492.850577
846.337613	2507.974038
846.652438	2475.206538
846.967221	2477.727115
847.281960	2528.138654
847.596656	2485.288846
847.911309	2538.220962
848.225919	2558.385577
848.540485	2553.344423
848.855009	2533.179808
849.169490	2513.015192
849.483928	2381.945192
849.798323	2507.974038
850.112675	2545.782692
850.426984	2510.494615
850.741251	2540.741538
851.055474	2470.165385
851.369654	2513.015192
851.683792	2518.056346
851.997887	2414.712692
852.311938	2515.535769
852.625947	2495.371154
852.939914	2444.959615
853.253837	2497.891731
853.567718	2467.644808
853.881555	2533.179808
854.195350	2467.644808
854.509103	2578.550192
854.822812	2518.056346
855.136479	2558.385577
855.450103	2460.083077
855.763685	2482.768269
856.077224	2523.097500
856.390720	2447.480192
856.704173	2543.262115
857.017584	2480.247692
857.330953	2424.795000
857.644278	2530.659231
857.957561	2523.097500
858.270802	2535.700385
858.584000	2429.836154
858.897155	2533.179808
859.210268	2480.247692
859.523339	2535.700385
859.836367	2457.562500
860.149352	2495.371154
860.462295	2465.124231
860.775195	2480.247692
861.088054	2477.727115
861.400869	2558.385577
861.713642	2472.685962
862.026373	2497.891731
862.339062	2560.906154
862.651708	2462.603654
862.964312	2593.673654
863.276873	2530.659231
863.589392	2467.644808
863.901869	2495.371154
864.214303	2465.124231
864.526696	2505.453462
864.839045	2404.630385
865.151353	2548.303269
865.463619	2507.974038
865.775842	2467.644808
866.088023	2412.192115
866.400162	2523.097500
866.712258	2513.015192
867.024313	2613.838269
867.336325	2467.644808
867.648296	2480.247692
867.960224	2455.041923
868.272110	2555.865000
868.583954	2475.206538
868.895755	2487.809423
869.207515	2470.165385
869.519233	2417.233269
869.830909	2603.755962
870.142542	2497.891731
870.454134	2472.685962
870.765684	2429.836154
871.077191	2432.356731
871.388657	2505.453462
871.700081	2568.467885
872.011463	2545.782692
872.322803	2535.700385
872.634101	2485.288846
872.945357	2533.179808
873.256571	2462.603654
873.567744	2563.426731
873.878874	2457.562500
874.189963	2472.685962
874.501010	2434.877308
874.812015	2460.083077
875.122979	2555.865000
875.433900	2553.344423
875.744780	2475.206538
876.055618	2452.521346
876.366415	2485.288846
876.677169	2492.850577
876.987882	2560.906154
877.298554	2513.015192
877.609183	2495.371154
877.919771	2472.685962
878.230317	2500.412308
878.540822	2540.741538
878.851285	2480.247692
879.161707	2457.562500
879.472087	2545.782692
879.782425	2480.247692
880.092722	2510.494615
880.402977	2490.330000
880.713191	2432.356731
881.023363	2457.562500
881.333494	2460.083077
881.643583	2581.070769
881.953631	2510.494615
882.263637	2460.083077
882.573602	2513.015192
882.883526	2520.576923
883.193408	2540.741538
883.503248	2409.671538
883.813048	2505.453462
884.122806	2490.330000
884.432522	2530.659231
884.742197	2535.700385
885.051831	2495.371154
885.361424	2573.509038
885.670975	2576.029615
885.980485	2480.247692
886.289954	2492.850577
886.599382	2447.480192
886.908768	2460.083077
887.218113	2472.685962
887.527417	2495.371154
887.836680	2470.165385
888.145901	2528.138654
888.455082	2475.206538
888.764221	2550.823846
889.073319	2467.644808
889.382376	2525.618077
889.691392	2407.150962
890.000366	2518.056346
890.309300	2525.618077
890.618193	2492.850577
890.927044	2477.727115
891.235855	2487.809423
891.544625	2578.550192
891.853353	2472.685962
892.162041	2475.206538
892.470687	2507.974038
892.779293	2452.521346
893.087858	2467.644808
893.396381	2545.782692
893.704864	2507.974038
894.013306	2538.220962
894.321707	2565.947308
894.630068	2598.714808
894.938387	2513.015192
895.246665	2447.480192
895.554903	2507.974038
895.863100	2497.891731
896.171256	2548.303269
896.479371	2490.330000
896.787446	2487.809423
897.095480	2467.644808
897.403473	2533.179808
897.711425	2477.727115
898.019336	2525.618077
898.327207	2422.274423
898.635038	2492.850577
898.942827	2455.041923
899.250576	2518.056346
899.558284	2457.562500
899.865952	2515.535769
900.173579	2495.371154
900.481165	2492.850577
900.788711	2487.809423
901.096216	2457.562500
901.403681	2548.303269
901.711105	2442.439038
902.018489	2505.453462
902.325832	2487.809423
902.633135	2482.768269
902.940397	2568.467885
903.247619	2510.494615
903.554800	2487.809423
903.861941	2518.056346
904.169041	2495.371154
904.476101	2538.220962
904.783121	2525.618077
905.090100	2487.809423
905.397039	2442.439038
905.703938	2497.891731
906.010796	2492.850577
906.317614	2573.509038
906.624391	2437.397885
906.931129	2465.124231
907.237826	2412.192115
907.544483	2535.700385
907.851099	2495.371154
908.157675	2462.603654
908.464211	2381.945192
908.770707	2495.371154
909.077163	2487.809423
909.383578	2507.974038
909.689954	2444.959615
909.996289	2480.247692
910.302584	2462.603654
910.608839	2467.644808
910.915054	2492.850577
911.221229	2437.397885
911.527363	2505.453462
911.833458	2465.124231
912.139513	2523.097500
912.445527	2414.712692
912.751502	2583.591346
913.057436	2528.138654
913.363331	2497.891731
913.669186	2399.589231
913.975000	2548.303269
914.280775	2465.124231
914.586510	2477.727115
914.892205	2507.974038
915.197859	2500.412308
915.503475	2548.303269
915.809050	2502.932885
916.114585	2513.015192
916.420081	2487.809423
916.725536	2550.823846
917.030952	2613.838269
917.336328	2465.124231
917.641665	2434.877308
917.946961	2412.192115
918.252218	2485.288846
918.557435	2419.753846
918.862612	2523.097500
919.167750	2558.385577
919.472848	2450.000769
919.777906	2543.262115
920.082925	2465.124231
920.387904	2455.041923
920.692843	2518.056346
920.997743	2465.124231
921.302603	2550.823846
921.607423	2487.809423
921.912204	2442.439038
922.216946	2588.632500
922.521647	2442.439038
922.826310	2394.548077
923.130932	2457.562500
923.435516	2525.618077
923.740059	2558.385577
924.044564	2515.535769
924.349028	2513.015192
924.653454	2487.809423
924.957840	2598.714808
925.262186	2472.685962
925.566493	2528.138654
925.870761	2505.453462
926.174989	2507.974038
926.479178	2447.480192
926.783328	2505.453462
927.087438	2553.344423
927.391509	2523.097500
927.695541	2497.891731
927.999533	2523.097500
928.303486	2518.056346
928.607400	2450.000769
928.911275	2470.165385
929.215110	2513.015192
929.518906	2520.576923
929.822663	2558.385577
930.126381	2439.918462
930.430060	2525.618077
930.733699	2495.371154
931.037299	2419.753846
931.340861	2457.562500
931.644383	2525.618077
931.947866	2538.220962
932.251309	2497.891731
932.554714	2525.618077
932.858080	2492.850577
933.161407	2507.974038
933.464694	2467.644808
933.767943	2432.356731
934.071153	2462.603654
934.374323	2495.371154
934.677455	2447.480192
934.980548	2543.262115
935.283602	2560.906154
935.586617	2495.371154
935.889593	2513.015192
936.192530	2497.891731
936.495428	2460.083077
936.798287	2485.288846
937.101108	2533.179808
937.403890	2414.712692
937.706632	2397.068654
938.009336	2495.371154
938.312002	2467.644808
938.614628	2510.494615
938.917216	2477.727115
939.219765	2538.220962
939.522275	2513.015192
939.824747	2528.138654
940.127179	2465.124231
940.429573	2437.397885
940.731929	2492.850577
941.034246	2434.877308
941.336524	2502.932885
941.638763	2447.480192
941.940964	2482.768269
942.243126	2455.041923
942.545250	2578.550192
942.847335	2480.247692
943.149381	2523.097500
943.451389	2480.247692
943.753359	2543.262115
944.055290	2462.603654
944.357182	2455.041923
944.659036	2439.918462
944.960851	2606.276538
945.262628	2510.494615
945.564367	2444.959615
945.866067	2497.891731
946.167729	2434.877308
946.469352	2497.891731
946.770937	2485.288846
947.072484	2573.509038
947.373992	2442.439038
947.675462	2487.809423
947.976893	2432.356731
948.278286	2472.685962
948.579641	2570.988462
948.880958	2470.165385
949.182236	2528.138654
949.483476	2485.288846
949.784678	2530.659231
950.085841	2490.330000
950.386967	2565.947308
950.688054	2437.397885
950.989103	2462.603654
951.290114	2485.288846
951.591087	2500.412308
951.892021	2502.932885
952.192917	2513.015192
952.493776	2535.700385
952.794596	2422.274423
953.095378	2525.618077
953.396122	2475.206538
953.696828	2500.412308
953.997496	2523.097500
954.298126	2535.700385
954.598718	2528.138654
954.899272	2497.891731
955.199788	2570.988462
955.500266	2495.371154
955.800706	2513.015192
956.101108	2442.439038
956.401472	2447.480192
956.701798	2480.247692
957.002087	2447.480192
957.302337	2520.576923
957.602550	2455.041923
957.902724	2487.809423
958.202861	2419.753846
958.502960	2447.480192
958.803022	2570.988462
959.103045	2523.097500
959.403031	2467.644808
959.702979	2470.165385
960.002889	2528.138654
960.302762	2535.700385
960.602596	2439.918462
960.902393	2497.891731
961.202153	2409.671538
961.501875	2432.356731
961.801559	2523.097500
962.101205	2465.124231
962.400814	2563.426731
962.700385	2525.618077
962.999918	2515.535769
963.299414	2495.371154
963.598873	2573.509038
963.898293	2490.330000
964.197677	2402.109808
964.497022	2528.138654
964.796331	2507.974038
965.095601	2485.288846
965.394835	2520.576923
965.694030	2475.206538
965.993189	2467.644808
966.292309	2447.480192
966.591393	2553.344423
966.890439	2535.700385
967.189447	2518.056346
967.488419	2407.150962
967.787353	2502.932885
968.086249	2485.288846
968.385108	2492.850577
968.683930	2442.439038
968.982714	2507.974038
969.281462	2450.000769
969.580172	2457.562500
969.878844	2439.918462
970.177480	2500.412308
970.476078	2412.192115
970.774639	2409.671538
971.073162	2553.344423
971.371649	2490.330000
971.670098	2429.836154
971.968510	2450.000769
972.266885	2515.535769
972.565223	2444.959615
972.863524	2480.247692
973.161788	2480.247692
973.460014	2515.535769
973.758204	2437.397885
974.056356	2482.768269
974.354471	2540.741538
974.652550	2394.548077
974.950591	2573.509038
975.248595	2528.138654
975.546563	2525.618077
975.844493	2404.630385
976.142386	2482.768269
976.440243	2429.836154
976.738062	2497.891731
977.035845	2482.768269
977.333590	2507.974038
977.631299	2465.124231
977.928971	2475.206538
978.226606	2457.562500
978.524204	2576.029615
978.821765	2381.945192
979.119290	2533.179808
979.416777	2507.974038
979.714228	2543.262115
980.011642	2518.056346
980.309020	2581.070769
980.606360	2555.865000
980.903664	2482.768269
981.200931	2465.124231
981.498162	2507.974038
981.795356	2490.330000
982.092513	2507.974038
982.389633	2530.659231
982.686717	2472.685962
982.983764	2462.603654
983.280775	2455.041923
983.577749	2548.303269
983.874686	2429.836154
984.171587	2434.877308
984.468451	2470.165385
984.765279	2538.220962
985.062070	2477.727115
985.358824	2470.165385
985.655543	2533.179808
985.952224	2525.618077
986.248869	2558.385577
986.545478	2442.439038
986.842050	2460.083077
987.138586	2500.412308
987.435086	2381.945192
987.731549	2472.685962
988.027975	2475.206538
988.324366	2545.782692
988.620719	2525.618077
988.917037	2490.330000
989.213318	2535.700385
989.509563	2452.521346
989.805772	2422.274423
990.101944	2523.097500
990.398080	2444.959615
990.694180	2417.233269
990.990244	2560.906154
991.286271	2470.165385
991.582262	2485.288846
991.878217	2538.220962
992.174136	2492.850577
992.470019	2525.618077
992.765865	2520.576923
993.061676	2568.467885
993.357450	2593.673654
993.653188	2530.659231
993.948890	2477.727115
994.244556	2444.959615
994.540186	2462.603654
994.835780	2520.576923
995.131337	2450.000769
995.426859	2442.439038
995.722345	2467.644808
996.017795	2490.330000
996.313208	2485.288846
996.608586	2510.494615
996.903928	2500.412308
997.199234	2381.945192
997.494504	2505.453462
997.789738	2422.274423
998.084936	2505.453462
998.380099	2470.165385
998.675225	2465.124231
998.970316	2447.480192
999.265371	2510.494615
999.560390	2502.932885
999.855373	2480.247692
1000.150320	2497.891731
1000.445232	2528.138654
1000.740108	2500.412308
1001.034948	2495.371154
1001.329752	2439.918462
1001.624521	2492.850577
1001.919254	2447.480192
1002.213951	2540.741538
1002.508613	2538.220962
1002.803239	2520.576923
1003.097829	2510.494615
1003.392384	2457.562500
1003.686903	2470.165385
1003.981386	2472.685962
1004.275834	2495.371154
1004.570246	2510.494615
1004.864623	2523.097500
1005.158964	2570.988462
1005.453270	2495.371154
1005.747540	2548.303269
1006.041775	2450.000769
1006.335974	2520.576923
1006.630138	2470.165385
1006.924266	2492.850577
1007.218359	2588.632500
1007.512416	2495.371154
1007.806438	2419.753846
1008.100425	2485.288846
1008.394376	2465.124231
1008.688292	2558.385577
1008.982172	2472.685962
1009.276017	2510.494615
1009.569827	2548.303269
1009.863602	2558.385577
1010.157341	2558.385577
1010.451045	2525.618077
1010.744714	2455.041923
1011.038347	2447.480192
1011.331945	2518.056346
1011.625508	2442.439038
1011.919036	2472.685962
1012.212528	2502.932885
1012.505986	2528.138654
1012.799408	2482.768269
1013.092795	2419.753846
1013.386147	2485.288846
1013.679464	2480.247692
1013.972745	2533.179808
1014.265992	2424.795000
1014.559204	2505.453462
1014.852380	2487.809423
1015.145521	2530.659231
1015.438628	2500.412308
1015.731699	2492.850577
1016.024736	2518.056346
1016.317737	2452.521346
1016.610703	2510.494615
1016.903635	2505.453462
1017.196531	2485.288846
1017.489393	2427.315577
1017.782219	2404.630385
1018.075011	2611.317692
1018.367768	2482.768269
1018.660490	2472.685962
1018.953177	2472.685962
1019.245829	2472.685962
