Dividing Wavelength (nm)	Counts (n)	Blue Motor Position (mm): 31.200000	Red Motor Position (mm): 0.000000	
326.493990	2129.814403
326.888308	2129.814403
327.282561	2129.814403
327.676750	2098.692840
328.070874	2099.670824
328.464933	2100.918509
328.858929	2106.577205
329.252859	2118.282764
329.646726	2126.620832
330.040528	2141.414098
330.434265	2156.381284
330.827938	2174.955415
331.221547	2194.126923
331.615091	2212.610314
332.008571	2231.348283
332.401986	2252.901736
332.795338	2270.268511
333.188625	2290.191151
333.581847	2308.344346
333.975006	2326.777325
334.368100	2349.182733
334.761129	2364.124713
335.154095	2380.410161
335.546996	2400.531927
335.939833	2425.362130
336.332606	2441.176229
336.725315	2452.307097
337.117960	2461.164404
337.510540	2468.915178
337.903056	2481.266005
338.295508	2487.685915
338.687896	2493.241266
339.080220	2506.166785
339.472480	2512.702641
339.864676	2515.034174
340.256807	2521.388549
340.648875	2522.414424
341.040879	2526.233098
341.432818	2526.008766
341.824694	2530.152595
342.216506	2530.760054
342.608253	2530.203006
342.999937	2529.424148
343.391557	2529.882893
343.783113	2528.834333
344.174605	2527.468180
344.566033	2525.272758
344.957397	2527.195958
345.348697	2519.853518
345.739934	2521.444002
346.131106	2521.118847
346.522215	2517.101048
346.913260	2514.482168
347.304241	2515.134998
347.695159	2512.463186
348.086012	2510.073679
348.476802	2506.668380
348.867528	2510.023267
349.258191	2505.037566
349.648789	2507.104439
350.039324	2503.691578
350.429796	2503.310971
350.820203	2501.193687
351.210548	2500.049345
351.600828	2498.574807
351.991045	2497.604385
352.381198	2501.226454
352.771288	2495.754282
353.161314	2496.991885
353.551276	2498.335352
353.941175	2492.827892
354.331010	2497.894251
354.720782	2496.346617
355.110490	2495.275372
355.500135	2497.085146
355.889717	2496.671772
356.279235	2496.308808
356.668689	2498.418531
357.058080	2497.359889
357.447408	2496.994405
357.836672	2490.642552
358.225873	2495.484580
358.615010	2492.956441
359.004084	2498.489108
359.393095	2499.482215
359.782043	2501.564211
360.170927	2501.619664
360.559748	2499.585558
360.948505	2502.355672
361.337199	2503.999089
361.725830	2501.569253
362.114398	2504.452793
362.502903	2504.271311
362.891344	2502.842144
363.279722	2504.200735
363.668037	2505.788698
364.056289	2507.361538
364.444478	2506.756600
364.832603	2506.728873
365.220665	2507.331291
365.608665	2507.356497
365.996601	2507.883298
366.384474	2507.679131
366.772284	2507.858092
367.160031	2507.449758
367.547715	2509.287259
367.935336	2508.014368
368.322893	2509.282218
368.710388	2511.452435
369.097820	2513.113495
369.485189	2510.736591
369.872495	2510.116529
370.259738	2513.083248
370.646918	2511.235665
371.034035	2512.238855
371.421090	2510.628206
371.808081	2512.591735
372.195010	2512.143073
372.581875	2512.679956
372.968678	2514.396468
373.355418	2514.474606
373.742096	2516.735564
374.128710	2514.935872
374.515262	2513.645337
374.901751	2518.121881
375.288177	2513.864627
375.674540	2512.889163
376.060841	2515.893691
376.447079	2514.441839
376.833254	2516.657426
377.219367	2511.979235
377.605417	2514.827487
377.991404	2511.086951
378.377329	2514.204905
378.763191	2511.472599
379.148991	2518.444515
379.534727	2517.769000
379.920402	2518.489885
380.306013	2518.358815
380.691563	2517.829494
381.077049	2516.629700
381.462474	2517.658095
381.847835	2519.853517
382.233134	2519.258661
382.618371	2518.620955
383.003545	2517.363187
383.388657	2519.377128
383.773706	2519.717406
384.158693	2519.014165
384.543618	2520.541635
384.928480	2520.554238
385.313280	2522.742099
385.698017	2518.139525
386.082692	2522.732016
386.467305	2519.568692
386.851856	2522.041378
387.236344	2523.079856
387.620770	2523.074815
388.005133	2521.494413
388.389435	2523.006759
388.773674	2522.956348
389.157851	2523.621780
389.541965	2522.094310
389.926018	2522.089269
390.310008	2522.182531
390.693936	2523.654547
391.077802	2523.132788
391.461606	2525.285361
391.845348	2524.118334
392.229027	2524.546832
392.612645	2525.852491
392.996200	2524.766122
393.379694	2526.253262
393.763125	2526.991791
394.146494	2526.321318
394.529801	2527.664785
394.913047	2525.227388
395.296230	2527.483304
395.679351	2528.925074
396.062410	2529.779549
396.445408	2528.352903
396.828343	2527.899199
397.211217	2523.775535
397.594028	2527.266534
397.976778	2525.189579
398.359466	2526.722090
398.742092	2527.198479
399.124656	2530.893644
399.507158	2529.046062
399.889598	2529.608150
400.271977	2530.139992
400.654294	2531.115455
401.036549	2528.705784
401.418742	2532.930271
401.800874	2531.564118
402.182944	2532.811803
402.564952	2531.478418
402.946898	2536.915303
403.328783	2533.910775
403.710606	2535.476053
404.092367	2535.105528
404.474067	2534.908923
404.855705	2532.980682
405.237282	2534.331711
405.618797	2530.896165
406.000250	2534.427493
406.381642	2534.422452
406.762972	2534.508152
407.144240	2536.822041
407.525447	2538.505787
407.906593	2536.668286
408.287677	2535.055117
408.668700	2537.784902
409.049661	2536.343132
409.430560	2539.834131
409.811399	2537.981507
410.192176	2536.360776
410.572891	2540.774306
410.953545	2540.086188
411.334138	2539.781199
411.714669	2539.571991
412.095139	2539.274563
412.475547	2540.887732
412.855894	2542.389996
413.236180	2541.477547
413.616405	2545.407126
413.996568	2542.132897
414.376670	2544.285470
414.756711	2544.023330
415.136691	2545.497867
415.516609	2545.389482
415.896466	2542.122815
416.276262	2548.230172
416.655997	2546.203629
417.035670	2547.345450
417.415283	2550.503733
417.794834	2548.746891
418.174324	2554.821481
418.553753	2555.973385
418.933121	2562.521844
419.312428	2565.642318
419.691674	2571.353945
420.070859	2574.923082
420.449983	2580.576736
420.829045	2587.289032
421.208047	2596.219437
421.586988	2603.392998
421.965867	2613.785337
422.344686	2627.197327
422.723444	2634.012967
423.102141	2635.542957
423.480777	2655.223622
423.859352	2658.039106
424.237866	2681.702282
424.616319	2696.735003
424.994712	2715.243599
425.373044	2723.180896
425.751314	2750.347674
426.129524	2751.686101
426.507673	2785.025772
426.885762	2807.680717
427.263789	2828.780466
427.641756	2831.250632
428.019662	2868.890407
428.397508	2888.450084
428.775292	2914.555699
429.153016	2951.393931
429.530679	2964.432875
429.908282	3004.729338
430.285824	3011.570184
430.663305	3085.579364
431.040726	3074.549319
431.418086	3103.248608
431.795385	3158.345899
432.172624	3191.443595
432.549802	3225.206722
432.926920	3262.995212
433.303977	3303.979793
433.680974	3353.491485
434.057910	3396.391704
434.434786	3439.342335
434.811601	3473.385247
435.188355	3574.152871
435.565050	3585.218204
435.941683	3627.243783
436.318257	3744.629571
436.694770	3787.844862
437.071222	3851.073534
437.447614	3871.676730
437.823946	3883.243657
438.200218	3996.972088
438.576429	3991.121829
438.952580	4087.894339
439.328670	4153.406654
439.704700	4167.652955
440.080670	4204.854149
440.456580	4395.432450
440.832429	4390.635792
441.208218	4362.710320
441.583947	4494.584384
441.959616	4549.109504
442.335224	4557.427408
442.710773	4689.591339
443.086261	4761.047174
443.461689	4678.669679
443.837057	4822.080423
444.212365	4975.515503
444.587612	4951.128921
444.962800	5101.040233
445.337927	5138.929546
445.712995	4917.822017
446.088002	5367.235842
446.462949	5296.914266
446.837837	5291.568122
447.212664	5457.603565
447.587431	5612.747596
447.962139	6076.848822
448.336786	6822.052348
448.711374	6678.324010
449.085901	6003.729406
449.460369	5994.867057
449.834776	5982.228884
450.209124	6345.396128
450.583412	6513.894175
450.957640	6663.750035
451.331808	6509.916704
451.705917	6169.341392
452.079965	6132.087265
452.453954	6352.708322
452.827883	6273.736126
453.201752	6381.876438
453.575562	6225.557819
453.949311	6442.463545
454.323001	6361.595876
454.696632	6455.983920
455.070202	6605.731395
455.443713	6770.244410
455.817164	6885.903602
456.190556	6987.185424
456.563888	7076.106337
456.937160	7130.528113
457.310373	6828.225241
457.683526	6865.398709
458.056619	6775.872858
458.429653	6781.392921
458.802628	6723.981741
459.175542	6839.492219
459.548398	7198.976900
459.921194	7356.434820
460.293930	7375.039198
460.666607	7903.717605
461.039224	8210.262609
461.411782	8342.187084
461.784280	8371.357721
462.156719	8273.183770
462.529099	8160.957603
462.901419	7762.308198
463.273680	7662.095101
463.645882	7682.105961
464.018024	7554.799183
464.390106	7715.354892
464.762130	8108.423739
465.134094	8576.210049
465.505999	9589.320655
465.877845	10806.421551
466.249631	11453.209152
466.621358	11071.170348
466.993026	10448.247571
467.364634	10204.631290
467.736184	9836.904323
468.107674	9512.485908
468.479105	9554.261950
468.850477	9316.463162
469.221790	9084.207122
469.593043	8767.773895
469.964238	8629.868090
470.335373	8640.756982
470.706449	8697.906023
471.077467	8687.186009
471.448425	9993.845525
471.819324	11057.123173
472.190164	11073.701008
472.560945	9829.110699
472.931667	9048.903921
473.302330	8916.729909
473.672934	8565.840395
474.043479	8920.586391
474.413965	8866.388946
474.784393	8748.163806
475.154761	8902.067713
475.525070	8993.630190
475.895321	8819.286925
476.265513	8998.371395
476.635645	9154.705138
477.005719	9159.567331
477.375734	9281.764900
477.745691	9515.911373
478.115588	9650.079162
478.485427	9891.348785
478.855207	10427.856103
479.224928	11236.459701
479.594591	11858.948939
479.964194	11671.317193
480.333739	11616.192176
480.703226	11526.905780
481.072653	11611.864345
481.442022	11853.827127
481.811333	12038.293029
482.180584	11852.740758
482.549777	11562.274515
482.918912	11378.751309
483.287988	11409.751885
483.657005	11417.530385
484.025964	11105.442633
484.394864	11235.212015
484.763706	11201.317817
485.132489	10961.663884
485.501213	10930.350757
485.869879	10999.749801
486.238487	10843.721049
486.607036	10955.473347
486.975527	10730.726106
487.343959	10926.317834
487.712333	10977.326749
488.080648	10902.432847
488.448905	10953.507297
488.817104	10885.305527
489.185244	11150.797894
489.553326	11310.473922
489.921350	11852.576921
490.289315	12901.305800
490.657222	13244.535280
491.025070	13140.863951
491.392861	13023.984799
491.760593	12642.092189
492.128267	12295.149899
492.495883	11964.367028
492.863440	11630.932510
493.230939	11302.271964
493.598380	11231.184133
493.965763	11103.894999
494.333088	10997.342650
494.700354	10924.928996
495.067563	10981.803294
495.434713	10820.430918
495.801805	10945.423807
496.168839	10872.216171
496.535815	10805.912395
496.902733	10800.354523
497.269593	10738.996119
497.636395	10837.752322
498.003139	10819.863788
498.369825	10693.363594
498.736453	10847.174239
499.103023	10777.245873
499.469535	10805.867024
499.835989	10795.479727
500.202385	10761.058728
500.568723	10612.442992
500.935003	10836.489513
501.301226	10644.701336
501.667390	10905.696994
502.033497	10994.892650
502.399546	10853.100115
502.765537	10765.010993
503.131470	10833.812661
503.497345	11016.536844
503.863163	10622.827769
504.228923	10933.362846
504.594625	10996.349543
504.960269	10746.257901
505.325856	10964.058432
505.691385	10758.336505
506.056856	10909.248487
506.422270	10933.945100
506.787625	10822.273460
507.152924	10943.427510
507.518164	10924.472772
507.883347	10845.722387
508.248472	10765.666343
508.613540	10994.988432
508.978550	10885.343335
509.343503	10856.999448
509.708398	10978.952521
510.073236	11088.753893
510.438016	11091.962588
510.802738	11047.953314
511.167403	11093.492578
511.532010	10992.067083
511.896561	11218.813142
512.261053	11287.110694
512.625488	11166.455718
512.989866	11146.064251
513.354186	11136.498661
513.718449	11041.477952
514.082655	11228.958464
514.446803	11124.392330
514.810894	11251.053841
515.174927	11109.321801
515.538904	11132.158228
515.902822	11287.287134
516.266684	11169.356902
516.630488	11115.043510
516.994235	11182.143789
517.357925	11233.109854
517.721558	11316.684623
518.085133	11340.070536
518.448651	11351.206445
518.812112	11230.241437
519.175516	11245.437996
519.538863	11363.365708
519.902152	11286.160437
520.265385	11443.361258
520.628560	11353.288441
520.991678	11333.945534
521.354739	11395.369473
521.717743	11329.390851
522.080690	11306.846811
522.443580	11446.779160
522.806413	11395.896273
523.169189	11431.809453
523.531908	11487.153761
523.894569	11307.391256
524.257174	11305.039558
524.619722	11426.203690
524.982213	11377.097811
525.344647	11436.646441
525.707025	11375.560259
526.069345	11471.223715
526.431608	11389.894780
526.793815	11495.028043
527.155964	11287.274532
527.518057	11335.220946
527.880093	11289.701847
528.242072	11356.592918
528.603995	11258.187074
528.965860	11180.613798
529.327669	11234.609597
529.689421	11185.228975
530.051117	11149.603141
530.412755	11260.506005
530.774337	11156.075982
531.135862	11130.532456
531.497331	11149.030970
531.858743	11005.879844
532.220098	11171.005359
532.581396	11034.523681
532.942638	11024.925324
533.303824	10985.730353
533.664953	11000.604277
534.026025	10918.294837
534.387040	11019.367452
534.747999	11015.689930
535.108902	11079.208468
535.469748	10832.323000
535.830537	10940.060019
536.191270	10914.529096
536.551947	10937.670512
536.912567	10940.410379
537.273131	10870.797086
537.633638	10850.612306
537.994089	10833.331231
538.354483	10777.835688
538.714821	10929.080386
539.075103	10935.689339
539.435328	10895.889429
539.795497	10720.467358
540.155609	10880.491225
540.515665	10973.112344
540.875665	10707.073012
541.235609	10776.688826
541.595496	10772.171952
541.955328	10929.322362
542.315102	10808.064968
542.674821	10760.970508
543.034483	10760.751218
543.394090	10754.820301
543.753640	10685.595176
544.113134	10914.682851
544.472571	10772.580286
544.831953	10904.159442
545.191278	10719.464168
545.550548	10748.942315
545.909761	10882.298478
546.268918	10858.491629
546.628019	10950.044024
546.987064	10809.300050
547.346053	10724.838038
547.704986	10826.039202
548.063863	10813.731224
548.422684	10809.037910
548.781449	10728.518080
549.140158	10822.742287
549.498811	10699.516322
549.857408	10559.004241
550.215949	10784.600917
550.574434	10641.134720
550.932864	10733.639893
551.291237	10799.719337
551.649555	10741.529298
552.007817	10760.070662
552.366022	10719.600279
552.724173	10713.288755
553.082267	10703.584533
553.440305	10833.681591
553.798288	10640.607919
554.156215	10780.404156
554.514086	10761.603173
554.871902	10610.194638
555.229661	10661.216156
555.587365	10626.351536
555.945014	10521.019147
556.302606	10643.320060
556.660143	10548.034690
557.017625	10689.718840
557.375050	10591.955743
557.732421	10722.030115
558.089735	10635.574327
558.446994	10642.858794
558.804197	10686.575680
559.161345	10684.977635
559.518437	10527.476865
559.875474	10612.793353
560.232455	10642.042127
560.589381	10597.135529
560.946251	10590.098078
561.303065	10698.644203
561.659825	10637.326128
562.016528	10568.947917
562.373177	10444.615419
562.729770	10558.348891
563.086307	10474.297733
563.442789	10570.717362
563.799216	10446.054669
564.155587	10498.641465
564.511904	10450.808477
564.868164	10444.587693
565.224370	10456.371390
565.580520	10381.969000
565.936615	10391.222038
566.292654	10255.438559
566.648638	10387.277335
567.004567	10343.348721
567.360441	10326.672584
567.716260	10237.252597
568.072023	10331.315487
568.427732	10275.731724
568.783385	10191.141163
569.138982	10264.368963
569.494525	10281.531572
569.850013	10152.699844
570.205445	10232.493748
570.560823	10132.918356
570.916145	10053.681500
571.271412	10125.553231
571.626625	10065.190454
571.981782	10047.690089
572.336884	10018.335450
572.691931	10024.324341
573.046923	9967.379467
573.401860	9929.684239
573.756743	9855.128094
574.111570	9910.537937
574.466342	9888.661850
574.821059	9912.882073
575.175722	9810.077823
575.530330	9818.181478
575.884882	9809.641763
576.239380	9740.623326
576.593823	9713.259943
576.948211	9730.798117
577.302544	9610.987534
577.656823	9628.238362
578.011047	9623.552610
578.365216	9608.237585
578.719330	9525.512250
579.073389	9538.999857
579.427394	9484.633533
579.781344	9462.213002
580.135239	9414.332122
580.489080	9419.277494
580.842866	9323.094800
581.196597	9330.462446
581.550273	9370.012818
581.903895	9339.017284
582.257463	9405.505062
582.610975	9277.656359
582.964434	9306.196852
583.317837	9228.668947
583.671186	9209.293272
584.024481	9206.646666
584.377721	9126.101631
584.730906	9102.509031
585.084037	9136.614957
585.437113	9066.447137
585.790135	9090.601825
586.143103	8988.092482
586.496016	8964.273031
586.848874	9021.595991
587.201679	9009.550154
587.554428	8895.884737
587.907124	8940.708157
588.259765	8911.184639
588.612352	8912.742356
588.964884	8793.027555
589.317362	8808.314854
589.669786	8805.547261
590.022155	8856.047019
590.374470	8868.334832
590.726731	8810.175040
591.078937	8659.842791
591.431090	8769.077033
591.783188	8645.747725
592.135232	8636.262794
592.487222	8637.933936
592.839157	8685.832460
593.191038	8617.497099
593.542866	8571.514214
593.894639	8473.206673
594.246358	8518.889609
594.598022	8533.324953
594.949633	8433.494983
595.301190	8409.667970
595.652692	8438.470602
596.004141	8545.917755
596.355535	8332.598810
596.706876	8311.405799
597.058162	8248.230059
597.409395	8321.155390
597.760573	8385.571254
598.111698	8284.178527
598.462768	8275.850541
598.813785	8241.442145
599.164748	8208.644398
599.515657	8201.059982
599.866511	8109.358873
600.217312	8237.691527
600.568060	8095.001667
600.918753	8199.908079
601.269392	8168.315168
601.619978	8081.594718
601.970510	8141.859192
602.320988	8140.467834
602.671412	8199.504786
603.021783	8132.591031
603.372100	8104.022812
603.722363	8111.352650
604.072572	8085.763753
604.422728	8094.699198
604.772830	8027.944239
605.122878	8030.109414
605.472872	8024.110441
605.822813	8056.177221
606.172701	8000.593458
606.522534	8075.905776
606.872314	8073.359994
607.222041	8044.592649
607.571714	8101.290507
607.921333	8060.487407
608.270899	8061.704846
608.620411	8150.214905
608.969870	8061.883807
609.319276	8049.091879
609.668627	8066.007471
610.017926	8104.794108
610.367171	8155.999629
610.716362	8129.074826
611.065500	8113.941282
611.414585	8144.793144
611.763616	8131.804611
612.112594	8115.463711
612.461518	8128.278324
612.810389	8187.010287
613.159207	8124.074001
613.507971	8081.687980
613.856682	8197.712656
614.205340	8155.964341
614.553945	8231.238850
614.902496	8131.718911
615.250994	8181.744801
615.599439	8164.347779
615.947830	8181.175151
616.296169	8148.783217
616.644454	8166.517996
616.992686	8167.138058
617.340864	8223.982109
617.688990	8123.930328
618.037063	8217.383238
618.385082	8160.158581
618.733048	8249.381963
619.080961	8191.375926
619.428821	8209.551806
619.776628	8211.399389
620.124382	8162.147316
620.472083	8147.754822
620.819731	8167.944643
621.167326	8065.765495
621.514868	8075.575581
621.862357	7962.522665
622.209793	7984.083680
622.557176	7915.211436
622.904506	7879.903194
623.251783	7821.319945
623.599007	7772.246833
623.946179	7773.890249
624.293297	7734.160916
624.640363	7650.628997
624.987376	7637.272460
625.334336	7581.678615
625.681243	7536.409053
626.028097	7517.643358
626.374899	7493.561766
626.721647	7493.075295
627.068343	7425.997702
627.414987	7397.164823
627.761577	7347.935435
628.108115	7387.737865
628.454600	7282.128212
628.801032	7331.082857
629.147412	7291.393853
629.493739	7280.479755
629.840014	7220.152267
630.186236	7272.348374
630.532405	7154.667678
630.878521	7211.426030
631.224585	7162.751169
631.570597	7088.772236
631.916556	7123.263811
632.262462	7114.499765
632.608316	7078.815957
632.954117	7059.100004
633.299866	7040.034361
633.645562	7032.407095
633.991206	6957.334232
634.336797	6897.402474
634.682336	6858.804880
635.027823	6823.000085
635.373257	6814.067160
635.718639	6747.360092
636.063968	6758.526248
636.409245	6656.294168
636.754470	6651.195041
637.099642	6608.821622
637.444762	6553.439506
637.789829	6566.102885
638.134845	6505.472927
638.479808	6491.483725
638.824719	6499.168964
639.169577	6422.664414
639.514383	6449.221212
639.859137	6374.667588
640.203839	6382.196551
640.548489	6365.787595
640.893086	6344.788669
641.237632	6316.943856
641.582125	6340.062587
641.926566	6305.598739
642.270955	6321.359907
642.615292	6316.386808
642.959576	6331.018757
643.303809	6317.271531
643.647990	6326.665721
643.992118	6313.203320
644.336195	6261.591987
644.680219	6290.923940
645.024192	6279.195696
645.368112	6374.405448
645.711981	6400.027112
646.055797	6474.011086
646.399562	6427.483757
646.743274	6561.180198
647.086935	6610.759946
647.430544	6609.376149
647.774101	6628.963553
648.117606	6626.805939
648.461059	6620.547346
648.804460	6583.877993
649.147810	6491.498849
649.491108	6463.414581
649.834354	6438.153359
650.177548	6358.762747
650.520690	6272.594305
650.863781	6248.177476
651.206820	6273.156393
651.549807	6192.765113
651.892742	6134.882585
652.235626	6137.070445
652.578458	6123.933198
652.921238	6034.107399
653.263967	6070.489406
653.606644	6013.864645
653.949269	6016.148288
654.291843	5954.658814
654.634365	6002.942986
654.976836	5956.947498
655.319255	5962.671728
655.661622	5938.484272
656.003938	5932.994455
656.346203	5895.158075
656.688416	5927.597900
657.030577	5880.142998
657.372687	5848.676116
657.714746	5838.213201
658.056753	5878.814654
658.398708	5820.788453
658.740612	5811.661444
659.082465	5857.198187
659.424266	5845.787535
659.766016	5849.795252
660.107715	5826.454710
660.449362	5845.800138
660.790958	5839.352502
661.132503	5822.482281
661.473996	5857.883784
661.815438	5843.861814
662.156829	5844.060940
662.498168	5831.115257
662.839456	5808.616587
663.180693	5844.433985
663.521879	5843.496331
663.863013	5832.461245
664.204097	5852.091498
664.545129	5895.609258
664.886110	5888.836468
665.227040	5925.019350
665.567918	5887.848402
665.908746	5918.622126
666.249522	5920.467188
666.590248	5906.094858
666.930922	5935.998983
667.271545	5951.387105
667.612118	5954.164781
667.952639	5921.467857
668.293109	5946.023318
668.633528	5906.029323
668.973896	5904.804323
669.314213	5894.558178
669.654480	5878.421444
669.994695	5873.397935
670.334859	5861.301686
670.674973	5856.207600
671.015035	5857.851016
671.355047	5854.120562
671.695008	5844.461712
672.034918	5816.672351
672.374777	5829.494526
672.714585	5813.506506
673.054342	5816.218647
673.394049	5809.801258
673.733705	5843.710580
674.073310	5829.048384
674.412864	5789.578670
674.752368	5777.875631
675.091820	5785.144975
675.431223	5720.169543
675.770574	5719.355397
676.109875	5671.557696
676.449125	5675.509961
676.788324	5643.249097
677.127473	5587.420839
677.466571	5576.574796
677.805619	5568.055246
678.144616	5553.992947
678.483562	5534.133322
678.822458	5510.069374
679.161303	5496.682590
679.500098	5489.733359
679.838842	5473.946986
680.177535	5474.262058
680.516179	5488.868802
680.854771	5503.304146
681.193314	5581.285754
681.531805	5689.007650
681.870247	5842.442729
682.208638	5944.702535
682.546978	5953.254853
682.885268	5930.501605
683.223508	5847.075550
683.561697	5794.387930
683.899836	5764.998003
684.237925	5718.926898
684.575963	5684.253842
684.913951	5642.772708
685.251889	5705.865269
685.589776	5671.529970
685.927614	5642.573582
686.265401	5715.592175
686.603137	5699.102561
686.940824	5774.543428
687.278460	5796.885822
687.616046	5810.290250
687.953582	5873.143356
688.291068	5860.837900
688.628504	5920.623464
688.965889	5884.246498
689.303224	5827.629299
689.640510	5781.074243
689.977745	5704.776380
690.314930	5604.396924
690.652065	5551.525303
690.989150	5456.933092
691.326185	5382.165219
691.663170	5328.199667
692.000105	5254.460189
692.336990	5167.966592
692.673825	5151.444210
693.010610	5079.169187
693.347345	5015.476729
693.684030	5002.394935
694.020665	4957.216114
694.357251	4868.149008
694.693786	4881.702150
695.030272	4843.071788
695.366707	4809.185152
695.703093	4777.889669
696.039429	4802.104851
696.375716	4782.227582
696.711952	4760.802678
697.048139	4742.319287
697.384276	4722.169795
697.720363	4737.847784
698.056400	4744.330708
698.392388	4693.626782
698.728326	4675.269421
699.064214	4652.685051
699.400053	4645.387981
699.735842	4612.983444
700.071581	4587.790278
700.407270	4561.215835
700.742910	4542.634142
701.078501	4491.262264
701.414042	4490.672449
701.749533	4462.812512
702.084974	4394.734250
702.420366	4450.781799
702.755709	4394.134353
703.091002	4337.237370
703.426246	4387.374166
703.761440	4344.726004
704.096584	4305.475580
704.431679	4327.863344
704.766725	4313.380109
705.101721	4303.902740
705.436668	4328.848890
705.771565	4278.306282
706.106413	4303.096156
706.441212	4336.695446
706.775961	4342.016384
707.110661	4326.532480
707.445311	4352.900235
707.779913	4374.793966
708.114465	4391.601173
708.448967	4413.273093
708.783421	4475.090242
709.117825	4513.622302
709.452180	4519.601110
709.786485	4559.804312
710.120742	4651.061800
710.454949	4632.061691
710.789107	4700.543245
711.123216	4772.944297
711.457275	4766.065642
711.791286	4838.716231
712.125247	4853.360783
712.459159	4759.398717
712.793023	4831.096527
713.126837	4791.352070
713.460602	4785.874857
713.794318	4704.911405
714.127985	4708.286458
714.461602	4627.446515
714.795171	4596.279581
715.128691	4531.780538
715.462162	4477.152074
715.795584	4424.444290
716.128957	4408.562135
716.462281	4357.825442
716.795556	4332.029858
717.128782	4294.198519
717.461960	4225.175041
717.795088	4235.736258
718.128167	4197.148746
718.461198	4134.525012
718.794180	4126.113847
719.127113	4111.544912
719.459997	4091.854165
719.792833	4046.985376
720.125619	4038.652348
720.458357	4004.811082
720.791046	4010.621012
721.123686	3982.693020
721.456278	3941.731124
721.788821	3957.472127
722.121315	3930.144032
722.453761	3905.487749
722.786158	3915.315478
723.118506	3942.366310
723.450805	3892.519381
723.783056	3915.007968
724.115259	3927.008435
724.447412	3932.987243
724.779518	3927.842746
725.111574	3930.953137
725.443582	3962.636789
725.775542	3948.519038
726.107453	3996.251203
726.439315	3997.569465
726.771129	4017.398844
727.102895	4048.684244
727.434612	4097.296091
727.766281	4102.967389
728.097901	4107.695991
728.429473	4117.158237
728.760996	4124.838435
729.092471	4118.295017
729.423897	4101.139971
729.755276	4106.869242
730.086606	4106.128193
730.417887	4145.096312
730.749120	4206.401784
731.080305	4273.088687
731.411442	4297.198006
731.742530	4264.778345
732.073570	4271.238584
732.404562	4325.967871
732.735506	4317.720543
733.066401	4281.373824
733.397249	4216.385789
733.728048	4140.130775
734.058798	4056.921490
734.389501	3986.685614
734.720156	3922.458793
735.050762	3880.216445
735.381320	3875.492883
735.711831	3823.231242
736.042293	3795.920791
736.372707	3816.080365
736.703073	3792.240748
737.033391	3778.967390
737.363661	3793.082621
737.693883	3823.132939
738.024056	3830.888754
738.354182	3823.662260
738.684260	3889.290522
739.014290	3913.104932
739.344272	3904.000608
739.674207	3945.852268
740.004093	3953.262764
740.333931	3947.266311
740.663722	3947.437711
740.993464	3947.041980
741.323159	3925.990122
741.652806	3890.444946
741.982405	3864.296481
742.311956	3833.421934
742.641460	3823.135460
742.970915	3799.701656
743.300323	3759.937034
743.629683	3725.863876
743.958996	3714.213769
744.288260	3692.312476
744.617477	3655.043226
744.946647	3646.170795
745.275768	3616.430508
745.604842	3616.463275
745.933869	3569.875452
746.262847	3558.505130
746.591778	3599.194803
746.920662	3568.960483
747.249498	3536.303888
747.578286	3585.256012
747.907027	3600.918877
748.235720	3599.514916
748.564365	3623.160448
748.892963	3624.662712
749.221514	3605.639918
749.550017	3584.393975
749.878473	3582.319540
750.206881	3553.269891
750.535242	3550.257802
750.863555	3548.642112
751.191821	3541.395453
751.520039	3525.367105
751.848210	3502.691995
752.176334	3535.998898
752.504411	3542.628016
752.832440	3502.981861
753.160421	3484.508553
753.488356	3495.336951
753.816243	3505.323477
754.144082	3464.147333
754.471875	3449.565795
754.799620	3469.916933
755.127318	3461.777990
755.454969	3460.888227
755.782572	3469.180925
756.110129	3442.296451
756.437638	3433.328238
756.765100	3442.054476
757.092515	3457.281281
757.419882	3462.791262
757.747203	3436.592386
758.074477	3437.676234
758.401703	3452.456897
758.728882	3477.561843
759.056014	3482.192143
759.383099	3483.586022
759.710138	3483.598625
760.037129	3501.290554
760.364073	3530.304915
760.690970	3516.497195
761.017820	3491.853514
761.344623	3511.980321
761.671379	3555.240983
761.998088	3607.265690
762.324751	3733.670102
762.651366	3979.738904
762.977935	4450.547385
763.304456	4894.741094
763.630931	4987.490763
763.957359	4628.505157
764.283740	4283.642343
764.610074	4094.588991
764.936362	3896.789238
765.262602	3741.468767
765.588796	3628.269658
765.914943	3542.393602
766.241044	3451.851958
766.567097	3424.617125
766.893104	3377.399157
767.219064	3350.701206
767.544978	3320.459324
767.870845	3263.557300
768.196665	3247.622213
768.522438	3256.020775
768.848165	3250.725043
769.173846	3212.697099
769.499479	3194.518698
769.825066	3182.644261
770.150607	3162.262876
770.476101	3179.372552
770.801548	3172.382992
771.126949	3128.726600
771.452303	3111.924434
771.777611	3117.315948
772.102872	3125.205354
772.428087	3098.295674
772.753256	3089.347626
773.078378	3083.202460
773.403453	3046.069321
773.728482	3035.550953
774.053465	3057.421999
774.378401	3044.735935
774.703291	3011.189577
775.028135	3015.035977
775.352932	3010.771161
775.677683	2996.761795
776.002388	2996.499655
776.327046	2994.606702
776.651658	2987.841473
776.976224	2971.992085
777.300743	2971.863536
777.625216	2966.580407
777.949643	2958.539766
778.274024	2959.991619
778.598359	2948.865792
778.922647	2957.062708
779.246889	2953.488530
779.571086	2939.620316
779.895236	2934.052362
780.219339	2945.102571
780.543397	2954.126236
780.867409	2961.680405
781.191374	2952.351750
781.515294	2948.649023
781.839167	2949.430401
782.162995	2942.329936
782.486776	2951.829991
782.810511	2948.535597
783.134201	2935.045469
783.457844	2938.188628
783.781441	2932.507248
784.104993	2912.599731
784.428498	2912.952612
784.751958	2928.439037
785.075372	2919.284301
785.398739	2902.751837
785.722061	2920.970567
786.045337	2934.606888
786.368568	2918.863365
786.691752	2907.460275
787.014891	2958.564972
787.337983	2986.916421
787.661030	3014.042870
787.984031	3083.782192
788.306987	3128.212402
788.629897	3117.900722
788.952760	3106.953856
789.275579	3090.227308
789.598351	3030.918133
789.921078	2985.988849
790.243759	2976.599700
790.566395	2957.886937
790.888984	2936.746858
791.211529	2919.153231
791.534027	2910.903383
791.856480	2898.350910
792.178888	2885.506050
792.501249	2875.597662
792.823566	2874.508773
793.145836	2869.507948
793.468062	2864.711290
793.790241	2863.501413
794.112375	2871.095912
794.434464	2883.658467
794.756507	2885.816081
795.078505	2893.430744
795.400457	2907.462796
795.722364	2943.030657
796.044226	2969.942856
796.366042	2969.673155
796.687812	2959.240487
797.009538	2979.057263
797.331218	2965.811631
797.652852	2953.153293
797.974442	2934.102773
798.295986	2933.359203
798.617484	2927.065322
798.938938	2911.263826
799.260346	2894.431413
799.581709	2889.601988
799.903026	2883.476986
800.224299	2879.035729
800.545526	2868.071219
800.866708	2854.026565
801.187845	2844.430728
801.508936	2844.231603
801.829983	2851.788292
802.150984	2839.195490
802.471940	2822.829384
802.792851	2827.762153
803.113717	2824.611432
803.434538	2831.779953
803.755314	2823.315856
804.076045	2818.010041
804.396731	2819.532470
804.717372	2818.662871
805.037967	2810.748259
805.358518	2820.129846
805.679024	2828.989674
805.999485	2826.859787
806.319901	2831.414469
806.640272	2822.620176
806.960598	2825.934735
807.280879	2835.643997
807.601115	2842.893177
807.921306	2831.132165
808.241453	2826.491782
808.561554	2837.242043
808.881611	2836.369923
809.201623	2828.341886
809.521590	2827.626042
809.841513	2826.015393
810.161390	2828.636793
810.481223	2821.737974
810.801011	2814.017447
811.120755	2809.407312
811.440453	2809.982004
811.760107	2810.579380
812.079716	2809.704740
812.399281	2800.771816
812.718801	2794.898871
813.038276	2789.093983
813.357707	2795.433234
813.677093	2801.165026
813.996434	2799.239305
814.315731	2795.949952
814.634983	2786.580967
814.954191	2789.235135
815.273354	2801.104532
815.592473	2810.246664
815.911547	2812.505101
816.230577	2820.243272
816.549562	2828.961948
816.868502	2829.206444
817.187399	2842.336129
817.506250	2854.840711
817.825058	2849.068590
818.143821	2858.024200
818.462539	2876.850389
818.781213	2899.787639
819.099843	2938.786005
819.418429	2996.234994
819.736970	3060.386197
820.055466	3130.669964
820.373919	3237.549988
820.692327	3376.343035
821.010691	3541.453427
821.329011	3986.390706
821.647286	4882.528899
821.965517	6259.154589
822.283704	6998.021384
822.601847	6973.864175
822.919945	6342.895716
823.237999	5843.647565
823.556010	5256.872381
823.873976	4706.199420
824.191897	4298.115496
824.509775	4006.953573
824.827609	3741.599837
825.145398	3614.683748
825.463144	3603.139506
825.780845	3696.995708
826.098502	3801.864311
826.416116	4081.464347
826.733685	4396.241555
827.051210	4463.601453
827.368692	4345.893031
827.686129	4081.834872
828.003522	3752.765993
828.320872	3496.153618
828.638177	3302.701860
828.955439	3168.274452
829.272656	3084.571133
829.589830	3016.941534
829.906960	2968.107876
830.224046	2921.862852
830.541088	2889.150804
830.858086	2871.632795
831.175041	2857.668798
831.491952	2856.957996
831.808819	2872.162116
832.125642	2893.428223
832.442421	2939.025460
832.759157	3019.429343
833.075849	3197.939121
833.392497	3479.364055
833.709101	3684.339891
834.025662	3629.766880
834.342179	3470.723518
834.658653	3295.976961
834.975083	3146.847027
835.291469	3048.181564
835.607811	2965.395736
835.924110	2907.344328
836.240366	2855.296936
836.556578	2814.065338
836.872746	2789.409055
837.188871	2769.050355
837.504952	2751.560072
837.820990	2743.020357
838.136984	2731.251783
838.452935	2723.352295
838.768842	2719.389948
839.084706	2741.412229
839.400526	2816.651450
839.716303	2950.103395
840.032037	3031.880993
840.347727	3014.763755
840.663373	2955.328551
840.978977	2881.047149
841.294537	2809.798002
841.610054	2760.487955
841.925527	2737.480129
842.240957	2716.932386
842.556344	2693.511185
842.871687	2682.249247
843.186987	2671.161230
843.502244	2668.292813
843.817458	2660.738644
844.132629	2648.891932
844.447756	2642.426653
844.762840	2635.046403
845.077881	2636.669655
845.392879	2635.795015
845.707833	2633.929788
846.022745	2624.240690
846.337613	2625.652213
846.652438	2625.594240
846.967221	2625.667337
847.281960	2623.134157
847.596656	2621.891512
847.911309	2621.589043
848.225919	2617.142746
848.540485	2614.468413
848.855009	2614.317179
849.169490	2612.071345
849.483928	2614.745677
849.798323	2614.821294
850.112675	2611.199225
850.426984	2612.439349
850.741251	2612.986314
851.055474	2612.343567
851.369654	2616.016048
851.683792	2612.348608
851.997887	2613.356839
852.311938	2611.219390
852.625947	2614.672580
852.939914	2618.947479
853.253837	2616.535287
853.567718	2613.104781
853.881555	2613.218207
854.195350	2612.893053
854.509103	2613.699637
854.822812	2612.048660
855.136479	2612.565378
855.450103	2614.884309
855.763685	2612.928341
856.077224	2612.739298
856.390720	2612.275512
856.704173	2611.363063
857.017584	2618.481172
857.330953	2619.738940
857.644278	2622.277161
857.957561	2622.665330
858.270802	2615.524535
858.584000	2616.492437
858.897155	2617.382200
859.210268	2619.930504
859.523339	2613.092178
859.836367	2610.364914
860.149352	2609.228134
860.462295	2613.097220
860.775195	2610.276694
861.088054	2609.989348
861.400869	2608.509770
861.713642	2603.937443
862.026373	2604.446600
862.339062	2610.440532
862.651708	2613.674432
862.964312	2614.294494
863.276873	2613.956736
863.589392	2618.282046
863.901869	2622.201543
864.214303	2624.502830
864.526696	2629.133130
864.839045	2628.407204
865.151353	2632.011629
865.463619	2633.783594
865.775842	2629.854015
866.088023	2632.329222
866.400162	2633.748306
866.712258	2632.278810
867.024313	2631.250415
867.336325	2625.745475
867.648296	2630.456433
867.960224	2636.674696
868.272110	2636.624285
868.583954	2627.199847
868.895755	2627.305712
869.207515	2633.881897
869.519233	2639.636374
869.830909	2637.519089
870.142542	2631.752009
870.454134	2632.122534
870.765684	2636.576394
871.077191	2643.192908
871.388657	2643.981849
871.700081	2643.167702
872.011463	2641.108391
872.322803	2643.059317
872.634101	2648.188692
872.945357	2654.469969
873.256571	2662.903820
873.567744	2657.534991
873.878874	2655.342089
874.189963	2658.369302
874.501010	2663.420538
874.812015	2665.464726
875.122979	2663.952380
875.433900	2655.674805
875.744780	2657.139260
876.055618	2662.772750
876.366415	2666.578821
876.677169	2666.417504
876.987882	2663.118069
877.298554	2663.390291
877.609183	2670.571415
877.919771	2676.729184
878.230317	2682.808816
878.540822	2694.831967
878.851285	2709.289997
879.161707	2732.113821
879.472087	2771.243257
879.782425	2820.291163
880.092722	2934.538833
880.402977	3119.274436
880.713191	3376.519476
881.023363	3670.552336
881.333494	3861.496120
881.643583	4037.061864
881.953631	4034.100186
882.263637	3851.554964
882.573602	3630.490286
882.883526	3504.685771
883.193408	3390.538925
883.503248	3290.041002
883.813048	3173.842406
884.122806	3061.611198
884.432522	2976.584577
884.742197	2911.382293
885.051831	2873.654297
885.361424	2838.726663
885.670975	2802.866415
885.980485	2773.272321
886.289954	2752.538056
886.599382	2741.470202
886.908768	2729.923439
887.218113	2708.314533
887.527417	2698.829602
887.836680	2691.325845
888.145901	2683.408713
888.455082	2675.441169
888.764221	2667.682833
889.073319	2661.865342
889.382376	2657.093890
889.691392	2657.895433
890.000366	2657.255207
890.309300	2656.284785
890.618193	2658.465084
890.927044	2658.132367
891.235855	2661.318377
891.544625	2660.799138
891.853353	2659.659837
892.162041	2666.813234
892.470687	2684.847962
892.779293	2698.017977
893.087858	2706.782023
893.396381	2734.599110
893.704864	2773.637805
894.013306	2843.878722
894.321707	2934.085129
894.630068	2983.891729
894.938387	3006.007271
895.246665	2997.402021
895.554903	2955.159673
895.863100	2911.717529
896.171256	2854.893643
896.479371	2792.469035
896.787446	2754.967892
897.095480	2734.031980
897.403473	2728.413614
897.711425	2715.694783
898.019336	2696.006556
898.327207	2681.399813
898.635038	2681.147755
898.942827	2679.746315
899.250576	2668.779284
899.558284	2656.874600
899.865952	2653.731440
900.173579	2650.895791
900.481165	2649.859834
900.788711	2638.643267
901.096216	2634.484315
901.403681	2630.779067
901.711105	2633.211423
902.018489	2626.405866
902.325832	2630.839561
902.633135	2634.149078
902.940397	2649.277581
903.247619	2687.900381
903.554800	2756.170207
903.861941	2882.410782
904.169041	3008.048938
904.476101	3069.954307
904.783121	3064.285530
905.090100	3005.389730
905.397039	2930.301743
905.703938	2857.182327
906.010796	2795.700415
906.317614	2746.224010
906.624391	2708.977445
906.931129	2679.562312
907.237826	2658.167656
907.544483	2642.698875
907.851099	2627.628346
908.157675	2617.417488
908.464211	2611.315172
908.770707	2599.750765
909.077163	2597.883017
909.383578	2591.495875
909.689954	2592.967892
909.996289	2587.105030
910.302584	2589.035792
910.608839	2583.359453
910.915054	2585.340627
911.221229	2589.618046
911.527363	2589.565113
911.833458	2589.981009
912.139513	2591.972264
912.445527	2593.202306
912.751502	2597.608274
913.057436	2602.616661
913.363331	2608.444235
913.669186	2617.160390
913.975000	2633.874335
914.280775	2649.713641
914.586510	2667.667710
914.892205	2706.351004
915.197859	2772.732918
915.503475	2857.184848
915.809050	2921.746905
916.114585	2933.797783
916.420081	2948.049125
916.725536	2959.081690
917.030952	2932.408945
917.336328	2886.282388
917.641665	2836.047290
917.946961	2788.118519
918.252218	2752.868251
918.557435	2725.789693
918.862612	2704.684903
919.167750	2687.754187
919.472848	2672.759275
919.777906	2654.356543
920.082925	2642.398926
920.387904	2630.965589
920.692843	2629.049951
920.997743	2626.080711
921.302603	2614.962447
921.607423	2612.376335
921.912204	2604.844851
922.216946	2602.223451
922.521647	2599.675148
922.826310	2597.172215
923.130932	2590.374219
923.435516	2585.708631
923.740059	2583.921542
924.044564	2585.302818
924.349028	2578.973649
924.653454	2572.553740
924.957840	2569.793708
925.262186	2571.374110
925.566493	2570.391085
925.870761	2564.709704
926.174989	2568.540981
926.479178	2564.684499
926.783328	2562.438665
927.087438	2563.635939
927.391509	2561.022100
927.695541	2558.723334
927.999533	2557.687377
928.303486	2558.347768
928.607400	2556.376677
928.911275	2555.814588
929.215110	2556.028837
929.518906	2557.301729
929.822663	2556.719476
930.126381	2556.805175
930.430060	2557.868859
930.733699	2558.834240
931.037299	2557.901626
931.340861	2558.128478
931.644383	2557.384908
931.947866	2558.176369
932.251309	2556.817778
932.554714	2554.420709
932.858080	2555.688560
933.161407	2557.301729
933.464694	2553.150339
933.767943	2553.596481
934.071153	2554.410627
934.374323	2552.437015
934.677455	2553.994732
934.980548	2554.229146
935.283602	2554.017417
935.586617	2550.710420
935.889593	2554.266954
936.192530	2552.288301
936.495428	2554.118240
936.798287	2552.648744
937.101108	2554.692932
937.403890	2559.688715
937.706632	2561.140568
938.009336	2567.255487
938.312002	2565.642318
938.614628	2571.157340
938.917216	2577.390727
939.219765	2577.804102
939.522275	2577.539441
939.824747	2577.652867
940.127179	2569.521486
940.429573	2567.197514
940.731929	2565.415466
941.034246	2566.595096
941.336524	2566.774057
941.638763	2566.325394
941.940964	2566.801783
942.243126	2567.442010
942.545250	2564.291289
942.847335	2561.400187
943.149381	2562.862122
943.451389	2561.349775
943.753359	2556.676626
944.055290	2560.417162
944.357182	2558.877089
944.659036	2555.723848
944.960851	2556.691749
945.262628	2558.683005
945.564367	2557.107644
945.866067	2556.462377
946.167729	2558.677964
946.469352	2557.720145
946.770937	2557.841132
947.072484	2554.435833
947.373992	2553.518343
947.675462	2556.694270
947.976893	2555.668395
948.278286	2556.422047
948.579641	2555.980947
948.880958	2552.696635
949.182236	2554.390463
949.483476	2554.304763
949.784678	2555.101265
950.085841	2554.284598
950.386967	2554.589588
950.688054	2552.023641
950.989103	2555.484393
951.290114	2555.073539
951.591087	2559.781977
951.892021	2558.146122
952.192917	2559.023283
952.493776	2558.912377
952.794596	2560.573438
953.095378	2560.636452
953.396122	2561.821123
953.696828	2558.619991
953.997496	2556.190154
954.298126	2554.012376
954.598718	2557.546225
954.899272	2553.359547
955.199788	2553.750236
955.500266	2552.454659
955.800706	2550.077755
956.101108	2545.180274
956.401472	2545.737322
956.701798	2544.356046
957.002087	2542.589121
957.302337	2544.938299
957.602550	2543.640202
957.902724	2543.983000
958.202861	2542.521066
958.502960	2544.103988
958.803022	2543.703216
959.103045	2540.920499
959.403031	2541.061652
959.702979	2540.237423
960.002889	2542.752959
960.302762	2539.060314
960.602596	2538.155427
960.902393	2541.069213
961.202153	2541.538041
961.501875	2539.982845
961.801559	2541.215407
962.101205	2540.272711
962.400814	2539.536703
962.700385	2539.945036
962.999918	2541.580891
963.299414	2541.442259
963.598873	2540.282793
963.898293	2539.801363
964.197677	2539.950077
964.497022	2539.635005
964.796331	2537.946219
965.095601	2537.958822
965.394835	2541.691796
965.694030	2538.636857
965.993189	2540.310520
966.292309	2537.895807
966.591393	2539.267001
966.890439	2539.687937
967.189447	2534.687113
967.488419	2537.731970
967.787353	2537.593338
968.086249	2539.201466
968.385108	2539.476209
968.683930	2538.397402
968.982714	2538.283976
969.281462	2538.241126
969.580172	2536.620395
969.878844	2537.999151
970.177480	2538.205838
970.476078	2537.893287
970.774639	2539.188863
971.073162	2538.752803
971.371649	2537.409336
971.670098	2535.110570
971.968510	2540.600386
972.266885	2534.495549
972.565223	2539.050231
972.863524	2537.913451
973.161788	2540.529810
973.460014	2539.171219
973.758204	2538.243647
974.056356	2537.956301
974.354471	2538.641898
974.652550	2538.752803
974.950591	2538.775488
975.248595	2539.181301
975.546563	2538.241126
975.844493	2537.384130
976.142386	2538.944367
976.440243	2538.520910
976.738062	2538.805735
977.035845	2536.015457
977.333590	2535.987730
977.631299	2538.253729
977.928971	2537.721887
978.226606	2537.036290
978.524204	2536.912782
978.821765	2538.110056
979.119290	2535.405477
979.416777	2538.311702
979.714228	2540.297917
980.011642	2538.054603
980.309020	2540.355890
980.606360	2537.487474
980.903664	2539.188863
981.200931	2538.699871
981.498162	2538.692309
981.795356	2543.141128
982.092513	2548.078938
982.389633	2546.866540
982.686717	2549.407282
982.983764	2549.913918
983.280775	2553.162942
983.577749	2552.195040
983.874686	2552.368960
984.171587	2551.063301
984.468451	2547.927703
984.765279	2544.492157
985.062070	2541.820345
985.358824	2541.769934
985.655543	2539.040149
985.952224	2540.229861
986.248869	2539.214069
986.545478	2532.592513
986.842050	2534.533358
987.138586	2530.853315
987.435086	2535.357586
987.731549	2531.886752
988.027975	2535.755837
988.324366	2535.034952
988.620719	2534.291382
988.917037	2534.331711
989.213318	2537.358924
989.509563	2537.147196
989.805772	2536.663245
990.101944	2534.394726
990.398080	2533.134437
990.694180	2534.205683
990.990244	2535.944881
991.286271	2533.363810
991.582262	2534.956814
991.878217	2533.439427
992.174136	2536.166691
992.470019	2534.215765
992.765865	2534.944212
993.061676	2532.166536
993.357450	2534.792977
993.653188	2533.464633
993.948890	2534.760209
994.244556	2533.250384
994.540186	2538.152906
994.835780	2535.186187
995.131337	2536.572504
995.426859	2536.423790
995.722345	2538.064686
996.017795	2539.670293
996.313208	2541.858154
996.608586	2539.168698
996.903928	2539.945036
997.199234	2538.596527
997.494504	2537.704243
997.789738	2539.186342
998.084936	2536.144006
998.380099	2538.765406
998.675225	2534.520755
998.970316	2537.232895
999.265371	2536.953111
999.560390	2533.782226
999.855373	2533.908254
1000.150320	2533.681403
1000.445232	2535.687782
1000.740108	2532.166536
1001.034948	2532.232071
1001.329752	2537.129552
1001.624521	2533.830117
1001.919254	2531.581762
1002.213951	2531.410363
1002.508613	2525.524816
1002.803239	2532.469005
1003.097829	2528.541946
1003.392384	2531.927081
1003.686903	2531.405322
1003.981386	2534.634181
1004.275834	2530.974303
1004.570246	2534.694674
1004.864623	2532.572349
1005.158964	2531.775846
1005.453270	2533.512524
1005.747540	2532.995806
1006.041775	2533.676361
1006.335974	2530.888603
1006.630138	2533.038655
1006.924266	2534.072092
1007.218359	2536.373379
1007.512416	2531.165867
1007.806438	2531.440610
1008.100425	2532.796680
1008.394376	2531.526309
1008.688292	2532.748789
1008.982172	2530.535723
1009.276017	2532.035466
1009.569827	2533.250384
1009.863602	2532.574869
1010.157341	2532.716022
1010.451045	2533.787267
1010.744714	2530.381967
1011.038347	2530.606299
1011.331945	2533.184849
1011.625508	2534.808100
1011.919036	2532.461443
1012.212528	2530.623943
1012.505986	2529.106555
1012.799408	2531.987575
1013.092795	2533.746937
1013.386147	2534.246012
1013.679464	2530.815507
1013.972745	2531.493542
1014.265992	2534.001516
1014.559204	2531.347348
1014.852380	2533.661238
1015.145521	2533.126876
1015.438628	2531.962369
1015.731699	2532.408511
1016.024736	2531.891793
1016.317737	2536.902700
1016.610703	2531.450692
1016.903635	2528.166380
1017.196531	2531.017153
1017.489393	2531.307019
1017.782219	2530.691998
1018.075011	2530.543284
1018.367768	2532.166536
1018.660490	2531.732997
1018.953177	2531.732997
1019.245829	2531.732997
