Dividing Wavelength (nm)	Counts (n)	Blue Motor Position (mm): 39.200000	Red Motor Position (mm): 0.000000	
326.493990	2048.155273
326.888308	2048.155273
327.282561	2048.155273
327.676750	2025.270955
328.070874	2027.146264
328.464933	2035.895187
328.858929	2041.153110
329.252859	2051.810109
329.646726	2065.406101
330.040528	2082.646847
330.434265	2097.790473
330.827938	2120.644544
331.221547	2144.844603
331.615091	2162.534012
332.008571	2182.991015
332.401986	2199.455423
332.795338	2227.665720
333.188625	2242.385889
333.581847	2263.430186
333.975006	2281.722013
334.368100	2298.072995
334.761129	2313.874492
335.154095	2331.473160
335.546996	2378.963350
335.939833	2490.750936
336.332606	2495.479539
336.725315	2512.788340
337.117960	2524.456091
337.510540	2533.716691
337.903056	2539.413194
338.295508	2547.441232
338.687896	2557.669733
339.080220	2560.638973
339.472480	2563.489745
339.864676	2570.312947
340.256807	2568.407391
340.648875	2573.602300
341.040879	2573.665314
341.432818	2575.217990
341.824694	2578.151941
342.216506	2576.359811
342.608253	2574.880232
342.999937	2573.577094
343.391557	2571.616085
343.783113	2573.332598
344.174605	2573.025088
344.566033	2568.823286
344.957397	2567.295816
345.348697	2567.053841
345.739934	2563.502348
346.131106	2565.528892
346.522215	2562.264745
346.913260	2560.485217
347.304241	2561.926988
347.695159	2556.900957
348.086012	2557.339537
348.476802	2553.399876
348.867528	2551.136398
349.258191	2546.609442
349.648789	2548.152035
350.039324	2542.021992
350.429796	2549.198074
350.820203	2542.558874
351.210548	2545.636499
351.600828	2542.543751
351.991045	2544.950902
352.381198	2542.667259
352.771288	2541.217927
353.161314	2543.604914
353.551276	2541.822866
353.941175	2538.692309
354.331010	2543.466282
354.720782	2544.439225
355.110490	2549.346788
355.500135	2546.954761
355.889717	2542.175747
356.279235	2542.697506
356.668689	2543.357897
357.058080	2546.425439
357.447408	2545.896118
357.836672	2546.440563
358.225873	2546.059956
358.615010	2546.372507
359.004084	2548.451983
359.393095	2548.915769
359.782043	2547.894936
360.170927	2552.638662
360.559748	2548.507436
360.948505	2548.232693
361.337199	2551.892571
361.725830	2552.053888
362.114398	2551.824515
362.502903	2550.097920
362.891344	2553.689742
363.279722	2553.772921
363.668037	2556.850546
364.056289	2555.416337
364.444478	2555.038251
364.832603	2555.209650
365.220665	2556.467418
365.608665	2556.908519
365.996601	2557.682336
366.384474	2556.805175
366.772284	2559.784497
367.160031	2560.036555
367.547715	2558.526729
367.935336	2554.032541
368.322893	2557.145453
368.710388	2555.469269
369.097820	2557.175700
369.485189	2557.190823
369.872495	2561.863973
370.259738	2560.409600
370.646918	2563.716597
371.034035	2561.808520
371.421090	2562.935218
371.808081	2560.787687
372.195010	2564.760116
372.581875	2562.632749
372.968678	2564.248439
373.355418	2564.392112
373.742096	2562.113510
374.128710	2563.638459
374.515262	2561.443037
374.901751	2567.646177
375.288177	2564.654252
375.674540	2564.379509
376.060841	2568.051989
376.447079	2566.965621
376.833254	2568.268759
377.219367	2570.254974
377.605417	2571.323698
377.991404	2566.138872
378.377329	2567.043759
378.763191	2569.524006
379.148991	2569.438307
379.534727	2570.731363
379.920402	2572.052145
380.306013	2571.129614
380.691563	2574.267732
381.077049	2569.990313
381.462474	2571.258163
381.847835	2572.909141
382.233134	2574.597928
382.618371	2574.754203
383.003545	2577.431056
383.388657	2574.756724
383.773706	2573.375448
384.158693	2574.660942
384.543618	2577.655387
384.928480	2575.578432
385.313280	2573.410736
385.698017	2577.148752
386.082692	2577.700758
386.467305	2576.899214
386.851856	2577.420974
387.236344	2579.492888
387.620770	2577.988104
388.005133	2576.001889
388.389435	2580.468351
388.773674	2575.649008
389.157851	2580.644792
389.541965	2582.815008
389.926018	2585.242324
390.310008	2585.665781
390.693936	2584.609659
391.077802	2583.346850
391.461606	2587.558734
391.845348	2588.302304
392.229027	2588.609815
392.612645	2588.806420
392.996200	2590.200299
393.379694	2593.618201
393.763125	2592.872110
394.146494	2594.518047
394.529801	2598.820672
394.913047	2600.837133
395.296230	2601.759665
395.679351	2605.311157
396.062410	2608.993720
396.445408	2611.037908
396.828343	2612.439349
397.211217	2620.900926
397.594028	2624.732203
397.976778	2630.184211
398.359466	2637.244347
398.742092	2643.858340
399.124656	2649.484268
399.507158	2662.157729
399.889598	2668.461692
400.271977	2681.553568
400.654294	2692.661751
401.036549	2710.121787
401.418742	2718.117057
401.800874	2738.705129
402.182944	2750.400606
402.564952	2775.107301
402.946898	2785.686163
403.328783	2805.608803
403.710606	2826.461536
404.092367	2854.818026
404.474067	2885.248951
404.855705	2900.279151
405.237282	2916.882192
405.618797	2959.963892
406.000250	2993.984119
406.381642	3036.599513
406.762972	3059.279664
407.144240	3069.437589
407.525447	3114.306379
407.906593	3145.054897
408.287677	3197.661858
408.668700	3234.679051
409.049661	3272.112138
409.430560	3314.079744
409.811399	3339.658559
410.192176	3387.209243
410.572891	3445.457255
410.953545	3516.098943
411.334138	3508.055782
411.714669	3587.413626
412.095139	3587.093513
412.475547	3669.922191
412.855894	3700.625339
413.236180	3784.389151
413.616405	3785.707413
413.996568	3868.924260
414.376670	3903.481370
414.756711	3937.690640
415.136691	4009.491794
415.516609	4094.034464
415.896466	4151.745594
416.276262	4236.106783
416.655997	4341.610571
417.035670	4435.565076
417.415283	4558.095361
417.794834	4632.273419
418.174324	4642.451509
418.553753	4685.986914
418.933121	4830.771373
419.312428	4880.058734
419.691674	4870.808217
420.070859	5060.534562
420.449983	5014.143344
420.829045	5189.257905
421.208047	5169.942724
421.586988	5325.273277
421.965867	5421.423204
422.344686	5510.510475
422.723444	5679.590775
423.102141	5417.710394
423.480777	5744.107462
423.859352	5634.172499
424.237866	5962.028981
424.616319	5986.828937
424.994712	6150.484956
425.373044	6110.485921
425.751314	6398.968470
426.129524	6193.359969
426.507673	6451.509896
426.885762	6506.539131
427.263789	6565.873512
427.641756	6673.522311
428.019662	6747.944866
428.397508	6806.896119
428.775292	6827.063255
429.153016	6980.294167
429.530679	6951.121010
429.908282	7011.856831
430.285824	6977.027499
430.663305	7226.960345
431.040726	7151.098542
431.418086	7163.013309
431.795385	7305.110833
432.172624	7493.405491
432.549802	7387.805920
432.926920	7526.805655
433.303977	7492.246025
433.680974	7544.580764
434.057910	7739.985969
434.434786	7797.031666
434.811601	7765.146368
435.188355	8099.674817
435.565050	7996.235381
435.941683	8019.991818
436.318257	8335.003440
436.694770	8288.387890
437.071222	8500.391095
437.447614	8282.623331
437.823946	8266.446268
438.200218	8404.233606
438.576429	8302.896331
438.952580	8463.651166
439.328670	8477.032908
439.704700	8558.777739
440.080670	8462.310219
440.456580	8704.880459
440.832429	8691.097945
441.208218	8448.933517
441.583947	8561.058861
441.959616	8669.620109
442.335224	8703.355510
442.710773	8788.835836
443.086261	8966.654976
443.461689	8695.665230
443.837057	8850.821863
444.212365	9044.218169
444.587612	9052.715034
444.962800	8945.192263
445.337927	9079.453314
445.712995	8636.340932
446.088002	9281.598542
446.462949	9344.839817
446.837837	9350.203604
447.212664	9409.641329
447.587431	10305.746754
447.962139	11273.938159
448.336786	12026.277438
448.711374	11622.851540
449.085901	10487.636626
449.460369	10472.475356
449.834776	10388.656091
450.209124	11308.389404
450.583412	11075.505741
450.957640	11285.926023
451.331808	10878.305885
451.705917	10397.810826
452.079965	10321.702006
452.453954	10521.306493
452.827883	10473.990223
453.201752	10432.834243
453.575562	10462.277102
453.949311	10810.809876
454.323001	10890.984387
454.696632	10807.623867
455.070202	11399.258723
455.443713	11442.710949
455.817164	11595.619227
456.190556	11916.168556
456.563888	11750.324677
456.937160	11964.893829
457.310373	11470.139867
457.683526	11501.339568
458.056619	11557.813094
458.429653	11624.777261
458.802628	11799.170937
459.175542	11858.805267
459.548398	12408.288515
459.921194	12982.596926
460.293930	13307.907625
460.666607	14127.611843
461.039224	14855.451115
461.411782	15119.221928
461.784280	14731.937804
462.156719	14651.765814
462.529099	14553.443150
462.901419	13987.238394
463.273680	13630.019712
463.645882	13867.798336
464.018024	13827.852232
464.390106	14226.151277
464.762130	15389.460542
465.134094	17051.818831
465.505999	19307.657039
465.877845	21324.431129
466.249631	22217.562274
466.621358	21596.897933
466.993026	20783.326278
467.364634	20087.682336
467.736184	19377.131701
468.107674	18822.897165
468.479105	18694.264563
468.850477	18423.468902
469.221790	17998.723964
469.593043	17367.059825
469.964238	17022.648194
470.335373	17136.462325
470.706449	18011.210902
471.077467	19133.643970
471.448425	21478.193883
471.819324	22968.295946
472.190164	22454.655301
472.560945	20763.801890
472.931667	19373.996103
473.302330	19135.834352
473.672934	18680.724024
474.043479	19114.144787
474.413965	18918.066588
474.784393	18763.958515
475.154761	19395.973014
475.525070	19536.601041
475.895321	19386.997239
476.265513	19884.891840
476.635645	20473.585183
477.005719	20537.557426
477.375734	20919.477762
477.745691	21524.325482
478.115588	22184.000792
478.485427	23455.790646
478.855207	25322.257693
479.224928	27034.707408
479.594591	28225.362411
479.964194	27688.892901
480.333739	28071.282065
480.703226	28377.038128
481.072653	28878.852226
481.442022	29366.714930
481.811333	29681.908033
482.180584	29168.736216
482.549777	28961.852303
482.918912	28762.711603
483.287988	28714.858450
483.657005	28544.626246
484.025964	28214.266832
484.394864	28402.831191
484.763706	28341.981944
485.132489	27852.357356
485.501213	27925.486854
485.869879	28116.549106
486.238487	28078.609382
486.607036	28359.008441
486.975527	28061.136742
487.343959	28411.239836
487.712333	28736.830319
488.080648	28699.848414
488.448905	29130.461255
488.817104	29066.252079
489.185244	29953.845516
489.553326	31112.385849
489.921350	33041.504356
490.289315	35426.943068
490.657222	36097.371159
491.025070	36499.206573
491.392861	36122.224047
491.760593	35330.226010
492.128267	34325.713092
492.495883	33384.975811
492.863440	32552.484706
493.230939	31673.897290
493.598380	31163.372079
493.965763	31063.037994
494.333088	30601.941295
494.700354	30433.443249
495.067563	30403.244217
495.434713	30308.717541
495.801805	30611.990836
496.168839	30475.143673
496.535815	30345.402017
496.902733	30492.500366
497.269593	30320.791104
497.636395	30478.634672
498.003139	30765.990524
498.369825	30538.989887
498.736453	30950.537084
499.103023	30807.317903
499.469535	30908.967729
499.835989	31053.495089
500.202385	30909.683573
500.568723	30981.386425
500.935003	31324.071460
501.301226	31216.243700
501.667390	31922.474066
502.033497	32113.322068
502.399546	31920.359302
502.765537	31526.277182
503.131470	31997.380571
503.497345	32443.933540
503.863163	31438.248554
504.228923	32224.151836
504.594625	32611.864457
504.960269	32112.286111
505.325856	32784.148411
505.691385	32466.356593
506.056856	32788.342651
506.422270	33296.546411
506.787625	32836.256297
507.152924	33298.227636
507.518164	33505.441744
507.883347	33071.574838
508.248472	33237.779160
508.613540	33929.246507
508.978550	34174.130637
509.343503	34036.426479
509.708398	34402.825102
510.073236	35021.321747
510.438016	35122.916120
510.802738	34805.323428
511.167403	35384.534361
511.532010	35635.432588
511.896561	36124.812680
512.261053	36877.628348
512.625488	36665.728487
512.989866	36608.955013
513.354186	36657.773547
513.718449	36641.147821
514.082655	37527.118007
514.446803	37236.044304
514.810894	37855.506330
515.174927	37874.342601
515.538904	37885.460866
515.902822	38533.594454
516.266684	38246.286494
516.630488	38607.747307
516.994235	38635.776122
517.357925	39224.061132
517.721558	39496.081794
518.085133	39866.069718
518.448651	40045.933047
518.812112	39955.144386
519.175516	40118.381989
519.538863	40556.296941
519.902152	40629.504578
520.265385	41178.730727
520.628560	41201.163862
520.991678	41157.840186
521.354739	41386.879970
521.717743	41772.124947
522.080690	41670.457476
522.443580	42357.831406
522.806413	42374.860424
523.169189	42519.758309
523.531908	42758.426697
523.894569	42628.851399
524.257174	42815.611025
524.619722	43162.379395
524.982213	43298.800580
525.344647	43340.364894
525.707025	43473.537055
526.069345	43922.045992
526.431608	43834.342518
526.793815	44213.076845
527.155964	43768.459678
527.518057	44036.598651
527.880093	43889.177669
528.242072	44515.846024
528.603995	44262.623825
528.965860	44184.440570
529.327669	44411.032874
529.689421	44464.847191
530.051117	44408.913069
530.412755	44705.945415
530.774337	44758.065905
531.135862	44712.304831
531.497331	44870.498759
531.858743	44860.665988
532.220098	45259.960661
532.581396	45001.795611
532.942638	44770.774653
533.303824	45013.002096
533.664953	45066.536629
534.026025	44750.597435
534.387040	45312.219782
534.747999	45399.585499
535.108902	45710.523868
535.469748	45045.250357
535.830537	45298.442309
536.191270	45541.279731
536.551947	45279.316171
536.912567	45567.239153
537.273131	45706.269134
537.633638	45322.486092
537.994089	45528.016455
538.354483	45280.183250
538.714821	45931.918742
539.075103	46212.711012
539.435328	46074.835454
539.795497	45823.748184
540.155609	45947.722760
540.515665	46539.907102
540.875665	45843.398601
541.235609	46132.246634
541.595496	46262.520132
541.955328	46825.672469
542.315102	46246.043121
542.674821	46132.919628
543.034483	46027.504060
543.394090	46043.938222
543.753640	46024.562547
544.113134	47097.491485
544.472571	46194.845162
544.831953	47325.386927
545.191278	46588.738239
545.550548	46274.346679
545.909761	46928.446473
546.268918	47084.999506
546.628019	47496.755911
546.987064	46912.161025
547.346053	46205.552573
547.704986	47109.938094
548.063863	46752.658918
548.422684	46977.575038
548.781449	46558.781182
549.140158	47094.436546
549.498811	46857.724126
549.857408	46255.475120
550.215949	47087.273066
550.574434	46933.880837
550.932864	46859.019702
551.291237	47593.089840
551.649555	47332.968822
552.007817	47511.082870
552.366022	47178.258331
552.724173	47255.801360
553.082267	47665.581632
553.440305	48009.456380
553.798288	47257.545599
554.156215	47646.188313
554.514086	47856.485087
554.871902	47473.072570
555.229661	47649.734765
555.587365	47325.964139
555.945014	47471.683732
556.302606	47479.658837
556.660143	47566.001200
557.017625	47802.007858
557.375050	47489.683172
557.732421	47905.419568
558.089735	47969.260740
558.446994	47839.682922
558.804197	48316.366867
559.161345	48192.208289
559.518437	47522.155764
559.875474	47789.377247
560.232455	48016.909726
560.589381	48076.866689
560.946251	47871.217859
561.303065	48547.826405
561.659825	48209.305363
562.016528	48023.397691
562.373177	47596.802650
562.729770	48241.596474
563.086307	47755.145292
563.442789	48299.930185
563.799216	48168.046039
564.155587	48033.280873
564.511904	48019.785704
564.868164	48063.709278
565.224370	48368.023571
565.580520	48102.788302
565.936615	48301.344229
566.292654	47946.109241
566.648638	48306.713058
567.004567	48243.265096
567.360441	48343.768059
567.716260	48052.901044
568.072023	48420.164225
568.427732	48346.477679
568.783385	47893.560253
569.138982	48294.997416
569.494525	48437.344478
569.850013	48018.389305
570.205445	48156.469029
570.560823	47938.401317
570.916145	47790.463616
571.271412	48027.937250
571.626625	47687.193059
571.981782	47764.378165
572.336884	47370.081797
572.691931	47684.954787
573.046923	47358.348511
573.401860	47195.342802
573.756743	47201.160293
574.111570	47347.913323
574.466342	47257.681710
574.821059	47399.126405
575.175722	46903.759942
575.530330	47019.870318
575.884882	46651.598907
576.239380	46548.136786
576.593823	46626.892212
576.948211	46564.381904
577.302544	46108.369209
577.656823	46098.917046
578.011047	46367.875206
578.365216	46189.088165
578.719330	45911.683551
579.073389	45881.907976
579.427394	45949.943388
579.781344	45864.097579
580.135239	45624.610004
580.489080	45680.476071
580.842866	45175.846488
581.196597	45659.683832
581.550273	45646.851575
581.903895	45581.417398
582.257463	46042.662810
582.610975	45462.219315
582.964434	45770.377488
583.317837	45293.380990
583.671186	45255.738695
584.024481	45513.402150
584.377721	45060.454477
584.730906	45289.937882
585.084037	45400.271096
585.437113	45101.015601
585.790135	45242.276293
586.143103	44788.338033
586.496016	44954.660822
586.848874	45058.140587
587.201679	45088.001862
587.554428	44574.116721
587.907124	44854.062077
588.259765	44632.004291
588.612352	44787.665039
588.964884	44229.316922
589.317362	44548.520263
589.669786	44556.702055
590.022155	44399.284465
590.374470	44858.299167
590.726731	44416.379018
591.078937	43769.304072
591.431090	44109.692862
591.783188	43637.006551
592.135232	43434.858802
592.487222	43691.216598
592.839157	43860.480901
593.191038	43490.351823
593.542866	43298.336794
593.894639	42703.152965
594.246358	42988.283147
594.598022	42981.898526
594.949633	42558.199627
595.301190	42541.387379
595.652692	42489.725635
596.004141	42978.800737
596.355535	41878.866338
596.706876	41898.093299
597.058162	41601.423916
597.409395	42122.901034
597.760573	42326.223372
598.111698	41920.591968
598.462768	41835.439318
598.813785	41863.246323
599.164748	41460.778244
599.515657	41754.662390
599.866511	41240.736920
600.217312	41943.589712
600.568060	40862.811698
600.918753	41697.379758
601.269392	41612.484207
601.619978	41324.788078
601.970510	41549.305947
602.320988	41677.794876
602.671412	41940.469238
603.021783	41820.633449
603.372100	41380.689433
603.722363	41494.763183
604.072572	41523.114632
604.422728	41524.803418
604.772830	41302.533904
605.122878	41464.501136
605.472872	41318.320277
605.822813	41585.166194
606.172701	41320.755155
606.522534	41645.977633
606.872314	41864.226827
607.222041	41697.795654
607.571714	42010.700073
607.921333	41523.384333
608.270899	41729.683472
608.620411	42117.373409
608.969870	41851.187883
609.319276	41875.997922
609.668627	41894.957701
610.017926	42305.980618
610.367171	42436.347377
610.716362	42465.074393
611.065500	42355.265459
611.414585	42590.417642
611.763616	42776.610138
612.112594	42655.191428
612.461518	42779.599543
612.810389	43177.371787
613.159207	42963.059734
613.507971	42944.823360
613.856682	43434.503401
614.205340	43262.418573
614.553945	43956.736692
614.902496	43250.924742
615.250994	43691.393039
615.599439	43743.458076
615.947830	43863.006519
616.296169	43863.924009
616.644454	43903.713836
616.992686	44065.154267
617.340864	44516.680335
617.688990	44052.692535
618.037063	44713.799533
618.385082	44530.697263
618.733048	44860.610536
619.080961	44729.908540
619.428821	44756.813178
619.776628	44783.163289
620.124382	44600.250063
620.472083	44696.664651
620.819731	44807.267566
621.167326	44365.148292
621.514868	44347.567267
621.862357	43832.741952
622.209793	43922.976085
622.557176	43488.244621
622.904506	43233.683996
623.251783	42869.006927
623.599007	42558.444123
623.946179	42477.732730
624.293297	42219.625653
624.640363	41673.472086
624.987376	41522.232430
625.334336	41309.248721
625.681243	40896.965515
626.028097	40815.961735
626.374899	40624.796140
626.721647	40592.638619
627.068343	40381.739428
627.414987	40085.652298
627.761577	39843.238333
628.108115	40158.368421
628.454600	39406.429914
628.801032	39631.668667
629.147412	39536.703411
629.493739	39439.552815
629.840014	38995.268365
630.186236	39415.937530
630.532405	38868.498469
630.878521	39102.440775
631.224585	38874.636074
631.570597	38525.490800
631.916556	38678.550313
632.262462	38580.346115
632.608316	38519.360757
632.954117	38376.091164
633.299866	38355.697176
633.645562	38252.013245
633.991206	37709.781696
634.336797	37311.759914
634.682336	37195.556277
635.027823	36974.118553
635.373257	36850.121292
635.718639	36513.039499
636.063968	36407.679384
636.409245	35750.706132
636.754470	35715.586934
637.099642	35483.086398
637.444762	34906.441412
637.789829	35059.687448
638.134845	34675.725445
638.479808	34600.713076
638.824719	34536.634969
639.169577	34029.061353
639.514383	34125.168430
639.859137	33744.533589
640.203839	33904.174328
640.548489	33615.447283
640.893086	33586.465689
641.237632	33329.376925
641.582125	33440.811631
641.926566	33222.832139
642.270955	33259.015021
642.615292	33186.881150
642.959576	33056.781572
643.303809	33067.433530
643.647990	33161.451050
643.992118	33115.833648
644.336195	32950.561940
644.680219	33034.368602
645.024192	33248.867178
645.368112	33768.022845
645.711981	33784.351142
646.055797	34511.998850
646.399562	34309.898993
646.743274	35178.578020
647.086935	35579.679947
647.430544	35527.788830
647.774101	35574.396818
648.117606	35864.800047
648.461059	36013.778746
648.804460	35600.421774
649.147810	35109.337772
649.491108	34758.604535
649.834354	34611.395281
650.177548	33780.734114
650.520690	33307.946980
650.863781	33293.345278
651.206820	33106.328553
651.549807	32703.613457
651.892742	32110.826697
652.235626	32007.067148
652.578458	31882.638868
652.921238	31197.873736
653.263967	31513.205470
653.606644	31208.432432
653.949269	31103.301689
654.291843	30710.991535
654.634365	31092.243918
654.976836	30609.550917
655.319255	30700.226151
655.661622	30560.374461
656.003938	30439.890884
656.346203	30229.669728
656.688416	30493.087660
657.030577	30268.778999
657.372687	30080.915360
657.714746	30250.943397
658.056753	30447.389601
658.398708	29816.302674
658.740612	29884.242305
659.082465	30095.617885
659.424266	29989.370527
659.766016	29999.324285
660.107715	29850.227119
660.449362	29953.880804
660.790958	29939.780697
661.132503	29852.082264
661.473996	29935.430181
661.815438	30011.748209
662.156829	30138.523146
662.498168	29943.828743
662.839456	29918.922923
663.180693	30042.108558
663.521879	30129.091147
663.863013	30092.084037
664.204097	30066.573278
664.545129	30482.914612
664.886110	30406.021892
665.227040	30512.523829
665.567918	30504.755411
665.908746	30588.635170
666.249522	30666.329433
666.590248	30699.159947
666.930922	30800.063683
667.271545	30785.865273
667.612118	30843.989777
667.952639	30661.472281
668.293109	30698.386130
668.633528	30549.311649
668.973896	30524.882218
669.314213	30496.989513
669.654480	30314.744240
669.994695	30307.018672
670.334859	30220.832585
670.674973	30068.342723
671.015035	30245.355278
671.355047	30181.188951
671.695008	30118.792070
672.034918	30012.953045
672.374777	30107.641037
672.714585	29976.949124
673.054342	30113.350144
673.394049	29968.351436
673.733705	30185.647852
674.073310	29888.045855
674.412864	29965.220879
674.752368	29648.044082
675.091820	29892.976104
675.431223	29479.750202
675.770574	29287.798187
676.109875	29131.207346
676.449125	28917.958977
676.788324	28824.518669
677.127473	28343.426234
677.466571	28244.415452
677.805619	27954.153376
678.144616	27898.889727
678.483562	27842.882507
678.822458	27523.379218
679.161303	27460.513509
679.500098	27382.247075
679.838842	27315.459348
680.177535	27400.717862
680.516179	27640.346590
680.854771	27755.395803
681.193314	28518.321505
681.531805	29534.774397
681.870247	30269.487282
682.208638	30994.944608
682.546978	31278.469183
682.885268	31421.499320
683.223508	30979.548924
683.561697	30712.927338
683.899836	30543.433664
684.237925	30142.397273
684.575963	30003.868885
684.913951	29621.557860
685.251889	29788.788057
685.589776	29809.988629
685.927614	29819.962552
686.265401	29986.862553
686.603137	30089.767626
686.940824	30601.169999
687.278460	30920.695974
687.616046	31087.432137
687.953582	31750.056522
688.291068	31667.999140
688.628504	32010.258198
688.965889	32000.304440
689.303224	31742.918248
689.640510	31476.001755
689.977745	30847.773163
690.314930	30112.624218
690.652065	29683.221254
690.989150	29020.117959
691.326185	28175.182766
691.663170	27540.567032
692.000105	26808.014281
692.336990	26193.366557
692.673825	25774.620593
693.010610	25277.401506
693.347345	24773.913745
693.684030	24124.131700
694.020665	23939.401138
694.357251	23253.703392
694.693786	23259.863682
695.030272	23032.235421
695.366707	22534.575234
695.703093	22249.492943
696.039429	22314.281852
696.375716	22081.246953
696.711952	22077.680337
697.048139	21925.808016
697.384276	21771.057196
697.720363	21888.881564
698.056400	21785.966408
698.392388	21627.699383
698.728326	21622.290225
699.064214	21459.125719
699.400053	21459.289557
699.735842	21070.210782
700.071581	20879.002337
700.407270	20628.227619
700.742910	20453.700352
701.078501	20201.783812
701.414042	19993.082563
701.749533	19693.519558
702.084974	19377.598008
702.420366	19610.043091
702.755709	19204.570484
703.091002	18889.957114
703.426246	18962.690882
703.761440	18894.988186
704.096584	18645.887130
704.431679	18580.047140
704.766725	18532.478813
705.101721	18459.886197
705.436668	18579.570751
705.771565	18297.470302
706.106413	18616.310680
706.441212	18676.605401
706.775961	18786.343758
707.110661	18856.241877
707.445311	19234.449403
707.779913	19094.567466
708.114465	19392.267766
708.448967	19696.438386
708.783421	20328.165539
709.117825	20688.844973
709.452180	20919.873492
709.786485	21366.494517
710.120742	22136.561014
710.454949	22239.932394
710.789107	22741.287747
711.123216	23456.715698
711.457275	23666.223531
711.791286	24245.096707
712.125247	24397.556323
712.459159	24121.394353
712.793023	24885.693770
713.126837	23863.254509
713.460602	24130.518842
713.794318	23794.339415
714.127985	23536.912894
714.461602	22627.750880
714.795171	22629.028813
715.128691	21643.284110
715.462162	21126.921242
715.795584	20693.092145
716.128957	20431.178997
716.462281	20048.051305
716.795556	19760.972717
717.128782	19276.709396
717.461960	18680.804682
717.795088	18638.953023
718.128167	18292.048542
718.461198	17831.929827
718.794180	17712.661168
719.127113	17366.641409
719.459997	17174.288623
719.792833	16797.391797
720.125619	16844.413159
720.458357	16507.898496
720.791046	16368.787855
721.123686	16220.845113
721.456278	15998.547873
721.788821	15987.152345
722.121315	15708.626074
722.453761	15828.814743
722.786158	15701.573500
723.118506	15782.685665
723.450805	15656.573640
723.783056	15844.212948
724.115259	15728.969650
724.447412	15721.584360
724.779518	15939.205930
725.111574	15986.633106
725.443582	16257.169147
725.775542	16212.648197
726.107453	16721.648460
726.439315	16634.489431
726.771129	17059.342753
727.102895	17474.895147
727.434612	17752.962673
727.766281	17909.611487
728.097901	18246.879803
728.429473	18327.056834
728.760996	18342.820522
729.092471	18468.922465
729.423897	18362.929685
729.755276	18235.675839
730.086606	18348.567438
730.417887	18930.490512
730.749120	19483.273195
731.080305	19700.617502
731.411442	20093.774570
731.742530	20219.695032
732.073570	20387.981350
732.404562	20704.069258
732.735506	20572.139741
733.066401	20348.718323
733.397249	19868.583707
733.728048	19241.817050
734.058798	18382.822078
734.389501	17624.602293
734.720156	17105.726410
735.050762	16520.246802
735.381320	16135.667258
735.711831	15857.884557
736.042293	15485.035777
736.372707	15509.618964
736.703073	15300.708508
737.033391	15495.397869
737.363661	15493.000801
737.693883	15601.713283
738.024056	15802.013449
738.354182	16017.467323
738.684260	16374.794390
739.014290	16645.426214
739.344272	16870.102879
739.674207	17218.542392
740.004093	17406.209426
740.333931	17454.488556
740.663722	17547.908699
740.993464	17595.419053
741.323159	17442.183100
741.652806	17137.722613
741.982405	16985.293244
742.311956	16621.682379
742.641460	16518.837800
742.970915	16193.885023
743.300323	15847.769482
743.629683	15630.997346
743.958996	15316.147041
744.288260	14998.428320
744.617477	14685.055074
744.946647	14660.025745
745.275768	14335.521631
745.604842	14140.970901
745.933869	13955.411069
746.262847	13927.082305
746.591778	13838.930168
746.920662	13717.766035
747.249498	13733.501997
747.578286	13882.067322
747.907027	14057.184403
748.235720	14324.862111
748.564365	14389.076328
748.892963	14309.857116
749.221514	14418.562037
749.550017	14276.020892
749.878473	14258.245783
750.206881	14022.481100
750.535242	13947.970326
750.863555	13878.621693
751.191821	13771.164457
751.520039	13786.171973
751.848210	13720.992374
752.176334	13765.591462
752.504411	13688.386191
752.832440	13507.098737
753.160421	13623.902271
753.488356	13513.952185
753.816243	13424.254935
754.144082	13253.299326
754.471875	13202.676059
754.799620	13167.932427
755.127318	13149.262513
755.454969	13137.617448
755.782572	13100.108743
756.110129	13122.103297
756.437638	13019.732586
756.765100	13027.735418
757.092515	13051.416238
757.419882	13088.506527
757.747203	13101.210235
758.074477	13187.073688
758.401703	13168.290348
758.728882	13361.752189
759.056014	13409.461669
759.383099	13572.986618
759.710138	13700.603427
760.037129	13827.267459
760.364073	13880.854924
760.690970	13914.003031
761.017820	13925.756481
761.344623	14154.090504
761.671379	14533.172670
761.998088	15225.242435
762.324751	16985.772154
762.651366	20374.713033
762.977935	24839.892367
763.304456	27842.098608
763.630931	28936.286091
763.957359	27770.534388
764.283740	25520.629618
764.610074	23278.387401
764.936362	20631.098556
765.262602	18751.272451
765.588796	16807.819423
765.914943	15513.419994
766.241044	14397.936156
766.567097	13603.258746
766.893104	12872.999721
767.219064	12405.009245
767.544978	11920.085533
767.870845	11528.697910
768.196665	11308.659106
768.522438	11070.635986
768.848165	10862.592608
769.173846	10655.948150
769.499479	10520.898159
769.825066	10363.591474
770.150607	10130.359971
770.476101	10046.197907
770.801548	9927.473693
771.126949	9769.113407
771.452303	9652.869440
771.777611	9451.361918
772.102872	9444.387482
772.428087	9307.951173
772.753256	9148.570053
773.078378	9055.525477
773.403453	8873.673414
773.728482	8756.711083
774.053465	8688.015279
774.378401	8579.930420
774.703291	8454.763611
775.028135	8329.127975
775.352932	8297.159498
775.677683	8194.950104
776.002388	8084.939524
776.327046	8094.699198
776.651658	7999.257553
776.976224	7896.682675
777.300743	7896.395329
777.625216	7801.593910
777.949643	7760.566480
778.274024	7776.753625
778.598359	7684.379522
778.922647	7704.531534
779.246889	7652.078328
779.571086	7661.033938
779.895236	7664.625760
780.219339	7675.653284
780.543397	7677.826022
780.867409	7761.637725
781.191374	7772.698017
781.515294	7732.691420
781.839167	7826.913106
782.162995	7799.398488
782.486776	7748.427381
782.810511	7698.378806
783.134201	7608.946216
783.457844	7608.288346
783.781441	7552.969244
784.104993	7491.593196
784.428498	7469.835576
784.751958	7451.642052
785.075372	7427.101715
785.398739	7363.467230
785.722061	7413.241062
786.045337	7418.136023
786.368568	7569.365597
786.691752	7600.623271
787.014891	7931.968231
787.337983	8282.668701
787.661030	8875.964618
787.984031	9504.475515
788.306987	9906.721783
788.629897	10116.025450
788.952760	10074.385519
789.275579	9859.491213
789.598351	9458.618659
789.921078	9108.618909
790.243759	8692.252369
790.566395	8405.635047
790.888984	8148.563927
791.211529	7942.211856
791.534027	7719.607105
791.856480	7514.848038
792.178888	7441.675690
792.501249	7350.289653
792.823566	7184.155908
793.145836	7183.036772
793.468062	7158.859398
793.790241	7107.248065
794.112375	7174.008065
794.434464	7325.865263
794.756507	7361.985130
795.078505	7522.384563
795.400457	7833.353180
795.722364	8181.795213
796.044226	8467.643759
796.366042	8751.916945
796.687812	8699.892238
797.009538	8776.343856
797.331218	8671.036673
797.652852	8596.707380
797.974442	8443.415974
798.295986	8356.803910
798.617484	8164.317532
798.938938	8023.659258
799.260346	7922.722755
799.581709	7718.608956
799.903026	7643.838563
800.224299	7530.387395
800.545526	7357.153184
800.866708	7260.778926
801.187845	7195.410284
801.508936	7095.315654
801.829983	7051.719755
802.150984	6896.714357
802.471940	6851.880855
802.792851	6835.474420
803.113717	6803.493340
803.434538	6769.442866
803.755314	6708.754936
804.076045	6716.359516
804.396731	6658.350959
804.717372	6685.933632
805.037967	6692.408994
805.358518	6730.134469
805.679024	6813.220246
805.999485	6821.548232
806.319901	6861.874943
806.640272	6879.173662
806.960598	6961.082330
807.280879	6964.316230
807.601115	7042.910339
807.921306	6985.484035
808.241453	7007.523959
808.561554	7026.466095
808.881611	6995.102556
809.201623	7005.678897
809.521590	6946.329393
809.841513	6929.494460
810.161390	6966.738504
810.481223	6844.934145
810.801011	6826.412946
811.120755	6804.708258
811.440453	6725.030301
811.760107	6691.652821
812.079716	6660.841289
812.399281	6595.873419
812.718801	6589.259425
813.038276	6547.838784
813.357707	6481.668599
813.677093	6521.740731
813.996434	6425.621050
814.315731	6473.219625
814.634983	6467.507998
814.954191	6471.901363
815.273354	6580.414720
815.592473	6646.257231
815.911547	6771.061077
816.230577	6857.179108
816.549562	7000.486509
816.868502	7105.569361
817.187399	7205.111984
817.506250	7361.932198
817.825058	7392.322794
818.143821	7665.056779
818.462539	7938.798995
818.781213	8299.720404
819.099843	8848.754990
819.418429	9852.030305
819.736970	10824.922586
820.055466	12012.288237
820.373919	13546.525601
820.692327	15909.415232
821.010691	20059.038500
821.329011	29025.824545
821.647286	42031.552806
821.965517	55483.037533
822.283704	60897.874470
822.601847	62939.516572
822.919945	60311.757156
823.237999	56230.572593
823.556010	50174.087513
823.873976	43455.353613
824.191897	36891.252066
824.509775	31999.828051
824.827609	27428.688704
825.145398	24800.021881
825.463144	23396.098344
825.780845	23675.481610
826.098502	25420.648413
826.416116	29172.373408
826.733685	32802.810762
827.051210	33964.343020
827.368692	32204.594679
827.686129	28266.888916
828.003522	24147.787314
828.320872	20428.245046
828.638177	17567.601966
828.955439	15401.282048
829.272656	13570.725660
829.589830	12081.977147
829.906960	10801.166148
830.224046	9850.560809
830.541088	9089.969161
830.858086	8623.095300
831.175041	8234.152637
831.491952	8118.523691
831.808819	8163.074888
832.125642	8560.113644
832.442421	9439.316081
832.759157	11231.355533
833.075849	14141.469975
833.392497	17360.695368
833.709101	19558.741789
834.025662	19434.179919
834.342179	17760.123632
834.658653	15565.921091
834.975083	13623.141057
835.291469	12007.083245
835.607811	10669.967599
835.924110	9763.174928
836.240366	8881.875371
836.556578	8076.535921
836.872746	7426.010305
837.188871	6917.501555
837.504952	6498.437997
837.820990	6182.375295
838.136984	5959.886491
838.452935	5863.260174
838.768842	5890.840327
839.084706	6303.998173
839.400526	7510.744539
839.716303	9094.339841
840.032037	10199.048213
840.347727	10148.278752
840.663373	9177.410495
840.978977	8131.242522
841.294537	7313.224570
841.610054	6706.241920
841.925527	6271.618842
842.240957	5907.607205
842.556344	5577.199899
842.871687	5289.702895
843.186987	5004.842415
843.502244	4773.413124
843.817458	4607.861632
844.132629	4467.750323
844.447756	4377.465778
844.762840	4294.944610
845.077881	4217.976273
845.392879	4157.043846
845.707833	4103.227008
846.022745	4061.145977
846.337613	4033.669168
846.652438	3987.842559
846.967221	3972.406546
847.281960	3935.369188
847.596656	3923.209925
847.911309	3900.723858
848.225919	3874.514900
848.540485	3860.001418
848.855009	3843.962987
849.169490	3822.754852
849.483928	3809.352945
849.798323	3802.108807
850.112675	3786.677835
850.426984	3790.801499
850.741251	3772.446658
851.055474	3771.355248
851.369654	3776.454375
851.683792	3774.107718
851.997887	3779.811783
852.311938	3780.409160
852.625947	3781.467803
852.939914	3769.472377
853.253837	3780.933440
853.567718	3780.923358
853.881555	3764.849639
854.195350	3783.312865
854.509103	3780.421763
854.822812	3776.512348
855.136479	3769.374074
855.450103	3779.738687
855.763685	3761.398969
856.077224	3770.382305
856.390720	3787.166827
856.704173	3808.811021
857.017584	3820.284687
857.330953	3829.446984
857.644278	3848.900797
857.957561	3858.123588
858.270802	3852.233000
858.584000	3860.694576
858.897155	3852.089327
859.210268	3839.476360
859.523339	3815.745128
859.836367	3812.922082
860.149352	3806.287923
860.462295	3799.099238
860.775195	3788.895943
861.088054	3782.997793
861.400869	3781.281280
861.713642	3783.020478
862.026373	3791.144297
862.339062	3795.204947
862.651708	3817.358297
862.964312	3847.867360
863.276873	3864.162890
863.589392	3917.188267
863.901869	3966.808344
864.214303	4015.284080
864.526696	4047.958318
864.839045	4092.454063
865.151353	4114.509111
865.463619	4126.091162
865.775842	4132.954693
866.088023	4153.141993
866.400162	4142.842916
866.712258	4150.676869
867.024313	4155.375224
867.336325	4150.593690
867.648296	4157.021161
867.960224	4160.549969
868.272110	4168.325949
868.583954	4171.189324
868.895755	4191.235472
869.207515	4185.170964
869.519233	4224.065987
869.830909	4238.476125
870.142542	4263.545783
870.454134	4272.569448
870.765684	4308.039007
871.077191	4339.987319
871.388657	4364.769632
871.700081	4406.820417
872.011463	4450.280204
872.322803	4481.217765
872.634101	4516.818393
872.945357	4552.829876
873.256571	4609.217702
873.567744	4640.813134
873.878874	4658.913397
874.189963	4699.290519
874.501010	4706.433834
874.812015	4707.991550
875.122979	4751.118621
875.433900	4747.670472
875.744780	4763.361063
876.055618	4785.887459
876.366415	4791.591525
876.677169	4813.036593
876.987882	4857.176937
877.298554	4911.079474
877.609183	4990.747349
877.919771	5102.769349
878.230317	5248.030197
878.540822	5464.847703
878.851285	5791.476664
879.161707	6249.531026
879.472087	7018.138109
879.782425	8252.089062
880.092722	10442.745151
880.402977	13760.940998
880.713191	17524.409360
881.023363	21265.827716
881.333494	23497.423015
881.643583	24748.866772
881.953631	24756.274748
882.263637	23920.269959
882.573602	22463.288277
882.883526	20913.902245
883.193408	19233.189115
883.503248	17537.982667
883.813048	15974.068030
884.122806	14529.217885
884.432522	13052.056464
884.742197	11766.388314
885.051831	10662.857052
885.361424	9643.429880
885.670975	8816.408427
885.980485	8111.004810
886.289954	7538.843931
886.599382	7051.883593
886.908768	6669.943092
887.218113	6303.063039
887.527417	6011.535632
887.836680	5740.692080
888.145901	5514.616495
888.455082	5353.634808
888.764221	5195.445921
889.073319	5061.494902
889.382376	4990.535620
889.691392	4927.768214
890.000366	4902.625459
890.309300	4885.762799
890.618193	4884.855392
890.927044	4869.260582
891.235855	4895.051125
891.544625	4924.183953
891.853353	4986.575794
892.162041	5100.024441
892.470687	5290.617865
892.779293	5546.826947
893.087858	5920.436941
893.396381	6498.143090
893.704864	7304.967160
894.013306	8450.423178
894.321707	9627.293146
894.630068	10448.330750
894.938387	10660.598615
895.246665	10430.001114
895.554903	9835.714611
895.863100	9133.973393
896.171256	8576.499915
896.479371	8064.432110
896.787446	7567.192859
897.095480	7132.897456
897.403473	6812.098589
897.711425	6487.503734
898.019336	6223.821141
898.327207	5948.160767
898.635038	5718.904213
898.942827	5470.423220
899.250576	5274.738230
899.558284	5081.591462
899.865952	4959.058656
900.173579	4808.759174
900.481165	4696.316238
900.788711	4604.199234
901.096216	4530.278274
901.403681	4467.715034
901.711105	4440.598668
902.018489	4423.824228
902.325832	4494.244107
902.633135	4616.408908
902.940397	4960.868430
903.247619	5753.592393
903.554800	7192.995571
903.861941	9113.234086
904.169041	10655.174333
904.476101	11296.383897
904.783121	10964.489451
905.090100	10226.454445
905.397039	9385.892453
905.703938	8631.032597
906.010796	7932.724404
906.317614	7361.949842
906.624391	6828.137020
906.931129	6397.098202
907.237826	5997.052397
907.544483	5616.200786
907.851099	5239.303960
908.157675	4880.144433
908.464211	4553.714598
908.770707	4317.602076
909.077163	4112.701857
909.383578	3966.883962
909.689954	3844.983820
909.996289	3773.286010
910.302584	3708.663459
910.608839	3677.287317
910.915054	3643.647698
911.221229	3628.022641
911.527363	3639.347593
911.833458	3657.044564
912.139513	3684.307124
912.445527	3712.146896
912.751502	3792.500368
913.057436	3901.187645
913.363331	4033.706976
913.669186	4240.447216
913.975000	4498.226618
914.280775	4923.188326
914.586510	5510.150032
914.892205	6306.024717
915.197859	7347.872420
915.503475	8570.392557
915.809050	9629.377663
916.114585	10285.738415
916.420081	10546.361027
916.725536	10524.744560
917.030952	10082.617723
917.336328	9668.723869
917.641665	9259.787990
917.946961	8778.677911
918.252218	8353.655709
918.557435	7848.796754
918.862612	7412.421875
919.167750	7035.383896
919.472848	6609.345902
919.777906	6228.340536
920.082925	5867.338468
920.387904	5500.675184
920.692843	5230.494543
920.997743	4982.157223
921.302603	4744.529833
921.607423	4581.405657
921.912204	4415.481119
922.216946	4298.627173
922.521647	4173.412473
922.826310	4064.407603
923.130932	3973.954180
923.435516	3870.701267
923.740059	3801.592089
924.044564	3724.099472
924.349028	3665.690143
924.653454	3603.250411
924.957840	3532.807848
925.262186	3481.009992
925.566493	3423.208122
925.870761	3364.793752
926.174989	3327.501816
926.479178	3289.126033
926.783328	3247.712954
927.087438	3218.827142
927.391509	3181.507480
927.695541	3151.568068
927.999533	3126.884058
928.303486	3106.016202
928.607400	3089.269488
928.911275	3076.830441
929.215110	3057.900909
929.518906	3049.880433
929.822663	3049.104095
930.126381	3047.997562
930.430060	3053.416802
930.733699	3054.762790
931.037299	3062.498441
931.340861	3062.190931
931.644383	3070.823907
931.947866	3070.493711
932.251309	3063.678071
932.554714	3062.695046
932.858080	3054.087276
933.161407	3047.833724
933.464694	3039.503218
933.767943	3031.273534
934.071153	3026.754140
934.374323	3018.864734
934.677455	3012.570853
934.980548	3005.999709
935.283602	3000.656086
935.586617	2997.898575
935.889593	3006.768485
936.192530	3009.702437
936.495428	3023.996628
936.798287	3044.471275
937.101108	3076.250709
937.403890	3131.123668
937.706632	3189.928728
938.009336	3268.737086
938.312002	3340.797860
938.614628	3403.020822
938.917216	3459.940490
939.219765	3491.601456
939.522275	3523.380890
939.824747	3530.536808
940.127179	3533.266593
940.429573	3520.804861
940.731929	3518.712782
941.034246	3503.430524
941.336524	3493.670850
941.638763	3478.940598
941.940964	3466.211685
942.243126	3421.413471
942.545250	3402.524268
942.847335	3364.650079
943.149381	3327.484172
943.451389	3296.334883
943.753359	3261.823143
944.055290	3235.772981
944.357182	3209.894218
944.659036	3198.707897
944.960851	3187.226669
945.262628	3173.358455
945.564367	3171.997344
945.866067	3165.494255
946.167729	3164.586847
946.469352	3162.093997
946.770937	3155.752225
947.072484	3141.712612
947.373992	3144.109681
947.675462	3138.801346
947.976893	3119.760907
948.278286	3111.886625
948.579641	3106.595934
948.880958	3097.710901
949.182236	3102.142075
949.483476	3094.151846
949.784678	3096.657299
950.085841	3094.010694
950.386967	3108.388064
950.688054	3122.357102
950.989103	3143.169505
951.290114	3161.438647
951.591087	3193.001311
951.892021	3219.217832
952.192917	3245.966194
952.493776	3273.911830
952.794596	3279.623458
953.095378	3284.853655
953.396122	3281.138324
953.696828	3276.752521
953.997496	3263.726179
954.298126	3236.095615
954.598718	3219.984087
954.899272	3195.204295
955.199788	3168.287054
955.500266	3133.525778
955.800706	3098.202413
956.101108	3062.347206
956.401472	3029.451157
956.701798	3000.494769
957.002087	2957.186217
957.302337	2929.706887
957.602550	2902.512383
957.902724	2870.299409
958.202861	2847.629341
958.502960	2826.602688
958.803022	2801.764923
959.103045	2783.987294
959.403031	2766.996085
959.702979	2751.562592
960.002889	2738.281672
960.302762	2725.335989
960.602596	2712.528938
960.902393	2706.343442
961.202153	2698.675847
961.501875	2688.197809
961.801559	2681.692200
962.101205	2672.650891
962.400814	2668.565035
962.700385	2662.626556
962.999918	2659.193530
963.299414	2650.295894
963.598873	2649.149031
963.898293	2641.136117
964.197677	2643.996972
964.497022	2639.434728
964.796331	2636.510859
965.095601	2632.505662
965.394835	2633.443317
965.694030	2631.983903
965.993189	2631.260497
966.292309	2628.107255
966.591393	2627.169601
966.890439	2628.795373
967.189447	2628.109776
967.488419	2626.433592
967.787353	2629.130609
968.086249	2626.826802
968.385108	2632.651855
968.683930	2632.956845
968.982714	2636.117649
969.281462	2641.695685
969.580172	2647.762714
969.878844	2652.337561
970.177480	2661.504899
970.476078	2668.635612
970.774639	2673.835562
971.073162	2685.901563
971.371649	2690.471369
971.670098	2692.452543
971.968510	2700.548636
972.266885	2704.205993
972.565223	2706.661035
972.863524	2710.540203
973.161788	2713.411140
973.460014	2717.232335
973.758204	2720.062942
974.056356	2721.860114
974.354471	2721.983622
974.652550	2723.712738
974.950591	2722.326421
975.248595	2721.229970
975.546563	2718.996738
975.844493	2714.217725
976.142386	2710.033567
976.440243	2704.490818
976.738062	2699.792463
977.035845	2696.016639
977.333590	2688.727130
977.631299	2682.632375
977.928971	2676.260357
978.226606	2668.015550
978.524204	2669.212824
978.821765	2662.624036
979.119290	2666.667041
979.416777	2665.641166
979.714228	2669.921106
980.011642	2672.098884
980.309020	2679.867302
980.606360	2693.125537
980.903664	2716.846686
981.200931	2752.475041
981.498162	2801.659059
981.795356	2873.813094
982.092513	2966.822382
982.389633	3071.068402
982.686717	3169.055830
982.983764	3244.479054
983.280775	3293.080818
983.577749	3301.146664
983.874686	3292.720375
984.171587	3253.787544
984.468451	3216.326730
984.765279	3175.833662
985.062070	3124.033285
985.358824	3081.969898
985.655543	3023.958820
985.952224	2972.307158
986.248869	2906.757034
986.545478	2849.650843
986.842050	2793.746968
987.138586	2746.148393
987.435086	2706.890407
987.731549	2677.815553
988.027975	2650.379073
988.324366	2631.784777
988.620719	2616.870523
988.917037	2604.572628
989.213318	2597.446957
989.509563	2591.339600
989.805772	2584.836511
990.101944	2583.644278
990.398080	2577.025243
990.694180	2579.278639
990.990244	2579.626479
991.286271	2577.544482
991.582262	2578.046077
991.878217	2582.436922
992.174136	2584.140832
992.470019	2585.781728
992.765865	2589.688622
993.061676	2594.777667
993.357450	2602.110025
993.653188	2612.283073
993.948890	2629.571710
994.244556	2647.770276
994.540186	2671.839265
994.835780	2701.345138
995.131337	2737.903586
995.426859	2781.756583
995.722345	2829.208964
996.017795	2877.719988
996.313208	2920.194230
996.608586	2944.532920
996.903928	2960.273923
997.199234	2956.614046
997.494504	2954.499282
997.789738	2937.918927
998.084936	2914.686769
998.380099	2884.258364
998.675225	2855.831298
998.970316	2825.770897
999.265371	2789.116668
999.560390	2751.325658
999.855373	2721.179558
1000.150320	2692.419775
1000.445232	2665.928512
1000.740108	2648.297076
1001.034948	2629.662451
1001.329752	2614.234000
1001.624521	2599.977617
1001.919254	2589.358426
1002.213951	2584.937334
1002.508613	2573.004923
1002.803239	2567.931002
1003.097829	2562.920095
1003.392384	2551.620348
1003.686903	2549.061963
1003.981386	2548.091541
1004.275834	2542.599204
1004.570246	2541.855633
1004.864623	2537.986548
1005.158964	2535.465971
1005.453270	2533.608306
1005.747540	2531.576721
1006.041775	2528.433561
1006.335974	2529.966072
1006.630138	2526.301153
1006.924266	2523.949455
1007.218359	2525.509692
1007.512416	2521.680936
1007.806438	2519.883764
1008.100425	2522.447191
1008.394376	2518.247910
1008.688292	2520.997859
1008.982172	2523.568848
1009.276017	2522.273271
1009.569827	2523.221008
1009.863602	2518.464680
1010.157341	2518.752025
1010.451045	2518.356295
1010.744714	2518.830163
1011.038347	2516.788496
1011.331945	2514.373783
1011.625508	2516.120543
1011.919036	2512.218690
1012.212528	2513.320182
1012.505986	2514.320851
1012.799408	2513.047960
1013.092795	2510.855058
1013.386147	2511.964112
1013.679464	2509.970335
1013.972745	2513.426046
1014.265992	2509.836745
1014.559204	2509.912362
1014.852380	2509.173833
1015.145521	2512.107785
1015.438628	2507.971518
1015.731699	2509.367918
1016.024736	2512.500995
1016.317737	2512.306910
1016.610703	2512.044770
1016.903635	2516.508712
1017.196531	2516.087776
1017.489393	2517.837056
1017.782219	2519.019207
1018.075011	2519.898888
1018.367768	2519.883764
1018.660490	2521.630524
1018.953177	2521.630524
1019.245829	2521.630524
