Dividing Wavelength (nm)	Counts (n)	Blue Motor Position (mm): 7.200000	Red Motor Position (mm): 0.000000	
326.493990	2145.010962
326.888308	2145.010962
327.282561	2145.010962
327.676750	2064.352500
328.070874	2074.434808
328.464933	2064.352500
328.858929	2059.311346
329.252859	2104.681731
329.646726	2129.887500
330.040528	2170.216731
330.434265	2114.764038
330.827938	2182.819615
331.221547	2150.052115
331.615091	2177.778462
332.008571	2167.696154
332.401986	2210.545962
332.795338	2265.998654
333.188625	2172.737308
333.581847	2202.984231
333.975006	2303.807308
334.368100	2253.395769
334.761129	2351.698269
335.154095	2245.834038
335.546996	2316.410192
335.939833	2336.574808
336.332606	2346.657115
336.725315	2364.301154
337.117960	2417.233269
337.510540	2402.109808
337.903056	2437.397885
338.295508	2452.521346
338.687896	2366.821731
339.080220	2407.150962
339.472480	2389.506923
339.864676	2457.562500
340.256807	2450.000769
340.648875	2482.768269
341.040879	2538.220962
341.432818	2429.836154
341.824694	2492.850577
342.216506	2520.576923
342.608253	2475.206538
342.999937	2447.480192
343.391557	2439.918462
343.783113	2414.712692
344.174605	2424.795000
344.566033	2452.521346
344.957397	2487.809423
345.348697	2475.206538
345.739934	2497.891731
346.131106	2533.179808
346.522215	2424.795000
346.913260	2472.685962
347.304241	2472.685962
347.695159	2447.480192
348.086012	2455.041923
348.476802	2447.480192
348.867528	2480.247692
349.258191	2384.465769
349.648789	2457.562500
350.039324	2447.480192
350.429796	2467.644808
350.820203	2419.753846
351.210548	2462.603654
351.600828	2492.850577
351.991045	2397.068654
352.381198	2477.727115
352.771288	2434.877308
353.161314	2414.712692
353.551276	2384.465769
353.941175	2447.480192
354.331010	2381.945192
354.720782	2482.768269
355.110490	2487.809423
355.500135	2351.698269
355.889717	2528.138654
356.279235	2434.877308
356.668689	2460.083077
357.058080	2462.603654
357.447408	2480.247692
357.836672	2407.150962
358.225873	2447.480192
358.615010	2429.836154
359.004084	2475.206538
359.393095	2439.918462
359.782043	2402.109808
360.170927	2513.015192
360.559748	2460.083077
360.948505	2472.685962
361.337199	2470.165385
361.725830	2465.124231
362.114398	2475.206538
362.502903	2485.288846
362.891344	2419.753846
363.279722	2419.753846
363.668037	2497.891731
364.056289	2497.891731
364.444478	2392.027500
364.832603	2394.548077
365.220665	2515.535769
365.608665	2452.521346
365.996601	2392.027500
366.384474	2500.412308
366.772284	2402.109808
367.160031	2507.974038
367.547715	2475.206538
367.935336	2470.165385
368.322893	2434.877308
368.710388	2480.247692
369.097820	2487.809423
369.485189	2397.068654
369.872495	2434.877308
370.259738	2412.192115
370.646918	2429.836154
371.034035	2392.027500
371.421090	2402.109808
371.808081	2422.274423
372.195010	2485.288846
372.581875	2419.753846
372.968678	2475.206538
373.355418	2455.041923
373.742096	2485.288846
374.128710	2457.562500
374.515262	2460.083077
374.901751	2513.015192
375.288177	2447.480192
375.674540	2523.097500
376.060841	2492.850577
376.447079	2444.959615
376.833254	2465.124231
377.219367	2442.439038
377.605417	2450.000769
377.991404	2475.206538
378.377329	2482.768269
378.763191	2462.603654
379.148991	2389.506923
379.534727	2409.671538
379.920402	2477.727115
380.306013	2455.041923
380.691563	2500.412308
381.077049	2424.795000
381.462474	2460.083077
381.847835	2467.644808
382.233134	2402.109808
382.618371	2485.288846
383.003545	2412.192115
383.388657	2419.753846
383.773706	2467.644808
384.158693	2444.959615
384.543618	2316.410192
384.928480	2475.206538
385.313280	2409.671538
385.698017	2467.644808
386.082692	2452.521346
386.467305	2447.480192
386.851856	2407.150962
387.236344	2465.124231
387.620770	2462.603654
388.005133	2455.041923
388.389435	2452.521346
388.773674	2412.192115
389.157851	2427.315577
389.541965	2374.383462
389.926018	2492.850577
390.310008	2520.576923
390.693936	2359.260000
391.077802	2472.685962
391.461606	2442.439038
391.845348	2424.795000
392.229027	2444.959615
392.612645	2540.741538
392.996200	2419.753846
393.379694	2394.548077
393.763125	2472.685962
394.146494	2497.891731
394.529801	2429.836154
394.913047	2460.083077
395.296230	2487.809423
395.679351	2480.247692
396.062410	2472.685962
396.445408	2404.630385
396.828343	2439.918462
397.211217	2447.480192
397.594028	2424.795000
397.976778	2510.494615
398.359466	2447.480192
398.742092	2439.918462
399.124656	2462.603654
399.507158	2497.891731
399.889598	2475.206538
400.271977	2381.945192
400.654294	2500.412308
401.036549	2535.700385
401.418742	2462.603654
401.800874	2437.397885
402.182944	2384.465769
402.564952	2470.165385
402.946898	2462.603654
403.328783	2475.206538
403.710606	2467.644808
404.092367	2437.397885
404.474067	2475.206538
404.855705	2505.453462
405.237282	2427.315577
405.618797	2523.097500
406.000250	2528.138654
406.381642	2507.974038
406.762972	2467.644808
407.144240	2462.603654
407.525447	2424.795000
407.906593	2477.727115
408.287677	2381.945192
408.668700	2457.562500
409.049661	2490.330000
409.430560	2417.233269
409.811399	2477.727115
410.192176	2379.424615
410.572891	2467.644808
410.953545	2455.041923
411.334138	2472.685962
411.714669	2477.727115
412.095139	2490.330000
412.475547	2442.439038
412.855894	2467.644808
413.236180	2485.288846
413.616405	2558.385577
413.996568	2429.836154
414.376670	2475.206538
414.756711	2437.397885
415.136691	2492.850577
415.516609	2543.262115
415.896466	2414.712692
416.276262	2417.233269
416.655997	2507.974038
417.035670	2444.959615
417.415283	2470.165385
417.794834	2432.356731
418.174324	2376.904038
418.553753	2497.891731
418.933121	2467.644808
419.312428	2515.535769
419.691674	2485.288846
420.070859	2487.809423
420.449983	2452.521346
420.829045	2477.727115
421.208047	2457.562500
421.586988	2513.015192
421.965867	2482.768269
422.344686	2419.753846
422.723444	2407.150962
423.102141	2346.657115
423.480777	2505.453462
423.859352	2520.576923
424.237866	2505.453462
424.616319	2502.932885
424.994712	2472.685962
425.373044	2467.644808
425.751314	2470.165385
426.129524	2523.097500
426.507673	2505.453462
426.885762	2480.247692
427.263789	2553.344423
427.641756	2414.712692
428.019662	2495.371154
428.397508	2477.727115
428.775292	2470.165385
429.153016	2495.371154
429.530679	2447.480192
429.908282	2518.056346
430.285824	2462.603654
430.663305	2480.247692
431.040726	2533.179808
431.418086	2523.097500
431.795385	2422.274423
432.172624	2490.330000
432.549802	2394.548077
432.926920	2540.741538
433.303977	2475.206538
433.680974	2444.959615
434.057910	2475.206538
434.434786	2487.809423
434.811601	2424.795000
435.188355	2447.480192
435.565050	2427.315577
435.941683	2497.891731
436.318257	2523.097500
436.694770	2482.768269
437.071222	2442.439038
437.447614	2497.891731
437.823946	2518.056346
438.200218	2460.083077
438.576429	2490.330000
438.952580	2530.659231
439.328670	2523.097500
439.704700	2507.974038
440.080670	2485.288846
440.456580	2475.206538
440.832429	2429.836154
441.208218	2495.371154
441.583947	2583.591346
441.959616	2528.138654
442.335224	2442.439038
442.710773	2455.041923
443.086261	2447.480192
443.461689	2384.465769
443.837057	2447.480192
444.212365	2555.865000
444.587612	2442.439038
444.962800	2533.179808
445.337927	2543.262115
445.712995	2523.097500
446.088002	2502.932885
446.462949	2434.877308
446.837837	2450.000769
447.212664	2480.247692
447.587431	2505.453462
447.962139	2550.823846
448.336786	2442.439038
448.711374	2540.741538
449.085901	2470.165385
449.460369	2477.727115
449.834776	2540.741538
450.209124	2510.494615
450.583412	2490.330000
450.957640	2460.083077
451.331808	2507.974038
451.705917	2530.659231
452.079965	2535.700385
452.453954	2495.371154
452.827883	2460.083077
453.201752	2563.426731
453.575562	2510.494615
453.949311	2507.974038
454.323001	2497.891731
454.696632	2409.671538
455.070202	2394.548077
455.443713	2505.453462
455.817164	2507.974038
456.190556	2538.220962
456.563888	2485.288846
456.937160	2482.768269
457.310373	2477.727115
457.683526	2452.521346
458.056619	2437.397885
458.429653	2477.727115
458.802628	2450.000769
459.175542	2477.727115
459.548398	2530.659231
459.921194	2518.056346
460.293930	2583.591346
460.666607	2495.371154
461.039224	2507.974038
461.411782	2470.165385
461.784280	2533.179808
462.156719	2621.400000
462.529099	2492.850577
462.901419	2447.480192
463.273680	2414.712692
463.645882	2495.371154
464.018024	2490.330000
464.390106	2394.548077
464.762130	2558.385577
465.134094	2502.932885
465.505999	2447.480192
465.877845	2530.659231
466.249631	2573.509038
466.621358	2487.809423
466.993026	2545.782692
467.364634	2447.480192
467.736184	2480.247692
468.107674	2470.165385
468.479105	2563.426731
468.850477	2502.932885
469.221790	2447.480192
469.593043	2495.371154
469.964238	2480.247692
470.335373	2560.906154
470.706449	2465.124231
471.077467	2502.932885
471.448425	2502.932885
471.819324	2500.412308
472.190164	2520.576923
472.560945	2568.467885
472.931667	2525.618077
473.302330	2525.618077
473.672934	2485.288846
474.043479	2480.247692
474.413965	2497.891731
474.784393	2538.220962
475.154761	2472.685962
475.525070	2553.344423
475.895321	2470.165385
476.265513	2513.015192
476.635645	2563.426731
477.005719	2586.111923
477.375734	2439.918462
477.745691	2520.576923
478.115588	2545.782692
478.485427	2500.412308
478.855207	2447.480192
479.224928	2444.959615
479.594591	2495.371154
479.964194	2452.521346
480.333739	2495.371154
480.703226	2392.027500
481.072653	2513.015192
481.442022	2462.603654
481.811333	2495.371154
482.180584	2432.356731
482.549777	2505.453462
482.918912	2424.795000
483.287988	2465.124231
483.657005	2452.521346
484.025964	2500.412308
484.394864	2417.233269
484.763706	2518.056346
485.132489	2502.932885
485.501213	2495.371154
485.869879	2596.194231
486.238487	2467.644808
486.607036	2578.550192
486.975527	2540.741538
487.343959	2538.220962
487.712333	2523.097500
488.080648	2442.439038
488.448905	2568.467885
488.817104	2560.906154
489.185244	2497.891731
489.553326	2490.330000
489.921350	2540.741538
490.289315	2588.632500
490.657222	2490.330000
491.025070	2467.644808
491.392861	2540.741538
491.760593	2540.741538
492.128267	2563.426731
492.495883	2485.288846
492.863440	2523.097500
493.230939	2475.206538
493.598380	2515.535769
493.965763	2424.795000
494.333088	2452.521346
494.700354	2455.041923
495.067563	2553.344423
495.434713	2487.809423
495.801805	2502.932885
496.168839	2515.535769
496.535815	2538.220962
496.902733	2495.371154
497.269593	2422.274423
497.636395	2490.330000
498.003139	2477.727115
498.369825	2558.385577
498.736453	2487.809423
499.103023	2480.247692
499.469535	2510.494615
499.835989	2518.056346
500.202385	2513.015192
500.568723	2553.344423
500.935003	2505.453462
501.301226	2560.906154
501.667390	2558.385577
502.033497	2460.083077
502.399546	2520.576923
502.765537	2518.056346
503.131470	2470.165385
503.497345	2513.015192
503.863163	2530.659231
504.228923	2490.330000
504.594625	2457.562500
504.960269	2520.576923
505.325856	2470.165385
505.691385	2460.083077
506.056856	2485.288846
506.422270	2543.262115
506.787625	2470.165385
507.152924	2510.494615
507.518164	2520.576923
507.883347	2548.303269
508.248472	2535.700385
508.613540	2475.206538
508.978550	2535.700385
509.343503	2515.535769
509.708398	2492.850577
510.073236	2573.509038
510.438016	2457.562500
510.802738	2467.644808
511.167403	2427.315577
511.532010	2525.618077
511.896561	2510.494615
512.261053	2528.138654
512.625488	2482.768269
512.989866	2538.220962
513.354186	2437.397885
513.718449	2429.836154
514.082655	2513.015192
514.446803	2485.288846
514.810894	2487.809423
515.174927	2472.685962
515.538904	2515.535769
515.902822	2520.576923
516.266684	2523.097500
516.630488	2452.521346
516.994235	2485.288846
517.357925	2497.891731
517.721558	2439.918462
518.085133	2490.330000
518.448651	2455.041923
518.812112	2523.097500
519.175516	2442.439038
519.538863	2364.301154
519.902152	2480.247692
520.265385	2538.220962
520.628560	2439.918462
520.991678	2570.988462
521.354739	2518.056346
521.717743	2485.288846
522.080690	2502.932885
522.443580	2485.288846
522.806413	2470.165385
523.169189	2497.891731
523.531908	2518.056346
523.894569	2520.576923
524.257174	2497.891731
524.619722	2540.741538
524.982213	2432.356731
525.344647	2492.850577
525.707025	2555.865000
526.069345	2492.850577
526.431608	2576.029615
526.793815	2434.877308
527.155964	2495.371154
527.518057	2376.904038
527.880093	2535.700385
528.242072	2482.768269
528.603995	2523.097500
528.965860	2507.974038
529.327669	2598.714808
529.689421	2392.027500
530.051117	2535.700385
530.412755	2444.959615
530.774337	2553.344423
531.135862	2563.426731
531.497331	2424.795000
531.858743	2497.891731
532.220098	2497.891731
532.581396	2470.165385
532.942638	2465.124231
533.303824	2523.097500
533.664953	2543.262115
534.026025	2558.385577
534.387040	2460.083077
534.747999	2538.220962
535.108902	2520.576923
535.469748	2555.865000
535.830537	2518.056346
536.191270	2500.412308
536.551947	2513.015192
536.912567	2485.288846
537.273131	2523.097500
537.633638	2467.644808
537.994089	2465.124231
538.354483	2495.371154
538.714821	2447.480192
539.075103	2560.906154
539.435328	2457.562500
539.795497	2513.015192
540.155609	2513.015192
540.515665	2502.932885
540.875665	2495.371154
541.235609	2452.521346
541.595496	2434.877308
541.955328	2424.795000
542.315102	2475.206538
542.674821	2513.015192
543.034483	2520.576923
543.394090	2523.097500
543.753640	2528.138654
544.113134	2528.138654
544.472571	2490.330000
544.831953	2434.877308
545.191278	2545.782692
545.550548	2482.768269
545.909761	2467.644808
546.268918	2510.494615
546.628019	2497.891731
546.987064	2523.097500
547.346053	2495.371154
547.704986	2513.015192
548.063863	2555.865000
548.422684	2533.179808
548.781449	2520.576923
549.140158	2437.397885
549.498811	2540.741538
549.857408	2487.809423
550.215949	2439.918462
550.574434	2480.247692
550.932864	2492.850577
551.291237	2540.741538
551.649555	2462.603654
552.007817	2520.576923
552.366022	2485.288846
552.724173	2576.029615
553.082267	2515.535769
553.440305	2424.795000
553.798288	2525.618077
554.156215	2543.262115
554.514086	2432.356731
554.871902	2533.179808
555.229661	2533.179808
555.587365	2492.850577
555.945014	2560.906154
556.302606	2540.741538
556.660143	2495.371154
557.017625	2576.029615
557.375050	2434.877308
557.732421	2510.494615
558.089735	2540.741538
558.446994	2487.809423
558.804197	2502.932885
559.161345	2538.220962
559.518437	2545.782692
559.875474	2434.877308
560.232455	2502.932885
560.589381	2490.330000
560.946251	2502.932885
561.303065	2497.891731
561.659825	2548.303269
562.016528	2510.494615
562.373177	2520.576923
562.729770	2540.741538
563.086307	2497.891731
563.442789	2497.891731
563.799216	2495.371154
564.155587	2555.865000
564.511904	2480.247692
564.868164	2492.850577
565.224370	2533.179808
565.580520	2492.850577
565.936615	2513.015192
566.292654	2444.959615
566.648638	2505.453462
567.004567	2450.000769
567.360441	2465.124231
567.716260	2480.247692
568.072023	2513.015192
568.427732	2422.274423
568.783385	2419.753846
569.138982	2513.015192
569.494525	2480.247692
569.850013	2455.041923
570.205445	2470.165385
570.560823	2470.165385
570.916145	2520.576923
571.271412	2490.330000
571.626625	2502.932885
571.981782	2495.371154
572.336884	2540.741538
572.691931	2429.836154
573.046923	2480.247692
573.401860	2505.453462
573.756743	2568.467885
574.111570	2520.576923
574.466342	2470.165385
574.821059	2576.029615
575.175722	2447.480192
575.530330	2533.179808
575.884882	2414.712692
576.239380	2480.247692
576.593823	2528.138654
576.948211	2497.891731
577.302544	2576.029615
577.656823	2513.015192
578.011047	2485.288846
578.365216	2487.809423
578.719330	2523.097500
579.073389	2558.385577
579.427394	2495.371154
579.781344	2502.932885
580.135239	2477.727115
580.489080	2495.371154
580.842866	2432.356731
581.196597	2543.262115
581.550273	2490.330000
581.903895	2487.809423
582.257463	2523.097500
582.610975	2505.453462
582.964434	2460.083077
583.317837	2545.782692
583.671186	2518.056346
584.024481	2530.659231
584.377721	2603.755962
584.730906	2545.782692
585.084037	2442.439038
585.437113	2462.603654
585.790135	2485.288846
586.143103	2505.453462
586.496016	2548.303269
586.848874	2465.124231
587.201679	2444.959615
587.554428	2477.727115
587.907124	2477.727115
588.259765	2467.644808
588.612352	2507.974038
588.964884	2492.850577
589.317362	2543.262115
589.669786	2553.344423
590.022155	2477.727115
590.374470	2432.356731
590.726731	2470.165385
591.078937	2611.317692
591.431090	2465.124231
591.783188	2437.397885
592.135232	2419.753846
592.487222	2444.959615
592.839157	2515.535769
593.191038	2447.480192
593.542866	2568.467885
593.894639	2490.330000
594.246358	2502.932885
594.598022	2548.303269
594.949633	2487.809423
595.301190	2386.986346
595.652692	2545.782692
596.004141	2515.535769
596.355535	2518.056346
596.706876	2573.509038
597.058162	2462.603654
597.409395	2462.603654
597.760573	2482.768269
598.111698	2457.562500
598.462768	2475.206538
598.813785	2530.659231
599.164748	2500.412308
599.515657	2530.659231
599.866511	2538.220962
600.217312	2518.056346
600.568060	2525.618077
600.918753	2550.823846
601.269392	2485.288846
601.619978	2422.274423
601.970510	2492.850577
602.320988	2538.220962
602.671412	2510.494615
603.021783	2533.179808
603.372100	2505.453462
603.722363	2455.041923
604.072572	2548.303269
604.422728	2490.330000
604.772830	2520.576923
605.122878	2462.603654
605.472872	2518.056346
605.822813	2432.356731
606.172701	2510.494615
606.522534	2515.535769
606.872314	2490.330000
607.222041	2553.344423
607.571714	2570.988462
607.921333	2581.070769
608.270899	2513.015192
608.620411	2470.165385
608.969870	2465.124231
609.319276	2480.247692
609.668627	2414.712692
610.017926	2525.618077
610.367171	2505.453462
610.716362	2568.467885
611.065500	2434.877308
611.414585	2462.603654
611.763616	2492.850577
612.112594	2513.015192
612.461518	2442.439038
612.810389	2482.768269
613.159207	2490.330000
613.507971	2505.453462
613.856682	2535.700385
614.205340	2535.700385
614.553945	2495.371154
614.902496	2515.535769
615.250994	2502.932885
615.599439	2507.974038
615.947830	2477.727115
616.296169	2427.315577
616.644454	2523.097500
616.992686	2576.029615
617.340864	2412.192115
617.688990	2497.891731
618.037063	2422.274423
618.385082	2505.453462
618.733048	2518.056346
619.080961	2460.083077
619.428821	2492.850577
619.776628	2601.235385
620.124382	2477.727115
620.472083	2467.644808
620.819731	2475.206538
621.167326	2560.906154
621.514868	2470.165385
621.862357	2502.932885
622.209793	2487.809423
622.557176	2518.056346
622.904506	2540.741538
623.251783	2455.041923
623.599007	2576.029615
623.946179	2482.768269
624.293297	2543.262115
624.640363	2475.206538
624.987376	2543.262115
625.334336	2523.097500
625.681243	2500.412308
626.028097	2510.494615
626.374899	2528.138654
626.721647	2465.124231
627.068343	2570.988462
627.414987	2429.836154
627.761577	2409.671538
628.108115	2543.262115
628.454600	2462.603654
628.801032	2470.165385
629.147412	2490.330000
629.493739	2500.412308
629.840014	2419.753846
630.186236	2450.000769
630.532405	2535.700385
630.878521	2404.630385
631.224585	2525.618077
631.570597	2475.206538
631.916556	2460.083077
632.262462	2487.809423
632.608316	2447.480192
632.954117	2528.138654
633.299866	2412.192115
633.645562	2485.288846
633.991206	2513.015192
634.336797	2543.262115
634.682336	2447.480192
635.027823	2490.330000
635.373257	2442.439038
635.718639	2475.206538
636.063968	2364.301154
636.409245	2487.809423
636.754470	2465.124231
637.099642	2535.700385
637.444762	2407.150962
637.789829	2548.303269
638.134845	2392.027500
638.479808	2533.179808
638.824719	2422.274423
639.169577	2507.974038
639.514383	2533.179808
639.859137	2515.535769
640.203839	2424.795000
640.548489	2540.741538
640.893086	2583.591346
641.237632	2515.535769
641.582125	2543.262115
641.926566	2477.727115
642.270955	2586.111923
642.615292	2475.206538
642.959576	2507.974038
643.303809	2424.795000
643.647990	2553.344423
643.992118	2452.521346
644.336195	2558.385577
644.680219	2538.220962
645.024192	2518.056346
645.368112	2475.206538
645.711981	2490.330000
646.055797	2523.097500
646.399562	2432.356731
646.743274	2472.685962
647.086935	2568.467885
647.430544	2490.330000
647.774101	2525.618077
648.117606	2404.630385
648.461059	2540.741538
648.804460	2507.974038
649.147810	2515.535769
649.491108	2482.768269
649.834354	2548.303269
650.177548	2490.330000
650.520690	2507.974038
650.863781	2507.974038
651.206820	2399.589231
651.549807	2533.179808
651.892742	2485.288846
652.235626	2502.932885
652.578458	2553.344423
652.921238	2555.865000
653.263967	2450.000769
653.606644	2472.685962
653.949269	2439.918462
654.291843	2555.865000
654.634365	2402.109808
654.976836	2444.959615
655.319255	2540.741538
655.661622	2475.206538
656.003938	2497.891731
656.346203	2565.947308
656.688416	2518.056346
657.030577	2565.947308
657.372687	2477.727115
657.714746	2402.109808
658.056753	2452.521346
658.398708	2497.891731
658.740612	2487.809423
659.082465	2452.521346
659.424266	2515.535769
659.766016	2475.206538
660.107715	2518.056346
660.449362	2497.891731
660.790958	2444.959615
661.132503	2417.233269
661.473996	2573.509038
661.815438	2442.439038
662.156829	2558.385577
662.498168	2533.179808
662.839456	2563.426731
663.180693	2520.576923
663.521879	2444.959615
663.863013	2573.509038
664.204097	2414.712692
664.545129	2505.453462
664.886110	2495.371154
665.227040	2462.603654
665.567918	2550.823846
665.908746	2467.644808
666.249522	2492.850577
666.590248	2457.562500
666.930922	2455.041923
667.271545	2485.288846
667.612118	2563.426731
667.952639	2525.618077
668.293109	2528.138654
668.633528	2518.056346
668.973896	2412.192115
669.314213	2530.659231
669.654480	2467.644808
669.994695	2507.974038
670.334859	2548.303269
670.674973	2460.083077
671.015035	2550.823846
671.355047	2467.644808
671.695008	2553.344423
672.034918	2447.480192
672.374777	2480.247692
672.714585	2560.906154
673.054342	2533.179808
673.394049	2555.865000
673.733705	2538.220962
674.073310	2510.494615
674.412864	2434.877308
674.752368	2520.576923
675.091820	2543.262115
675.431223	2518.056346
675.770574	2555.865000
676.109875	2523.097500
676.449125	2490.330000
676.788324	2490.330000
677.127473	2497.891731
677.466571	2563.426731
677.805619	2470.165385
678.144616	2450.000769
678.483562	2520.576923
678.822458	2407.150962
679.161303	2515.535769
679.500098	2419.753846
679.838842	2510.494615
680.177535	2475.206538
680.516179	2513.015192
680.854771	2462.603654
681.193314	2490.330000
681.531805	2475.206538
681.870247	2548.303269
682.208638	2490.330000
682.546978	2475.206538
682.885268	2545.782692
683.223508	2513.015192
683.561697	2528.138654
683.899836	2480.247692
684.237925	2543.262115
684.575963	2523.097500
684.913951	2535.700385
685.251889	2497.891731
685.589776	2490.330000
685.927614	2465.124231
686.265401	2470.165385
686.603137	2442.439038
686.940824	2487.809423
687.278460	2500.412308
687.616046	2568.467885
687.953582	2485.288846
688.291068	2495.371154
688.628504	2502.932885
688.965889	2480.247692
689.303224	2523.097500
689.640510	2477.727115
689.977745	2457.562500
690.314930	2495.371154
690.652065	2505.453462
690.989150	2475.206538
691.326185	2492.850577
691.663170	2497.891731
692.000105	2472.685962
692.336990	2462.603654
692.673825	2553.344423
693.010610	2455.041923
693.347345	2467.644808
693.684030	2470.165385
694.020665	2475.206538
694.357251	2465.124231
694.693786	2518.056346
695.030272	2513.015192
695.366707	2475.206538
695.703093	2412.192115
696.039429	2472.685962
696.375716	2543.262115
696.711952	2520.576923
697.048139	2492.850577
697.384276	2460.083077
697.720363	2581.070769
698.056400	2495.371154
698.392388	2565.947308
698.728326	2470.165385
699.064214	2485.288846
699.400053	2520.576923
699.735842	2558.385577
700.071581	2553.344423
700.407270	2490.330000
700.742910	2523.097500
701.078501	2455.041923
701.414042	2578.550192
701.749533	2394.548077
702.084974	2470.165385
702.420366	2500.412308
702.755709	2548.303269
703.091002	2462.603654
703.426246	2427.315577
703.761440	2530.659231
704.096584	2535.700385
704.431679	2568.467885
704.766725	2545.782692
705.101721	2477.727115
705.436668	2570.988462
705.771565	2462.603654
706.106413	2477.727115
706.441212	2487.809423
706.775961	2492.850577
707.110661	2520.576923
707.445311	2409.671538
707.779913	2487.809423
708.114465	2432.356731
708.448967	2470.165385
708.783421	2520.576923
709.117825	2480.247692
709.452180	2452.521346
709.786485	2520.576923
710.120742	2555.865000
710.454949	2515.535769
710.789107	2379.424615
711.123216	2450.000769
711.457275	2500.412308
711.791286	2538.220962
712.125247	2432.356731
712.459159	2495.371154
712.793023	2450.000769
713.126837	2470.165385
713.460602	2447.480192
713.794318	2510.494615
714.127985	2487.809423
714.461602	2439.918462
714.795171	2470.165385
715.128691	2482.768269
715.462162	2515.535769
715.795584	2518.056346
716.128957	2520.576923
716.462281	2485.288846
716.795556	2455.041923
717.128782	2538.220962
717.461960	2513.015192
717.795088	2460.083077
718.128167	2518.056346
718.461198	2462.603654
718.794180	2502.932885
719.127113	2540.741538
719.459997	2515.535769
719.792833	2452.521346
720.125619	2520.576923
720.458357	2505.453462
720.791046	2515.535769
721.123686	2477.727115
721.456278	2500.412308
721.788821	2570.988462
722.121315	2518.056346
722.453761	2543.262115
722.786158	2502.932885
723.118506	2470.165385
723.450805	2475.206538
723.783056	2477.727115
724.115259	2515.535769
724.447412	2480.247692
724.779518	2560.906154
725.111574	2513.015192
725.443582	2477.727115
725.775542	2548.303269
726.107453	2404.630385
726.439315	2490.330000
726.771129	2510.494615
727.102895	2437.397885
727.434612	2518.056346
727.766281	2487.809423
728.097901	2470.165385
728.429473	2480.247692
728.760996	2442.439038
729.092471	2502.932885
729.423897	2457.562500
729.755276	2515.535769
730.086606	2455.041923
730.417887	2439.918462
730.749120	2500.412308
731.080305	2513.015192
731.411442	2432.356731
731.742530	2543.262115
732.073570	2540.741538
732.404562	2470.165385
732.735506	2419.753846
733.066401	2439.918462
733.397249	2530.659231
733.728048	2480.247692
734.058798	2510.494615
734.389501	2485.288846
734.720156	2450.000769
735.050762	2510.494615
735.381320	2490.330000
735.711831	2460.083077
736.042293	2623.920577
736.372707	2475.206538
736.703073	2460.083077
737.033391	2470.165385
737.363661	2460.083077
737.693883	2409.671538
738.024056	2543.262115
738.354182	2500.412308
738.684260	2545.782692
739.014290	2515.535769
739.344272	2525.618077
739.674207	2505.453462
740.004093	2465.124231
740.333931	2467.644808
740.663722	2386.986346
740.993464	2447.480192
741.323159	2528.138654
741.652806	2513.015192
741.982405	2457.562500
742.311956	2427.315577
742.641460	2533.179808
742.970915	2467.644808
743.300323	2455.041923
743.629683	2472.685962
743.958996	2497.891731
744.288260	2434.877308
744.617477	2502.932885
744.946647	2528.138654
745.275768	2434.877308
745.604842	2507.974038
745.933869	2543.262115
746.262847	2490.330000
746.591778	2492.850577
746.920662	2558.385577
747.249498	2467.644808
747.578286	2555.865000
747.907027	2465.124231
748.235720	2535.700385
748.564365	2427.315577
748.892963	2452.521346
749.221514	2407.150962
749.550017	2518.056346
749.878473	2497.891731
750.206881	2467.644808
750.535242	2545.782692
750.863555	2457.562500
751.191821	2487.809423
751.520039	2457.562500
751.848210	2447.480192
752.176334	2477.727115
752.504411	2447.480192
752.832440	2513.015192
753.160421	2482.768269
753.488356	2442.439038
753.816243	2533.179808
754.144082	2543.262115
754.471875	2460.083077
754.799620	2439.918462
755.127318	2465.124231
755.454969	2414.712692
755.782572	2444.959615
756.110129	2450.000769
756.437638	2555.865000
756.765100	2487.809423
757.092515	2472.685962
757.419882	2558.385577
757.747203	2565.947308
758.074477	2568.467885
758.401703	2477.727115
758.728882	2495.371154
759.056014	2528.138654
759.383099	2487.809423
759.710138	2487.809423
760.037129	2482.768269
760.364073	2442.439038
760.690970	2543.262115
761.017820	2447.480192
761.344623	2497.891731
761.671379	2515.535769
761.998088	2475.206538
762.324751	2450.000769
762.651366	2412.192115
762.977935	2502.932885
763.304456	2543.262115
763.630931	2497.891731
763.957359	2444.959615
764.283740	2485.288846
764.610074	2596.194231
764.936362	2434.877308
765.262602	2482.768269
765.588796	2447.480192
765.914943	2518.056346
766.241044	2548.303269
766.567097	2538.220962
766.893104	2434.877308
767.219064	2482.768269
767.544978	2553.344423
767.870845	2482.768269
768.196665	2523.097500
768.522438	2492.850577
768.848165	2570.988462
769.173846	2545.782692
769.499479	2570.988462
769.825066	2520.576923
770.150607	2470.165385
770.476101	2545.782692
770.801548	2462.603654
771.126949	2480.247692
771.452303	2550.823846
771.777611	2444.959615
772.102872	2518.056346
772.428087	2450.000769
772.753256	2525.618077
773.078378	2586.111923
773.403453	2502.932885
773.728482	2558.385577
774.053465	2535.700385
774.378401	2492.850577
774.703291	2502.932885
775.028135	2591.153077
775.352932	2518.056346
775.677683	2407.150962
776.002388	2515.535769
776.327046	2460.083077
776.651658	2555.865000
776.976224	2568.467885
777.300743	2472.685962
777.625216	2462.603654
777.949643	2424.795000
778.274024	2528.138654
778.598359	2502.932885
778.922647	2490.330000
779.246889	2460.083077
779.571086	2507.974038
779.895236	2437.397885
780.219339	2545.782692
780.543397	2535.700385
780.867409	2434.877308
781.191374	2487.809423
781.515294	2447.480192
781.839167	2412.192115
782.162995	2502.932885
782.486776	2402.109808
782.810511	2502.932885
783.134201	2492.850577
783.457844	2520.576923
783.781441	2606.276538
784.104993	2455.041923
784.428498	2455.041923
784.751958	2530.659231
785.075372	2475.206538
785.398739	2462.603654
785.722061	2568.467885
786.045337	2492.850577
786.368568	2540.741538
786.691752	2482.768269
787.014891	2470.165385
787.337983	2543.262115
787.661030	2495.371154
787.984031	2535.700385
788.306987	2515.535769
788.629897	2414.712692
788.952760	2570.988462
789.275579	2492.850577
789.598351	2402.109808
789.921078	2568.467885
790.243759	2477.727115
790.566395	2555.865000
790.888984	2480.247692
791.211529	2399.589231
791.534027	2502.932885
791.856480	2482.768269
792.178888	2528.138654
792.501249	2510.494615
792.823566	2540.741538
793.145836	2530.659231
793.468062	2525.618077
793.790241	2533.179808
794.112375	2525.618077
794.434464	2424.795000
794.756507	2450.000769
795.078505	2593.673654
795.400457	2470.165385
795.722364	2386.986346
796.044226	2513.015192
796.366042	2470.165385
796.687812	2480.247692
797.009538	2530.659231
797.331218	2533.179808
797.652852	2510.494615
797.974442	2439.918462
798.295986	2470.165385
798.617484	2419.753846
798.938938	2525.618077
799.260346	2520.576923
799.581709	2444.959615
799.903026	2485.288846
800.224299	2480.247692
800.545526	2492.850577
800.866708	2485.288846
801.187845	2523.097500
801.508936	2507.974038
801.829983	2545.782692
802.150984	2429.836154
802.471940	2462.603654
802.792851	2460.083077
803.113717	2447.480192
803.434538	2518.056346
803.755314	2490.330000
804.076045	2515.535769
804.396731	2444.959615
804.717372	2477.727115
805.037967	2467.644808
805.358518	2485.288846
805.679024	2467.644808
805.999485	2513.015192
806.319901	2467.644808
806.640272	2452.521346
806.960598	2467.644808
807.280879	2487.809423
807.601115	2520.576923
807.921306	2518.056346
808.241453	2455.041923
808.561554	2513.015192
808.881611	2427.315577
809.201623	2515.535769
809.521590	2533.179808
809.841513	2513.015192
810.161390	2460.083077
810.481223	2422.274423
810.801011	2457.562500
811.120755	2475.206538
811.440453	2455.041923
811.760107	2450.000769
812.079716	2485.288846
812.399281	2437.397885
812.718801	2548.303269
813.038276	2553.344423
813.357707	2596.194231
813.677093	2452.521346
813.996434	2472.685962
814.315731	2457.562500
814.634983	2495.371154
814.954191	2437.397885
815.273354	2495.371154
815.592473	2444.959615
815.911547	2417.233269
816.230577	2507.974038
816.549562	2467.644808
816.868502	2523.097500
817.187399	2412.192115
817.506250	2487.809423
817.825058	2502.932885
818.143821	2523.097500
818.462539	2450.000769
818.781213	2500.412308
819.099843	2538.220962
819.418429	2535.700385
819.736970	2480.247692
820.055466	2460.083077
820.373919	2515.535769
820.692327	2583.591346
821.010691	2477.727115
821.329011	2455.041923
821.647286	2450.000769
821.965517	2402.109808
822.283704	2374.383462
822.601847	2487.809423
822.919945	2427.315577
823.237999	2495.371154
823.556010	2505.453462
823.873976	2573.509038
824.191897	2613.838269
824.509775	2417.233269
824.827609	2497.891731
825.145398	2528.138654
825.463144	2550.823846
825.780845	2444.959615
826.098502	2482.768269
826.416116	2492.850577
826.733685	2477.727115
827.051210	2530.659231
827.368692	2538.220962
827.686129	2626.441154
828.003522	2450.000769
828.320872	2487.809423
828.638177	2404.630385
828.955439	2472.685962
829.272656	2447.480192
829.589830	2520.576923
829.906960	2482.768269
830.224046	2538.220962
830.541088	2565.947308
830.858086	2452.521346
831.175041	2460.083077
831.491952	2535.700385
831.808819	2533.179808
832.125642	2502.932885
832.442421	2460.083077
832.759157	2586.111923
833.075849	2502.932885
833.392497	2475.206538
833.709101	2525.618077
834.025662	2545.782692
834.342179	2492.850577
834.658653	2525.618077
834.975083	2447.480192
835.291469	2457.562500
835.607811	2497.891731
835.924110	2535.700385
836.240366	2497.891731
836.556578	2523.097500
836.872746	2487.809423
837.188871	2447.480192
837.504952	2593.673654
837.820990	2467.644808
838.136984	2500.412308
838.452935	2447.480192
838.768842	2548.303269
839.084706	2515.535769
839.400526	2432.356731
839.716303	2550.823846
840.032037	2578.550192
840.347727	2563.426731
840.663373	2507.974038
840.978977	2591.153077
841.294537	2510.494615
841.610054	2487.809423
841.925527	2505.453462
842.240957	2442.439038
842.556344	2525.618077
842.871687	2515.535769
843.186987	2386.986346
843.502244	2513.015192
843.817458	2555.865000
844.132629	2507.974038
844.447756	2467.644808
844.762840	2437.397885
845.077881	2490.330000
845.392879	2533.179808
845.707833	2538.220962
846.022745	2472.685962
846.337613	2533.179808
846.652438	2540.741538
846.967221	2495.371154
847.281960	2548.303269
847.596656	2560.906154
847.911309	2399.589231
848.225919	2555.865000
848.540485	2417.233269
848.855009	2513.015192
849.169490	2535.700385
849.483928	2495.371154
849.798323	2497.891731
850.112675	2523.097500
850.426984	2460.083077
850.741251	2427.315577
851.055474	2427.315577
851.369654	2442.439038
851.683792	2525.618077
851.997887	2470.165385
852.311938	2482.768269
852.625947	2457.562500
852.939914	2505.453462
853.253837	2487.809423
853.567718	2530.659231
853.881555	2500.412308
854.195350	2452.521346
854.509103	2477.727115
854.822812	2462.603654
855.136479	2465.124231
855.450103	2470.165385
855.763685	2505.453462
856.077224	2447.480192
856.390720	2515.535769
856.704173	2442.439038
857.017584	2500.412308
857.330953	2472.685962
857.644278	2437.397885
857.957561	2543.262115
858.270802	2485.288846
858.584000	2485.288846
858.897155	2500.412308
859.210268	2447.480192
859.523339	2485.288846
859.836367	2502.932885
860.149352	2523.097500
860.462295	2480.247692
860.775195	2442.439038
861.088054	2502.932885
861.400869	2399.589231
861.713642	2475.206538
862.026373	2560.906154
862.339062	2480.247692
862.651708	2510.494615
862.964312	2384.465769
863.276873	2502.932885
863.589392	2530.659231
863.901869	2550.823846
864.214303	2389.506923
864.526696	2412.192115
864.839045	2485.288846
865.151353	2470.165385
865.463619	2424.795000
865.775842	2495.371154
866.088023	2525.618077
866.400162	2538.220962
866.712258	2555.865000
867.024313	2402.109808
867.336325	2502.932885
867.648296	2538.220962
867.960224	2447.480192
868.272110	2518.056346
868.583954	2460.083077
868.895755	2505.453462
869.207515	2487.809423
869.519233	2613.838269
869.830909	2523.097500
870.142542	2606.276538
870.454134	2487.809423
870.765684	2492.850577
871.077191	2565.947308
871.388657	2444.959615
871.700081	2422.274423
872.011463	2497.891731
872.322803	2500.412308
872.634101	2548.303269
872.945357	2533.179808
873.256571	2414.712692
873.567744	2437.397885
873.878874	2470.165385
874.189963	2482.768269
874.501010	2434.877308
874.812015	2502.932885
875.122979	2502.932885
875.433900	2480.247692
875.744780	2485.288846
876.055618	2467.644808
876.366415	2495.371154
876.677169	2510.494615
876.987882	2505.453462
877.298554	2432.356731
877.609183	2477.727115
877.919771	2548.303269
878.230317	2455.041923
878.540822	2518.056346
878.851285	2525.618077
879.161707	2502.932885
879.472087	2452.521346
879.782425	2513.015192
880.092722	2462.603654
880.402977	2457.562500
880.713191	2576.029615
881.023363	2460.083077
881.333494	2505.453462
881.643583	2455.041923
881.953631	2477.727115
882.263637	2432.356731
882.573602	2530.659231
882.883526	2523.097500
883.193408	2402.109808
883.503248	2402.109808
883.813048	2535.700385
884.122806	2389.506923
884.432522	2540.741538
884.742197	2475.206538
885.051831	2500.412308
885.361424	2467.644808
885.670975	2505.453462
885.980485	2550.823846
886.289954	2513.015192
886.599382	2500.412308
886.908768	2538.220962
887.218113	2563.426731
887.527417	2480.247692
887.836680	2545.782692
888.145901	2455.041923
888.455082	2518.056346
888.764221	2439.918462
889.073319	2480.247692
889.382376	2462.603654
889.691392	2543.262115
890.000366	2497.891731
890.309300	2505.453462
890.618193	2419.753846
890.927044	2485.288846
891.235855	2384.465769
891.544625	2497.891731
891.853353	2417.233269
892.162041	2510.494615
892.470687	2397.068654
892.779293	2528.138654
893.087858	2402.109808
893.396381	2452.521346
893.704864	2520.576923
894.013306	2538.220962
894.321707	2497.891731
894.630068	2465.124231
894.938387	2470.165385
895.246665	2419.753846
895.554903	2563.426731
895.863100	2422.274423
896.171256	2472.685962
896.479371	2495.371154
896.787446	2560.906154
897.095480	2490.330000
897.403473	2525.618077
897.711425	2565.947308
898.019336	2477.727115
898.327207	2540.741538
898.635038	2485.288846
898.942827	2472.685962
899.250576	2518.056346
899.558284	2457.562500
899.865952	2525.618077
900.173579	2593.673654
900.481165	2409.671538
900.788711	2533.179808
901.096216	2432.356731
901.403681	2452.521346
901.711105	2520.576923
902.018489	2500.412308
902.325832	2480.247692
902.633135	2535.700385
902.940397	2525.618077
903.247619	2510.494615
903.554800	2525.618077
903.861941	2455.041923
904.169041	2477.727115
904.476101	2482.768269
904.783121	2540.741538
905.090100	2553.344423
905.397039	2507.974038
905.703938	2381.945192
906.010796	2349.177692
906.317614	2444.959615
906.624391	2470.165385
906.931129	2553.344423
907.237826	2480.247692
907.544483	2530.659231
907.851099	2437.397885
908.157675	2515.535769
908.464211	2535.700385
908.770707	2485.288846
909.077163	2495.371154
909.383578	2472.685962
909.689954	2502.932885
909.996289	2427.315577
910.302584	2497.891731
910.608839	2558.385577
910.915054	2550.823846
911.221229	2480.247692
911.527363	2513.015192
911.833458	2452.521346
912.139513	2442.439038
912.445527	2485.288846
912.751502	2485.288846
913.057436	2495.371154
913.363331	2485.288846
913.669186	2535.700385
913.975000	2553.344423
914.280775	2507.974038
914.586510	2462.603654
914.892205	2523.097500
915.197859	2533.179808
915.503475	2565.947308
915.809050	2437.397885
916.114585	2611.317692
916.420081	2409.671538
916.725536	2515.535769
917.030952	2482.768269
917.336328	2452.521346
917.641665	2460.083077
917.946961	2520.576923
918.252218	2502.932885
918.557435	2505.453462
918.862612	2505.453462
919.167750	2439.918462
919.472848	2480.247692
919.777906	2530.659231
920.082925	2447.480192
920.387904	2457.562500
920.692843	2480.247692
920.997743	2374.383462
921.302603	2409.671538
921.607423	2507.974038
921.912204	2392.027500
922.216946	2510.494615
922.521647	2553.344423
922.826310	2505.453462
923.130932	2523.097500
923.435516	2455.041923
923.740059	2455.041923
924.044564	2515.535769
924.349028	2472.685962
924.653454	2455.041923
924.957840	2528.138654
925.262186	2452.521346
925.566493	2462.603654
925.870761	2434.877308
926.174989	2492.850577
926.479178	2472.685962
926.783328	2500.412308
927.087438	2460.083077
927.391509	2497.891731
927.695541	2475.206538
927.999533	2510.494615
928.303486	2510.494615
928.607400	2500.412308
928.911275	2447.480192
929.215110	2472.685962
929.518906	2450.000769
929.822663	2485.288846
930.126381	2399.589231
930.430060	2457.562500
930.733699	2490.330000
931.037299	2439.918462
931.340861	2417.233269
931.644383	2475.206538
931.947866	2518.056346
932.251309	2470.165385
932.554714	2495.371154
932.858080	2467.644808
933.161407	2457.562500
933.464694	2603.755962
933.767943	2515.535769
934.071153	2462.603654
934.374323	2462.603654
934.677455	2507.974038
934.980548	2429.836154
935.283602	2432.356731
935.586617	2450.000769
935.889593	2444.959615
936.192530	2477.727115
936.495428	2434.877308
936.798287	2525.618077
937.101108	2419.753846
937.403890	2452.521346
937.706632	2457.562500
938.009336	2457.562500
938.312002	2502.932885
938.614628	2540.741538
938.917216	2490.330000
939.219765	2417.233269
939.522275	2558.385577
939.824747	2460.083077
940.127179	2510.494615
940.429573	2495.371154
940.731929	2502.932885
941.034246	2538.220962
941.336524	2555.865000
941.638763	2444.959615
941.940964	2528.138654
942.243126	2460.083077
942.545250	2492.850577
942.847335	2482.768269
943.149381	2472.685962
943.451389	2427.315577
943.753359	2520.576923
944.055290	2540.741538
944.357182	2495.371154
944.659036	2480.247692
944.960851	2457.562500
945.262628	2419.753846
945.564367	2450.000769
945.866067	2432.356731
946.167729	2450.000769
946.469352	2487.809423
946.770937	2460.083077
947.072484	2414.712692
947.373992	2616.358846
947.675462	2591.153077
947.976893	2407.150962
948.278286	2490.330000
948.579641	2528.138654
948.880958	2513.015192
949.182236	2429.836154
949.483476	2472.685962
949.784678	2495.371154
950.085841	2502.932885
950.386967	2444.959615
950.688054	2505.453462
950.989103	2414.712692
951.290114	2528.138654
951.591087	2490.330000
951.892021	2442.439038
952.192917	2558.385577
952.493776	2523.097500
952.794596	2467.644808
953.095378	2550.823846
953.396122	2394.548077
953.696828	2502.932885
953.997496	2465.124231
954.298126	2417.233269
954.598718	2424.795000
954.899272	2502.932885
955.199788	2520.576923
955.500266	2472.685962
955.800706	2538.220962
956.101108	2502.932885
956.401472	2520.576923
956.701798	2606.276538
957.002087	2460.083077
957.302337	2518.056346
957.602550	2450.000769
957.902724	2414.712692
958.202861	2442.439038
958.502960	2429.836154
958.803022	2467.644808
959.103045	2485.288846
959.403031	2502.932885
959.702979	2581.070769
960.002889	2429.836154
960.302762	2563.426731
960.602596	2442.439038
960.902393	2515.535769
961.202153	2550.823846
961.501875	2520.576923
961.801559	2500.412308
962.101205	2460.083077
962.400814	2452.521346
962.700385	2394.548077
962.999918	2525.618077
963.299414	2525.618077
963.598873	2465.124231
963.898293	2460.083077
964.197677	2482.768269
964.497022	2462.603654
964.796331	2492.850577
965.095601	2477.727115
965.394835	2515.535769
965.694030	2460.083077
965.993189	2555.865000
966.292309	2439.918462
966.591393	2482.768269
966.890439	2437.397885
967.189447	2475.206538
967.488419	2553.344423
967.787353	2545.782692
968.086249	2565.947308
968.385108	2492.850577
968.683930	2507.974038
968.982714	2434.877308
969.281462	2533.179808
969.580172	2422.274423
969.878844	2500.412308
970.177480	2608.797115
970.476078	2533.179808
970.774639	2470.165385
971.073162	2439.918462
971.371649	2505.453462
971.670098	2482.768269
971.968510	2500.412308
972.266885	2465.124231
972.565223	2434.877308
972.863524	2402.109808
973.161788	2505.453462
973.460014	2485.288846
973.758204	2513.015192
974.056356	2447.480192
974.354471	2444.959615
974.652550	2437.397885
974.950591	2477.727115
975.248595	2465.124231
975.546563	2417.233269
975.844493	2538.220962
976.142386	2432.356731
976.440243	2442.439038
976.738062	2502.932885
977.035845	2477.727115
977.333590	2427.315577
977.631299	2480.247692
977.928971	2601.235385
978.226606	2455.041923
978.524204	2437.397885
978.821765	2477.727115
979.119290	2450.000769
979.416777	2424.795000
979.714228	2538.220962
980.011642	2507.974038
980.309020	2487.809423
980.606360	2394.548077
980.903664	2578.550192
981.200931	2452.521346
981.498162	2497.891731
981.795356	2538.220962
982.092513	2467.644808
982.389633	2518.056346
982.686717	2480.247692
982.983764	2563.426731
983.280775	2553.344423
983.577749	2492.850577
983.874686	2513.015192
984.171587	2475.206538
984.468451	2520.576923
984.765279	2455.041923
985.062070	2500.412308
985.358824	2470.165385
985.655543	2563.426731
985.952224	2535.700385
986.248869	2548.303269
986.545478	2470.165385
986.842050	2545.782692
987.138586	2485.288846
987.435086	2518.056346
987.731549	2472.685962
988.027975	2424.795000
988.324366	2487.809423
988.620719	2523.097500
988.917037	2497.891731
989.213318	2399.589231
989.509563	2452.521346
989.805772	2442.439038
990.101944	2485.288846
990.398080	2507.974038
990.694180	2601.235385
990.990244	2475.206538
991.286271	2591.153077
991.582262	2462.603654
991.878217	2518.056346
992.174136	2460.083077
992.470019	2502.932885
992.765865	2611.317692
993.061676	2485.288846
993.357450	2518.056346
993.653188	2515.535769
993.948890	2439.918462
994.244556	2510.494615
994.540186	2497.891731
994.835780	2578.550192
995.131337	2487.809423
995.426859	2535.700385
995.722345	2520.576923
996.017795	2487.809423
996.313208	2482.768269
996.608586	2452.521346
996.903928	2502.932885
997.199234	2495.371154
997.494504	2407.150962
997.789738	2500.412308
998.084936	2495.371154
998.380099	2465.124231
998.675225	2578.550192
998.970316	2477.727115
999.265371	2500.412308
999.560390	2533.179808
999.855373	2462.603654
1000.150320	2502.932885
1000.445232	2482.768269
1000.740108	2550.823846
1001.034948	2414.712692
1001.329752	2500.412308
1001.624521	2429.836154
1001.919254	2485.288846
1002.213951	2439.918462
1002.508613	2487.809423
1002.803239	2450.000769
1003.097829	2424.795000
1003.392384	2432.356731
1003.686903	2460.083077
1003.981386	2533.179808
1004.275834	2455.041923
1004.570246	2538.220962
1004.864623	2485.288846
1005.158964	2500.412308
1005.453270	2455.041923
1005.747540	2462.603654
1006.041775	2573.509038
1006.335974	2573.509038
1006.630138	2505.453462
1006.924266	2477.727115
1007.218359	2465.124231
1007.512416	2470.165385
1007.806438	2505.453462
1008.100425	2507.974038
1008.394376	2518.056346
1008.688292	2437.397885
1008.982172	2510.494615
1009.276017	2492.850577
1009.569827	2492.850577
1009.863602	2412.192115
1010.157341	2507.974038
1010.451045	2510.494615
1010.744714	2439.918462
1011.038347	2500.412308
1011.331945	2570.988462
1011.625508	2513.015192
1011.919036	2465.124231
1012.212528	2460.083077
1012.505986	2616.358846
1012.799408	2450.000769
1013.092795	2470.165385
1013.386147	2472.685962
1013.679464	2490.330000
1013.972745	2543.262115
1014.265992	2485.288846
1014.559204	2545.782692
1014.852380	2520.576923
1015.145521	2475.206538
1015.438628	2470.165385
1015.731699	2513.015192
1016.024736	2472.685962
1016.317737	2465.124231
1016.610703	2452.521346
1016.903635	2465.124231
1017.196531	2515.535769
1017.489393	2429.836154
1017.782219	2447.480192
1018.075011	2515.535769
1018.367768	2482.768269
1018.660490	2467.644808
1018.953177	2467.644808
1019.245829	2467.644808
