Dividing Wavelength (nm)	Counts (n)	Blue Motor Position (mm): 6.000000	Red Motor Position (mm): 0.000000	
326.493990	2122.325769
326.888308	2122.325769
327.282561	2122.325769
327.676750	2107.202308
328.070874	2165.175577
328.464933	2160.134423
328.858929	2197.943077
329.252859	2170.216731
329.646726	2182.819615
330.040528	2200.463654
330.434265	2192.901923
330.827938	2187.860769
331.221547	2177.778462
331.615091	2265.998654
332.008571	2258.436923
332.401986	2230.710577
332.795338	2268.519231
333.188625	2243.313462
333.581847	2271.039808
333.975006	2359.260000
334.368100	2394.548077
334.761129	2318.930769
335.154095	2437.397885
335.546996	2354.218846
335.939833	2485.288846
336.332606	2543.262115
336.725315	2510.494615
337.117960	2482.768269
337.510540	2518.056346
337.903056	2472.685962
338.295508	2540.741538
338.687896	2535.700385
339.080220	2570.988462
339.472480	2623.920577
339.864676	2535.700385
340.256807	2535.700385
340.648875	2568.467885
341.040879	2555.865000
341.432818	2601.235385
341.824694	2603.755962
342.216506	2598.714808
342.608253	2608.797115
342.999937	2588.632500
343.391557	2545.782692
343.783113	2601.235385
344.174605	2608.797115
344.566033	2573.509038
344.957397	2523.097500
345.348697	2623.920577
345.739934	2480.247692
346.131106	2573.509038
346.522215	2495.371154
346.913260	2596.194231
347.304241	2646.605769
347.695159	2535.700385
348.086012	2545.782692
348.476802	2618.879423
348.867528	2563.426731
349.258191	2482.768269
349.648789	2548.303269
350.039324	2593.673654
350.429796	2513.015192
350.820203	2616.358846
351.210548	2550.823846
351.600828	2543.262115
351.991045	2586.111923
352.381198	2570.988462
352.771288	2497.891731
353.161314	2621.400000
353.551276	2606.276538
353.941175	2513.015192
354.331010	2525.618077
354.720782	2578.550192
355.110490	2429.836154
355.500135	2462.603654
355.889717	2591.153077
356.279235	2467.644808
356.668689	2427.315577
357.058080	2606.276538
357.447408	2450.000769
357.836672	2530.659231
358.225873	2507.974038
358.615010	2548.303269
359.004084	2628.961731
359.393095	2565.947308
359.782043	2495.371154
360.170927	2528.138654
360.559748	2518.056346
360.948505	2548.303269
361.337199	2573.509038
361.725830	2533.179808
362.114398	2634.002885
362.502903	2583.591346
362.891344	2623.920577
363.279722	2596.194231
363.668037	2434.877308
364.056289	2520.576923
364.444478	2540.741538
364.832603	2550.823846
365.220665	2563.426731
365.608665	2492.850577
365.996601	2601.235385
366.384474	2530.659231
366.772284	2636.523462
367.160031	2470.165385
367.547715	2570.988462
367.935336	2596.194231
368.322893	2586.111923
368.710388	2487.809423
369.097820	2565.947308
369.485189	2465.124231
369.872495	2603.755962
370.259738	2513.015192
370.646918	2573.509038
371.034035	2507.974038
371.421090	2487.809423
371.808081	2581.070769
372.195010	2631.482308
372.581875	2545.782692
372.968678	2603.755962
373.355418	2553.344423
373.742096	2576.029615
374.128710	2535.700385
374.515262	2497.891731
374.901751	2586.111923
375.288177	2540.741538
375.674540	2618.879423
376.060841	2548.303269
376.447079	2558.385577
376.833254	2513.015192
377.219367	2601.235385
377.605417	2538.220962
377.991404	2639.044038
378.377329	2543.262115
378.763191	2560.906154
379.148991	2591.153077
379.534727	2543.262115
379.920402	2593.673654
380.306013	2606.276538
380.691563	2611.317692
381.077049	2535.700385
381.462474	2485.288846
381.847835	2636.523462
382.233134	2558.385577
382.618371	2570.988462
383.003545	2603.755962
383.388657	2548.303269
383.773706	2543.262115
384.158693	2507.974038
384.543618	2525.618077
384.928480	2581.070769
385.313280	2573.509038
385.698017	2530.659231
386.082692	2588.632500
386.467305	2583.591346
386.851856	2596.194231
387.236344	2581.070769
387.620770	2480.247692
388.005133	2578.550192
388.389435	2485.288846
388.773674	2563.426731
389.157851	2545.782692
389.541965	2581.070769
389.926018	2558.385577
390.310008	2513.015192
390.693936	2646.605769
391.077802	2553.344423
391.461606	2530.659231
391.845348	2568.467885
392.229027	2576.029615
392.612645	2523.097500
392.996200	2505.453462
393.379694	2676.852692
393.763125	2553.344423
394.146494	2553.344423
394.529801	2540.741538
394.913047	2618.879423
395.296230	2573.509038
395.679351	2641.564615
396.062410	2565.947308
396.445408	2555.865000
396.828343	2603.755962
397.211217	2636.523462
397.594028	2545.782692
397.976778	2583.591346
398.359466	2563.426731
398.742092	2490.330000
399.124656	2573.509038
399.507158	2573.509038
399.889598	2596.194231
400.271977	2596.194231
400.654294	2581.070769
401.036549	2596.194231
401.418742	2616.358846
401.800874	2548.303269
402.182944	2618.879423
402.564952	2601.235385
402.946898	2644.085192
403.328783	2583.591346
403.710606	2578.550192
404.092367	2568.467885
404.474067	2515.535769
404.855705	2530.659231
405.237282	2616.358846
405.618797	2608.797115
406.000250	2618.879423
406.381642	2588.632500
406.762972	2530.659231
407.144240	2603.755962
407.525447	2548.303269
407.906593	2608.797115
408.287677	2623.920577
408.668700	2631.482308
409.049661	2555.865000
409.430560	2598.714808
409.811399	2639.044038
410.192176	2641.564615
410.572891	2596.194231
410.953545	2623.920577
411.334138	2523.097500
411.714669	2603.755962
412.095139	2570.988462
412.475547	2613.838269
412.855894	2540.741538
413.236180	2570.988462
413.616405	2616.358846
413.996568	2545.782692
414.376670	2621.400000
414.756711	2555.865000
415.136691	2560.906154
415.516609	2623.920577
415.896466	2578.550192
416.276262	2631.482308
416.655997	2618.879423
417.035670	2702.058462
417.415283	2596.194231
417.794834	2634.002885
418.174324	2570.988462
418.553753	2563.426731
418.933121	2535.700385
419.312428	2623.920577
419.691674	2656.688077
420.070859	2591.153077
420.449983	2596.194231
420.829045	2558.385577
421.208047	2535.700385
421.586988	2548.303269
421.965867	2631.482308
422.344686	2634.002885
422.723444	2659.208654
423.102141	2578.550192
423.480777	2634.002885
423.859352	2576.029615
424.237866	2606.276538
424.616319	2487.809423
424.994712	2664.249808
425.373044	2621.400000
425.751314	2613.838269
426.129524	2644.085192
426.507673	2608.797115
426.885762	2570.988462
427.263789	2631.482308
427.641756	2646.605769
428.019662	2530.659231
428.397508	2573.509038
428.775292	2641.564615
429.153016	2606.276538
429.530679	2573.509038
429.908282	2596.194231
430.285824	2651.646923
430.663305	2671.811538
431.040726	2608.797115
431.418086	2611.317692
431.795385	2558.385577
432.172624	2616.358846
432.549802	2616.358846
432.926920	2593.673654
433.303977	2611.317692
433.680974	2583.591346
434.057910	2603.755962
434.434786	2608.797115
434.811601	2591.153077
435.188355	2495.371154
435.565050	2586.111923
435.941683	2656.688077
436.318257	2608.797115
436.694770	2686.935000
437.071222	2644.085192
437.447614	2603.755962
437.823946	2538.220962
438.200218	2694.496731
438.576429	2573.509038
438.952580	2626.441154
439.328670	2626.441154
439.704700	2709.620192
440.080670	2691.976154
440.456580	2636.523462
440.832429	2734.825962
441.208218	2644.085192
441.583947	2744.908269
441.959616	2762.552308
442.335224	2649.126346
442.710773	2712.140769
443.086261	2797.840385
443.461689	2762.552308
443.837057	2888.581154
444.212365	2845.731346
444.587612	2838.169615
444.962800	2881.019423
445.337927	2903.704615
445.712995	3017.130577
446.088002	2999.486538
446.462949	3042.336346
446.837837	3052.418654
447.212664	3080.145000
447.587431	3135.597692
447.962139	3390.175962
448.336786	3490.999038
448.711374	3536.369423
449.085901	3480.916731
449.460369	3463.272692
449.834776	3559.054615
450.209124	3765.741923
450.583412	3843.879808
450.957640	3916.976538
451.331808	3894.291346
451.705917	3922.017692
452.079965	3864.044423
452.453954	4043.005385
452.827883	4247.172115
453.201752	4310.186538
453.575562	4269.857308
453.949311	4466.462308
454.323001	4642.902692
454.696632	4768.931538
455.070202	4862.192885
455.443713	5109.209423
455.817164	5222.635385
456.190556	5356.225962
456.563888	5484.775385
456.937160	5767.080000
457.310373	5704.065577
457.683526	5807.409231
458.056619	5908.232308
458.429653	5958.643846
458.802628	6130.043077
459.175542	6273.715962
459.548398	6795.475385
459.921194	7052.574231
460.293930	7350.002308
460.666607	7808.747308
461.039224	8494.344231
461.411782	9003.500769
461.784280	8945.527500
462.156719	9079.118077
462.529099	8940.486346
462.901419	8975.774423
463.273680	8948.048077
463.645882	8998.459615
464.018024	9162.297115
464.390106	9434.519423
464.762130	10132.719231
465.134094	10946.865577
465.505999	12615.487500
465.877845	14778.142500
466.249631	16592.957885
466.621358	16212.350769
466.993026	15604.891731
467.364634	15209.161154
467.736184	14626.907885
468.107674	14369.809038
468.479105	14836.115769
468.850477	14732.772115
469.221790	14475.673269
469.593043	14405.097115
469.964238	14105.148462
470.335373	13991.722500
470.706449	14679.840000
471.077467	14899.130192
471.448425	17046.661731
471.819324	20502.372692
472.190164	21387.095192
472.560945	17649.079615
472.931667	16537.505192
473.302330	16552.628654
473.672934	16366.105962
474.043479	16918.112308
474.413965	16744.192500
474.784393	16681.178077
475.154761	17712.094038
475.525070	17548.256538
475.895321	17492.803846
476.265513	18019.604423
476.635645	19123.617115
477.005719	18685.036731
477.375734	19027.835192
477.745691	19514.306538
478.115588	20149.491923
478.485427	21291.313269
478.855207	22281.900000
479.224928	24258.032308
479.594591	26292.137885
479.964194	25732.569808
480.333739	25964.462885
480.703226	25432.621154
481.072653	25609.061538
481.442022	26781.129808
481.811333	27585.193846
482.180584	27136.531154
482.549777	26241.726346
482.918912	25961.942308
483.287988	26506.386923
483.657005	25624.185000
484.025964	25682.158269
484.394864	25490.594423
484.763706	24807.518077
485.132489	24686.530385
485.501213	24850.367885
485.869879	24736.941923
486.238487	24540.336923
486.607036	24492.445962
486.975527	24583.186731
487.343959	24764.668269
487.712333	24436.993269
488.080648	23516.982692
488.448905	24091.674231
488.817104	23910.192692
489.185244	24525.213462
489.553326	24416.828654
489.921350	25299.030577
490.289315	27728.866731
490.657222	28767.344423
491.025070	28782.467885
491.392861	28122.076731
491.760593	27116.366538
492.128267	26067.806538
492.495883	25301.551154
492.863440	24003.454038
493.230939	23239.719231
493.598380	22879.276731
493.965763	22329.790962
494.333088	21558.494423
494.700354	21427.424423
495.067563	21313.998462
495.434713	20714.101154
495.801805	20641.004423
496.168839	20174.697692
496.535815	20124.286154
496.902733	19978.092692
497.269593	19486.580192
497.636395	19292.495769
498.003139	18914.409231
498.369825	18501.034615
498.736453	18513.637500
499.103023	18120.427500
499.469535	17923.822500
499.835989	17754.943846
500.202385	17780.149615
500.568723	17039.100000
500.935003	17034.058846
501.301226	16618.163654
501.667390	16736.630769
502.033497	16713.945577
502.399546	16318.215000
502.765537	15604.891731
503.131470	15728.400000
503.497345	15728.400000
503.863163	14899.130192
504.228923	15100.776346
504.594625	14752.936731
504.960269	14478.193846
505.325856	14407.617692
505.691385	13865.693654
506.056856	13885.858269
506.422270	13782.514615
506.787625	13187.658462
507.152924	13172.535000
507.518164	13036.423846
507.883347	12174.386538
508.248472	12310.497692
508.613540	12219.756923
508.978550	12000.466731
509.343503	11796.300000
509.708398	11622.380192
510.073236	11428.295769
510.438016	11070.373846
510.802738	10909.056923
511.167403	10828.398462
511.532010	10659.519808
511.896561	10493.161731
512.261053	10364.612308
512.625488	10016.772692
512.989866	9810.085385
513.354186	9406.793077
513.718449	9626.083269
514.082655	9563.068846
514.446803	9021.144808
514.810894	9018.624231
515.174927	8791.772308
515.538904	8567.440962
515.902822	8522.070577
516.266684	8189.354423
516.630488	8063.325577
516.994235	7672.636154
517.357925	7801.185577
517.721558	7551.648462
518.085133	7511.319231
518.448651	7337.399423
518.812112	7108.026923
519.175516	6918.983654
519.538863	7032.409615
519.902152	6583.746923
520.265385	6631.637885
520.628560	6482.923846
520.991678	6351.853846
521.354739	6238.427885
521.717743	6024.178846
522.080690	5840.176731
522.443580	5867.903077
522.806413	5661.215769
523.169189	5608.283654
523.531908	5512.501731
523.894569	5323.458462
524.257174	5207.511923
524.619722	5270.526346
524.982213	4995.783462
525.344647	5003.345192
525.707025	4889.919231
526.069345	4847.069423
526.431608	4715.999423
526.793815	4595.011731
527.155964	4663.067308
527.518057	4531.997308
527.880093	4413.530192
528.242072	4227.007500
528.603995	4297.583654
528.965860	4292.542500
529.327669	4161.472500
529.689421	4075.772885
530.051117	4007.717308
530.412755	3831.276923
530.774337	3788.427115
531.135862	3798.509423
531.497331	3780.865385
531.858743	3773.303654
532.220098	3619.548462
532.581396	3617.027885
532.942638	3632.151346
533.303824	3508.643077
533.664953	3518.725385
534.026025	3483.437308
534.387040	3339.764423
534.747999	3327.161538
535.108902	3322.120385
535.469748	3241.461923
535.830537	3264.147115
536.191270	3317.079231
536.551947	3236.420769
536.912567	3143.159423
537.273131	3158.282885
537.633638	3143.159423
537.994089	3170.885769
538.354483	3075.103846
538.714821	2976.801346
539.075103	3049.898077
539.435328	3022.171731
539.795497	2956.636731
540.155609	2984.363077
540.515665	2954.116154
540.875665	2991.924808
541.235609	2941.513269
541.595496	2873.457692
541.955328	2903.704615
542.315102	2908.745769
542.674821	2911.266346
543.034483	2850.772500
543.394090	2863.375385
543.753640	2883.540000
544.113134	2865.895962
544.472571	2835.649038
544.831953	2780.196346
545.191278	2797.840385
545.550548	2722.223077
545.909761	2797.840385
546.268918	2807.922692
546.628019	2815.484423
546.987064	2780.196346
547.346053	2762.552308
547.704986	2749.949423
548.063863	2734.825962
548.422684	2722.223077
548.781449	2754.990577
549.140158	2772.634615
549.498811	2639.044038
549.857408	2712.140769
550.215949	2737.346538
550.574434	2792.799231
550.932864	2732.305385
551.291237	2674.332115
551.649555	2772.634615
552.007817	2664.249808
552.366022	2727.264231
552.724173	2691.976154
553.082267	2712.140769
553.440305	2747.428846
553.798288	2697.017308
554.156215	2659.208654
554.514086	2666.770385
554.871902	2757.511154
555.229661	2623.920577
555.587365	2744.908269
555.945014	2754.990577
556.302606	2719.702500
556.660143	2744.908269
557.017625	2707.099615
557.375050	2742.387692
557.732421	2525.618077
558.089735	2684.414423
558.446994	2601.235385
558.804197	2699.537885
559.161345	2681.893846
559.518437	2639.044038
559.875474	2686.935000
560.232455	2661.729231
560.589381	2659.208654
560.946251	2707.099615
561.303065	2699.537885
561.659825	2634.002885
562.016528	2691.976154
562.373177	2618.879423
562.729770	2669.290962
563.086307	2734.825962
563.442789	2681.893846
563.799216	2611.317692
564.155587	2765.072885
564.511904	2588.632500
564.868164	2671.811538
565.224370	2581.070769
565.580520	2671.811538
565.936615	2581.070769
566.292654	2669.290962
566.648638	2646.605769
567.004567	2656.688077
567.360441	2702.058462
567.716260	2555.865000
568.072023	2679.373269
568.427732	2608.797115
568.783385	2528.138654
569.138982	2591.153077
569.494525	2623.920577
569.850013	2593.673654
570.205445	2659.208654
570.560823	2684.414423
570.916145	2626.441154
571.271412	2641.564615
571.626625	2691.976154
571.981782	2578.550192
572.336884	2631.482308
572.691931	2659.208654
573.046923	2616.358846
573.401860	2611.317692
573.756743	2598.714808
574.111570	2651.646923
574.466342	2664.249808
574.821059	2613.838269
575.175722	2641.564615
575.530330	2649.126346
575.884882	2606.276538
576.239380	2722.223077
576.593823	2646.605769
576.948211	2651.646923
577.302544	2644.085192
577.656823	2674.332115
578.011047	2631.482308
578.365216	2628.961731
578.719330	2621.400000
579.073389	2560.906154
579.427394	2656.688077
579.781344	2656.688077
580.135239	2598.714808
580.489080	2681.893846
580.842866	2707.099615
581.196597	2639.044038
581.550273	2618.879423
581.903895	2603.755962
582.257463	2656.688077
582.610975	2573.509038
582.964434	2639.044038
583.317837	2664.249808
583.671186	2722.223077
584.024481	2639.044038
584.377721	2616.358846
584.730906	2694.496731
585.084037	2656.688077
585.437113	2611.317692
585.790135	2568.467885
586.143103	2523.097500
586.496016	2656.688077
586.848874	2618.879423
587.201679	2707.099615
587.554428	2684.414423
587.907124	2581.070769
588.259765	2634.002885
588.612352	2659.208654
588.964884	2679.373269
589.317362	2651.646923
589.669786	2671.811538
590.022155	2616.358846
590.374470	2593.673654
590.726731	2734.825962
591.078937	2570.988462
591.431090	2565.947308
591.783188	2689.455577
592.135232	2631.482308
592.487222	2626.441154
592.839157	2656.688077
593.191038	2644.085192
593.542866	2623.920577
593.894639	2621.400000
594.246358	2613.838269
594.598022	2628.961731
594.949633	2611.317692
595.301190	2621.400000
595.652692	2631.482308
596.004141	2621.400000
596.355535	2634.002885
596.706876	2611.317692
597.058162	2636.523462
597.409395	2621.400000
597.760573	2545.782692
598.111698	2576.029615
598.462768	2686.935000
598.813785	2634.002885
599.164748	2641.564615
599.515657	2613.838269
599.866511	2598.714808
600.217312	2669.290962
600.568060	2636.523462
600.918753	2727.264231
601.269392	2641.564615
601.619978	2593.673654
601.970510	2659.208654
602.320988	2664.249808
602.671412	2649.126346
603.021783	2656.688077
603.372100	2601.235385
603.722363	2649.126346
604.072572	2656.688077
604.422728	2669.290962
604.772830	2603.755962
605.122878	2616.358846
605.472872	2603.755962
605.822813	2558.385577
606.172701	2634.002885
606.522534	2681.893846
606.872314	2563.426731
607.222041	2611.317692
607.571714	2623.920577
607.921333	2611.317692
608.270899	2641.564615
608.620411	2636.523462
608.969870	2490.330000
609.319276	2702.058462
609.668627	2626.441154
610.017926	2586.111923
610.367171	2654.167500
610.716362	2626.441154
611.065500	2596.194231
611.414585	2618.879423
611.763616	2719.702500
612.112594	2661.729231
612.461518	2664.249808
612.810389	2608.797115
613.159207	2644.085192
613.507971	2674.332115
613.856682	2570.988462
614.205340	2616.358846
614.553945	2634.002885
614.902496	2545.782692
615.250994	2586.111923
615.599439	2686.935000
615.947830	2628.961731
616.296169	2631.482308
616.644454	2639.044038
616.992686	2669.290962
617.340864	2598.714808
617.688990	2674.332115
618.037063	2666.770385
618.385082	2649.126346
618.733048	2578.550192
619.080961	2654.167500
619.428821	2697.017308
619.776628	2623.920577
620.124382	2644.085192
620.472083	2739.867115
620.819731	2656.688077
621.167326	2578.550192
621.514868	2722.223077
621.862357	2651.646923
622.209793	2679.373269
622.557176	2613.838269
622.904506	2558.385577
623.251783	2591.153077
623.599007	2727.264231
623.946179	2664.249808
624.293297	2697.017308
624.640363	2649.126346
624.987376	2591.153077
625.334336	2654.167500
625.681243	2676.852692
626.028097	2578.550192
626.374899	2613.838269
626.721647	2591.153077
627.068343	2555.865000
627.414987	2613.838269
627.761577	2639.044038
628.108115	2616.358846
628.454600	2601.235385
628.801032	2613.838269
629.147412	2651.646923
629.493739	2714.661346
629.840014	2487.809423
630.186236	2626.441154
630.532405	2611.317692
630.878521	2631.482308
631.224585	2601.235385
631.570597	2623.920577
631.916556	2543.262115
632.262462	2626.441154
632.608316	2616.358846
632.954117	2671.811538
633.299866	2555.865000
633.645562	2661.729231
633.991206	2598.714808
634.336797	2523.097500
634.682336	2686.935000
635.027823	2699.537885
635.373257	2591.153077
635.718639	2618.879423
636.063968	2636.523462
636.409245	2603.755962
636.754470	2664.249808
637.099642	2646.605769
637.444762	2634.002885
637.789829	2613.838269
638.134845	2646.605769
638.479808	2641.564615
638.824719	2623.920577
639.169577	2606.276538
639.514383	2717.181923
639.859137	2593.673654
640.203839	2671.811538
640.548489	2606.276538
640.893086	2659.208654
641.237632	2573.509038
641.582125	2661.729231
641.926566	2591.153077
642.270955	2563.426731
642.615292	2639.044038
642.959576	2606.276538
643.303809	2596.194231
643.647990	2586.111923
643.992118	2515.535769
644.336195	2583.591346
644.680219	2639.044038
645.024192	2679.373269
645.368112	2528.138654
645.711981	2639.044038
646.055797	2576.029615
646.399562	2608.797115
646.743274	2649.126346
647.086935	2583.591346
647.430544	2659.208654
647.774101	2553.344423
648.117606	2568.467885
648.461059	2593.673654
648.804460	2656.688077
649.147810	2644.085192
649.491108	2601.235385
649.834354	2568.467885
650.177548	2621.400000
650.520690	2573.509038
650.863781	2560.906154
651.206820	2636.523462
651.549807	2659.208654
651.892742	2611.317692
652.235626	2626.441154
652.578458	2757.511154
652.921238	2523.097500
653.263967	2649.126346
653.606644	2586.111923
653.949269	2588.632500
654.291843	2618.879423
654.634365	2661.729231
654.976836	2618.879423
655.319255	2603.755962
655.661622	2563.426731
656.003938	2664.249808
656.346203	2601.235385
656.688416	2623.920577
657.030577	2616.358846
657.372687	2515.535769
657.714746	2586.111923
658.056753	2616.358846
658.398708	2631.482308
658.740612	2603.755962
659.082465	2613.838269
659.424266	2659.208654
659.766016	2538.220962
660.107715	2555.865000
660.449362	2586.111923
660.790958	2545.782692
661.132503	2608.797115
661.473996	2613.838269
661.815438	2659.208654
662.156829	2644.085192
662.498168	2588.632500
662.839456	2654.167500
663.180693	2586.111923
663.521879	2613.838269
663.863013	2697.017308
664.204097	2608.797115
664.545129	2611.317692
664.886110	2563.426731
665.227040	2611.317692
665.567918	2649.126346
665.908746	2613.838269
666.249522	2641.564615
666.590248	2631.482308
666.930922	2621.400000
667.271545	2634.002885
667.612118	2631.482308
667.952639	2626.441154
668.293109	2596.194231
668.633528	2626.441154
668.973896	2560.906154
669.314213	2636.523462
669.654480	2553.344423
669.994695	2644.085192
670.334859	2654.167500
670.674973	2671.811538
671.015035	2603.755962
671.355047	2550.823846
671.695008	2565.947308
672.034918	2606.276538
672.374777	2601.235385
672.714585	2681.893846
673.054342	2611.317692
673.394049	2598.714808
673.733705	2689.455577
674.073310	2631.482308
674.412864	2596.194231
674.752368	2646.605769
675.091820	2608.797115
675.431223	2563.426731
675.770574	2500.412308
676.109875	2684.414423
676.449125	2593.673654
676.788324	2608.797115
677.127473	2581.070769
677.466571	2606.276538
677.805619	2581.070769
678.144616	2606.276538
678.483562	2588.632500
678.822458	2656.688077
679.161303	2603.755962
679.500098	2631.482308
679.838842	2659.208654
680.177535	2593.673654
680.516179	2664.249808
680.854771	2651.646923
681.193314	2641.564615
681.531805	2548.303269
681.870247	2666.770385
682.208638	2636.523462
682.546978	2651.646923
682.885268	2631.482308
683.223508	2623.920577
683.561697	2664.249808
683.899836	2659.208654
684.237925	2702.058462
684.575963	2586.111923
684.913951	2621.400000
685.251889	2631.482308
685.589776	2573.509038
685.927614	2586.111923
686.265401	2634.002885
686.603137	2621.400000
686.940824	2611.317692
687.278460	2626.441154
687.616046	2639.044038
687.953582	2626.441154
688.291068	2530.659231
688.628504	2656.688077
688.965889	2704.579038
689.303224	2694.496731
689.640510	2573.509038
689.977745	2601.235385
690.314930	2603.755962
690.652065	2641.564615
690.989150	2606.276538
691.326185	2691.976154
691.663170	2656.688077
692.000105	2611.317692
692.336990	2601.235385
692.673825	2628.961731
693.010610	2671.811538
693.347345	2654.167500
693.684030	2545.782692
694.020665	2666.770385
694.357251	2704.579038
694.693786	2671.811538
695.030272	2631.482308
695.366707	2563.426731
695.703093	2694.496731
696.039429	2576.029615
696.375716	2550.823846
696.711952	2636.523462
697.048139	2641.564615
697.384276	2676.852692
697.720363	2588.632500
698.056400	2656.688077
698.392388	2613.838269
698.728326	2576.029615
699.064214	2543.262115
699.400053	2593.673654
699.735842	2497.891731
700.071581	2606.276538
700.407270	2588.632500
700.742910	2596.194231
701.078501	2576.029615
701.414042	2704.579038
701.749533	2649.126346
702.084974	2623.920577
702.420366	2593.673654
702.755709	2649.126346
703.091002	2636.523462
703.426246	2583.591346
703.761440	2606.276538
704.096584	2631.482308
704.431679	2593.673654
704.766725	2654.167500
705.101721	2596.194231
705.436668	2644.085192
705.771565	2611.317692
706.106413	2626.441154
706.441212	2591.153077
706.775961	2548.303269
707.110661	2626.441154
707.445311	2651.646923
707.779913	2623.920577
708.114465	2606.276538
708.448967	2618.879423
708.783421	2644.085192
709.117825	2586.111923
709.452180	2611.317692
709.786485	2649.126346
710.120742	2608.797115
710.454949	2621.400000
710.789107	2578.550192
711.123216	2606.276538
711.457275	2634.002885
711.791286	2649.126346
712.125247	2661.729231
712.459159	2674.332115
712.793023	2669.290962
713.126837	2626.441154
713.460602	2608.797115
713.794318	2616.358846
714.127985	2601.235385
714.461602	2618.879423
714.795171	2669.290962
715.128691	2603.755962
715.462162	2669.290962
715.795584	2631.482308
716.128957	2608.797115
716.462281	2618.879423
716.795556	2661.729231
717.128782	2573.509038
717.461960	2636.523462
717.795088	2618.879423
718.128167	2659.208654
718.461198	2576.029615
718.794180	2576.029615
719.127113	2628.961731
719.459997	2573.509038
719.792833	2618.879423
720.125619	2628.961731
720.458357	2634.002885
720.791046	2634.002885
721.123686	2586.111923
721.456278	2634.002885
721.788821	2507.974038
722.121315	2656.688077
722.453761	2656.688077
722.786158	2628.961731
723.118506	2560.906154
723.450805	2553.344423
723.783056	2649.126346
724.115259	2598.714808
724.447412	2583.591346
724.779518	2626.441154
725.111574	2581.070769
725.443582	2654.167500
725.775542	2598.714808
726.107453	2535.700385
726.439315	2578.550192
726.771129	2570.988462
727.102895	2636.523462
727.434612	2598.714808
727.766281	2628.961731
728.097901	2613.838269
728.429473	2666.770385
728.760996	2659.208654
729.092471	2613.838269
729.423897	2659.208654
729.755276	2570.988462
730.086606	2628.961731
730.417887	2593.673654
730.749120	2722.223077
731.080305	2659.208654
731.411442	2671.811538
731.742530	2699.537885
732.073570	2636.523462
732.404562	2712.140769
732.735506	2538.220962
733.066401	2565.947308
733.397249	2613.838269
733.728048	2634.002885
734.058798	2641.564615
734.389501	2618.879423
734.720156	2659.208654
735.050762	2641.564615
735.381320	2671.811538
735.711831	2666.770385
736.042293	2538.220962
736.372707	2568.467885
736.703073	2616.358846
737.033391	2611.317692
737.363661	2664.249808
737.693883	2623.920577
738.024056	2548.303269
738.354182	2568.467885
738.684260	2616.358846
739.014290	2611.317692
739.344272	2626.441154
739.674207	2598.714808
740.004093	2628.961731
740.333931	2588.632500
740.663722	2616.358846
740.993464	2623.920577
741.323159	2593.673654
741.652806	2583.591346
741.982405	2634.002885
742.311956	2578.550192
742.641460	2641.564615
742.970915	2636.523462
743.300323	2591.153077
743.629683	2671.811538
743.958996	2588.632500
744.288260	2570.988462
744.617477	2553.344423
744.946647	2631.482308
745.275768	2671.811538
745.604842	2533.179808
745.933869	2651.646923
746.262847	2530.659231
746.591778	2666.770385
746.920662	2616.358846
747.249498	2641.564615
747.578286	2656.688077
747.907027	2686.935000
748.235720	2644.085192
748.564365	2644.085192
748.892963	2550.823846
749.221514	2528.138654
749.550017	2593.673654
749.878473	2636.523462
750.206881	2631.482308
750.535242	2621.400000
750.863555	2659.208654
751.191821	2626.441154
751.520039	2598.714808
751.848210	2596.194231
752.176334	2540.741538
752.504411	2649.126346
752.832440	2578.550192
753.160421	2578.550192
753.488356	2578.550192
753.816243	2611.317692
754.144082	2623.920577
754.471875	2659.208654
754.799620	2659.208654
755.127318	2669.290962
755.454969	2596.194231
755.782572	2661.729231
756.110129	2563.426731
756.437638	2664.249808
756.765100	2618.879423
757.092515	2593.673654
757.419882	2661.729231
757.747203	2626.441154
758.074477	2565.947308
758.401703	2684.414423
758.728882	2570.988462
759.056014	2596.194231
759.383099	2684.414423
759.710138	2598.714808
760.037129	2717.181923
760.364073	2621.400000
760.690970	2608.797115
761.017820	2550.823846
761.344623	2523.097500
761.671379	2618.879423
761.998088	2611.317692
762.324751	2694.496731
762.651366	2616.358846
762.977935	2651.646923
763.304456	2694.496731
763.630931	2581.070769
763.957359	2621.400000
764.283740	2628.961731
764.610074	2636.523462
764.936362	2596.194231
765.262602	2621.400000
765.588796	2545.782692
765.914943	2603.755962
766.241044	2669.290962
766.567097	2649.126346
766.893104	2611.317692
767.219064	2538.220962
767.544978	2666.770385
767.870845	2608.797115
768.196665	2543.262115
768.522438	2596.194231
768.848165	2608.797115
769.173846	2669.290962
769.499479	2628.961731
769.825066	2626.441154
770.150607	2649.126346
770.476101	2588.632500
770.801548	2482.768269
771.126949	2618.879423
771.452303	2664.249808
771.777611	2654.167500
772.102872	2563.426731
772.428087	2691.976154
772.753256	2639.044038
773.078378	2591.153077
773.403453	2601.235385
773.728482	2616.358846
774.053465	2636.523462
774.378401	2618.879423
774.703291	2676.852692
775.028135	2601.235385
775.352932	2513.015192
775.677683	2639.044038
776.002388	2528.138654
776.327046	2623.920577
776.651658	2586.111923
776.976224	2606.276538
777.300743	2608.797115
777.625216	2568.467885
777.949643	2570.988462
778.274024	2578.550192
778.598359	2623.920577
778.922647	2628.961731
779.246889	2573.509038
779.571086	2565.947308
779.895236	2694.496731
780.219339	2535.700385
780.543397	2538.220962
780.867409	2565.947308
781.191374	2603.755962
781.515294	2651.646923
781.839167	2639.044038
782.162995	2583.591346
782.486776	2654.167500
782.810511	2565.947308
783.134201	2661.729231
783.457844	2659.208654
783.781441	2606.276538
784.104993	2545.782692
784.428498	2553.344423
784.751958	2576.029615
785.075372	2513.015192
785.398739	2598.714808
785.722061	2593.673654
786.045337	2530.659231
786.368568	2553.344423
786.691752	2591.153077
787.014891	2523.097500
787.337983	2591.153077
787.661030	2636.523462
787.984031	2671.811538
788.306987	2560.906154
788.629897	2581.070769
788.952760	2616.358846
789.275579	2618.879423
789.598351	2676.852692
789.921078	2636.523462
790.243759	2596.194231
790.566395	2664.249808
790.888984	2608.797115
791.211529	2553.344423
791.534027	2563.426731
791.856480	2598.714808
792.178888	2550.823846
792.501249	2583.591346
792.823566	2651.646923
793.145836	2606.276538
793.468062	2593.673654
793.790241	2646.605769
794.112375	2646.605769
794.434464	2586.111923
794.756507	2623.920577
795.078505	2656.688077
795.400457	2598.714808
795.722364	2613.838269
796.044226	2654.167500
796.366042	2661.729231
796.687812	2553.344423
797.009538	2598.714808
797.331218	2616.358846
797.652852	2530.659231
797.974442	2636.523462
798.295986	2631.482308
798.617484	2628.961731
798.938938	2578.550192
799.260346	2656.688077
799.581709	2618.879423
799.903026	2641.564615
800.224299	2603.755962
800.545526	2528.138654
800.866708	2583.591346
801.187845	2538.220962
801.508936	2570.988462
801.829983	2671.811538
802.150984	2578.550192
802.471940	2656.688077
802.792851	2598.714808
803.113717	2601.235385
803.434538	2661.729231
803.755314	2538.220962
804.076045	2664.249808
804.396731	2573.509038
804.717372	2555.865000
805.037967	2596.194231
805.358518	2583.591346
805.679024	2641.564615
805.999485	2606.276538
806.319901	2603.755962
806.640272	2598.714808
806.960598	2560.906154
807.280879	2611.317692
807.601115	2659.208654
807.921306	2475.206538
808.241453	2623.920577
808.561554	2520.576923
808.881611	2616.358846
809.201623	2528.138654
809.521590	2593.673654
809.841513	2591.153077
810.161390	2540.741538
810.481223	2623.920577
810.801011	2618.879423
811.120755	2576.029615
811.440453	2596.194231
811.760107	2656.688077
812.079716	2611.317692
812.399281	2608.797115
812.718801	2533.179808
813.038276	2628.961731
813.357707	2618.879423
813.677093	2570.988462
813.996434	2553.344423
814.315731	2676.852692
814.634983	2639.044038
814.954191	2613.838269
815.273354	2515.535769
815.592473	2621.400000
815.911547	2618.879423
816.230577	2573.509038
816.549562	2646.605769
816.868502	2553.344423
817.187399	2681.893846
817.506250	2649.126346
817.825058	2591.153077
818.143821	2563.426731
818.462539	2661.729231
818.781213	2676.852692
819.099843	2634.002885
819.418429	2596.194231
819.736970	2601.235385
820.055466	2631.482308
820.373919	2639.044038
820.692327	2555.865000
821.010691	2664.249808
821.329011	2666.770385
821.647286	2681.893846
821.965517	2739.867115
822.283704	2709.620192
822.601847	2712.140769
822.919945	2654.167500
823.237999	2742.387692
823.556010	2724.743654
823.873976	2684.414423
824.191897	2646.605769
824.509775	2707.099615
824.827609	2596.194231
825.145398	2676.852692
825.463144	2691.976154
825.780845	2553.344423
826.098502	2598.714808
826.416116	2623.920577
826.733685	2654.167500
827.051210	2646.605769
827.368692	2666.770385
827.686129	2613.838269
828.003522	2596.194231
828.320872	2646.605769
828.638177	2664.249808
828.955439	2634.002885
829.272656	2626.441154
829.589830	2679.373269
829.906960	2654.167500
830.224046	2641.564615
830.541088	2656.688077
830.858086	2669.290962
831.175041	2553.344423
831.491952	2581.070769
831.808819	2631.482308
832.125642	2608.797115
832.442421	2634.002885
832.759157	2681.893846
833.075849	2606.276538
833.392497	2626.441154
833.709101	2608.797115
834.025662	2656.688077
834.342179	2631.482308
834.658653	2588.632500
834.975083	2649.126346
835.291469	2679.373269
835.607811	2649.126346
835.924110	2621.400000
836.240366	2628.961731
836.556578	2553.344423
836.872746	2598.714808
837.188871	2583.591346
837.504952	2626.441154
837.820990	2563.426731
838.136984	2586.111923
838.452935	2664.249808
838.768842	2631.482308
839.084706	2634.002885
839.400526	2596.194231
839.716303	2659.208654
840.032037	2606.276538
840.347727	2581.070769
840.663373	2591.153077
840.978977	2588.632500
841.294537	2593.673654
841.610054	2568.467885
841.925527	2626.441154
842.240957	2621.400000
842.556344	2628.961731
842.871687	2611.317692
843.186987	2558.385577
843.502244	2634.002885
843.817458	2661.729231
844.132629	2654.167500
844.447756	2591.153077
844.762840	2664.249808
845.077881	2581.070769
845.392879	2611.317692
845.707833	2465.124231
846.022745	2581.070769
846.337613	2601.235385
846.652438	2641.564615
846.967221	2530.659231
847.281960	2603.755962
847.596656	2601.235385
847.911309	2596.194231
848.225919	2565.947308
848.540485	2651.646923
848.855009	2606.276538
849.169490	2586.111923
849.483928	2568.467885
849.798323	2603.755962
850.112675	2621.400000
850.426984	2603.755962
850.741251	2628.961731
851.055474	2644.085192
851.369654	2586.111923
851.683792	2555.865000
851.997887	2697.017308
852.311938	2628.961731
852.625947	2480.247692
852.939914	2639.044038
853.253837	2578.550192
853.567718	2543.262115
853.881555	2649.126346
854.195350	2636.523462
854.509103	2598.714808
854.822812	2603.755962
855.136479	2540.741538
855.450103	2558.385577
855.763685	2578.550192
856.077224	2649.126346
856.390720	2570.988462
856.704173	2671.811538
857.017584	2583.591346
857.330953	2573.509038
857.644278	2573.509038
857.957561	2576.029615
858.270802	2681.893846
858.584000	2646.605769
858.897155	2570.988462
859.210268	2636.523462
859.523339	2563.426731
859.836367	2616.358846
860.149352	2538.220962
860.462295	2606.276538
860.775195	2608.797115
861.088054	2606.276538
861.400869	2513.015192
861.713642	2613.838269
862.026373	2634.002885
862.339062	2618.879423
862.651708	2674.332115
862.964312	2702.058462
863.276873	2550.823846
863.589392	2611.317692
863.901869	2523.097500
864.214303	2576.029615
864.526696	2636.523462
864.839045	2510.494615
865.151353	2656.688077
865.463619	2681.893846
865.775842	2613.838269
866.088023	2613.838269
866.400162	2530.659231
866.712258	2583.591346
867.024313	2576.029615
867.336325	2651.646923
867.648296	2626.441154
867.960224	2676.852692
868.272110	2621.400000
868.583954	2502.932885
868.895755	2560.906154
869.207515	2573.509038
869.519233	2558.385577
869.830909	2576.029615
870.142542	2651.646923
870.454134	2576.029615
870.765684	2606.276538
871.077191	2593.673654
871.388657	2553.344423
871.700081	2545.782692
872.011463	2709.620192
872.322803	2664.249808
872.634101	2555.865000
872.945357	2661.729231
873.256571	2639.044038
873.567744	2548.303269
873.878874	2591.153077
874.189963	2558.385577
874.501010	2601.235385
874.812015	2568.467885
875.122979	2598.714808
875.433900	2611.317692
875.744780	2613.838269
876.055618	2576.029615
876.366415	2573.509038
876.677169	2593.673654
876.987882	2586.111923
877.298554	2646.605769
877.609183	2497.891731
877.919771	2656.688077
878.230317	2631.482308
878.540822	2528.138654
878.851285	2664.249808
879.161707	2618.879423
879.472087	2679.373269
879.782425	2581.070769
880.092722	2623.920577
880.402977	2616.358846
880.713191	2669.290962
881.023363	2628.961731
881.333494	2691.976154
881.643583	2661.729231
881.953631	2709.620192
882.263637	2558.385577
882.573602	2674.332115
882.883526	2686.935000
883.193408	2606.276538
883.503248	2649.126346
883.813048	2598.714808
884.122806	2611.317692
884.432522	2664.249808
884.742197	2608.797115
885.051831	2502.932885
885.361424	2598.714808
885.670975	2581.070769
885.980485	2651.646923
886.289954	2608.797115
886.599382	2616.358846
886.908768	2654.167500
887.218113	2636.523462
887.527417	2691.976154
887.836680	2593.673654
888.145901	2593.673654
888.455082	2641.564615
888.764221	2639.044038
889.073319	2581.070769
889.382376	2686.935000
889.691392	2565.947308
890.000366	2606.276538
890.309300	2573.509038
890.618193	2515.535769
890.927044	2583.591346
891.235855	2593.673654
891.544625	2608.797115
891.853353	2596.194231
892.162041	2603.755962
892.470687	2651.646923
892.779293	2626.441154
893.087858	2608.797115
893.396381	2603.755962
893.704864	2586.111923
894.013306	2606.276538
894.321707	2533.179808
894.630068	2699.537885
894.938387	2510.494615
895.246665	2628.961731
895.554903	2583.591346
895.863100	2636.523462
896.171256	2543.262115
896.479371	2555.865000
896.787446	2603.755962
897.095480	2611.317692
897.403473	2578.550192
897.711425	2641.564615
898.019336	2578.550192
898.327207	2697.017308
898.635038	2591.153077
898.942827	2608.797115
899.250576	2560.906154
899.558284	2618.879423
899.865952	2593.673654
900.173579	2646.605769
900.481165	2608.797115
900.788711	2576.029615
901.096216	2578.550192
901.403681	2596.194231
901.711105	2593.673654
902.018489	2523.097500
902.325832	2513.015192
902.633135	2583.591346
902.940397	2644.085192
903.247619	2550.823846
903.554800	2591.153077
903.861941	2666.770385
904.169041	2666.770385
904.476101	2576.029615
904.783121	2591.153077
905.090100	2596.194231
905.397039	2639.044038
905.703938	2568.467885
906.010796	2634.002885
906.317614	2611.317692
906.624391	2674.332115
906.931129	2563.426731
907.237826	2598.714808
907.544483	2601.235385
907.851099	2626.441154
908.157675	2576.029615
908.464211	2621.400000
908.770707	2573.509038
909.077163	2611.317692
909.383578	2588.632500
909.689954	2558.385577
909.996289	2626.441154
910.302584	2616.358846
910.608839	2631.482308
910.915054	2553.344423
911.221229	2613.838269
911.527363	2634.002885
911.833458	2618.879423
912.139513	2565.947308
912.445527	2520.576923
912.751502	2591.153077
913.057436	2591.153077
913.363331	2634.002885
913.669186	2538.220962
913.975000	2611.317692
914.280775	2616.358846
914.586510	2611.317692
914.892205	2606.276538
915.197859	2669.290962
915.503475	2651.646923
915.809050	2664.249808
916.114585	2591.153077
916.420081	2644.085192
916.725536	2613.838269
917.030952	2505.453462
917.336328	2621.400000
917.641665	2641.564615
917.946961	2661.729231
918.252218	2636.523462
918.557435	2603.755962
918.862612	2611.317692
919.167750	2576.029615
919.472848	2591.153077
919.777906	2583.591346
920.082925	2626.441154
920.387904	2611.317692
920.692843	2588.632500
920.997743	2581.070769
921.302603	2601.235385
921.607423	2533.179808
921.912204	2646.605769
922.216946	2588.632500
922.521647	2611.317692
922.826310	2671.811538
923.130932	2555.865000
923.435516	2568.467885
923.740059	2533.179808
924.044564	2616.358846
924.349028	2707.099615
924.653454	2593.673654
924.957840	2553.344423
925.262186	2636.523462
925.566493	2659.208654
925.870761	2659.208654
926.174989	2626.441154
926.479178	2586.111923
926.783328	2538.220962
927.087438	2588.632500
927.391509	2623.920577
927.695541	2573.509038
927.999533	2558.385577
928.303486	2613.838269
928.607400	2573.509038
928.911275	2671.811538
929.215110	2606.276538
929.518906	2644.085192
929.822663	2555.865000
930.126381	2621.400000
930.430060	2586.111923
930.733699	2628.961731
931.037299	2545.782692
931.340861	2608.797115
931.644383	2611.317692
931.947866	2578.550192
932.251309	2613.838269
932.554714	2603.755962
932.858080	2628.961731
933.161407	2606.276538
933.464694	2588.632500
933.767943	2576.029615
934.071153	2591.153077
934.374323	2613.838269
934.677455	2709.620192
934.980548	2598.714808
935.283602	2628.961731
935.586617	2611.317692
935.889593	2581.070769
936.192530	2618.879423
936.495428	2563.426731
936.798287	2654.167500
937.101108	2581.070769
937.403890	2535.700385
937.706632	2593.673654
938.009336	2565.947308
938.312002	2611.317692
938.614628	2576.029615
938.917216	2623.920577
939.219765	2586.111923
939.522275	2608.797115
939.824747	2621.400000
940.127179	2543.262115
940.429573	2555.865000
940.731929	2634.002885
941.034246	2644.085192
941.336524	2555.865000
941.638763	2510.494615
941.940964	2603.755962
942.243126	2510.494615
942.545250	2550.823846
942.847335	2507.974038
943.149381	2576.029615
943.451389	2646.605769
943.753359	2581.070769
944.055290	2560.906154
944.357182	2628.961731
944.659036	2613.838269
944.960851	2593.673654
945.262628	2641.564615
945.564367	2530.659231
945.866067	2523.097500
946.167729	2626.441154
946.469352	2576.029615
946.770937	2601.235385
947.072484	2606.276538
947.373992	2606.276538
947.675462	2528.138654
947.976893	2618.879423
948.278286	2525.618077
948.579641	2588.632500
948.880958	2654.167500
949.182236	2649.126346
949.483476	2613.838269
949.784678	2613.838269
950.085841	2583.591346
950.386967	2621.400000
950.688054	2593.673654
950.989103	2606.276538
951.290114	2535.700385
951.591087	2646.605769
951.892021	2540.741538
952.192917	2576.029615
952.493776	2558.385577
952.794596	2563.426731
953.095378	2613.838269
953.396122	2586.111923
953.696828	2558.385577
953.997496	2588.632500
954.298126	2581.070769
954.598718	2596.194231
954.899272	2528.138654
955.199788	2588.632500
955.500266	2553.344423
955.800706	2535.700385
956.101108	2573.509038
956.401472	2689.455577
956.701798	2583.591346
957.002087	2606.276538
957.302337	2548.303269
957.602550	2631.482308
957.902724	2603.755962
958.202861	2570.988462
958.502960	2603.755962
958.803022	2608.797115
959.103045	2626.441154
959.403031	2565.947308
959.702979	2671.811538
960.002889	2555.865000
960.302762	2553.344423
960.602596	2634.002885
960.902393	2583.591346
961.202153	2565.947308
961.501875	2588.632500
961.801559	2540.741538
962.101205	2591.153077
962.400814	2626.441154
962.700385	2593.673654
962.999918	2704.579038
963.299414	2591.153077
963.598873	2671.811538
963.898293	2618.879423
964.197677	2606.276538
964.497022	2560.906154
964.796331	2530.659231
965.095601	2495.371154
965.394835	2583.591346
965.694030	2623.920577
965.993189	2560.906154
966.292309	2611.317692
966.591393	2608.797115
966.890439	2611.317692
967.189447	2616.358846
967.488419	2550.823846
967.787353	2581.070769
968.086249	2523.097500
968.385108	2586.111923
968.683930	2644.085192
968.982714	2636.523462
969.281462	2505.453462
969.580172	2616.358846
969.878844	2644.085192
970.177480	2646.605769
970.476078	2543.262115
970.774639	2634.002885
971.073162	2598.714808
971.371649	2570.988462
971.670098	2588.632500
971.968510	2596.194231
972.266885	2525.618077
972.565223	2553.344423
972.863524	2565.947308
973.161788	2553.344423
973.460014	2598.714808
973.758204	2583.591346
974.056356	2530.659231
974.354471	2598.714808
974.652550	2631.482308
974.950591	2654.167500
975.248595	2535.700385
975.546563	2641.564615
975.844493	2558.385577
976.142386	2560.906154
976.440243	2570.988462
976.738062	2538.220962
977.035845	2540.741538
977.333590	2649.126346
977.631299	2606.276538
977.928971	2606.276538
978.226606	2623.920577
978.524204	2676.852692
978.821765	2543.262115
979.119290	2492.850577
979.416777	2558.385577
979.714228	2611.317692
980.011642	2573.509038
980.309020	2611.317692
980.606360	2525.618077
980.903664	2598.714808
981.200931	2606.276538
981.498162	2586.111923
981.795356	2525.618077
982.092513	2719.702500
982.389633	2644.085192
982.686717	2523.097500
982.983764	2578.550192
983.280775	2719.702500
983.577749	2528.138654
983.874686	2641.564615
984.171587	2616.358846
984.468451	2593.673654
984.765279	2634.002885
985.062070	2568.467885
985.358824	2560.906154
985.655543	2618.879423
985.952224	2525.618077
986.248869	2586.111923
986.545478	2538.220962
986.842050	2601.235385
987.138586	2553.344423
987.435086	2623.920577
987.731549	2634.002885
988.027975	2558.385577
988.324366	2606.276538
988.620719	2626.441154
988.917037	2520.576923
989.213318	2581.070769
989.509563	2588.632500
989.805772	2603.755962
990.101944	2603.755962
990.398080	2601.235385
990.694180	2616.358846
990.990244	2583.591346
991.286271	2555.865000
991.582262	2555.865000
991.878217	2606.276538
992.174136	2583.591346
992.470019	2596.194231
992.765865	2573.509038
993.061676	2548.303269
993.357450	2523.097500
993.653188	2601.235385
993.948890	2603.755962
994.244556	2586.111923
994.540186	2593.673654
994.835780	2540.741538
995.131337	2560.906154
995.426859	2611.317692
995.722345	2583.591346
996.017795	2596.194231
996.313208	2606.276538
996.608586	2636.523462
996.903928	2581.070769
997.199234	2550.823846
997.494504	2588.632500
997.789738	2634.002885
998.084936	2659.208654
998.380099	2621.400000
998.675225	2581.070769
998.970316	2548.303269
999.265371	2631.482308
999.560390	2573.509038
999.855373	2631.482308
1000.150320	2626.441154
1000.445232	2563.426731
1000.740108	2570.988462
1001.034948	2525.618077
1001.329752	2586.111923
1001.624521	2553.344423
1001.919254	2586.111923
1002.213951	2576.029615
1002.508613	2553.344423
1002.803239	2593.673654
1003.097829	2591.153077
1003.392384	2553.344423
1003.686903	2583.591346
1003.981386	2515.535769
1004.275834	2586.111923
1004.570246	2611.317692
1004.864623	2460.083077
1005.158964	2505.453462
1005.453270	2588.632500
1005.747540	2618.879423
1006.041775	2505.453462
1006.335974	2581.070769
1006.630138	2543.262115
1006.924266	2568.467885
1007.218359	2639.044038
1007.512416	2588.632500
1007.806438	2550.823846
1008.100425	2596.194231
1008.394376	2548.303269
1008.688292	2538.220962
1008.982172	2507.974038
1009.276017	2601.235385
1009.569827	2603.755962
1009.863602	2588.632500
1010.157341	2538.220962
1010.451045	2563.426731
1010.744714	2611.317692
1011.038347	2515.535769
1011.331945	2573.509038
1011.625508	2558.385577
1011.919036	2621.400000
1012.212528	2520.576923
1012.505986	2568.467885
1012.799408	2510.494615
1013.092795	2573.509038
1013.386147	2485.288846
1013.679464	2581.070769
1013.972745	2573.509038
1014.265992	2591.153077
1014.559204	2646.605769
1014.852380	2608.797115
1015.145521	2651.646923
1015.438628	2565.947308
1015.731699	2611.317692
1016.024736	2644.085192
1016.317737	2598.714808
1016.610703	2671.811538
1016.903635	2538.220962
1017.196531	2560.906154
1017.489393	2656.688077
1017.782219	2538.220962
1018.075011	2601.235385
1018.367768	2573.509038
1018.660490	2596.194231
1018.953177	2596.194231
1019.245829	2596.194231
