Dividing Wavelength (nm)	Counts (n)	Blue Motor Position (mm): 31.600000	Red Motor Position (mm): 0.000000	
326.493990	2050.169214
326.888308	2050.169214
327.282561	2050.169214
327.676750	2026.238856
328.070874	2030.196162
328.464933	2035.496935
328.858929	2046.743750
329.252859	2054.900337
329.646726	2067.261246
330.040528	2085.028793
330.434265	2102.486308
330.827938	2124.773249
331.221547	2141.817391
331.615091	2164.041317
332.008571	2186.562672
332.401986	2204.153778
332.795338	2225.971892
333.188625	2245.783627
333.581847	2264.337594
333.975006	2281.273350
334.368100	2300.903603
334.761129	2318.096458
335.154095	2332.826710
335.546996	2385.874772
335.939833	2488.179948
336.332606	2497.725373
336.725315	2513.171468
337.117960	2523.715041
337.510540	2531.896834
337.903056	2537.618544
338.295508	2547.300080
338.687896	2554.703014
339.080220	2556.447253
339.472480	2564.805486
339.864676	2567.021073
340.256807	2569.705488
340.648875	2573.256981
341.040879	2570.144068
341.432818	2576.276632
341.824694	2574.217321
342.216506	2573.511559
342.608253	2574.865109
342.999937	2574.628175
343.391557	2569.234140
343.783113	2569.624829
344.174605	2568.939232
344.566033	2566.027966
344.957397	2564.956721
345.348697	2564.266083
345.739934	2563.285578
346.131106	2562.068140
346.522215	2558.977912
346.913260	2557.752912
347.304241	2557.664692
347.695159	2553.994732
348.086012	2553.921635
348.476802	2552.600853
348.867528	2546.342260
349.258191	2544.736653
349.648789	2542.765562
350.039324	2541.096940
350.429796	2547.579864
350.820203	2547.219421
351.210548	2547.426108
351.600828	2544.358566
351.991045	2540.970911
352.381198	2542.735315
352.771288	2543.279759
353.161314	2540.741538
353.551276	2540.791950
353.941175	2538.573842
354.331010	2540.449152
354.720782	2541.457382
355.110490	2544.976108
355.500135	2541.222969
355.889717	2545.699513
356.279235	2544.202291
356.668689	2544.345963
357.058080	2542.377393
357.447408	2544.361087
357.836672	2547.113557
358.225873	2546.296890
358.615010	2545.134904
359.004084	2546.962322
359.393095	2548.008362
359.782043	2544.116591
360.170927	2548.036088
360.559748	2548.588094
360.948505	2548.794782
361.337199	2552.779814
361.725830	2549.228321
362.114398	2550.135729
362.502903	2550.549103
362.891344	2551.494320
363.279722	2550.319731
363.668037	2551.922818
364.056289	2550.090358
364.444478	2553.810730
364.832603	2552.086655
365.220665	2552.742005
365.608665	2555.910370
365.996601	2554.748384
366.384474	2551.706048
366.772284	2556.089331
367.160031	2557.667212
367.547715	2552.542880
367.935336	2554.929866
368.322893	2554.887016
368.710388	2552.063970
369.097820	2554.382901
369.485189	2554.130843
369.872495	2560.301215
370.259738	2560.437327
370.646918	2555.658313
371.034035	2558.730896
371.421090	2560.485217
371.808081	2560.308777
372.195010	2559.088818
372.581875	2561.115362
372.968678	2563.822461
373.355418	2559.537481
373.742096	2560.775084
374.128710	2561.357337
374.515262	2563.013356
374.901751	2562.683161
375.288177	2563.288099
375.674540	2562.912533
376.060841	2568.014181
376.447079	2563.073850
376.833254	2564.916392
377.219367	2563.809858
377.605417	2566.907647
377.991404	2564.999571
378.377329	2562.438665
378.763191	2563.588048
379.148991	2564.823130
379.534727	2566.408573
379.920402	2567.699109
380.306013	2568.737586
380.691563	2570.348235
381.077049	2566.290106
381.462474	2564.601320
381.847835	2567.772205
382.233134	2569.942422
382.618371	2570.751527
383.003545	2570.507031
383.388657	2569.332442
383.773706	2571.921075
384.158693	2569.934860
384.543618	2571.237999
384.928480	2570.920406
385.313280	2569.458471
385.698017	2569.844120
386.082692	2571.444686
386.467305	2571.530386
386.851856	2573.806467
387.236344	2570.764130
387.620770	2573.070458
388.005133	2571.313616
388.389435	2571.812690
388.773674	2568.077195
389.157851	2573.561971
389.541965	2575.417115
389.926018	2574.751683
390.310008	2575.384348
390.693936	2574.590366
391.077802	2574.955850
391.461606	2576.813515
391.845348	2577.950295
392.229027	2575.394430
392.612645	2574.081209
392.996200	2578.867785
393.379694	2576.450552
393.763125	2580.125553
394.146494	2574.907959
394.529801	2576.548854
394.913047	2578.464493
395.296230	2581.050605
395.679351	2580.612024
396.062410	2579.399627
396.445408	2583.639237
396.828343	2582.502457
397.211217	2582.857858
397.594028	2582.179823
397.976778	2582.149576
398.359466	2582.270564
398.742092	2583.795513
399.124656	2582.588157
399.507158	2581.960533
399.889598	2584.360122
400.271977	2583.906418
400.654294	2588.098138
401.036549	2586.237952
401.418742	2585.537232
401.800874	2583.840883
402.182944	2587.049578
402.564952	2585.872468
402.946898	2588.458580
403.328783	2590.263313
403.710606	2589.396235
404.092367	2587.553693
404.474067	2589.058477
404.855705	2588.554362
405.237282	2591.011925
405.618797	2591.158118
406.000250	2594.649117
406.381642	2590.628797
406.762972	2591.836153
407.144240	2586.512695
407.525447	2590.976637
407.906593	2589.340782
408.287677	2594.697008
408.668700	2593.126689
409.049661	2595.561566
409.430560	2594.457553
409.811399	2599.428131
410.192176	2597.401587
410.572891	2599.304623
410.953545	2597.618357
411.334138	2599.390322
411.714669	2598.621546
412.095139	2599.566763
412.475547	2600.360744
412.855894	2601.326125
413.236180	2600.131372
413.616405	2604.774275
413.996568	2604.207145
414.376670	2600.469129
414.756711	2605.414501
415.136691	2601.449634
415.516609	2605.076744
415.896466	2605.636312
416.276262	2608.030860
416.655997	2606.722681
417.035670	2609.076899
417.415283	2615.017899
417.794834	2610.427929
418.174324	2611.463886
418.553753	2616.510081
418.933121	2614.884309
419.312428	2617.926645
419.691674	2618.579474
420.070859	2623.071142
420.449983	2624.402007
420.829045	2628.182872
421.208047	2633.329891
421.586988	2636.851137
421.965867	2641.320119
422.344686	2647.576191
422.723444	2654.817809
423.102141	2655.357212
423.480777	2665.953718
423.859352	2672.663493
424.237866	2684.535411
424.616319	2693.460774
424.994712	2706.976107
425.373044	2716.327447
425.751314	2732.249932
426.129524	2736.872670
426.507673	2761.768408
426.885762	2770.603030
427.263789	2796.020528
427.641756	2812.006027
428.019662	2835.535613
428.397508	2858.450177
428.775292	2881.248796
429.153016	2910.832807
429.530679	2931.138575
429.908282	2957.924746
430.285824	2980.723364
430.663305	3023.598377
431.040726	3046.979249
431.418086	3071.874987
431.795385	3114.684466
432.172624	3166.681447
432.549802	3182.283818
432.926920	3228.831312
433.303977	3257.298708
433.680974	3297.138947
434.057910	3360.017259
434.434786	3404.555853
434.811601	3438.868467
435.188355	3526.292157
435.565050	3551.800395
435.941683	3597.107765
436.318257	3694.255841
436.694770	3728.417220
437.071222	3815.339315
437.447614	3816.473575
437.823946	3861.574258
438.200218	3941.068213
438.576429	3967.483859
438.952580	4052.150038
439.328670	4107.882514
439.704700	4179.749203
440.080670	4205.968244
440.456580	4325.562058
440.832429	4381.793608
441.208218	4364.086555
441.583947	4454.860092
441.959616	4543.382754
442.335224	4615.887149
442.710773	4698.476372
443.086261	4817.198066
443.461689	4790.918531
443.837057	4904.939349
444.212365	5041.292478
444.587612	5107.780256
444.962800	5133.396879
445.337927	5247.387450
445.712995	5132.166838
446.088002	5464.020954
446.462949	5562.527621
446.837837	5641.144415
447.212664	5741.309622
447.587431	6231.725671
447.962139	6774.909998
448.336786	7211.756225
448.711374	7103.447035
449.085901	6624.156812
449.460369	6706.274688
449.834776	6752.129023
450.209124	7329.368865
450.583412	7296.278731
450.957640	7488.152608
451.331808	7354.110848
451.705917	7164.465161
452.079965	7203.831531
452.453954	7404.093888
452.827883	7465.086809
453.201752	7520.426075
453.575562	7612.870754
453.949311	7925.926408
454.323001	8063.935557
454.696632	8093.504444
455.070202	8560.486690
455.443713	8679.803240
455.817164	8878.308755
456.190556	9182.234879
456.563888	9152.106423
456.937160	9385.579902
457.310373	9111.005896
457.683526	9224.036127
458.056619	9339.387809
458.429653	9470.140216
458.802628	9685.722640
459.175542	9815.262650
459.548398	10315.622375
459.921194	10830.271250
460.293930	11155.377782
460.666607	11886.350131
461.039224	12556.397615
461.411782	12871.694062
461.784280	12622.199796
462.156719	12646.109989
462.529099	12647.783652
462.901419	12237.355591
463.273680	12020.480112
463.645882	12283.225050
464.018024	12325.905979
464.390106	12772.355605
464.762130	13864.819014
465.134094	15392.578495
465.505999	17437.020958
465.877845	19333.729887
466.249631	20212.884433
466.621358	19724.338652
466.993026	19063.655111
467.364634	18494.254263
467.736184	17923.146985
468.107674	17483.936457
468.479105	17412.538595
468.850477	17216.084829
469.221790	16889.690282
469.593043	16355.781678
469.964238	16086.248826
470.335373	16233.049747
470.706449	17083.807473
471.077467	18234.355056
471.448425	20514.393324
471.819324	21959.924024
472.190164	21491.167293
472.560945	19925.314332
472.931667	18617.921329
473.302330	18414.057067
473.672934	17999.354108
474.043479	18469.507239
474.413965	18302.418195
474.784393	18171.443977
475.154761	18804.789340
475.525070	18966.267580
475.895321	18842.061111
476.265513	19349.927114
476.635645	19947.170255
477.005719	20017.771614
477.375734	20419.107954
477.745691	21021.636744
478.115588	21688.493178
478.485427	22947.019756
478.855207	24814.583254
479.224928	26520.023244
479.594591	27667.402463
479.964194	27146.255540
480.333739	27510.695675
480.703226	27820.903077
481.072653	28333.467435
481.442022	28832.778600
481.811333	29135.779673
482.180584	28652.257401
482.549777	28448.640156
482.918912	28258.525642
483.287988	28230.511950
483.657005	28064.683194
484.025964	27717.088075
484.394864	27917.287418
484.763706	27865.083749
485.132489	27378.715746
485.501213	27452.614021
485.869879	27669.471856
486.238487	27627.668088
486.607036	27892.764725
486.975527	27634.045148
487.343959	27958.241751
487.712333	28281.641853
488.080648	28257.938347
488.448905	28676.659107
488.817104	28630.293094
489.185244	29518.990544
489.553326	30668.882777
489.921350	32600.670575
490.289315	34968.324096
490.657222	35649.358775
491.025070	36026.769799
491.392861	35630.454448
491.760593	34824.373948
492.128267	33831.286805
492.495883	32888.132291
492.863440	32056.213357
493.230939	31196.394157
493.598380	30700.662211
493.965763	30594.979462
494.333088	30154.044858
494.700354	29975.363681
495.067563	29957.598655
495.434713	29889.228006
495.801805	30170.350471
496.168839	30053.141123
496.535815	29919.865618
496.902733	30070.921273
497.269593	29891.060465
497.636395	30038.002538
498.003139	30341.046460
498.369825	30102.814132
498.736453	30522.197803
499.103023	30368.984535
499.469535	30473.941358
499.835989	30610.934714
500.202385	30478.483438
500.568723	30562.544678
500.935003	30888.906458
501.301226	30791.718053
501.667390	31485.995842
502.033497	31684.221573
502.399546	31485.625318
502.765537	31090.648393
503.131470	31565.731773
503.497345	31990.290188
503.863163	31002.425680
504.228923	31757.698911
504.594625	32159.579696
504.960269	31671.676662
505.325856	32335.183249
505.691385	32023.705476
506.056856	32348.726309
506.422270	32828.371933
506.787625	32381.360218
507.152924	32843.959180
507.518164	33037.108469
507.883347	32628.679226
508.248472	32789.726447
508.613540	33461.172852
508.978550	33703.337279
509.343503	33576.501849
509.708398	33925.601753
510.073236	34544.771391
510.438016	34637.563910
510.802738	34341.020556
511.167403	34890.110594
511.532010	35156.069268
511.896561	35647.972458
512.261053	36394.559781
512.625488	36178.735382
512.989866	36116.315815
513.354186	36180.593047
513.718449	36142.814640
514.082655	37016.045830
514.446803	36750.563545
514.810894	37364.765127
515.174927	37390.848057
515.538904	37370.595221
515.902822	38021.813995
516.266684	37736.651046
516.630488	38094.464584
516.994235	38114.833366
517.357925	38714.612207
517.721558	38969.911361
518.085133	39333.144140
518.448651	39546.354700
518.812112	39424.734343
519.175516	39580.639588
519.538863	40021.617041
519.902152	40099.407086
520.265385	40644.139047
520.628560	40678.403770
520.991678	40626.477365
521.354739	40862.559640
521.717743	41239.882444
522.080690	41140.755715
522.443580	41815.955259
522.806413	41848.891637
523.169189	41984.859118
523.531908	42218.332597
523.894569	42084.399222
524.257174	42284.089408
524.619722	42628.480874
524.982213	42755.966613
525.344647	42801.243737
525.707025	42928.333746
526.069345	43386.241914
526.431608	43282.608394
526.793815	43677.832335
527.155964	43233.646187
527.518057	43503.436138
527.880093	43352.894682
528.242072	43982.411289
528.603995	43724.130292
528.965860	43653.390301
529.327669	43878.074527
529.689421	43938.419660
530.051117	43882.593922
530.412755	44177.907235
530.774337	44241.456020
531.135862	44181.592318
531.497331	44328.143702
531.858743	44314.898070
532.220098	44742.506383
532.581396	44466.651924
532.942638	44236.513169
533.303824	44487.998690
533.664953	44528.048137
534.026025	44231.315739
534.387040	44789.104289
534.747999	44866.097832
535.108902	45186.634558
535.469748	44512.980128
535.830537	44769.685764
536.191270	45038.704419
536.551947	44763.507830
536.912567	45034.424479
537.273131	45191.640423
537.633638	44820.520760
537.994089	45015.202559
538.354483	44778.502742
538.714821	45412.253919
539.075103	45697.805037
539.435328	45552.072841
539.795497	45312.902859
540.155609	45422.691628
540.515665	46020.257402
540.875665	45320.210011
541.235609	45618.847965
541.595496	45729.425675
541.955328	46304.273489
542.315102	45738.724083
542.674821	45622.351567
543.034483	45513.618920
543.394090	45524.492688
543.753640	45507.967786
544.113134	46574.839777
544.472571	45685.040836
544.831953	46806.294274
545.191278	46070.250524
545.550548	45764.166786
545.909761	46403.155722
546.268918	46557.142807
546.628019	46953.748024
546.987064	46390.235244
547.346053	45692.700869
547.704986	46599.891792
548.063863	46240.102121
548.422684	46434.877182
548.781449	46042.619960
549.140158	46574.933039
549.498811	46324.203691
549.857408	45735.989257
550.215949	46572.823316
550.574434	46407.198727
550.932864	46334.641400
551.291237	47051.274186
551.649555	46804.366033
552.007817	46984.206676
552.366022	46644.810993
552.724173	46710.038482
553.082267	47134.596898
553.440305	47458.496073
553.798288	46723.014413
554.156215	47122.465361
554.514086	47319.703026
554.871902	46946.178732
555.229661	47107.682177
555.587365	46787.813404
555.945014	46932.242462
556.302606	46951.126624
556.660143	47052.337870
557.017625	47254.881349
557.375050	46961.614745
557.732421	47369.900315
558.089735	47432.713092
558.446994	47299.334244
558.804197	47772.065925
559.161345	47638.601377
559.518437	46980.705594
559.875474	47242.439781
560.232455	47467.393710
560.589381	47536.112199
560.946251	47312.295050
561.303065	47985.152977
561.659825	47668.061880
562.016528	47469.871437
562.373177	47047.924340
562.729770	47685.889921
563.086307	47191.811473
563.442789	47745.365454
563.799216	47589.755117
564.155587	47472.407137
564.511904	47458.995148
564.868164	47515.526647
565.224370	47828.791509
565.580520	47555.094663
565.936615	47757.244933
566.292654	47388.325733
566.648638	47756.279552
567.004567	47687.251032
567.360441	47780.179662
567.716260	47521.825569
568.072023	47852.931074
568.427732	47811.555804
568.783385	47349.229064
569.138982	47749.216895
569.494525	47886.235457
569.850013	47459.433728
570.205445	47582.818489
570.560823	47382.271307
570.916145	47246.792818
571.271412	47464.532855
571.626625	47117.376316
571.981782	47207.814616
572.336884	46799.720609
572.691931	47139.867424
573.046923	46795.342367
573.401860	46629.685011
573.756743	46640.548697
574.111570	46802.566341
574.466342	46701.579426
574.821059	46839.354161
575.175722	46337.615680
575.530330	46466.018910
575.884882	46100.895699
576.239380	45987.648698
576.593823	46071.747747
576.948211	46016.315219
577.302544	45567.907105
577.656823	45555.299180
578.011047	45813.340722
578.365216	45632.993443
578.719330	45365.408997
579.073389	45334.153843
579.427394	45379.370472
579.781344	45322.347460
580.135239	45094.210043
580.489080	45141.770809
580.842866	44639.820600
581.196597	45111.675121
581.550273	45114.457838
581.903895	45039.417742
582.257463	45499.309604
582.610975	44922.984732
582.964434	45258.223983
583.317837	44760.175628
583.671186	44728.877624
584.024481	44993.830588
584.377721	44535.244384
584.730906	44739.832051
585.084037	44869.515734
585.437113	44577.549747
585.790135	44715.959667
586.143103	44253.068318
586.496016	44414.980097
586.848874	44516.261919
587.201679	44545.704778
587.554428	44040.644177
587.907124	44324.491386
588.259765	44100.104587
588.612352	44245.123460
588.964884	43706.050194
589.317362	44021.437381
589.669786	44022.793452
590.022155	43872.294845
590.374470	44325.635728
590.726731	43894.864090
591.078937	43247.267385
591.431090	43568.214965
591.783188	43100.524438
592.135232	42891.422417
592.487222	43164.854602
592.839157	43307.393227
593.191038	42949.703197
593.542866	42755.505348
593.894639	42154.698112
594.246358	42450.560911
594.598022	42460.618013
594.949633	42050.217678
595.301190	42024.641384
595.652692	41954.408028
596.004141	42423.736931
596.355535	41350.558456
596.706876	41356.902748
597.058162	41084.183887
597.409395	41575.328383
597.760573	41792.695375
598.111698	41388.614127
598.462768	41326.209683
598.813785	41338.187465
599.164748	40953.711264
599.515657	41220.577345
599.866511	40724.064021
600.217312	41406.472414
600.568060	40363.021623
600.918753	41187.280524
601.269392	41117.805862
601.619978	40826.570843
601.970510	41032.378469
602.320988	41183.711387
602.671412	41425.437235
603.021783	41294.639457
603.372100	40865.057532
603.722363	40976.217495
604.072572	41008.632114
604.422728	40988.333908
604.772830	40788.815121
605.122878	40942.693822
605.472872	40801.949848
605.822813	41057.284290
606.172701	40823.717550
606.522534	41134.280353
606.872314	41362.896680
607.222041	41180.696777
607.571714	41525.012626
607.921333	41015.503207
608.270899	41226.087327
608.620411	41614.644342
608.969870	41341.786848
609.319276	41362.279139
609.668627	41404.098031
610.017926	41809.411841
610.367171	41927.521034
610.716362	41963.910603
611.065500	41870.671942
611.414585	42095.739297
611.763616	42260.544699
612.112594	42181.239787
612.461518	42291.734318
612.810389	42681.982640
613.159207	42472.505053
613.507971	42457.053917
613.856682	42943.875623
614.205340	42776.995787
614.553945	43455.192296
614.902496	42789.938949
615.250994	43221.307963
615.599439	43261.440589
615.947830	43403.916200
616.296169	43396.334304
616.644454	43416.544290
616.992686	43583.845063
617.340864	44043.162234
617.688990	43555.102924
618.037063	44250.232669
618.385082	44066.336418
618.733048	44409.712092
619.080961	44283.526970
619.428821	44296.102128
619.776628	44315.515611
620.124382	44128.627435
620.472083	44228.681736
620.819731	44321.302856
621.167326	43883.839087
621.514868	43874.427253
621.862357	43341.945295
622.209793	43420.057974
622.557176	42985.293743
622.904506	42743.469593
623.251783	42369.229455
623.599007	42051.520816
623.946179	41982.807369
624.293297	41709.168497
624.640363	41185.445544
624.987376	41033.689169
625.334336	40836.872441
625.681243	40415.774778
626.028097	40325.767497
626.374899	40160.773052
626.721647	40117.938367
627.068343	39919.395044
627.414987	39614.609403
627.761577	39360.956185
628.108115	39695.522443
628.454600	38938.270559
628.801032	39170.536681
629.147412	39057.778672
629.493739	38978.355294
629.840014	38534.398518
630.186236	38970.060075
630.532405	38428.458670
630.878521	38656.001232
631.224585	38416.662370
631.570597	38096.818803
631.916556	38257.777804
632.262462	38153.509098
632.608316	38081.934796
632.954117	37929.263452
633.299866	37888.382215
633.645562	37801.260994
633.991206	37278.894112
634.336797	36870.772379
634.682336	36760.572756
635.027823	36522.287496
635.373257	36389.223719
635.718639	36069.168423
636.063968	35968.292414
636.409245	35311.054502
636.754470	35268.766783
637.099642	35041.022576
637.444762	34478.669262
637.789829	34630.733147
638.134845	34261.403093
638.479808	34157.925848
638.824719	34103.557004
639.169577	33595.244859
639.514383	33693.214643
639.859137	33310.669203
640.203839	33478.592559
640.548489	33190.001624
640.893086	33195.451112
641.237632	32912.304624
641.582125	33013.800695
641.926566	32823.681139
642.270955	32852.163658
642.615292	32764.001439
642.959576	32659.939421
643.303809	32678.195960
643.647990	32770.461678
643.992118	32710.708881
644.336195	32553.964285
644.680219	32651.815602
645.024192	32851.853627
645.368112	33380.726118
645.711981	33411.043618
646.055797	34141.431193
646.399562	33961.530056
646.743274	34813.492618
647.086935	35211.993309
647.430544	35166.721227
647.774101	35202.397472
648.117606	35477.624308
648.461059	35611.504751
648.804460	35202.684818
649.147810	34691.836972
649.491108	34328.619317
649.834354	34187.824932
650.177548	33364.851525
650.520690	32873.888511
650.863781	32875.438666
651.206820	32674.024405
651.549807	32277.036060
651.892742	31716.910936
652.235626	31610.240120
652.578458	31489.847284
652.921238	30805.777831
653.263967	31113.673863
653.606644	30816.160087
653.949269	30715.495806
654.291843	30339.992859
654.634365	30699.399402
654.976836	30253.554715
655.319255	30317.872276
655.661622	30205.386490
656.003938	30059.112370
656.346203	29884.968231
656.688416	30110.017941
657.030577	29876.083197
657.372687	29712.429699
657.714746	29880.418589
658.056753	30065.335674
658.398708	29450.277096
658.740612	29511.456539
659.082465	29719.089063
659.424266	29626.503232
659.766016	29633.762493
660.107715	29481.194493
660.449362	29582.196531
660.790958	29569.152545
661.132503	29494.775361
661.473996	29570.042309
661.815438	29647.020728
662.156829	29773.929256
662.498168	29574.498689
662.839456	29552.882221
663.180693	29678.210347
663.521879	29780.485276
663.863013	29736.249151
664.204097	29709.314266
664.545129	30125.970673
664.886110	30052.763037
665.227040	30154.246505
665.567918	30158.962504
665.908746	30220.338552
666.249522	30317.821865
666.590248	30332.718474
666.930922	30434.264957
667.271545	30437.027509
667.612118	30491.845016
667.952639	30304.977005
668.293109	30327.730253
668.633528	30197.544975
668.973896	30170.589925
669.314213	30138.288732
669.654480	29953.417018
669.994695	29945.719176
670.334859	29860.024602
670.674973	29705.404851
671.015035	29882.210720
671.355047	29819.897017
671.695008	29748.070657
672.034918	29659.028757
672.374777	29767.479099
672.714585	29625.293355
673.054342	29763.549520
673.394049	29621.933426
673.733705	29831.728605
674.073310	29561.863037
674.412864	29606.187382
674.752368	29307.224274
675.091820	29520.570946
675.431223	29131.408992
675.770574	28920.776982
676.109875	28756.886549
676.449125	28561.599811
676.788324	28467.753691
677.127473	27988.405495
677.466571	27895.179437
677.805619	27616.345656
678.144616	27547.226396
678.483562	27485.000913
678.822458	27181.195777
679.161303	27122.730995
679.500098	27047.222072
679.838842	26977.568450
680.177535	27072.982368
680.516179	27309.223441
680.854771	27438.886959
681.193314	28220.147338
681.531805	29256.462375
681.870247	30006.966674
682.208638	30721.847660
682.546978	30983.269296
682.885268	31123.002519
683.223508	30664.428918
683.561697	30401.404195
683.899836	30227.496991
684.237925	29825.452368
684.575963	29688.637974
684.913951	29312.404059
685.251889	29490.308899
685.589776	29526.630413
685.927614	29532.163079
686.265401	29710.078001
686.603137	29821.953808
686.940824	30341.711893
687.278460	30673.651709
687.616046	30852.690808
687.953582	31511.191529
688.291068	31419.755081
688.628504	31744.392786
688.965889	31737.564543
689.303224	31462.889714
689.640510	31172.799036
689.977745	30525.104028
690.314930	29783.852767
690.652065	29338.537401
690.989150	28665.997066
691.326185	27827.648140
691.663170	27196.054578
692.000105	26461.734903
692.336990	25845.327816
692.673825	25433.803304
693.010610	24947.228615
693.347345	24460.434635
693.684030	23834.046063
694.020665	23636.032061
694.357251	22968.711841
694.693786	22983.192556
695.030272	22739.674578
695.366707	22249.906317
695.703093	21978.425059
696.039429	22047.347714
696.375716	21819.374135
696.711952	21827.412254
697.048139	21687.399248
697.384276	21535.584899
697.720363	21650.530769
698.056400	21538.564221
698.392388	21375.490456
698.728326	21384.322558
699.064214	21212.865354
699.400053	21227.857745
699.735842	20826.798669
700.071581	20629.606374
700.407270	20379.860051
700.742910	20205.254646
701.078501	19966.157761
701.414042	19757.650596
701.749533	19455.561973
702.084974	19146.400610
702.420366	19371.722543
702.755709	18964.339339
703.091002	18674.586419
703.426246	18732.398371
703.761440	18660.302309
704.096584	18424.182225
704.431679	18370.130973
704.766725	18310.627714
705.101721	18241.059791
705.436668	18375.701448
705.771565	18095.410774
706.106413	18419.660310
706.441212	18498.579573
706.775961	18595.125231
707.110661	18683.809210
707.445311	19058.074554
707.779913	18927.178473
708.114465	19229.763651
708.448967	19530.672644
708.783421	20166.536064
709.117825	20528.770694
709.452180	20764.880697
709.786485	21217.654450
710.120742	21979.292138
710.454949	22103.576744
710.789107	22602.789607
711.123216	23309.902175
711.457275	23533.290825
711.791286	24075.915584
712.125247	24232.957608
712.459159	23945.074956
712.793023	24699.344998
713.126837	23660.630371
713.460602	23909.812085
713.794318	23550.667682
714.127985	23285.326550
714.461602	22387.938151
714.795171	22356.551927
715.128691	21390.439998
715.462162	20864.027590
715.795584	20442.700554
716.128957	20180.167344
716.462281	19798.191556
716.795556	19531.121307
717.128782	19045.859838
717.461960	18457.085836
717.795088	18414.203261
718.128167	18072.009738
718.461198	17625.534906
718.794180	17491.490626
719.127113	17163.213208
719.459997	16978.061709
719.792833	16612.822551
720.125619	16650.679096
720.458357	16325.212122
720.791046	16190.260433
721.123686	16035.360899
721.456278	15822.316696
721.788821	15819.549103
722.121315	15555.737960
722.453761	15648.706919
722.786158	15541.393357
723.118506	15622.835718
723.450805	15502.412635
723.783056	15688.469020
724.115259	15577.908955
724.447412	15573.734879
724.779518	15799.467666
725.111574	15847.845099
725.443582	16112.354442
725.775542	16069.607977
726.107453	16594.198008
726.439315	16512.770771
726.771129	16924.093637
727.102895	17352.463164
727.434612	17621.262528
727.766281	17781.596427
728.097901	18103.769007
728.429473	18189.299744
728.760996	18198.091516
729.092471	18314.925298
729.423897	18198.714099
729.755276	18083.115400
730.086606	18200.107978
730.417887	18782.235218
730.749120	19341.641978
731.080305	19544.170334
731.411442	19947.069432
731.742530	20057.521112
732.073570	20216.163703
732.404562	20532.022239
732.735506	20368.290603
733.066401	20162.906433
733.397249	19665.526030
733.728048	19035.893477
734.058798	18181.546449
734.389501	17415.623781
734.720156	16902.875420
735.050762	16345.132241
735.381320	15951.992817
735.711831	15686.306365
736.042293	15326.927549
736.372707	15356.435943
736.703073	15157.552341
737.033391	15362.177817
737.363661	15354.008627
737.693883	15488.614997
738.024056	15691.697879
738.354182	15917.211376
738.684260	16282.059845
739.014290	16547.451389
739.344272	16781.005526
739.674207	17133.009134
740.004093	17307.065053
740.333931	17346.849839
740.663722	17435.009538
740.993464	17463.429043
741.323159	17306.291236
741.652806	16999.829412
741.982405	16836.243969
742.311956	16476.756768
742.641460	16368.664347
742.970915	16021.636358
743.300323	15679.105077
743.629683	15462.443847
743.958996	15152.732998
744.288260	14838.406974
744.617477	14537.631571
744.946647	14506.227703
745.275768	14193.600547
745.604842	13992.211492
745.933869	13812.874964
746.262847	13781.776086
746.591778	13703.033263
746.920662	13591.270882
747.249498	13601.635495
747.578286	13760.121810
747.907027	13935.256536
748.235720	14203.317371
748.564365	14275.577270
748.892963	14207.027660
749.221514	14304.460561
749.550017	14168.084747
749.878473	14144.088854
750.206881	13910.905242
750.535242	13844.208256
750.863555	13756.983692
751.191821	13658.209844
751.520039	13678.752546
751.848210	13604.725722
752.176334	13656.185821
752.504411	13588.891458
752.832440	13399.081933
753.160421	13520.170449
753.488356	13402.051173
753.816243	13323.691477
754.144082	13158.414728
754.471875	13100.461623
754.799620	13069.793764
755.127318	13037.853013
755.454969	13035.642467
755.782572	13004.329340
756.110129	13011.512984
756.437638	12923.035693
756.765100	12931.749328
757.092515	12952.347482
757.419882	12995.018329
757.747203	13014.446936
758.074477	13102.140328
758.401703	13088.264552
758.728882	13279.291515
759.056014	13330.282786
759.383099	13493.906037
759.710138	13624.108959
760.037129	13744.731167
760.364073	13805.088902
760.690970	13828.026152
761.017820	13857.138816
761.344623	14072.267536
761.671379	14453.514877
761.998088	15162.243135
762.324751	16940.305988
762.651366	20372.416787
762.977935	24851.003070
763.304456	27793.524570
763.630931	28832.120729
763.957359	27592.924456
764.283740	25324.682488
764.610074	23052.667217
764.936362	20417.744322
765.262602	18542.447694
765.588796	16619.439066
765.914943	15337.546739
766.241044	14246.930913
766.567097	13451.154532
766.893104	12743.086666
767.219064	12286.804269
767.544978	11812.585448
767.870845	11424.114132
768.196665	11208.879548
768.522438	10971.090842
768.848165	10770.054668
769.173846	10565.532535
769.499479	10437.683833
769.825066	10268.969016
770.150607	10039.301609
770.476101	9960.042068
770.801548	9835.863325
771.126949	9680.948667
771.452303	9570.975896
771.777611	9370.186738
772.102872	9359.002938
772.428087	9220.746774
772.753256	9060.102845
773.078378	8973.551274
773.403453	8793.017473
773.728482	8680.877005
774.053465	8606.066282
774.378401	8501.845468
774.703291	8384.394145
775.028135	8267.981300
775.352932	8227.541163
775.677683	8123.849670
776.002388	8014.244903
776.327046	8026.010956
776.651658	7928.149557
776.976224	7831.518200
777.300743	7824.576531
777.625216	7738.627378
777.949643	7702.096657
778.274024	7713.895478
778.598359	7622.990871
778.922647	7647.884088
779.246889	7600.212417
779.571086	7606.697862
779.895236	7619.152032
780.219339	7624.825851
780.543397	7626.864998
780.867409	7705.978345
781.191374	7716.242135
781.515294	7682.153852
781.839167	7777.701362
782.162995	7744.124757
782.486776	7691.999226
782.810511	7640.803788
783.134201	7558.040645
783.457844	7554.451343
783.781441	7495.421952
784.104993	7431.603465
784.428498	7406.246461
784.751958	7390.739872
785.075372	7361.627208
785.398739	7307.795247
785.722061	7358.282403
786.045337	7360.997064
786.368568	7518.931373
786.691752	7546.546814
787.014891	7882.385963
787.337983	8248.958506
787.661030	8842.952622
787.984031	9470.495618
788.306987	9870.468325
788.629897	10084.936654
788.952760	10018.942909
789.275579	9790.636613
789.598351	9402.029187
789.921078	9043.341008
790.243759	8626.724931
790.566395	8341.698092
790.888984	8092.201306
791.211529	7879.131898
791.534027	7658.813310
791.856480	7456.433668
792.178888	7388.284830
792.501249	7283.375898
792.823566	7126.565766
793.145836	7134.256047
793.468062	7106.925431
793.790241	7064.836837
794.112375	7126.913606
794.434464	7281.762729
794.756507	7323.795869
795.078505	7488.734862
795.400457	7802.428221
795.722364	8158.563055
796.044226	8439.103267
796.366042	8720.021565
796.687812	8662.640631
797.009538	8736.150737
797.331218	8630.878842
797.652852	8542.164616
797.974442	8390.259527
798.295986	8301.721742
798.617484	8105.096578
798.938938	7964.939898
799.260346	7866.125721
799.581709	7666.004516
799.903026	7588.065757
800.224299	7481.137843
800.545526	7310.368756
800.866708	7207.529218
801.187845	7147.632748
801.508936	7040.021758
801.829983	6998.855695
802.150984	6847.946234
802.471940	6804.408309
802.792851	6792.428007
803.113717	6756.829899
803.434538	6725.325208
803.755314	6671.117681
804.076045	6673.154307
804.396731	6624.625640
804.717372	6656.770557
805.037967	6658.812224
805.358518	6701.599018
805.679024	6788.034642
805.999485	6794.676362
806.319901	6834.483833
806.640272	6856.370003
806.960598	6942.503157
807.280879	6943.634896
807.601115	7024.699171
807.921306	6963.058462
808.241453	6977.735781
808.561554	6997.902917
808.881611	6962.720705
809.201623	6969.420398
809.521590	6912.747747
809.841513	6890.382668
810.161390	6931.281549
810.481223	6802.444780
810.801011	6782.822088
811.120755	6764.555468
811.440453	6680.010276
811.760107	6645.143136
812.079716	6620.380988
812.399281	6553.368930
812.718801	6542.916097
813.038276	6498.662328
813.357707	6439.927845
813.677093	6478.288505
813.996434	6384.500358
814.315731	6426.689775
814.634983	6414.525471
814.954191	6431.370486
815.273354	6534.512494
815.592473	6600.652433
815.911547	6723.956535
816.230577	6812.048178
816.549562	6958.007226
816.868502	7057.401136
817.187399	7152.925960
817.506250	7306.933210
817.825058	7337.855648
818.143821	7608.628623
818.462539	7879.555355
818.781213	8250.952282
819.099843	8803.404770
819.418429	9804.860229
819.736970	10779.779053
820.055466	11963.454579
820.373919	13496.565246
820.692327	15841.609192
821.010691	19994.678088
821.329011	29019.931437
821.647286	42054.079202
821.965517	55503.313054
822.283704	60860.159078
822.601847	62825.246217
822.919945	60100.063983
823.237999	55868.532047
823.556010	49655.060395
823.873976	42919.741099
824.191897	36386.887145
824.509775	31548.425492
824.827609	27043.345425
825.145398	24456.747031
825.463144	23096.784875
825.780845	23424.858126
826.098502	25205.968356
826.416116	29018.048566
826.733685	32709.045301
827.051210	33875.563259
827.368692	32083.024734
827.686129	28106.108876
828.003522	23965.307627
828.320872	20238.579194
828.638177	17379.647586
828.955439	15232.433641
829.272656	13414.099531
829.589830	11938.657143
829.906960	10671.497589
830.224046	9731.592099
830.541088	8976.001275
830.858086	8524.954117
831.175041	8150.819843
831.491952	8036.672997
831.808819	8078.406189
832.125642	8487.914239
832.442421	9378.880208
832.759157	11179.729076
833.075849	14121.834681
833.392497	17360.624792
833.709101	19543.767042
834.025662	19374.737153
834.342179	17672.137853
834.658653	15457.493433
834.975083	13524.047096
835.291469	11894.710885
835.607811	10581.845709
835.924110	9670.831071
836.240366	8804.574318
836.556578	7998.584559
836.872746	7352.268306
837.188871	6850.857501
837.504952	6435.355518
837.820990	6124.528055
838.136984	5908.375981
838.452935	5811.754705
838.768842	5844.781825
839.084706	6268.904180
839.400526	7484.238152
839.716303	9071.717663
840.032037	10171.392442
840.347727	10092.062325
840.663373	9104.538095
840.978977	8062.569404
841.294537	7247.293839
841.610054	6650.829557
841.925527	6217.922991
842.240957	5861.362180
842.556344	5525.013875
842.871687	5241.141460
843.186987	4962.244665
843.502244	4740.209564
843.817458	4572.119851
844.132629	4439.101445
844.447756	4345.845140
844.762840	4266.290691
845.077881	4193.219166
845.392879	4127.797592
845.707833	4086.013989
846.022745	4035.988098
846.337613	4011.725025
846.652438	3966.407572
846.967221	3953.303093
847.281960	3916.028802
847.596656	3902.369795
847.911309	3875.984396
848.225919	3855.610573
848.540485	3839.748582
848.855009	3827.125533
849.169490	3805.987975
849.483928	3793.765697
849.798323	3786.166158
850.112675	3765.840226
850.426984	3773.775002
850.741251	3760.141201
851.055474	3754.981580
851.369654	3760.010131
851.683792	3756.105758
851.997887	3762.324021
852.311938	3763.536418
852.625947	3767.884413
852.939914	3756.393103
853.253837	3764.779063
853.567718	3762.944083
853.881555	3759.657250
854.195350	3769.437089
854.509103	3768.590175
854.822812	3766.072119
855.136479	3756.592229
855.450103	3767.370216
855.763685	3748.889346
856.077224	3757.003083
856.390720	3773.003705
856.704173	3793.533804
857.017584	3804.306750
857.330953	3819.659584
857.644278	3839.688088
857.957561	3845.029191
858.270802	3839.844364
858.584000	3844.018439
858.897155	3838.619364
859.210268	3819.790654
859.523339	3796.944145
859.836367	3798.471614
860.149352	3790.002476
860.462295	3780.719191
860.775195	3774.344652
861.088054	3767.077829
861.400869	3765.147067
861.713642	3768.259979
862.026373	3778.773306
862.339062	3784.177423
862.651708	3803.054023
862.964312	3836.698684
863.276873	3850.647557
863.589392	3910.760796
863.901869	3953.159420
864.214303	4001.168849
864.526696	4031.514074
864.839045	4078.888318
865.151353	4106.705405
865.463619	4114.393164
865.775842	4122.950523
866.088023	4141.156650
866.400162	4130.237511
866.712258	4136.831340
867.024313	4139.256135
867.336325	4135.654231
867.648296	4144.156137
867.960224	4145.575221
868.272110	4149.802229
868.583954	4152.302641
868.895755	4171.726207
869.207515	4169.140095
869.519233	4207.972103
869.830909	4221.096747
870.142542	4247.149430
870.454134	4263.810444
870.765684	4290.611738
871.077191	4324.314372
871.388657	4351.178681
871.700081	4387.767376
872.011463	4432.091721
872.322803	4467.382318
872.634101	4499.912884
872.945357	4541.081467
873.256571	4590.620886
873.567744	4621.596256
873.878874	4642.383453
874.189963	4680.416439
874.501010	4686.065052
874.812015	4683.123538
875.122979	4730.182709
875.433900	4725.265064
875.744780	4737.820057
876.055618	4764.429788
876.366415	4766.647896
876.677169	4786.144558
876.987882	4830.955375
877.298554	4885.430083
877.609183	4960.417247
877.919771	5074.622067
878.230317	5218.471392
878.540822	5433.751346
878.851285	5760.589514
879.161707	6219.730245
879.472087	6979.492623
879.782425	8216.284267
880.092722	10405.932125
880.402977	13723.850708
880.713191	17489.673290
881.023363	21227.091490
881.333494	23439.416979
881.643583	24655.343286
881.953631	24648.872965
882.263637	23789.038642
882.573602	22295.027165
882.883526	20730.124461
883.193408	19049.991063
883.503248	17344.861104
883.813048	15794.764270
884.122806	14359.341083
884.432522	12890.971434
884.742197	11628.341357
885.051831	10535.419203
885.361424	9546.957318
885.670975	8724.803099
885.980485	8024.901902
886.289954	7457.174718
886.599382	6985.418500
886.908768	6609.348423
887.218113	6250.420790
887.527417	5958.744669
887.836680	5690.706519
888.145901	5473.359692
888.455082	5316.499149
888.764221	5156.775230
889.073319	5024.429818
889.382376	4958.310044
889.691392	4894.650354
890.000366	4873.787538
890.309300	4853.007902
890.618193	4859.137945
890.927044	4848.372561
891.235855	4870.162949
891.544625	4899.653699
891.853353	4960.545796
892.162041	5077.797993
892.470687	5263.574595
892.779293	5510.699518
893.087858	5888.786057
893.396381	6465.012627
893.704864	7271.882067
894.013306	8433.646218
894.321707	9612.978790
894.630068	10438.563514
894.938387	10651.239712
895.246665	10403.678729
895.554903	9790.986973
895.863100	9089.316331
896.171256	8530.378398
896.479371	8018.116509
896.787446	7521.686364
897.095480	7087.980775
897.403473	6771.895388
897.711425	6451.106604
898.019336	6187.275297
898.327207	5910.793214
898.635038	5680.067164
898.942827	5435.034320
899.250576	5240.617180
899.558284	5049.580135
899.865952	4923.889046
900.173579	4779.316315
900.481165	4666.596115
900.788711	4577.166046
901.096216	4504.086959
901.403681	4436.306125
901.711105	4410.883587
902.018489	4401.391094
902.325832	4470.827947
902.633135	4593.854786
902.940397	4937.212816
903.247619	5733.261419
903.554800	7180.748088
903.861941	9108.036656
904.169041	10633.646086
904.476101	11252.324212
904.783121	10893.033616
905.090100	10146.242126
905.397039	9308.601482
905.703938	8550.664002
906.010796	7861.568518
906.317614	7300.054555
906.624391	6766.788699
906.931129	6343.414955
907.237826	5943.648934
907.544483	5570.739661
907.851099	5195.687897
908.157675	4837.934852
908.464211	4519.233106
908.770707	4280.027836
909.077163	4083.939554
909.383578	3934.381122
909.689954	3822.185202
909.996289	3753.403699
910.302584	3692.841797
910.608839	3656.550531
910.915054	3627.024493
911.221229	3611.832976
911.527363	3623.147845
911.833458	3637.948673
912.139513	3665.664937
912.445527	3698.334134
912.751502	3777.243316
913.057436	3877.101012
913.363331	4012.589583
913.669186	4215.392682
913.975000	4474.984378
914.280775	4894.310076
914.586510	5475.618129
914.892205	6275.966837
915.197859	7318.709345
915.503475	8547.936737
915.809050	9614.397875
916.114585	10262.954920
916.420081	10521.245999
916.725536	10484.029681
917.030952	10046.583556
917.336328	9624.114699
917.641665	9209.686482
917.946961	8728.115137
918.252218	8311.960326
918.557435	7798.690206
918.862612	7358.045469
919.167750	6989.103583
919.472848	6557.081740
919.777906	6188.933836
920.082925	5827.548640
920.387904	5462.475841
920.692843	5193.484913
920.997743	4947.305206
921.302603	4712.967169
921.607423	4556.346081
921.912204	4388.367273
922.216946	4270.157256
922.521647	4148.141169
922.826310	4043.645611
923.130932	3952.995583
923.435516	3853.541179
923.740059	3780.441928
924.044564	3705.396791
924.349028	3645.767503
924.653454	3581.568408
924.957840	3515.385620
925.262186	3466.965338
925.566493	3406.418559
925.870761	3350.040815
926.174989	3315.907163
926.479178	3277.362500
926.783328	3236.372878
927.087438	3206.788867
927.391509	3170.666479
927.695541	3144.200421
927.999533	3119.193778
928.303486	3094.545056
928.607400	3081.087696
928.911275	3070.375244
929.215110	3051.060063
929.518906	3039.979607
929.822663	3043.084958
930.126381	3039.614123
930.430060	3046.666697
930.733699	3048.645350
931.037299	3059.135991
931.340861	3057.681618
931.644383	3067.189235
931.947866	3062.977351
932.251309	3055.892009
932.554714	3058.357133
932.858080	3052.514436
933.161407	3043.246274
933.464694	3035.051879
933.767943	3028.863863
934.071153	3025.554345
934.374323	3015.088910
934.677455	3010.496418
934.980548	3001.301354
935.283602	2997.195334
935.586617	2993.825323
935.889593	3005.293948
936.192530	3004.116838
936.495428	3020.208201
936.798287	3044.264588
937.101108	3076.185174
937.403890	3129.457567
937.706632	3192.676157
938.009336	3268.991664
938.312002	3345.957481
938.614628	3409.463416
938.917216	3461.669605
939.219765	3488.362515
939.522275	3526.435829
939.824747	3526.506406
940.127179	3527.199564
940.429573	3517.966691
940.731929	3517.578522
941.034246	3501.308198
941.336524	3487.195488
941.638763	3475.552943
941.940964	3458.208853
942.243126	3418.698810
942.545250	3396.432033
942.847335	3356.057432
943.149381	3319.425888
943.451389	3287.414561
943.753359	3252.401227
944.055290	3229.481621
944.357182	3201.949359
944.659036	3192.338399
944.960851	3180.390865
945.262628	3167.903927
945.564367	3168.904596
945.866067	3162.983761
946.167729	3156.863800
946.469352	3156.717606
946.770937	3152.661998
947.072484	3137.165491
947.373992	3141.551295
947.675462	3132.013432
947.976893	3117.333592
948.278286	3105.000409
948.579641	3100.362547
948.880958	3093.466249
949.182236	3095.268462
949.483476	3093.839294
949.784678	3091.515323
950.085841	3092.579006
950.386967	3101.217023
950.688054	3120.171762
950.989103	3140.727066
951.290114	3160.145591
951.591087	3189.265816
951.892021	3219.268243
952.192917	3240.299937
952.493776	3272.112138
952.794596	3281.534055
953.095378	3284.324334
953.396122	3275.890483
953.696828	3273.102725
953.997496	3258.498502
954.298126	3235.805748
954.598718	3213.382696
954.899272	3187.156093
955.199788	3157.761125
955.500266	3130.987557
955.800706	3090.209664
956.101108	3054.903943
956.401472	3023.089221
956.701798	2992.476814
957.002087	2950.095834
957.302337	2925.394180
957.602550	2892.563665
957.902724	2862.737679
958.202861	2841.849658
958.502960	2818.125988
958.803022	2798.752833
959.103045	2776.244082
959.403031	2761.733120
959.702979	2748.064032
960.002889	2736.950808
960.302762	2724.025289
960.602596	2711.813094
960.902393	2700.528471
961.202153	2694.050589
961.501875	2685.765452
961.801559	2679.325378
962.101205	2673.205417
962.400814	2668.257525
962.700385	2664.348110
962.999918	2655.021976
963.299414	2648.213897
963.598873	2648.634834
963.898293	2643.654174
964.197677	2640.437917
964.497022	2637.783750
964.796331	2634.559932
965.095601	2633.639922
965.394835	2632.709829
965.694030	2632.097328
965.993189	2627.386370
966.292309	2632.203193
966.591393	2627.058695
966.890439	2624.843108
967.189447	2626.098355
967.488419	2626.814199
967.787353	2630.141361
968.086249	2628.538274
968.385108	2630.166567
968.683930	2631.441978
968.982714	2636.916672
969.281462	2642.880357
969.580172	2646.177271
969.878844	2652.221615
970.177480	2660.408448
970.476078	2666.956907
970.774639	2675.973011
971.073162	2684.169927
971.371649	2689.279137
971.670098	2693.985054
971.968510	2698.653162
972.266885	2703.835468
972.565223	2709.632795
972.863524	2711.825697
973.161788	2714.986501
973.460014	2717.592777
973.758204	2719.662171
974.056356	2721.605536
974.354471	2723.735423
974.652550	2723.916905
974.950591	2720.685525
975.248595	2721.839949
975.546563	2718.643858
975.844493	2717.065977
976.142386	2708.122970
976.440243	2705.819162
976.738062	2699.668955
977.035845	2694.143850
977.333590	2686.690504
977.631299	2682.193795
977.928971	2675.773885
978.226606	2668.318019
978.524204	2665.797442
978.821765	2663.289468
979.119290	2665.923471
979.416777	2662.777791
979.714228	2664.466577
980.011642	2671.695592
980.309020	2679.688341
980.606360	2691.083870
980.903664	2714.689072
981.200931	2753.528642
981.498162	2801.255766
981.795356	2875.695965
982.092513	2967.550829
982.389633	3069.210737
982.686717	3165.098525
982.983764	3241.784557
983.280775	3289.529325
983.577749	3298.084163
983.874686	3284.394910
984.171587	3246.550968
984.468451	3210.302551
984.765279	3165.055675
985.062070	3118.021709
985.358824	3074.496387
985.655543	3015.981194
985.952224	2963.986733
986.248869	2901.675551
986.545478	2841.078361
986.842050	2789.983746
987.138586	2739.851992
987.435086	2702.353369
987.731549	2671.153668
988.027975	2649.617859
988.324366	2631.530199
988.620719	2618.163579
988.917037	2606.158071
989.213318	2595.085177
989.509563	2587.210895
989.805772	2582.840214
990.101944	2581.393403
990.398080	2577.110943
990.694180	2575.412074
990.990244	2576.483319
991.286271	2575.873340
991.582262	2580.445666
991.878217	2579.949112
992.174136	2584.511357
992.470019	2586.537901
992.765865	2591.223653
993.061676	2594.530650
993.357450	2601.646239
993.653188	2608.532455
993.948890	2629.332256
994.244556	2647.407313
994.540186	2668.204593
994.835780	2702.476877
995.131337	2736.325705
995.426859	2781.023095
995.722345	2827.096721
996.017795	2876.547920
996.313208	2915.942016
996.608586	2945.147941
996.903928	2956.513223
997.199234	2956.704786
997.494504	2954.549693
997.789738	2937.583690
998.084936	2915.427819
998.380099	2884.152500
998.675225	2853.698890
998.970316	2823.240238
999.265371	2787.891667
999.560390	2751.136615
999.855373	2721.950855
1000.150320	2693.934642
1000.445232	2664.927843
1000.740108	2646.265491
1001.034948	2627.167080
1001.329752	2610.755604
1001.624521	2599.155909
1001.919254	2585.741398
1002.213951	2581.743763
1002.508613	2572.100036
1002.803239	2564.175342
1003.097829	2561.528736
1003.392384	2554.425751
1003.686903	2550.849052
1003.981386	2550.753270
1004.275834	2543.423432
1004.570246	2542.808412
1004.864623	2540.960829
1005.158964	2535.246681
1005.453270	2534.641742
1005.747540	2533.421783
1006.041775	2530.507996
1006.335974	2528.710825
1006.630138	2529.640918
1006.924266	2529.373737
1007.218359	2526.008766
1007.512416	2524.637572
1007.806438	2521.988446
1008.100425	2521.822088
1008.394376	2520.418127
1008.688292	2524.282171
1008.982172	2525.043385
1009.276017	2523.929290
1009.569827	2521.983405
1009.863602	2519.019207
1010.157341	2523.014321
1010.451045	2520.418127
1010.744714	2518.164731
1011.038347	2519.493075
1011.331945	2516.591891
1011.625508	2516.226407
1011.919036	2517.844618
1012.212528	2517.489216
1012.505986	2514.673732
1012.799408	2514.187261
1013.092795	2511.124760
1013.386147	2516.155831
1013.679464	2513.625172
1013.972745	2510.169461
1014.265992	2512.269102
1014.559204	2511.797754
1014.852380	2511.452435
1015.145521	2512.803464
1015.438628	2511.533093
1015.731699	2511.349091
1016.024736	2512.556447
1016.317737	2515.187930
1016.610703	2515.775224
1016.903635	2518.351254
1017.196531	2522.258148
1017.489393	2517.731192
1017.782219	2520.229083
1018.075011	2522.878210
1018.367768	2524.786287
1018.660490	2525.416431
1018.953177	2525.416431
1019.245829	2525.416431
