Dividing Wavelength (nm)	Counts (n)	Blue Motor Position (mm): 43.200000	Red Motor Position (mm): 0.000000	
326.493990	2051.374049
326.888308	2051.374049
327.282561	2051.374049
327.676750	2023.017559
328.070874	2027.405883
328.464933	2033.016688
328.858929	2040.412060
329.252859	2050.000335
329.646726	2064.289486
330.040528	2077.691393
330.434265	2098.413056
330.827938	2119.170007
331.221547	2138.492750
331.615091	2159.864721
332.008571	2181.571930
332.401986	2201.648325
332.795338	2219.932590
333.188625	2241.057545
333.581847	2258.983888
333.975006	2275.203801
334.368100	2294.287089
334.761129	2310.965746
335.154095	2326.409321
335.546996	2380.077445
335.939833	2486.428147
336.332606	2497.654797
336.725315	2509.619975
337.117960	2519.745133
337.510540	2527.758047
337.903056	2538.931764
338.295508	2545.538196
338.687896	2549.553475
339.080220	2558.095711
339.472480	2560.646534
339.864676	2565.236505
340.256807	2565.947308
340.648875	2569.680282
341.040879	2572.989800
341.432818	2574.550037
341.824694	2573.574573
342.216506	2574.020716
342.608253	2574.305541
342.999937	2571.482495
343.391557	2571.515262
343.783113	2571.333781
344.174605	2565.735579
344.566033	2565.286917
344.957397	2565.536454
345.348697	2561.939590
345.739934	2561.364899
346.131106	2563.711556
346.522215	2559.023283
346.913260	2558.786349
347.304241	2557.218550
347.695159	2555.605381
348.086012	2554.418189
348.476802	2550.586912
348.867528	2546.934596
349.258191	2546.659853
349.648789	2543.710778
350.039324	2541.636343
350.429796	2546.622044
350.820203	2542.200952
351.210548	2547.015254
351.600828	2543.236910
351.991045	2543.942671
352.381198	2542.316899
352.771288	2542.440407
353.161314	2540.870088
353.551276	2540.681045
353.941175	2534.969417
354.331010	2541.396888
354.720782	2546.478372
355.110490	2544.328319
355.500135	2541.671631
355.889717	2540.469316
356.279235	2538.841023
356.668689	2541.459903
357.058080	2541.404450
357.447408	2542.274049
357.836672	2542.828576
358.225873	2544.824873
358.615010	2544.275387
359.004084	2549.107333
359.393095	2545.795295
359.782043	2547.032898
360.170927	2546.168341
360.559748	2547.947868
360.948505	2546.553989
361.337199	2549.155224
361.725830	2550.629762
362.114398	2550.816284
362.502903	2553.924156
362.891344	2551.537169
363.279722	2548.943496
363.668037	2553.261244
364.056289	2553.412479
364.444478	2553.798127
364.832603	2554.486244
365.220665	2551.716130
365.608665	2556.301060
365.996601	2555.013045
366.384474	2556.865669
366.772284	2556.255689
367.160031	2555.834753
367.547715	2559.043447
367.935336	2555.781821
368.322893	2557.216029
368.710388	2553.838456
369.097820	2552.830225
369.485189	2553.021789
369.872495	2559.421534
370.259738	2558.294836
370.646918	2561.982440
371.034035	2561.894220
371.421090	2561.601833
371.808081	2560.167625
372.195010	2560.026473
372.581875	2563.900599
372.968678	2560.381874
373.355418	2563.467060
373.742096	2564.744993
374.128710	2563.711556
374.515262	2566.337997
374.901751	2565.627194
375.288177	2564.485373
375.674540	2565.090312
376.060841	2565.912020
376.447079	2565.251628
376.833254	2567.762123
377.219367	2566.826989
377.605417	2568.057031
377.991404	2565.937225
378.377329	2567.245405
378.763191	2570.691033
379.148991	2572.150447
379.534727	2570.416291
379.920402	2572.757907
380.306013	2571.043914
380.691563	2572.609192
381.077049	2571.038873
381.462474	2570.849830
381.847835	2574.706313
382.233134	2575.160016
382.618371	2571.832855
383.003545	2579.021540
383.388657	2576.322002
383.773706	2579.404668
384.158693	2579.813001
384.543618	2584.909608
384.928480	2585.461614
385.313280	2583.969433
385.698017	2587.878848
386.082692	2591.407655
386.467305	2595.811103
386.851856	2597.555342
387.236344	2602.231013
387.620770	2606.747886
388.005133	2607.814090
388.389435	2619.025617
388.773674	2621.089969
389.157851	2632.470374
389.541965	2641.141158
389.926018	2648.060142
390.310008	2658.190341
390.693936	2666.460354
391.077802	2676.721622
391.461606	2690.791483
391.845348	2697.992771
392.229027	2712.619679
392.612645	2729.557956
392.996200	2745.147724
393.379694	2761.571803
393.763125	2780.677776
394.146494	2797.195117
394.529801	2818.078097
394.913047	2843.830831
395.296230	2858.921525
395.679351	2876.079092
396.062410	2903.949111
396.445408	2914.709454
396.828343	2941.132662
397.211217	2969.844554
397.594028	2978.510297
397.976778	3010.657735
398.359466	3040.461037
398.742092	3062.843760
399.124656	3088.480548
399.507158	3129.828092
399.889598	3153.897081
400.271977	3199.307795
400.654294	3213.347408
401.036549	3262.886827
401.418742	3285.183850
401.800874	3344.848427
402.182944	3377.525186
402.564952	3447.461113
402.946898	3466.630101
403.328783	3486.393944
403.710606	3537.259187
404.092367	3603.802418
404.474067	3669.105524
404.855705	3678.598017
405.237282	3680.881660
405.618797	3767.624794
406.000250	3846.899459
406.381642	3929.687808
406.762972	3947.808235
407.144240	3940.987554
407.525447	4011.102442
407.906593	4046.874470
408.287677	4127.293477
408.668700	4174.783667
409.049661	4221.469793
409.430560	4272.332514
409.811399	4275.886528
410.192176	4336.045137
410.572891	4412.791663
410.953545	4516.468033
411.334138	4447.827682
411.714669	4557.041760
412.095139	4505.344727
412.475547	4609.568062
412.855894	4628.792503
413.236180	4725.562492
413.616405	4679.128424
413.996568	4779.558291
414.376670	4797.507319
414.756711	4799.768277
415.136691	4866.707238
415.516609	4959.144355
415.896466	4999.433257
416.276262	5083.955763
416.655997	5191.975087
417.035670	5282.690650
417.415283	5413.271658
417.794834	5477.329600
418.174324	5440.244352
418.553753	5448.655517
418.933121	5604.717037
419.312428	5617.713132
419.691674	5564.808743
420.070859	5770.626452
420.449983	5663.950595
420.829045	5850.425397
421.208047	5788.535151
421.586988	5939.099293
421.965867	6011.356671
422.344686	6085.328042
422.723444	6246.607157
423.102141	5896.768724
423.480777	6255.519917
423.859352	6090.769968
424.237866	6430.047183
424.616319	6429.664056
424.994712	6581.327169
425.373044	6506.687845
425.751314	6793.405991
426.129524	6540.564399
426.507673	6795.840868
426.885762	6833.722619
427.263789	6864.017433
427.641756	6952.880372
428.019662	7024.000971
428.397508	7060.907258
428.775292	7056.264355
429.153016	7196.035387
429.530679	7151.746330
429.908282	7201.673917
430.285824	7146.720299
430.663305	7388.884727
431.040726	7301.685369
431.418086	7297.254194
431.795385	7432.825945
432.172624	7611.512163
432.549802	7490.348031
432.926920	7628.311809
433.303977	7579.291629
433.680974	7626.726366
434.057910	7815.328534
434.434786	7862.238991
434.811601	7815.217629
435.188355	8151.225656
435.565050	8047.231693
435.941683	8057.566059
436.318257	8367.423100
436.694770	8314.952251
437.071222	8523.840022
437.447614	8298.601268
437.823946	8277.753576
438.200218	8413.874813
438.576429	8311.045356
438.952580	8466.388512
439.328670	8476.150707
439.704700	8560.741268
440.080670	8451.683466
440.456580	8699.057927
440.832429	8688.012759
441.208218	8431.768388
441.583947	8545.937920
441.959616	8654.279878
442.335224	8689.653654
442.710773	8776.792519
443.086261	8948.287532
443.461689	8676.511366
443.837057	8833.646652
444.212365	9030.183597
444.587612	9028.013380
444.962800	8927.303729
445.337927	9059.722238
445.712995	8617.035833
446.088002	9247.991690
446.462949	9320.359974
446.837837	9318.519953
447.212664	9381.264674
447.587431	10274.635273
447.962139	11248.581155
448.336786	11993.383910
448.711374	11585.965417
449.085901	10456.404158
449.460369	10429.605384
449.834776	10350.058497
450.209124	11269.809454
450.583412	11045.924250
450.957640	11244.182748
451.331808	10842.778353
451.705917	10358.351195
452.079965	10278.287589
452.453954	10483.132355
452.827883	10439.304564
453.201752	10394.332430
453.575562	10419.462582
453.949311	10770.901581
454.323001	10848.457213
454.696632	10760.262226
455.070202	11345.325939
455.443713	11398.547920
455.817164	11549.031404
456.190556	11863.307017
456.563888	11696.137314
456.937160	11910.885427
457.310373	11415.627350
457.683526	11454.905500
458.056619	11496.293373
458.429653	11579.006105
458.802628	11752.056313
459.175542	11805.308542
459.548398	12348.956655
459.921194	12927.545005
460.293930	13250.148605
460.666607	14081.107199
461.039224	14800.976406
461.411782	15060.384101
461.784280	14668.603268
462.156719	14580.680504
462.529099	14485.783303
462.901419	13908.404830
463.273680	13561.001274
463.645882	13792.475935
464.018024	13748.512033
464.390106	14155.350792
464.762130	15319.350695
465.134094	16989.973956
465.505999	19251.778370
465.877845	21253.502095
466.249631	22140.064616
466.621358	21509.539778
466.993026	20677.315854
467.364634	19976.769389
467.736184	19272.618500
468.107674	18725.277741
468.479105	18590.086598
468.850477	18325.168922
469.221790	17897.545486
469.593043	17256.340963
469.964238	16929.096982
470.335373	17037.817026
470.706449	17898.490702
471.077467	19031.910965
471.448425	21366.330680
471.819324	22860.798381
472.190164	22344.432993
472.560945	20675.569094
472.931667	19270.672614
473.302330	19031.792498
473.672934	18586.237677
474.043479	19022.720942
474.413965	18822.556887
474.784393	18674.843518
475.154761	19305.943047
475.525070	19444.814233
475.895321	19278.793913
476.265513	19799.068716
476.635645	20379.935668
477.005719	20439.060841
477.375734	20820.424130
477.745691	21427.290832
478.115588	22081.872057
478.485427	23353.457744
478.855207	25213.746857
479.224928	26930.355523
479.594591	28101.581920
479.964194	27564.719200
480.333739	27955.532131
480.703226	28236.710049
481.072653	28750.716177
481.442022	29244.955941
481.811333	29535.344047
482.180584	29051.506704
482.549777	28833.698611
482.918912	28643.430341
483.287988	28586.815663
483.657005	28416.896011
484.025964	28075.839268
484.394864	28257.572864
484.763706	28216.147182
485.132489	27711.071458
485.501213	27787.598694
485.869879	27977.183887
486.238487	27949.966697
486.607036	28203.561942
486.975527	27919.412264
487.343959	28253.083716
487.712333	28589.550489
488.080648	28562.507219
488.448905	28983.143616
488.817104	28922.042311
489.185244	29811.145574
489.553326	30973.108850
489.921350	32892.175296
490.289315	35285.294206
490.657222	35935.804698
491.025070	36337.955185
491.392861	35954.424200
491.760593	35145.135006
492.128267	34153.325795
492.495883	33214.494070
492.863440	32389.867165
493.230939	31488.690339
493.598380	30991.181387
493.965763	30876.611083
494.333088	30416.441957
494.700354	30247.338972
495.067563	30229.032022
495.434713	30142.079680
495.801805	30436.629258
496.168839	30302.007765
496.535815	30176.009166
496.902733	30316.317080
497.269593	30148.610495
497.636395	30291.663317
498.003139	30602.916759
498.369825	30375.144825
498.736453	30775.425043
499.103023	30629.672683
499.469535	30722.316487
499.835989	30860.239936
500.202385	30749.027041
500.568723	30814.352833
500.935003	31145.725520
501.301226	31041.557637
501.667390	31738.139234
502.033497	31933.922526
502.399546	31727.923336
502.765537	31338.287514
503.131470	31822.467656
503.497345	32249.760897
503.863163	31254.130492
504.228923	32009.985976
504.594625	32416.219797
504.960269	31914.798909
505.325856	32594.956427
505.691385	32288.146763
506.056856	32591.276385
506.422270	33090.033023
506.787625	32629.420276
507.152924	33101.801597
507.518164	33307.213493
507.883347	32868.572614
508.248472	33039.908830
508.613540	33731.000611
508.978550	33974.886593
509.343503	33813.914989
509.708398	34204.107858
510.073236	34798.265813
510.438016	34909.372843
510.802738	34598.646203
511.167403	35174.726579
511.532010	35427.280825
511.896561	35905.250265
512.261053	36662.913003
512.625488	36438.785823
512.989866	36397.957518
513.354186	36452.185210
513.718449	36419.838647
514.082655	37304.180540
514.446803	37022.990019
514.810894	37633.718246
515.174927	37657.315887
515.538904	37665.623709
515.902822	38318.798451
516.266684	38015.318469
516.630488	38386.392762
516.994235	38406.774147
517.357925	38994.673509
517.721558	39261.302656
518.085133	39630.337803
518.448651	39833.544194
518.812112	39722.853058
519.175516	39866.591478
519.538863	40330.516263
519.902152	40381.303368
520.265385	40937.357761
520.628560	40965.497481
520.991678	40920.749679
521.354739	41151.304330
521.717743	41529.824408
522.080690	41437.059615
522.443580	42118.033800
522.806413	42126.386992
523.169189	42277.805609
523.531908	42505.660722
523.894569	42382.565828
524.257174	42572.912235
524.619722	42913.180037
524.982213	43050.115420
525.344647	43093.134106
525.707025	43215.626583
526.069345	43685.152090
526.431608	43579.734002
526.793815	43972.444928
527.155964	43534.300603
527.518057	43785.067760
527.880093	43645.392510
528.242072	44283.068225
528.603995	44028.845357
528.965860	43949.956340
529.327669	44168.573538
529.689421	44228.936315
530.051117	44174.259960
530.412755	44463.302077
530.774337	44536.625660
531.135862	44467.032531
531.497331	44616.170027
531.858743	44605.281134
532.220098	45022.033323
532.581396	44753.576757
532.942638	44517.426426
533.303824	44766.887924
533.664953	44830.822357
534.026025	44513.275036
534.387040	45086.252582
534.747999	45152.521070
535.108902	45468.994626
535.469748	44789.222756
535.830537	45064.313480
536.191270	45314.311861
536.551947	45047.758331
536.912567	45329.921794
537.273131	45478.794629
537.633638	45105.545077
537.994089	45290.525177
538.354483	45046.442590
538.714821	45695.793617
539.075103	45975.063458
539.435328	45837.200503
539.795497	45593.546414
540.155609	45718.365383
540.515665	46294.221428
540.875665	45618.548016
541.235609	45894.394914
541.595496	46015.813625
541.955328	46581.796570
542.315102	46028.655964
542.674821	45914.120949
543.034483	45803.966696
543.394090	45817.393809
543.753640	45796.757846
544.113134	46860.826956
544.472571	45966.485934
544.831953	47105.988350
545.191278	46369.581637
545.550548	46051.328553
545.909761	46689.301696
546.268918	46837.418358
546.628019	47251.516379
546.987064	46676.482042
547.346053	45974.498848
547.704986	46891.414157
548.063863	46514.839964
548.422684	46741.911178
548.781449	46328.770976
549.140158	46863.309724
549.498811	46623.363404
549.857408	46029.601180
550.215949	46860.907614
550.574434	46696.674384
550.932864	46624.628733
551.291237	47342.622632
551.649555	47102.111702
552.007817	47273.518495
552.366022	46943.769060
552.724173	47019.706481
553.082267	47420.783202
553.440305	47753.010363
553.798288	47005.760129
554.156215	47408.349196
554.514086	47606.186758
554.871902	47233.670694
555.229661	47396.212618
555.587365	47100.042309
555.945014	47224.135352
556.302606	47244.279803
556.660143	47335.723813
557.017625	47558.784788
557.375050	47248.219464
557.732421	47653.339190
558.089735	47723.441476
558.446994	47583.856967
558.804197	48076.793593
559.161345	47937.897201
559.518437	47275.560162
559.875474	47526.110549
560.232455	47766.492929
560.589381	47838.536059
560.946251	47625.703585
561.303065	48285.003329
561.659825	47979.128799
562.016528	47758.169984
562.373177	47344.651696
562.729770	47982.609715
563.086307	47495.793050
563.442789	48047.481804
563.799216	47892.516734
564.155587	47780.199827
564.511904	47745.652799
564.868164	47798.448804
565.224370	48112.714334
565.580520	47855.393678
565.936615	48030.241057
566.292654	47698.356694
566.648638	48059.565449
567.004567	47987.398812
567.360441	48087.158205
567.716260	47808.011872
568.072023	48172.111730
568.427732	48119.749265
568.783385	47639.619690
569.138982	48045.157832
569.494525	48177.893933
569.850013	47779.582285
570.205445	47899.002179
570.560823	47680.450516
570.916145	47553.662976
571.271412	47790.826579
571.626625	47437.940769
571.981782	47517.583438
572.336884	47104.818802
572.691931	47434.590922
573.046923	47113.429093
573.401860	46933.727082
573.756743	46943.320397
574.111570	47089.423118
574.466342	47011.229781
574.821059	47152.399733
575.175722	46667.355033
575.530330	46767.001000
575.884882	46401.335865
576.239380	46296.762170
576.593823	46407.281906
576.948211	46323.296283
577.302544	45871.540843
577.656823	45856.598863
578.011047	46124.074924
578.365216	45940.400484
578.719330	45663.326065
579.073389	45636.277754
579.427394	45704.300564
579.781344	45628.612680
580.135239	45388.525208
580.489080	45440.590244
580.842866	44942.506600
581.196597	45429.361074
581.550273	45414.923210
581.903895	45360.917328
582.257463	45793.090407
582.610975	45213.965173
582.964434	45562.772690
583.317837	45054.092541
583.671186	45013.821283
584.024481	45280.684844
584.377721	44840.813924
584.730906	45057.744857
585.084037	45168.430951
585.437113	44887.278239
585.790135	45014.116191
586.143103	44552.313731
586.496016	44720.463938
586.848874	44833.400908
587.201679	44851.425553
587.554428	44346.944685
587.907124	44638.928316
588.259765	44407.642698
588.612352	44575.878605
588.964884	44006.286193
589.317362	44308.962111
589.669786	44323.629348
590.022155	44173.715515
590.374470	44645.892670
590.726731	44201.424217
591.078937	43549.474476
591.431090	43886.606680
591.783188	43421.877831
592.135232	43200.699726
592.487222	43488.360568
592.839157	43636.371365
593.191038	43256.175104
593.542866	43068.959253
593.894639	42495.084381
594.246358	42772.388172
594.598022	42773.136783
594.949633	42347.340765
595.301190	42320.456292
595.652692	42256.736107
596.004141	42748.596447
596.355535	41641.952272
596.706876	41664.433297
597.058162	41384.762685
597.409395	41898.531879
597.760573	42114.996505
598.111698	41710.723693
598.462768	41630.793678
598.813785	41641.760708
599.164748	41242.806313
599.515657	41520.200845
599.866511	41025.507377
600.217312	41709.549104
600.568060	40643.982771
600.918753	41475.465646
601.269392	41399.939079
601.619978	41118.367951
601.970510	41318.534526
602.320988	41455.265742
602.671412	41735.937024
603.021783	41590.222472
603.372100	41169.429798
603.722363	41283.143106
604.072572	41301.452577
604.422728	41297.633903
604.772830	41088.352921
605.122878	41243.645665
605.472872	41089.633374
605.822813	41358.362162
606.172701	41101.820364
606.522534	41445.138064
606.872314	41640.074442
607.222041	41469.156642
607.571714	41802.722230
607.921333	41294.407564
608.270899	41510.226922
608.620411	41902.131263
608.969870	41626.236475
609.319276	41650.620536
609.668627	41676.680781
610.017926	42083.779160
610.367171	42219.650859
610.716362	42255.627053
611.065500	42152.870694
611.414585	42368.516132
611.763616	42532.242726
612.112594	42441.023048
612.461518	42570.477358
612.810389	42955.823158
613.159207	42751.694236
613.507971	42730.770927
613.856682	43222.376688
614.205340	43048.779514
614.553945	43738.328702
614.902496	43064.432297
615.250994	43484.690608
615.599439	43555.498655
615.947830	43654.527081
616.296169	43656.752750
616.644454	43684.582440
616.992686	43867.044483
617.340864	44310.325743
617.688990	43839.066079
618.037063	44512.949881
618.385082	44331.115462
618.733048	44665.548129
619.080961	44541.412236
619.428821	44558.378239
619.776628	44586.384369
620.124382	44396.153908
620.472083	44499.890772
620.819731	44609.855982
621.167326	44157.624152
621.514868	44153.876054
621.862357	43622.490548
622.209793	43707.557499
622.557176	43274.061118
622.904506	43026.729507
623.251783	42658.090091
623.599007	42363.182591
623.946179	42276.721761
624.293297	41995.528720
624.640363	41466.179840
624.987376	41306.738226
625.334336	41100.222318
625.681243	40698.119722
626.028097	40615.643925
626.374899	40425.531931
626.721647	40376.713397
627.068343	40171.535915
627.414987	39893.672556
627.761577	39627.333275
628.108115	39958.973143
628.454600	39195.530722
628.801032	39442.695974
629.147412	39322.804733
629.493739	39233.359540
629.840014	38803.074374
630.186236	39234.773584
630.532405	38676.859006
630.878521	38900.598016
631.224585	38693.550266
631.570597	38344.493212
631.916556	38510.652163
632.262462	38398.206706
632.608316	38317.896084
632.954117	38189.117289
633.299866	38146.411154
633.645562	38069.536078
633.991206	37534.866260
634.336797	37111.046374
634.682336	37012.683380
635.027823	36778.975488
635.373257	36649.644686
635.718639	36332.838414
636.063968	36221.207103
636.409245	35565.506743
636.754470	35523.987800
637.099642	35301.199047
637.444762	34724.304524
637.789829	34869.441864
638.134845	34500.419320
638.479808	34414.230712
638.824719	34354.021692
639.169577	33847.252139
639.514383	33935.230356
639.859137	33541.309554
640.203839	33725.374683
640.548489	33432.418110
640.893086	33419.764814
641.237632	33157.234124
641.582125	33254.828342
641.926566	33050.654050
642.270955	33065.442275
642.615292	33004.192255
642.959576	32894.713517
643.303809	32894.748805
643.647990	32985.398834
643.992118	32940.499797
644.336195	32796.080822
644.680219	32873.467574
645.024192	33068.416555
645.368112	33578.598969
645.711981	33613.957622
646.055797	34346.860733
646.399562	34146.595855
646.743274	35015.703381
647.086935	35425.770999
647.430544	35371.571034
647.774101	35424.417449
648.117606	35710.734823
648.461059	35841.285584
648.804460	35448.539371
649.147810	34933.885454
649.491108	34591.734781
649.834354	34443.595434
650.177548	33616.914258
650.520690	33109.454068
650.863781	33103.281175
651.206820	32930.586368
651.549807	32519.276105
651.892742	31950.487758
652.235626	31847.305421
652.578458	31714.970091
652.921238	31027.142458
653.263967	31337.183502
653.606644	31037.499508
653.949269	30941.820929
654.291843	30550.972709
654.634365	30908.738357
654.976836	30457.108945
655.319255	30521.280313
655.661622	30405.091799
656.003938	30266.265984
656.346203	30092.220148
656.688416	30332.968011
657.030577	30107.202457
657.372687	29918.038200
657.714746	30078.765308
658.056753	30269.688928
658.398708	29644.295984
658.740612	29720.566122
659.082465	29929.582442
659.424266	29820.585134
659.766016	29836.212711
660.107715	29698.455621
660.449362	29795.954057
660.790958	29779.862694
661.132503	29696.872698
661.473996	29781.130544
661.815438	29853.881956
662.156829	29969.110130
662.498168	29791.429621
662.839456	29767.322823
663.180693	29883.183662
663.521879	29957.923809
663.863013	29925.415929
664.204097	29904.699307
664.545129	30312.700052
664.886110	30250.109086
665.227040	30351.731186
665.567918	30344.701297
665.908746	30424.182649
666.249522	30510.630876
666.590248	30537.590967
666.930922	30631.038835
667.271545	30630.441459
667.612118	30689.435562
667.952639	30489.427783
668.293109	30547.063295
668.633528	30399.982590
668.973896	30360.104543
669.314213	30328.988020
669.654480	30156.953604
669.994695	30145.656378
670.334859	30058.547761
670.674973	29893.482740
671.015035	30078.311604
671.355047	30017.225422
671.695008	29944.100965
672.034918	29852.493118
672.374777	29954.987337
672.714585	29814.813013
673.054342	29949.061461
673.394049	29810.855708
673.733705	30034.869461
674.073310	29745.645862
674.412864	29815.488528
674.752368	29505.134933
675.091820	29727.971577
675.431223	29329.972480
675.770574	29114.253946
676.109875	28967.715165
676.449125	28762.068856
676.788324	28643.906730
677.127473	28174.121603
677.466571	28078.604341
677.805619	27802.868349
678.144616	27726.341113
678.483562	27687.766203
678.822458	27368.882976
679.161303	27313.440366
679.500098	27232.797028
679.838842	27155.420357
680.177535	27234.080001
680.516179	27479.259039
680.854771	27614.765255
681.193314	28380.904693
681.531805	29400.326823
681.870247	30130.966456
682.208638	30856.983351
682.546978	31133.415022
682.885268	31275.371394
683.223508	30831.913693
683.561697	30560.845809
683.899836	30410.934497
684.237925	29993.017802
684.575963	29847.693939
684.913951	29477.133843
685.251889	29638.065118
685.589776	29664.216104
685.927614	29693.905979
686.265401	29863.732370
686.603137	29979.515071
686.940824	30469.676542
687.278460	30810.040126
687.616046	30980.468935
687.953582	31643.383186
688.291068	31558.918653
688.628504	31904.467064
688.965889	31891.009704
689.303224	31620.072891
689.640510	31339.023523
689.977745	30711.843490
690.314930	29976.618928
690.652065	29550.633867
690.989150	28880.604027
691.326185	28042.129072
691.663170	27396.884065
692.000105	26660.177403
692.336990	26057.595681
692.673825	25630.708253
693.010610	25142.018799
693.347345	24636.075996
693.684030	24000.242823
694.020665	23812.449760
694.357251	23125.700934
694.693786	23135.415237
695.030272	22902.972674
695.366707	22404.838619
695.703093	22131.940797
696.039429	22195.509747
696.375716	21961.363274
696.711952	21961.065846
697.048139	21829.968119
697.384276	21660.547542
697.720363	21782.374586
698.056400	21667.222029
698.392388	21504.186073
698.728326	21517.003206
699.064214	21350.962722
699.400053	21363.149712
699.735842	20979.187708
700.071581	20772.031573
700.407270	20525.995539
700.742910	20343.858651
701.078501	20097.300857
701.414042	19886.817561
701.749533	19593.150185
702.084974	19279.920611
702.420366	19511.486013
702.755709	19088.986909
703.091002	18795.460685
703.426246	18865.991469
703.761440	18786.681516
704.096584	18541.389052
704.431679	18474.258527
704.766725	18434.299821
705.101721	18360.232668
705.436668	18491.519437
705.771565	18208.708186
706.106413	18517.771246
706.441212	18585.017718
706.775961	18703.099185
707.110661	18771.613507
707.445311	19144.245517
707.779913	19016.391773
708.114465	19310.651485
708.448967	19620.843763
708.783421	20246.801316
709.117825	20616.181782
709.452180	20840.218220
709.786485	21292.616407
710.120742	22060.605949
710.454949	22161.991115
710.789107	22676.955062
711.123216	23397.272932
711.457275	23619.996151
711.791286	24167.745242
712.125247	24323.436238
712.459159	24057.240629
712.793023	24817.746578
713.126837	23794.614158
713.460602	24055.335073
713.794318	23711.404873
714.127985	23435.058901
714.461602	22533.640100
714.795171	22527.789841
715.128691	21547.902959
715.462162	21027.345851
715.795584	20595.036662
716.128957	20326.875003
716.462281	19944.077507
716.795556	19665.107615
717.128782	19184.693215
717.461960	18583.510413
717.795088	18540.368218
718.128167	18203.951858
718.461198	17742.719048
718.794180	17612.468236
719.127113	17276.175383
719.459997	17085.828976
719.792833	16716.355248
720.125619	16759.517608
720.458357	16428.863286
720.791046	16294.173737
721.123686	16141.210006
721.456278	15917.639874
721.788821	15908.487659
722.121315	15647.345808
722.453761	15748.347846
722.786158	15629.681605
723.118506	15705.750096
723.450805	15594.330513
723.783056	15778.650222
724.115259	15661.450956
724.447412	15658.496840
724.779518	15874.069182
725.111574	15926.277891
725.443582	16187.336564
725.775542	16149.353990
726.107453	16662.551013
726.439315	16582.026142
726.771129	17000.855286
727.102895	17420.995130
727.434612	17694.717181
727.766281	17854.615019
728.097901	18184.424948
728.429473	18267.644316
728.760996	18286.150392
729.092471	18408.789062
729.423897	18301.210839
729.755276	18176.283485
730.086606	18288.933108
730.417887	18860.960397
730.749120	19423.868238
731.080305	19636.854468
731.411442	20034.601506
731.742530	20153.386214
732.073570	20319.404013
732.404562	20638.977879
732.735506	20484.232100
733.066401	20282.293559
733.397249	19782.987436
733.728048	19155.560387
734.058798	18299.096075
734.389501	17534.108540
734.720156	17016.160229
735.050762	16441.909792
735.381320	16050.169288
735.711831	15782.441169
736.042293	15414.822587
736.372707	15446.188646
736.703073	15236.743827
737.033391	15431.657520
737.363661	15429.285657
737.693883	15546.222782
738.024056	15751.644760
738.354182	15969.722555
738.684260	16329.532390
739.014290	16605.643948
739.344272	16822.206876
739.674207	17176.302564
740.004093	17366.195267
740.333931	17402.857059
740.663722	17497.267788
740.993464	17530.592335
741.323159	17382.768061
741.652806	17087.605982
741.982405	16921.505004
742.311956	16562.902525
742.641460	16457.456710
742.970915	16120.543796
743.300323	15777.916734
743.629683	15561.008487
743.958996	15241.820269
744.288260	14927.892496
744.617477	14622.683398
744.946647	14589.747019
745.275768	14269.863122
745.604842	14064.562132
745.933869	13888.504875
746.262847	13865.076113
746.591778	13784.047126
746.920662	13662.053724
747.249498	13668.944981
747.578286	13824.225122
747.907027	14003.680117
748.235720	14270.563843
748.564365	14336.330736
748.892963	14263.816258
749.221514	14363.290827
749.550017	14230.716042
749.878473	14199.871742
750.206881	13977.211539
750.535242	13896.764806
750.863555	13820.197240
751.191821	13718.537332
751.520039	13737.310589
751.848210	13670.172502
752.176334	13708.152555
752.504411	13633.021719
752.832440	13463.152478
753.160421	13570.949991
753.488356	13457.503865
753.816243	13373.183005
754.144082	13205.052963
754.471875	13159.034790
754.799620	13129.513793
755.127318	13099.818876
755.454969	13088.990478
755.782572	13060.989389
756.110129	13072.400041
756.437638	12975.945123
756.765100	12982.002070
757.092515	13013.292512
757.419882	13048.368860
757.747203	13053.830950
758.074477	13154.805262
758.401703	13132.243578
758.728882	13331.626254
759.056014	13365.626316
759.383099	13542.843038
759.710138	13658.766891
760.037129	13783.815233
760.364073	13845.753370
760.690970	13871.732956
761.017820	13888.373805
761.344623	14116.460811
761.671379	14491.499972
761.998088	15191.305387
762.324751	16950.163964
762.651366	20347.203456
762.977935	24818.280940
763.304456	27809.474781
763.630931	28888.647187
763.957359	27698.672740
764.283740	25432.495125
764.610074	23186.996323
764.936362	20550.987059
765.262602	18667.521242
765.588796	16735.869555
765.914943	15441.102122
766.241044	14331.677751
766.567097	13540.839179
766.893104	12821.640445
767.219064	12357.118283
767.544978	11879.537012
767.870845	11487.733494
768.196665	11269.131419
768.522438	11036.519977
768.848165	10821.444190
769.173846	10621.433890
769.499479	10483.477674
769.825066	10316.988527
770.150607	10088.281460
770.476101	10007.668368
770.801548	9886.635306
771.126949	9724.620183
771.452303	9610.939643
771.777611	9419.416126
772.102872	9402.533302
772.428087	9264.836705
772.753256	9102.814021
773.078378	9012.448817
773.403453	8834.246549
773.728482	8719.761946
774.053465	8649.518508
774.378401	8551.425216
774.703291	8424.579703
775.028135	8298.361813
775.352932	8266.237060
775.677683	8161.224785
776.002388	8049.744708
776.327046	8062.912202
776.651658	7965.096174
776.976224	7858.369906
777.300743	7860.706480
777.625216	7773.731453
777.949643	7726.294195
778.274024	7747.237669
778.598359	7656.000346
778.922647	7674.143459
779.246889	7626.123948
779.571086	7634.094012
779.895236	7635.898745
780.219339	7647.183368
780.543397	7653.167218
780.867409	7733.608910
781.191374	7739.534786
781.515294	7708.425826
781.839167	7804.777399
782.162995	7773.000486
782.486776	7720.885037
782.810511	7666.606934
783.134201	7585.411589
783.457844	7580.725837
783.781441	7525.905809
784.104993	7462.165460
784.428498	7433.423322
784.751958	7422.945283
785.075372	7391.155767
785.398739	7335.919844
785.722061	7383.646968
786.045337	7385.129068
786.368568	7543.602780
786.691752	7566.885349
787.014891	7908.484016
787.337983	8263.562728
787.661030	8858.499541
787.984031	9476.968459
788.306987	9888.195543
788.629897	10093.360422
788.952760	10046.578514
789.275579	9831.346451
789.598351	9430.978012
789.921078	9081.464734
790.243759	8668.987444
790.566395	8374.591621
790.888984	8120.767004
791.211529	7907.816063
791.534027	7687.280706
791.856480	7485.332083
792.178888	7412.704179
792.501249	7312.770866
792.823566	7154.997874
793.145836	7160.558267
793.468062	7131.864019
793.790241	7079.289826
794.112375	7150.264231
794.434464	7299.689072
794.756507	7342.823705
795.078505	7502.209866
795.400457	7808.288563
795.722364	8164.062954
796.044226	8449.992159
796.366042	8726.378460
796.687812	8680.534207
797.009538	8758.117565
797.331218	8657.904467
797.652852	8571.708298
797.974442	8421.136595
798.295986	8326.617481
798.617484	8135.393912
798.938938	7997.173036
799.260346	7891.790235
799.581709	7690.383536
799.903026	7618.098431
800.224299	7505.494178
800.545526	7331.889442
800.866708	7245.277378
801.187845	7170.577560
801.508936	7065.182157
801.829983	7023.454006
802.150984	6871.004472
802.471940	6827.927813
802.792851	6812.685884
803.113717	6779.842767
803.434538	6746.873620
803.755314	6686.097470
804.076045	6696.381423
804.396731	6637.092413
804.717372	6670.185068
805.037967	6670.464852
805.358518	6711.709052
805.679024	6793.708460
805.999485	6804.320089
806.319901	6848.662078
806.640272	6865.081116
806.960598	6953.843233
807.280879	6949.827954
807.601115	7027.678492
807.921306	6973.596994
808.241453	6992.980231
808.561554	7012.633169
808.881611	6975.043805
809.201623	6987.676937
809.521590	6930.096877
809.841513	6908.182982
810.161390	6953.351720
810.481223	6822.594272
810.801011	6803.410161
811.120755	6778.779083
811.440453	6704.190171
811.760107	6673.678587
812.079716	6639.618031
812.399281	6574.418268
812.718801	6563.678090
813.038276	6517.498600
813.357707	6455.257994
813.677093	6499.116032
813.996434	6408.604636
814.315731	6450.226922
814.634983	6441.223422
814.954191	6452.150122
815.273354	6563.128604
815.592473	6626.599251
815.911547	6747.831440
816.230577	6832.371590
816.549562	6977.786193
816.868502	7077.452325
817.187399	7177.458735
817.506250	7331.773495
817.825058	7364.397323
818.143821	7631.457489
818.462539	7909.517452
818.781213	8271.028677
819.099843	8816.957912
819.418429	9817.160644
819.736970	10782.450865
820.055466	11974.265334
820.373919	13509.528573
820.692327	15845.037177
821.010691	19985.462859
821.329011	28960.344998
821.647286	41928.899790
821.965517	55412.473982
822.283704	60841.368177
822.601847	62861.466908
822.919945	60195.140144
823.237999	56054.782517
823.556010	49945.579570
823.873976	43219.409969
824.191897	36672.776020
824.509775	31828.436382
824.827609	27270.058716
825.145398	24650.423120
825.463144	23264.171347
825.780845	23550.390419
826.098502	25300.369003
826.416116	29077.516537
826.733685	32720.844121
827.051210	33897.431785
827.368692	32136.463485
827.686129	28186.258181
828.003522	24061.006371
828.320872	20349.930721
828.638177	17485.539543
828.955439	15322.758515
829.272656	13499.347963
829.589830	12016.323680
829.906960	10744.390153
830.224046	9795.007293
830.541088	9043.615751
830.858086	8580.520235
831.175041	8198.030249
831.491952	8081.642609
831.808819	8120.988815
832.125642	8523.071246
832.442421	9393.580213
832.759157	11186.166629
833.075849	14111.364204
833.392497	17339.474631
833.709101	19528.895638
834.025662	19388.877590
834.342179	17707.052885
834.658653	15523.267888
834.975083	13576.926279
835.291469	11954.529216
835.607811	10631.170879
835.924110	9720.506601
836.240366	8849.682562
836.556578	8038.056793
836.872746	7391.937146
837.188871	6888.338480
837.504952	6468.662422
837.820990	6152.864380
838.136984	5931.472027
838.452935	5836.269837
838.768842	5868.901225
839.084706	6284.350276
839.400526	7490.390881
839.716303	9074.974248
840.032037	10179.498618
840.347727	10122.463003
840.663373	9145.215166
840.978977	8099.914272
841.294537	7285.422606
841.610054	6679.828795
841.925527	6249.160501
842.240957	5886.633484
842.556344	5551.358945
842.871687	5266.309421
843.186987	4985.897759
843.502244	4756.066514
843.817458	4594.230352
844.132629	4455.323878
844.447756	4363.463973
844.762840	4280.920120
845.077881	4204.488666
845.392879	4141.141527
845.707833	4091.647478
846.022745	4046.808935
846.337613	4017.277856
846.652438	3973.694560
846.967221	3958.959268
847.281960	3925.889298
847.596656	3909.881114
847.911309	3888.960326
848.225919	3865.592057
848.540485	3845.946681
848.855009	3832.975792
849.169490	3813.471568
849.483928	3799.631080
849.798323	3793.264103
850.112675	3772.565125
850.426984	3779.877318
850.741251	3767.332407
851.055474	3758.480141
851.369654	3764.958024
851.683792	3761.247734
851.997887	3767.050103
852.311938	3766.803086
852.625947	3772.000516
852.939914	3765.386522
853.253837	3771.798869
853.567718	3772.446658
853.881555	3759.876541
854.195350	3773.659055
854.509103	3768.799383
854.822812	3766.082201
855.136479	3766.341820
855.450103	3768.764095
855.763685	3754.069131
856.077224	3758.316303
856.390720	3774.435393
856.704173	3795.315852
857.017584	3809.607523
857.330953	3822.916169
857.644278	3845.583718
857.957561	3850.438349
858.270802	3849.624203
858.584000	3852.258205
858.897155	3844.666228
859.210268	3827.158300
859.523339	3802.149136
859.836367	3806.061072
860.149352	3792.792755
860.462295	3787.406282
860.775195	3780.497380
861.088054	3775.219292
861.400869	3772.025721
861.713642	3774.609313
862.026373	3783.877474
862.339062	3787.192033
862.651708	3807.754899
862.964312	3841.520548
863.276873	3856.381869
863.589392	3909.571083
863.901869	3955.095223
864.214303	4002.121627
864.526696	4035.516751
864.839045	4080.004933
865.151353	4105.792956
865.463619	4118.824338
865.775842	4126.764156
866.088023	4143.594048
866.400162	4132.047285
866.712258	4141.050786
867.024313	4144.992968
867.336325	4138.441989
867.648296	4147.367352
867.960224	4146.313750
868.272110	4157.978980
868.583954	4156.653157
868.895755	4177.127803
869.207515	4173.805683
869.519233	4214.833113
869.830909	4229.177717
870.142542	4255.757200
870.454134	4263.540742
870.765684	4294.506029
871.077191	4333.930373
871.388657	4352.156665
871.700081	4389.982963
872.011463	4437.994912
872.322803	4473.477073
872.634101	4504.369264
872.945357	4541.366292
873.256571	4596.816464
873.567744	4630.466166
873.878874	4644.684740
874.189963	4686.249054
874.501010	4695.522256
874.812015	4696.596022
875.122979	4738.424996
875.433900	4735.221343
875.744780	4744.998661
876.055618	4774.791880
876.366415	4771.260552
876.677169	4796.930107
876.987882	4840.901571
877.298554	4896.089603
877.609183	4975.543229
877.919771	5088.041618
878.230317	5231.369184
878.540822	5444.700732
878.851285	5767.921873
879.161707	6229.318520
879.472087	6987.979406
879.782425	8221.040596
880.092722	10402.297453
880.402977	13710.322772
880.713191	17482.252711
881.023363	21217.200746
881.333494	23456.241830
881.643583	24681.587533
881.953631	24682.759602
882.263637	23855.702860
882.573602	22372.456767
882.883526	20827.965696
883.193408	19147.154263
883.503248	17452.507383
883.813048	15885.421860
884.122806	14453.456904
884.432522	12978.546359
884.742197	11704.331710
885.051831	10608.026942
885.361424	9601.610988
885.670975	8773.982076
885.980485	8073.717916
886.289954	7499.432190
886.599382	7028.182608
886.908768	6639.353371
887.218113	6274.351147
887.527417	5989.014277
887.836680	5719.219285
888.145901	5497.184185
888.455082	5333.356767
888.764221	5176.662582
889.073319	5043.664341
889.382376	4973.032734
889.691392	4911.944032
890.000366	4888.200197
890.309300	4867.571796
890.618193	4866.941652
890.927044	4860.373028
891.235855	4876.794587
891.544625	4908.079988
891.853353	4971.941324
892.162041	5090.781485
892.470687	5277.021873
892.779293	5524.010685
893.087858	5897.597994
893.396381	6475.470500
893.704864	7277.026565
894.013306	8437.636291
894.321707	9613.606413
894.630068	10432.776269
894.938387	10640.986006
895.246665	10411.066540
895.554903	9810.985231
895.863100	9111.550340
896.171256	8547.435143
896.479371	8041.913276
896.787446	7544.893315
897.095480	7108.667150
897.403473	6789.572193
897.711425	6473.305325
898.019336	6205.889757
898.327207	5934.055618
898.635038	5702.011307
898.942827	5452.562412
899.250576	5256.431280
899.558284	5064.844749
899.865952	4942.443013
900.173579	4790.144714
900.481165	4682.168240
900.788711	4591.122481
901.096216	4513.922251
901.403681	4452.430256
901.711105	4429.881175
902.018489	4412.486673
902.325832	4479.256756
902.633135	4603.823668
902.940397	4945.762613
903.247619	5738.975567
903.554800	7176.453025
903.861941	9095.776570
904.169041	10632.622731
904.476101	11270.200143
904.783121	10926.763976
905.090100	10188.451707
905.397039	9346.256381
905.703938	8591.610774
906.010796	7889.993064
906.317614	7338.513518
906.624391	6802.548123
906.931129	6374.297063
907.237826	5968.940403
907.544483	5587.274645
907.851099	5214.390577
908.157675	4863.576681
908.464211	4535.379922
908.770707	4299.532060
909.077163	4099.095783
909.383578	3954.913742
909.689954	3832.479238
909.996289	3761.366202
910.302584	3696.761294
910.608839	3667.489835
910.915054	3632.663023
911.221229	3620.357567
911.527363	3630.563383
911.833458	3642.521000
912.139513	3675.522913
912.445527	3700.761450
912.751502	3781.041825
913.057436	3886.086868
913.363331	4022.006458
913.669186	4228.426585
913.975000	4482.631809
914.280775	4908.740379
914.586510	5490.741590
914.892205	6288.970493
915.197859	7326.896179
915.503475	8550.522849
915.809050	9608.514848
916.114585	10258.044836
916.420081	10524.472337
916.725536	10496.577112
917.030952	10056.733919
917.336328	9646.189911
917.641665	9236.142458
917.946961	8746.780010
918.252218	8332.150147
918.557435	7817.375242
918.862612	7388.163842
919.167750	7008.650657
919.472848	6588.687254
919.777906	6209.703390
920.082925	5850.569069
920.387904	5482.141382
920.692843	5214.524168
920.997743	4964.281291
921.302603	4730.472576
921.607423	4565.573913
921.912204	4402.888317
922.216946	4285.331129
922.521647	4162.480731
922.826310	4057.145821
923.130932	3962.387252
923.435516	3865.236656
923.740059	3788.651447
924.044564	3713.044221
924.349028	3654.660098
924.653454	3588.061415
924.957840	3521.828215
925.262186	3473.884321
925.566493	3412.175557
925.870761	3356.516177
926.174989	3319.314983
926.479178	3281.019857
926.783328	3238.948908
927.087438	3210.012685
927.391509	3174.086902
927.695541	3145.717809
927.999533	3115.571709
928.303486	3099.319029
928.607400	3080.875967
928.911275	3069.798032
929.215110	3052.466545
929.518906	3042.190153
929.822663	3042.318702
930.126381	3039.596479
930.430060	3046.286090
930.733699	3050.258519
931.037299	3055.032492
931.340861	3057.845456
931.644383	3063.468863
931.947866	3064.890468
932.251309	3055.156000
932.554714	3057.215312
932.858080	3051.710372
933.161407	3042.825338
933.464694	3035.412321
933.767943	3027.495189
934.071153	3023.986546
934.374323	3013.939527
934.677455	3008.721932
934.980548	3002.130624
935.283602	2995.521671
935.586617	2994.052175
935.889593	3001.114831
936.192530	3006.549195
936.495428	3021.128212
936.798287	3041.348280
937.101108	3074.894638
937.403890	3125.248203
937.706632	3186.568799
938.009336	3265.160387
938.312002	3339.035976
938.614628	3402.241963
938.917216	3454.135601
939.219765	3484.211125
939.522275	3519.544572
939.824747	3525.596477
940.127179	3522.032382
940.429573	3519.907535
940.731929	3513.855630
941.034246	3501.033455
941.336524	3487.555930
941.638763	3471.875421
941.940964	3460.336220
942.243126	3415.381731
942.545250	3394.624780
942.847335	3358.197402
943.149381	3322.679953
943.451389	3288.122843
943.753359	3252.549941
944.055290	3230.371385
944.357182	3207.045966
944.659036	3189.752287
944.960851	3180.658046
945.262628	3165.030469
945.564367	3167.162877
945.866067	3163.843277
946.167729	3158.529901
946.469352	3157.564520
946.770937	3152.362049
947.072484	3132.855305
947.373992	3138.450985
947.675462	3132.010911
947.976893	3115.425515
948.278286	3106.986624
948.579641	3097.542022
948.880958	3093.655292
949.182236	3096.190993
949.483476	3088.266299
949.784678	3089.178748
950.085841	3090.209664
950.386967	3099.850870
950.688054	3121.547997
950.989103	3139.176912
951.290114	3160.460663
951.591087	3185.598377
951.892021	3212.739949
952.192917	3243.831265
952.493776	3269.170625
952.794596	3273.385030
953.095378	3281.559261
953.396122	3274.806635
953.696828	3268.759771
953.997496	3259.557145
954.298126	3236.183835
954.598718	3213.677604
954.899272	3188.728933
955.199788	3157.751043
955.500266	3130.543936
955.800706	3091.575816
956.101108	3057.827812
956.401472	3025.821526
956.701798	2993.414469
957.002087	2951.630865
957.302337	2923.697832
957.602550	2895.338821
957.902724	2865.664068
958.202861	2841.075841
958.502960	2821.143118
958.803022	2798.813327
959.103045	2778.406737
959.403031	2757.657347
959.702979	2746.375245
960.002889	2734.810838
960.302762	2724.549569
960.602596	2710.388968
960.902393	2702.686085
961.202153	2692.502954
961.501875	2685.130267
961.801559	2678.135666
962.101205	2669.845488
962.400814	2663.851557
962.700385	2660.436175
962.999918	2652.874444
963.299414	2643.671818
963.598873	2646.348670
963.898293	2637.546816
964.197677	2638.459265
964.497022	2638.192083
964.796331	2632.321660
965.095601	2630.101032
965.394835	2627.605660
965.694030	2629.251597
965.993189	2625.989971
966.292309	2626.073150
966.591393	2622.619959
966.890439	2622.672891
967.189447	2622.551904
967.488419	2625.022069
967.787353	2624.333952
968.086249	2625.460649
968.385108	2627.772018
968.683930	2630.007770
968.982714	2632.430045
969.281462	2639.306178
969.580172	2640.876498
969.878844	2647.563588
970.177480	2658.465084
970.476078	2664.590086
970.774639	2671.660304
971.073162	2677.956705
971.371649	2686.957685
971.670098	2691.154446
971.968510	2695.706608
972.266885	2701.755992
972.565223	2703.507793
972.863524	2704.785726
973.161788	2711.649257
973.460014	2714.137066
973.758204	2716.171172
974.056356	2717.834752
974.354471	2722.674260
974.652550	2719.722665
974.950591	2718.459856
975.248595	2718.212839
975.546563	2714.920966
975.844493	2711.848382
976.142386	2704.437886
976.440243	2700.102494
976.738062	2698.365816
977.035845	2690.418437
977.333590	2685.009279
977.631299	2677.450069
977.928971	2675.395799
978.226606	2665.066475
978.524204	2666.175528
978.821765	2658.802841
979.119290	2661.615805
979.416777	2662.384581
979.714228	2662.729900
980.011642	2670.493277
980.309020	2675.695747
980.606360	2687.711338
980.903664	2717.038250
981.200931	2749.795668
981.498162	2796.887607
981.795356	2870.553988
982.092513	2960.863738
982.389633	3064.656055
982.686717	3162.469563
982.983764	3239.059813
983.280775	3286.547483
983.577749	3296.591982
983.874686	3285.002369
984.171587	3249.084148
984.468451	3211.184753
984.765279	3168.849143
985.062070	3118.480454
985.358824	3072.545461
985.655543	3015.514887
985.952224	2965.604943
986.248869	2901.531878
986.545478	2842.202538
986.842050	2786.510391
987.138586	2738.750500
987.435086	2703.817824
987.731549	2670.258863
988.027975	2645.940337
988.324366	2629.261679
988.620719	2613.984463
988.917037	2600.985847
989.213318	2595.385126
989.509563	2585.874989
989.805772	2583.152766
990.101944	2577.186560
990.398080	2574.454255
990.694180	2571.253122
990.990244	2575.606158
991.286271	2571.517783
991.582262	2573.965263
991.878217	2579.329051
992.174136	2581.108578
992.470019	2584.914649
992.765865	2586.563106
993.061676	2589.386152
993.357450	2602.225971
993.653188	2607.982969
993.948890	2628.165228
994.244556	2644.546458
994.540186	2665.764674
994.835780	2696.868594
995.131337	2737.119687
995.426859	2775.167795
995.722345	2825.899447
996.017795	2877.520862
996.313208	2916.849424
996.608586	2942.143413
996.903928	2954.017851
997.199234	2954.738736
997.494504	2949.415278
997.789738	2935.577311
998.084936	2910.883218
998.380099	2880.079248
998.675225	2850.764938
998.970316	2820.268478
999.265371	2785.050977
999.560390	2747.690986
999.855373	2719.606718
1000.150320	2689.374918
1000.445232	2663.919612
1000.740108	2646.182312
1001.034948	2624.959055
1001.329752	2610.125459
1001.624521	2597.204982
1001.919254	2585.814495
1002.213951	2578.603124
1002.508613	2569.723132
1002.803239	2563.855229
1003.097829	2558.874569
1003.392384	2554.123281
1003.686903	2547.244627
1003.981386	2546.455686
1004.275834	2541.331353
1004.570246	2539.640046
1004.864623	2534.898841
1005.158964	2532.186700
1005.453270	2530.906247
1005.747540	2530.213089
1006.041775	2526.119672
1006.335974	2527.009435
1006.630138	2526.490197
1006.924266	2527.526154
1007.218359	2520.667664
1007.512416	2519.220853
1007.806438	2517.375790
1008.100425	2522.333765
1008.394376	2516.826305
1008.688292	2520.390400
1008.982172	2519.793024
1009.276017	2522.638755
1009.569827	2517.927797
1009.863602	2516.188599
1010.157341	2517.491737
1010.451045	2516.032323
1010.744714	2515.634072
1011.038347	2517.892509
1011.331945	2513.471417
1011.625508	2512.374966
1011.919036	2511.742301
1012.212528	2510.789523
1012.505986	2511.918741
1012.799408	2509.183915
1013.092795	2510.023268
1013.386147	2507.923627
1013.679464	2510.353463
1013.972745	2507.772392
1014.265992	2507.477485
1014.559204	2505.637464
1014.852380	2509.199039
1015.145521	2506.466733
1015.438628	2507.873215
1015.731699	2509.662825
1016.024736	2507.164933
1016.317737	2510.247599
1016.610703	2512.107785
1016.903635	2510.550068
1017.196531	2512.874040
1017.489393	2514.998886
1017.782219	2515.616428
1018.075011	2517.348064
1018.367768	2516.528877
1018.660490	2519.120030
1018.953177	2519.120030
1019.245829	2519.120030
