Dividing Wavelength (nm)	Counts (n)	Blue Motor Position (mm): 46.600000	Red Motor Position (mm): 0.000000	
326.493990	2272.605086
326.888308	2272.605086
327.282561	2272.605086
327.676750	2230.776112
328.070874	2228.406770
328.464933	2231.406256
328.858929	2233.248798
329.252859	2237.075034
329.646726	2244.636764
330.040528	2260.188724
330.434265	2271.508635
330.827938	2292.217695
331.221547	2309.145890
331.615091	2324.486121
332.008571	2344.670901
332.401986	2363.721421
332.795338	2382.207332
333.188625	2401.948491
333.581847	2422.483631
333.975006	2442.118925
334.368100	2461.126596
334.761129	2478.074955
335.154095	2495.978613
335.546996	2523.120185
335.939833	2562.098387
336.332606	2576.475757
336.725315	2590.646441
337.117960	2601.999119
337.510540	2613.039246
337.903056	2624.820423
338.295508	2633.148409
338.687896	2641.206693
339.080220	2649.023002
339.472480	2654.331337
339.864676	2659.881648
340.256807	2667.163595
340.648875	2671.725839
341.040879	2673.454955
341.432818	2675.683145
341.824694	2675.733556
342.216506	2679.451407
342.608253	2679.935358
342.999937	2677.064421
343.391557	2680.812519
343.783113	2680.744463
344.174605	2677.077024
344.566033	2679.345543
344.957397	2678.173475
345.348697	2674.347239
345.739934	2674.584173
346.131106	2674.503515
346.522215	2670.788184
346.913260	2670.873884
347.304241	2667.186280
347.695159	2666.714932
348.086012	2663.428100
348.476802	2662.573624
348.867528	2659.685043
349.258191	2656.488951
349.648789	2656.060453
350.039324	2651.208343
350.429796	2656.052892
350.820203	2653.917963
351.210548	2654.840494
351.600828	2648.234062
351.991045	2650.845380
352.381198	2648.634834
352.771288	2651.599032
353.161314	2648.687766
353.551276	2648.113074
353.941175	2648.085348
354.331010	2649.154072
354.720782	2648.526449
355.110490	2647.467807
355.500135	2648.047539
355.889717	2649.375883
356.279235	2648.823877
356.668689	2649.448980
357.058080	2648.420585
357.447408	2650.782365
357.836672	2648.801192
358.225873	2649.181799
358.615010	2651.886378
359.004084	2650.399237
359.393095	2648.647437
359.782043	2652.032571
360.170927	2653.633138
360.559748	2651.987201
360.948505	2655.321924
361.337199	2656.942655
361.725830	2655.972233
362.114398	2657.532470
362.502903	2656.476348
362.891344	2657.255207
363.279722	2655.357212
363.668037	2659.896771
364.056289	2657.950886
364.444478	2661.404076
364.832603	2659.853922
365.220665	2661.502379
365.608665	2662.296361
365.996601	2659.357368
366.384474	2661.580517
366.772284	2665.000940
367.160031	2666.241063
367.547715	2664.476660
367.935336	2663.029848
368.322893	2661.648572
368.710388	2662.719817
369.097820	2665.971362
369.485189	2663.758295
369.872495	2666.672082
370.259738	2669.132165
370.646918	2667.453461
371.034035	2670.931857
371.421090	2670.377330
371.808081	2671.834224
372.195010	2676.961077
372.581875	2680.875533
372.968678	2681.356963
373.355418	2686.705627
373.742096	2695.719211
374.128710	2703.101980
374.515262	2714.784854
374.901751	2723.243911
375.288177	2735.478791
375.674540	2755.522419
376.060841	2770.676127
376.447079	2790.838222
376.833254	2816.341419
377.219367	2834.134172
377.605417	2867.304964
377.991404	2889.531411
378.377329	2924.075918
378.763191	2945.843620
379.148991	2987.609580
379.534727	3028.876465
379.920402	3064.482135
380.306013	3090.091197
380.691563	3154.809530
381.077049	3181.046215
381.462474	3219.059035
381.847835	3281.897018
382.233134	3325.697083
382.618371	3353.776310
383.003545	3426.174841
383.388657	3453.190385
383.773706	3515.068027
384.158693	3550.787123
384.543618	3585.586208
384.928480	3650.755724
385.313280	3708.219837
385.698017	3732.944176
386.082692	3824.156293
386.467305	3830.729958
386.851856	3869.577089
387.236344	3949.413843
387.620770	3980.346363
388.005133	4034.919374
388.389435	4077.315478
388.773674	4089.429370
389.157851	4163.630114
389.541965	4233.835743
389.926018	4200.264179
390.310008	4299.882420
390.693936	4356.388713
391.077802	4388.468096
391.461606	4388.546234
391.845348	4458.051142
392.229027	4517.428373
392.612645	4515.452241
392.996200	4616.945791
393.379694	4678.432745
393.763125	4783.296306
394.146494	4808.156757
394.529801	4869.552969
394.913047	4948.845278
395.296230	4898.320314
395.679351	5004.786962
396.062410	5062.674532
396.445408	5030.040623
396.828343	5093.649902
397.211217	5149.662162
397.594028	5031.767218
397.976778	5147.761647
398.359466	5192.968194
398.742092	5219.756886
399.124656	5137.381911
399.507158	5252.703347
399.889598	5319.354962
400.271977	5438.152273
400.654294	5438.101862
401.036549	5482.214478
401.418742	5399.789093
401.800874	5607.139312
402.182944	5664.600904
402.564952	5772.020331
402.946898	5831.672304
403.328783	5671.295556
403.710606	5687.245767
404.092367	6014.131827
404.474067	6036.262492
404.855705	5931.164517
405.237282	5870.098499
405.618797	6128.210618
406.000250	6099.909580
406.381642	6309.765253
406.762972	6328.561195
407.144240	6385.846347
407.525447	6365.686772
407.906593	6381.871397
408.287677	6547.647220
408.668700	6460.888963
409.049661	6575.106385
409.430560	6602.580674
409.811399	6466.998841
410.192176	6728.354942
410.572891	6750.137768
410.953545	6940.133815
411.334138	6665.211969
411.714669	6842.761408
412.095139	6634.075283
412.475547	6882.455453
412.855894	6951.728469
413.236180	7135.463403
413.616405	6795.850951
413.996568	7014.339599
414.376670	7069.449493
414.756711	6963.509645
415.136691	7061.537402
415.516609	7266.493074
415.896466	7242.262768
416.276262	7454.681867
416.655997	7438.666122
417.035670	7611.189530
417.415283	7961.295144
417.794834	8021.534412
418.174324	7879.378914
418.553753	7805.604148
418.933121	8101.761854
419.312428	8201.611989
419.691674	7979.418092
420.070859	8458.105896
420.449983	8137.107905
420.829045	8504.754213
421.208047	8273.297196
421.586988	8586.985515
421.965867	8615.057180
422.344686	8703.910037
422.723444	8773.523331
423.102141	8109.860468
423.480777	8874.313640
423.859352	8398.789160
424.237866	9019.932410
424.616319	8881.398982
424.994712	9312.808325
425.373044	8847.920679
425.751314	9337.328497
426.129524	9219.050425
426.507673	9302.723497
426.885762	9459.190830
427.263789	9372.172953
427.641756	9318.036002
428.019662	9399.301922
428.397508	9672.356020
428.775292	9328.839194
429.153016	9713.998472
429.530679	9546.130569
429.908282	9560.361747
430.285824	9293.389801
430.663305	9979.793308
431.040726	9424.094317
431.418086	9405.812573
431.795385	9741.760106
432.172624	9841.078398
432.549802	9740.509900
432.926920	9813.682248
433.303977	9685.284059
433.680974	9885.811077
434.057910	9990.147838
434.434786	10063.365557
434.811601	9876.870591
435.188355	10447.768661
435.565050	10190.498416
435.941683	10110.031518
436.318257	10589.599004
436.694770	10770.669688
437.071222	10816.329939
437.447614	10639.866869
437.823946	10567.276775
438.200218	10658.614921
438.576429	10505.205047
438.952580	10749.390978
439.328670	10774.846284
439.704700	10575.473691
440.080670	10562.306197
440.456580	11082.245763
440.832429	10875.397139
441.208218	10471.968720
441.583947	10766.908988
441.959616	10952.935126
442.335224	10769.104410
442.710773	10866.267609
443.086261	11103.295101
443.461689	10372.945335
443.837057	11054.277442
444.212365	11287.145982
444.587612	10929.697928
444.962800	11138.182407
445.337927	10880.178673
445.712995	10558.089272
446.088002	11590.346180
446.462949	11287.488781
446.837837	11250.375806
447.212664	11171.849752
447.587431	11775.159921
447.962139	12526.576670
448.336786	14824.165714
448.711374	15308.335773
449.085901	13125.143113
449.460369	12776.310390
449.834776	12219.245246
450.209124	13153.484480
450.583412	13583.565479
450.957640	14497.418286
451.331808	13544.413357
451.705917	12612.271244
452.079965	11855.069772
452.453954	12774.414916
452.827883	12434.981425
453.201752	12715.498951
453.575562	12274.075356
453.949311	12680.614167
454.323001	12667.136642
454.696632	12907.985328
455.070202	13177.429960
455.443713	13373.142676
455.817164	13878.004152
456.190556	13830.458509
456.563888	14197.850240
456.937160	14344.348691
457.310373	13705.505949
457.683526	13813.323627
458.056619	13340.120598
458.429653	13542.490157
458.802628	12907.773600
459.175542	13320.336590
459.548398	14264.496814
459.921194	14633.400891
460.293930	14704.892014
460.666607	15540.145671
461.039224	16611.254752
461.411782	17333.841142
461.784280	17103.339423
462.156719	17215.023666
462.529099	16891.210190
462.901419	15850.375758
463.273680	15605.859632
463.645882	15517.440314
464.018024	15237.033693
464.390106	15463.999043
464.762130	16172.404666
465.134094	16977.444168
465.505999	19040.133087
465.877845	22320.134631
466.249631	25120.936694
466.621358	24720.956424
466.993026	23302.403458
467.364634	22708.253066
467.736184	21232.525854
468.107674	20452.334199
468.479105	20576.202911
468.850477	20032.895076
469.221790	19640.786568
469.593043	18945.737481
469.964238	18363.247278
470.335373	18005.166558
470.706449	18524.977576
471.077467	18109.397455
471.448425	19982.254165
471.819324	24141.601818
472.190164	25956.749919
472.560945	22264.046754
472.931667	19975.468772
473.302330	19368.307161
473.672934	19011.935393
474.043479	19227.290965
474.413965	19043.092244
474.784393	18624.983986
475.154761	19407.116484
475.525070	19326.853753
475.895321	19036.064876
476.265513	19647.178751
476.635645	20241.321582
477.005719	19996.550877
477.375734	20170.304327
477.745691	20660.745582
478.115588	21211.937781
478.485427	21771.198348
478.855207	22877.991237
479.224928	24672.553786
479.594591	26903.889466
479.964194	26792.787476
480.333739	27028.806737
480.703226	26619.197864
481.072653	26322.034447
481.442022	26965.174773
481.811333	27892.137101
482.180584	27758.917049
482.549777	26802.675699
482.918912	26487.349006
483.287988	26630.467363
483.657005	26233.801652
484.025964	26030.688523
484.394864	25905.337712
484.763706	25545.530397
485.132489	25025.396746
485.501213	25198.116759
485.869879	25110.698110
486.238487	24964.731501
486.607036	25085.320942
486.975527	24847.650703
487.343959	25138.681555
487.712333	25038.670104
488.080648	24696.166550
488.448905	25211.231321
488.817104	24980.190199
489.185244	25684.134402
489.553326	25630.267152
489.921350	26692.851642
490.289315	29055.922754
490.657222	30739.728633
491.025070	31272.908790
491.392861	31008.195281
491.760593	30143.307201
492.128267	29226.253261
492.495883	28157.672318
492.863440	27294.730123
493.230939	26425.748626
493.598380	26253.999035
493.965763	25879.088424
494.333088	25375.585539
494.700354	25353.359092
495.067563	25194.678692
495.434713	24940.841473
495.801805	25145.194726
496.168839	24889.978751
496.535815	24776.149497
496.902733	24995.001109
497.269593	24690.217989
497.636395	24853.190931
498.003139	24778.198726
498.369825	24511.156204
498.736453	24736.710030
499.103023	24601.140800
499.469535	24604.026861
499.835989	24821.514841
500.202385	24847.799417
500.568723	24392.210179
500.935003	24560.231837
501.301226	24270.390696
501.667390	25101.929023
502.033497	25297.251050
502.399546	25047.759305
502.765537	24578.596760
503.131470	24956.552229
503.497345	25110.183913
503.863163	24347.089332
504.228923	24878.368974
504.594625	25132.715350
504.960269	24701.782396
505.325856	25176.414592
505.691385	24561.779471
506.056856	25176.996845
506.422270	25166.281873
506.787625	24686.157339
507.152924	25116.427382
507.518164	25153.827702
507.883347	24974.377749
508.248472	24656.878318
508.613540	25427.496821
508.978550	25228.847633
509.343503	25249.072742
509.708398	25441.453255
510.073236	25605.595745
510.438016	25813.402189
510.802738	25469.351001
511.167403	25733.434366
511.532010	25477.956250
511.896561	26227.976599
512.261053	26193.825302
512.625488	26020.296184
512.989866	25916.387921
513.354186	25746.203608
513.718449	25881.717385
514.082655	26244.020071
514.446803	25961.110517
514.810894	26459.693236
515.174927	25961.327287
515.538904	25993.567986
515.902822	26487.051578
516.266684	26232.503555
516.630488	26144.447200
516.994235	26084.848159
517.357925	26429.106035
517.721558	26562.119399
518.085133	26713.323768
518.448651	26584.547493
518.812112	26357.667843
519.175516	26582.780568
519.538863	26727.595274
519.902152	26522.188420
520.265385	26776.771730
520.628560	26579.385351
520.991678	26555.240745
521.354739	26608.770237
521.717743	26724.903298
522.080690	26477.493550
522.443580	26810.986041
522.806413	26772.653107
523.169189	26899.349907
523.531908	26945.927648
523.894569	26578.137666
524.257174	26676.795567
524.619722	26806.131410
524.982213	26528.663782
525.344647	26542.418570
525.707025	26717.870889
526.069345	26646.299107
526.431608	26634.197817
526.793815	26806.917830
527.155964	26318.082183
527.518057	26493.975602
527.880093	26391.582206
528.242072	26613.503881
528.603995	26333.636663
528.965860	26119.551462
529.327669	26153.359960
529.689421	26150.496585
530.051117	26003.126014
530.412755	26176.332498
530.774337	25943.426150
531.135862	25849.022982
531.497331	26019.587902
531.858743	25630.710774
532.220098	26075.824494
532.581396	25780.228876
532.942638	25664.504148
533.303824	25788.380422
533.664953	25774.814677
534.026025	25445.244203
534.387040	25687.829567
534.747999	25724.488838
535.108902	25900.553657
535.469748	25406.439921
535.830537	25546.803288
536.191270	25686.977612
536.551947	25512.780541
536.912567	25130.943384
537.273131	25586.308291
537.633638	25244.152576
537.994089	25477.799975
538.354483	24959.191273
538.714821	25472.335364
539.075103	25520.816140
539.435328	25288.096314
539.795497	24888.259717
540.155609	25220.086108
540.515665	25540.728698
540.875665	24749.940538
541.235609	25092.955769
541.595496	25018.616394
541.955328	25387.896037
542.315102	25303.229858
542.674821	24817.005528
543.034483	24702.215935
543.394090	24879.392328
543.753640	24700.736356
544.113134	25318.597816
544.472571	24899.803960
544.831953	25210.059253
545.191278	24863.658887
545.550548	24742.895526
545.909761	24937.111019
546.268918	25178.610014
546.628019	25162.047303
546.987064	24840.335988
547.346053	24572.121398
547.704986	24670.900287
548.063863	24846.667678
548.422684	24870.683735
548.781449	24352.987482
549.140158	24769.227993
549.498811	24346.575134
549.857408	24115.813796
550.215949	24489.716177
550.574434	24204.122208
550.932864	24391.443924
551.291237	24581.056843
551.649555	24418.719087
552.007817	24494.936292
552.366022	24340.324103
552.724173	24340.762683
553.082267	24319.615043
553.440305	24815.031917
553.798288	24035.152814
554.156215	24527.552557
554.514086	24668.367107
554.871902	24062.712802
555.229661	24337.553989
555.587365	24168.458566
555.945014	24092.506021
556.302606	24292.377689
556.660143	24284.183293
557.017625	24519.832030
557.375050	24032.944788
557.732421	24424.387864
558.089735	24246.568724
558.446994	24290.204952
558.804197	24341.760832
559.161345	24217.531678
559.518437	24027.202914
559.875474	24198.549213
560.232455	24363.011816
560.589381	24174.676829
560.946251	24198.304717
561.303065	24481.816689
561.659825	24568.844648
562.016528	24179.395349
562.373177	23904.755808
562.729770	24279.492500
563.086307	24126.223779
563.442789	24295.510766
563.799216	24143.638445
564.155587	24130.659994
564.511904	24121.033911
564.868164	24074.108330
565.224370	24046.510533
565.580520	23977.229956
565.936615	24085.536626
566.292654	23793.661380
566.648638	24025.602348
567.004567	23875.534760
567.360441	23800.663543
567.716260	23522.621223
568.072023	23826.512059
568.427732	23615.849802
568.783385	23371.815106
569.138982	23638.877792
569.494525	23668.635723
569.850013	23428.691924
570.205445	23528.098437
570.560823	23365.369990
570.916145	23117.730869
571.271412	23310.083656
571.626625	23055.954050
571.981782	23172.041740
572.336884	22966.092962
572.691931	23097.374690
573.046923	22859.008772
573.401860	22728.541190
573.756743	22755.405498
574.111570	22652.772647
574.466342	22567.554462
574.821059	22645.823417
575.175722	22343.341583
575.530330	22304.499493
575.884882	22307.617446
576.239380	22232.088359
576.593823	22127.862503
576.948211	22105.189914
577.302544	21966.026341
577.656823	21816.800626
578.011047	21937.458122
578.365216	21797.954272
578.719330	21659.138539
579.073389	21551.925800
579.427394	21716.378320
579.781344	21463.481276
580.135239	21347.907783
580.489080	21297.627314
580.842866	21078.599262
581.196597	21302.708797
581.550273	21246.691496
581.903895	21125.572734
582.257463	21442.252977
582.610975	20975.986576
582.964434	21314.472330
583.317837	20974.423818
583.671186	21074.170608
584.024481	21050.784696
584.377721	20821.820529
584.730906	20908.120042
585.084037	20880.207173
585.437113	20819.625107
585.790135	21013.003768
586.143103	20470.159719
586.496016	20494.947073
586.848874	20729.663196
587.201679	20634.718104
587.554428	20347.034578
587.907124	20681.003458
588.259765	20432.625808
588.612352	20500.820017
588.964884	20073.551982
589.317362	20229.414376
589.669786	20307.007816
590.022155	20290.114910
590.374470	20551.181144
590.726731	20294.558687
591.078937	20108.814853
591.431090	20175.496715
591.783188	19947.639082
592.135232	19901.676362
592.487222	19999.855353
592.839157	20007.225520
593.191038	19886.809999
593.542866	19788.613363
593.894639	19478.695828
594.246358	19702.873419
594.598022	19581.447146
594.949633	19346.163893
595.301190	19335.083437
595.652692	19496.584362
596.004141	19712.577640
596.355535	19039.787768
596.706876	19074.488551
597.058162	18959.157033
597.409395	19204.774651
597.760573	19248.612525
598.111698	19022.410911
598.462768	18973.015165
598.813785	18942.019630
599.164748	18742.563858
599.515657	18793.545047
599.866511	18601.885419
600.217312	18943.519374
600.568060	18454.141802
600.918753	18767.061345
601.269392	18664.874636
601.619978	18468.156210
601.970510	18643.381677
602.320988	18594.452237
602.671412	18798.845820
603.021783	18734.487929
603.372100	18438.610007
603.722363	18591.757741
604.072572	18543.864258
604.422728	18686.513789
604.772830	18439.966078
605.122878	18399.974604
605.472872	18380.271254
605.822813	18358.856433
606.172701	18359.763841
606.522534	18522.998923
606.872314	18553.621412
607.222041	18397.055776
607.571714	18605.953630
607.921333	18433.034491
608.270899	18503.754318
608.620411	18656.783584
608.969870	18458.855281
609.319276	18455.558367
609.668627	18475.037385
610.017926	18606.034288
610.367171	18713.952789
610.716362	18783.412328
611.065500	18594.921065
611.414585	18744.681142
611.763616	18731.513649
612.112594	18664.766251
612.461518	18633.135531
612.810389	18823.663420
613.159207	18680.083797
613.507971	18596.143544
613.856682	18843.548252
614.205340	18760.843082
614.553945	18923.604295
614.902496	18664.183998
615.250994	18863.818731
615.599439	18817.107400
615.947830	18813.205547
616.296169	18888.013749
616.644454	18840.268981
616.992686	18816.310897
617.340864	19033.423311
617.688990	18773.768600
618.037063	18963.409246
618.385082	18822.768616
618.733048	19083.154294
619.080961	18975.535742
619.428821	19014.219036
619.776628	18869.694196
620.124382	18813.838212
620.472083	18872.212252
620.819731	18874.304331
621.167326	18570.920131
621.514868	18610.561244
621.862357	18393.431187
622.209793	18385.826606
622.557176	18223.750989
622.904506	18048.933856
623.251783	17996.992327
623.599007	17729.017192
623.946179	17672.730189
624.293297	17602.622862
624.640363	17334.970360
624.987376	17358.943568
625.334336	17155.850603
625.681243	17005.331831
626.028097	17029.456273
626.374899	16937.702232
626.721647	16811.323025
627.068343	16653.484498
627.414987	16579.379537
627.761577	16540.209771
628.108115	16566.176755
628.454600	16302.922660
628.801032	16408.239925
629.147412	16334.185375
629.493739	16346.321953
629.840014	16160.943603
630.186236	16257.738798
630.532405	16018.281470
630.878521	16203.594285
631.224585	16122.961029
631.570597	15942.535612
631.916556	15971.948225
632.262462	15940.047803
632.608316	15865.751278
632.954117	15804.274407
633.299866	15798.973633
633.645562	15712.931219
633.991206	15488.604914
634.336797	15350.691548
634.682336	15318.592001
635.027823	15187.970664
635.373257	15053.707093
635.718639	14978.850999
636.063968	14909.459517
636.409245	14666.125541
636.754470	14698.877917
637.099642	14548.371749
637.444762	14324.234487
637.789829	14365.808883
638.134845	14196.204303
638.479808	14229.314601
638.824719	14136.834634
639.169577	14006.425025
639.514383	14041.645047
639.859137	13872.065672
640.203839	13968.606289
640.548489	13827.431296
640.893086	13806.492864
641.237632	13684.849821
641.582125	13842.113657
641.926566	13653.730779
642.270955	13673.892873
642.615292	13619.967651
642.959576	13631.113642
643.303809	13658.318229
643.647990	13594.018311
643.992118	13662.149506
644.336195	13425.482456
644.680219	13661.955421
645.024192	13563.088312
645.368112	13809.021002
645.711981	13847.391745
646.055797	14032.364282
646.399562	14010.808308
646.743274	14276.225058
647.086935	14538.599472
647.430544	14508.735677
647.774101	14555.383994
648.117606	14681.846379
648.461059	14674.655173
648.804460	14646.265915
649.147810	14366.615467
649.491108	14289.080001
649.834354	14299.941167
650.177548	13974.242299
650.520690	13792.286892
650.863781	13713.191188
651.206820	13754.019493
651.549807	13590.973454
651.892742	13363.846788
652.235626	13310.947441
652.578458	13315.408862
652.921238	13026.127289
653.263967	13216.617370
653.606644	13052.999160
653.949269	13034.558619
654.291843	12819.611381
654.634365	12988.994150
654.976836	12839.377745
655.319255	12828.088081
655.661622	12793.588945
656.003938	12719.995660
656.346203	12641.993887
656.688416	12723.007750
657.030577	12677.460925
657.372687	12575.866551
657.714746	12570.762383
658.056753	12754.893048
658.398708	12563.457751
658.740612	12559.460116
659.082465	12687.969210
659.424266	12654.523675
659.766016	12678.779187
660.107715	12599.507042
660.449362	12669.087568
660.790958	12621.264662
661.132503	12558.963563
661.473996	12639.127991
661.815438	12642.291315
662.156829	12678.388497
662.498168	12646.024289
662.839456	12652.164415
663.180693	12662.677741
663.521879	12754.943459
663.863013	12725.288872
664.204097	12695.369624
664.545129	12832.032784
664.886110	12807.810040
665.227040	12903.017271
665.567918	12906.568764
665.908746	12915.514292
666.249522	12904.678332
666.590248	12974.026964
666.930922	13082.321031
667.271545	13045.356771
667.612118	13143.155155
667.952639	13039.544320
668.293109	13072.397520
668.633528	12998.789112
668.973896	12987.212102
669.314213	13038.914176
669.654480	12793.183132
669.994695	12879.825443
670.334859	12905.184968
670.674973	12843.138446
671.015035	12872.999721
671.355047	12825.827124
671.695008	12791.771609
672.034918	12810.731388
672.374777	12848.653468
672.714585	12759.430086
673.054342	12808.203250
673.394049	12756.528902
673.733705	12845.124661
674.073310	12743.772262
674.412864	12761.872525
674.752368	12608.757560
675.091820	12662.292093
675.431223	12634.006179
675.770574	12495.402174
676.109875	12421.708067
676.449125	12373.139070
676.788324	12323.382882
677.127473	12155.116728
677.466571	12147.310501
677.805619	12034.265147
678.144616	11966.728809
678.483562	11953.034514
678.822458	11807.451032
679.161303	11784.748196
679.500098	11772.697318
679.838842	11735.745660
680.177535	11773.647575
680.516179	11834.156545
680.854771	11776.697473
681.193314	11988.327632
681.531805	12156.737459
681.870247	12607.482148
682.208638	13011.588602
682.546978	13303.983087
682.885268	13325.309688
683.223508	13034.291438
683.561697	12883.923901
683.899836	12789.888738
684.237925	12580.970720
684.575963	12502.706806
684.913951	12419.391657
685.251889	12375.117723
685.589776	12475.419040
685.927614	12389.336297
686.265401	12365.398378
686.603137	12425.244436
686.940824	12577.648599
687.278460	12703.133001
687.616046	12733.132907
687.953582	12886.351217
688.291068	12834.129904
688.628504	13063.114235
688.965889	13071.769896
689.303224	13015.535825
689.640510	12901.847724
689.977745	12590.579159
690.314930	12374.205274
690.652065	12271.274995
690.989150	11976.304480
691.326185	11750.727969
691.663170	11548.779346
692.000105	11308.764970
692.336990	11189.760972
692.673825	10925.987638
693.010610	10819.077368
693.347345	10608.543660
693.684030	10413.864381
694.020665	10358.557882
694.357251	10159.134877
694.693786	10080.818031
695.030272	9932.015773
695.366707	9813.243668
695.703093	9763.774825
696.039429	9750.935006
696.375716	9646.338625
696.711952	9530.437457
697.048139	9579.291279
697.384276	9532.809320
697.720363	9560.407117
698.056400	9494.443619
698.392388	9423.494420
698.728326	9396.148681
699.064214	9338.366975
699.400053	9372.493066
699.735842	9189.355509
700.071581	9151.718254
700.407270	9076.441224
700.742910	9001.486828
701.078501	8904.116942
701.414042	8766.778267
701.749533	8717.778252
702.084974	8573.392044
702.420366	8696.640693
702.755709	8573.755007
703.091002	8438.120242
703.426246	8476.969894
703.761440	8426.200434
704.096584	8380.724185
704.431679	8316.656161
704.766725	8297.096484
705.101721	8251.970595
705.436668	8305.270715
705.771565	8199.388840
706.106413	8278.711396
706.441212	8313.107188
706.775961	8277.554451
707.110661	8325.163108
707.445311	8455.285371
707.779913	8352.138322
708.114465	8478.424267
708.448967	8510.566664
708.783421	8677.015482
709.117825	8843.653342
709.452180	8877.804639
709.786485	8966.211354
710.120742	9260.193803
710.454949	9266.328887
710.789107	9367.061223
711.123216	9598.261141
711.457275	9768.700032
711.791286	9901.214323
712.125247	9913.640767
712.459159	9903.303881
712.793023	10122.825966
713.126837	9705.536895
713.460602	9864.698725
713.794318	9693.002066
714.127985	9717.945695
714.461602	9375.742090
714.795171	9326.147218
715.128691	9080.675793
715.462162	8832.696395
715.795584	8777.631871
716.128957	8604.614430
716.462281	8440.174512
716.795556	8488.763673
717.128782	8282.212477
717.461960	8031.031945
717.795088	8097.376051
718.128167	8002.773757
718.461198	7842.843152
718.794180	7792.197200
719.127113	7778.381917
719.459997	7602.448169
719.792833	7380.586988
720.125619	7456.121117
720.458357	7313.595095
720.791046	7307.565875
721.123686	7287.849922
721.456278	7126.303626
721.788821	7140.653271
722.121315	7050.341000
722.453761	7123.203317
722.786158	7054.285703
723.118506	7065.028401
723.450805	7035.877929
723.783056	7088.293326
724.115259	7014.291708
724.447412	7011.488827
724.779518	7060.118317
725.111574	7069.504946
725.443582	7139.950030
725.775542	7114.688808
726.107453	7309.579816
726.439315	7220.500107
726.771129	7297.435676
727.102895	7474.861606
727.434612	7576.098058
727.766281	7621.665047
728.097901	7691.142230
728.429473	7701.474074
728.760996	7690.464194
729.092471	7668.487284
729.423897	7594.634380
729.755276	7586.780263
730.086606	7506.356215
730.417887	7615.149356
730.749120	7837.202101
731.080305	8028.319805
731.411442	8131.171946
731.742530	8109.058925
732.073570	8223.699804
732.404562	8313.258423
732.735506	8176.678442
733.066401	8293.580279
733.397249	8217.045481
733.728048	7969.204714
734.058798	7638.442007
734.389501	7406.662356
734.720156	7236.777992
735.050762	7015.473859
735.381320	6927.951867
735.711831	6862.767227
736.042293	6763.471619
736.372707	6774.599967
736.703073	6641.425285
737.033391	6684.385998
737.363661	6692.840013
737.693883	6729.761424
738.024056	6814.140257
738.354182	6845.471028
738.684260	6884.915536
739.014290	7009.394227
739.344272	7118.814992
739.674207	7144.605535
740.004093	7225.947073
740.333931	7240.256388
740.663722	7242.955926
740.993464	7320.153636
741.323159	7291.242618
741.652806	7048.473252
741.982405	7090.279541
742.311956	7121.096114
742.641460	6937.527538
742.970915	6752.441575
743.300323	6742.810450
743.629683	6703.353339
743.958996	6559.831689
744.288260	6471.430015
744.617477	6421.671306
744.946647	6412.060347
745.275768	6262.338077
745.604842	6207.823040
745.933869	6192.616399
746.262847	6154.109545
746.591778	6138.827287
746.920662	6092.834320
747.249498	6097.452017
747.578286	6144.274254
747.907027	6212.302105
748.235720	6277.519512
748.564365	6250.531695
748.892963	6294.223375
749.221514	6426.354538
749.550017	6234.115177
749.878473	6134.786803
750.206881	6200.815836
750.535242	6146.540253
750.863555	6070.459159
751.191821	6079.795376
751.520039	6078.416620
751.848210	5985.742569
752.176334	6020.115676
752.504411	6059.103960
752.832440	5980.272917
753.160421	5920.968783
753.488356	5964.259692
753.816243	5989.936809
754.144082	5842.548594
754.471875	5820.344832
754.799620	5859.522159
755.127318	5868.374425
755.454969	5830.701882
755.782572	5796.802643
756.110129	5846.631928
756.437638	5813.166228
756.765100	5761.416264
757.092515	5771.808602
757.419882	5824.677703
757.747203	5798.672911
758.074477	5851.673082
758.401703	5836.504250
758.728882	5794.894566
759.056014	5875.076639
759.383099	5983.892465
759.710138	5996.971739
760.037129	5985.997147
760.364073	5980.197299
760.690970	6064.624023
761.017820	6038.173089
761.344623	6007.371639
761.671379	6116.129492
761.998088	6242.566672
762.324751	6503.869840
762.651366	7152.683984
762.977935	8535.603554
763.304456	10198.460918
763.630931	11046.113293
763.957359	10571.392877
764.283740	9611.899983
764.610074	8725.725631
764.936362	7722.898978
765.262602	7139.960112
765.588796	6608.231807
765.914943	6282.686695
766.241044	6108.267813
766.567097	5889.307816
766.893104	5631.203260
767.219064	5461.470130
767.544978	5396.706427
767.870845	5312.514117
768.196665	5212.714394
768.522438	5142.654958
768.848165	5099.268268
769.173846	5033.783679
769.499479	4985.096215
769.825066	4944.567859
770.150607	4878.584196
770.476101	4860.433522
770.801548	4849.958004
771.126949	4760.885857
771.452303	4707.754616
771.777611	4675.892003
772.102872	4695.068552
772.428087	4655.147655
772.753256	4616.862612
773.078378	4559.451432
773.403453	4490.473323
773.728482	4479.246674
774.053465	4435.484417
774.378401	4427.547121
774.703291	4413.056324
775.028135	4344.393288
775.352932	4297.392090
775.677683	4282.114873
776.002388	4299.181700
776.327046	4306.274603
776.651658	4230.150659
776.976224	4172.978934
777.300743	4177.894059
777.625216	4198.676215
777.949643	4187.804967
778.274024	4148.564626
778.598359	4113.432824
778.922647	4141.721259
779.246889	4127.101913
779.571086	4116.482723
779.895236	4101.097121
780.219339	4091.758383
780.543397	4090.442642
780.867409	4143.644459
781.191374	4151.309534
781.515294	4087.783434
781.839167	4080.491405
782.162995	4108.467288
782.486776	4090.062035
782.810511	4108.023666
783.134201	4089.396603
783.457844	4044.588307
783.781441	3993.188702
784.104993	3999.003673
784.428498	4018.477651
784.751958	4013.602855
785.075372	3990.501767
785.398739	3957.749391
785.722061	3966.024445
786.045337	4010.084129
786.368568	4038.823747
786.691752	3950.036425
787.014891	4013.255015
787.337983	4146.212927
787.661030	4310.093277
787.984031	4465.333089
788.306987	4634.030262
788.629897	4720.811204
788.952760	4675.687836
789.275579	4605.928349
789.598351	4539.553997
789.921078	4381.667579
790.243759	4182.317671
790.566395	4177.596631
790.888984	4163.657840
791.211529	4060.311666
791.534027	3996.805730
791.856480	3982.307372
792.178888	3920.023916
792.501249	3876.564129
792.823566	3887.329513
793.145836	3911.090991
793.468062	3855.839945
793.790241	3818.207732
794.112375	3850.887012
794.434464	3917.079882
794.756507	3937.920012
795.078505	3910.652411
795.400457	3954.880974
795.722364	4102.657358
796.044226	4208.413204
796.366042	4279.947177
796.687812	4249.327209
797.009538	4251.290738
797.331218	4214.316395
797.652852	4187.668856
797.974442	4166.569107
798.295986	4165.071884
798.617484	4078.570725
798.938938	3993.909587
799.260346	4041.929098
799.581709	4030.508364
799.903026	3953.477013
800.224299	3919.547527
800.545526	3914.652567
800.866708	3874.663614
801.187845	3818.716888
801.508936	3851.950695
801.829983	3835.385463
802.150984	3767.387860
802.471940	3760.340327
802.792851	3766.193106
803.113717	3766.417438
803.434538	3766.268724
803.755314	3704.776729
804.076045	3688.992876
804.396731	3707.118345
804.717372	3734.930391
805.037967	3715.431208
805.358518	3703.662634
805.679024	3732.351841
805.999485	3754.404368
806.319901	3752.934872
806.640272	3765.590688
806.960598	3776.451854
807.280879	3750.656270
807.601115	3768.701080
807.921306	3789.556334
808.241453	3826.923887
808.561554	3796.422385
808.881611	3729.906881
809.201623	3774.337090
809.521590	3779.284983
809.841513	3751.936723
810.161390	3783.176754
810.481223	3755.024430
810.801011	3707.632543
811.120755	3704.373437
811.440453	3735.880648
811.760107	3731.751943
812.079716	3685.549768
812.399281	3661.770646
812.718801	3684.647402
813.038276	3661.611849
813.357707	3652.956188
813.677093	3668.535874
813.996434	3614.998820
814.315731	3630.497848
814.634983	3632.226963
814.954191	3651.375786
815.273354	3676.140455
815.592473	3666.894978
815.911547	3683.538348
816.230577	3728.505440
816.549562	3782.294552
816.868502	3818.270746
817.187399	3838.528623
817.506250	3836.930577
817.825058	3820.914831
818.143821	3916.341353
818.462539	4017.298021
818.781213	4056.054411
819.099843	4127.933703
819.418429	4395.190475
819.736970	4639.051251
820.055466	4896.833173
820.373919	5264.343371
820.692327	5682.529768
821.010691	6184.757240
821.329011	7690.496962
821.647286	10618.840217
821.965517	15400.588889
822.283704	19399.015350
822.601847	21351.045901
822.919945	19409.390045
823.237999	16735.080614
823.556010	14211.665522
823.873976	12035.061649
824.191897	9915.269060
824.509775	8578.667611
824.827609	7455.561549
825.145398	6930.278359
825.463144	6810.135060
825.780845	6918.272851
826.098502	7154.587020
826.416116	8114.636961
826.733685	9496.906223
827.051210	10582.846378
827.368692	10509.396767
827.686129	9161.903905
828.003522	7660.814648
828.320872	6631.126208
828.638177	5909.943779
828.955439	5336.966233
829.272656	4833.523843
829.589830	4566.975354
829.906960	4390.224938
830.224046	4190.996018
830.541088	4070.315836
830.858086	4018.951519
831.175041	3942.023511
831.491952	3930.650668
831.808819	3941.456382
832.125642	4025.081562
832.442421	4183.850182
832.759157	4481.794977
833.075849	5071.423454
833.392497	5978.170756
833.709101	6764.772237
834.025662	7067.957312
834.342179	6633.306507
834.658653	5952.788546
834.975083	5291.348832
835.291469	4700.916291
835.607811	4306.473729
835.924110	4160.401255
836.240366	3957.434319
836.556578	3753.421343
836.872746	3645.104591
837.188871	3599.925770
837.504952	3528.943803
837.820990	3445.167388
838.136984	3406.731111
838.452935	3431.301695
838.768842	3424.488575
839.084706	3450.745425
839.400526	3623.523411
839.716303	3995.000997
840.032037	4549.666552
840.347727	4779.187766
840.663373	4453.148620
840.978977	4065.690577
841.294537	3756.791354
841.610054	3532.815410
841.925527	3426.502516
842.240957	3355.316383
842.556344	3298.996612
842.871687	3233.834657
843.186987	3188.250024
843.502244	3149.453304
843.817458	3115.584312
844.132629	3087.116916
844.447756	3092.778132
844.762840	3073.818352
845.077881	3040.251829
845.392879	3028.165663
845.707833	3025.594674
846.022745	3027.278420
846.337613	3022.517050
846.652438	3010.536748
846.967221	3004.764627
847.281960	2990.609067
847.596656	2987.838953
847.911309	2989.172338
848.225919	2984.378200
848.540485	2979.911738
848.855009	2978.011223
849.169490	2964.337093
849.483928	2958.466670
849.798323	2962.429017
850.112675	2957.203861
850.426984	2970.799853
850.741251	2963.820375
851.055474	2952.303859
851.369654	2944.631223
851.683792	2954.126236
851.997887	2964.044706
852.311938	2964.016980
852.625947	2953.647327
852.939914	2954.436267
853.253837	2956.518264
853.567718	2945.601645
853.881555	2945.934361
854.195350	2960.989767
854.509103	2950.337809
854.822812	2946.050308
855.136479	2941.286417
855.450103	2943.234823
855.763685	2938.065120
856.077224	2935.768874
856.390720	2948.051646
856.704173	2958.960703
857.017584	2949.009465
857.330953	2949.178344
857.644278	2962.055971
857.957561	2971.593834
858.270802	2972.370172
858.584000	2969.879842
858.897155	2952.180351
859.210268	2956.644293
859.523339	2951.005762
859.836367	2953.475927
860.149352	2947.827314
860.462295	2943.963270
860.775195	2947.691203
861.088054	2951.499795
861.400869	2931.756116
861.713642	2931.914912
862.026373	2947.565174
862.339062	2948.671708
862.651708	2954.554734
862.964312	2956.835856
863.276873	2951.613221
863.589392	2961.330045
863.901869	2976.914772
864.214303	2998.153153
864.526696	3010.909793
864.839045	3007.133969
865.151353	3007.539782
865.463619	3005.067096
865.775842	3008.958867
866.088023	3031.248328
866.400162	3029.778832
866.712258	2998.221209
867.024313	2992.353306
867.336325	3001.760099
867.648296	3025.103162
867.960224	3016.175278
868.272110	3002.009636
868.583954	3006.828979
868.895755	3015.575381
869.207515	3006.672703
869.519233	3016.384486
869.830909	3026.013090
870.142542	3032.160777
870.454134	3032.601878
870.765684	3035.369472
871.077191	3034.920809
871.388657	3045.482026
871.700081	3058.919222
872.011463	3067.315263
872.322803	3071.232240
872.634101	3069.850964
872.945357	3088.493151
873.256571	3113.910648
873.567744	3105.320522
873.878874	3101.264914
874.189963	3124.406331
874.501010	3125.094448
874.812015	3112.940226
875.122979	3111.382510
875.433900	3111.889146
875.744780	3118.019189
876.055618	3126.553862
876.366415	3122.301649
876.677169	3134.032414
876.987882	3126.377422
877.298554	3127.431023
877.609183	3153.161072
877.919771	3176.423477
878.230317	3200.769729
878.540822	3253.820312
878.851285	3295.820685
879.161707	3342.849609
879.472087	3460.013586
879.782425	3709.396947
880.092722	4177.200900
880.402977	4718.590576
880.713191	5394.102671
881.023363	6630.004551
881.333494	7950.033206
881.643583	8464.616547
881.953631	8119.496634
882.263637	7431.263187
882.573602	6804.022661
882.883526	6215.220933
883.193408	5636.839270
883.503248	5190.404768
883.813048	4870.606570
884.122806	4540.625243
884.432522	4209.668451
884.742197	3966.987305
885.051831	3778.788429
885.361424	3648.562822
885.670975	3574.588931
885.980485	3478.481853
886.289954	3398.730800
886.599382	3354.298070
886.908768	3319.604849
887.218113	3273.773199
887.527417	3212.936554
887.836680	3163.697084
888.145901	3158.421516
888.455082	3145.269146
888.764221	3090.098758
889.073319	3064.532547
889.382376	3060.300498
889.691392	3064.431723
890.000366	3064.754357
890.309300	3052.050650
890.618193	3063.698236
890.927044	3077.866398
891.235855	3075.955801
891.544625	3068.280644
891.853353	3078.277253
892.162041	3098.726693
892.470687	3142.327633
892.779293	3193.732278
893.087858	3240.859505
893.396381	3319.879592
893.704864	3454.773307
894.013306	3709.313768
894.321707	4026.422509
894.630068	4217.454513
894.938387	4207.347000
895.246665	4165.601205
895.554903	4031.035165
895.863100	3826.283660
896.171256	3653.651867
896.479371	3506.659383
896.787446	3377.366390
897.095480	3276.127418
897.403473	3212.225751
897.711425	3175.654701
898.019336	3168.002229
898.327207	3129.346662
898.635038	3092.271496
898.942827	3078.597366
899.250576	3069.102352
899.558284	3040.907179
899.865952	3019.250382
900.173579	2995.698111
900.481165	2988.506905
900.788711	2974.386633
901.096216	2948.591049
901.403681	2940.106787
901.711105	2948.013837
902.018489	2944.525359
902.325832	2942.201387
902.633135	2955.918366
902.940397	2992.197030
903.247619	3085.891915
903.554800	3295.712300
903.861941	3673.022501
904.169041	4122.721150
904.476101	4415.097991
904.783121	4335.460363
905.090100	4066.287954
905.397039	3784.805046
905.703938	3531.081253
906.010796	3344.324147
906.317614	3229.020355
906.624391	3127.196609
906.931129	3054.692214
907.237826	2993.883296
907.544483	2945.926799
907.851099	2916.637696
908.157675	2890.965620
908.464211	2872.729246
908.770707	2858.679550
909.077163	2844.397961
909.383578	2827.966320
909.689954	2817.720175
909.996289	2818.299907
910.302584	2819.083807
910.608839	2819.499702
910.915054	2811.819504
911.221229	2806.256591
911.527363	2810.150882
911.833458	2817.987356
912.139513	2821.722851
912.445527	2823.245279
912.751502	2834.086281
913.057436	2842.073989
913.363331	2855.735516
913.669186	2882.947664
913.975000	2923.070208
914.280775	2984.852069
914.586510	3053.973850
914.892205	3140.948877
915.197859	3277.541461
915.503475	3492.314780
915.809050	3718.216445
916.114585	3865.468549
916.420081	3871.953993
916.725536	3804.765495
917.030952	3675.429652
917.336328	3546.633212
917.641665	3408.195566
917.946961	3305.986172
918.252218	3231.225860
918.557435	3149.418016
918.862612	3085.367635
919.167750	3033.622712
919.472848	2996.091321
919.777906	2968.307002
920.082925	2938.201231
920.387904	2910.411871
920.692843	2892.750188
920.997743	2878.677807
921.302603	2865.906044
921.607423	2853.509847
921.912204	2838.351097
922.216946	2829.637462
922.521647	2817.889053
922.826310	2812.457210
923.130932	2805.150058
923.435516	2795.478604
923.740059	2786.323869
924.044564	2778.381531
924.349028	2773.000099
924.653454	2766.345776
924.957840	2757.448139
925.262186	2753.326996
925.566493	2750.960174
925.870761	2742.796026
926.174989	2741.802918
926.479178	2735.693040
926.783328	2733.487535
927.087438	2732.023080
927.391509	2726.971844
927.695541	2726.243397
927.999533	2724.322717
928.303486	2719.440360
928.607400	2719.170658
928.911275	2716.735781
929.215110	2719.198385
929.518906	2715.253682
929.822663	2717.209649
930.126381	2717.784341
930.430060	2715.326778
930.733699	2716.793754
931.037299	2721.628221
931.340861	2721.371122
931.644383	2717.199567
931.947866	2720.143601
932.251309	2716.032540
932.554714	2718.046481
932.858080	2716.687890
933.161407	2711.084647
933.464694	2712.415512
933.767943	2708.390151
934.071153	2711.712271
934.374323	2709.695810
934.677455	2710.540203
934.980548	2708.697661
935.283602	2707.129862
935.586617	2707.739842
935.889593	2709.741180
936.192530	2710.290666
936.495428	2706.872763
936.798287	2711.886191
937.101108	2715.233517
937.403890	2716.972715
937.706632	2723.077553
938.009336	2729.683985
938.312002	2739.950294
938.614628	2747.557396
938.917216	2756.432347
939.219765	2755.086359
939.522275	2753.097624
939.824747	2749.478075
940.127179	2749.283991
940.429573	2744.736870
940.731929	2742.722929
941.034246	2739.058010
941.336524	2735.761096
941.638763	2735.193966
941.940964	2733.520303
942.243126	2730.971999
942.545250	2728.821947
942.847335	2727.435630
943.149381	2722.807851
943.451389	2718.399362
943.753359	2715.692262
944.055290	2715.561192
944.357182	2712.665049
944.659036	2710.998948
944.960851	2712.710420
945.262628	2708.521221
945.564367	2709.998279
945.866067	2708.942157
946.167729	2711.611448
946.469352	2711.664380
946.770937	2711.651777
947.072484	2709.421067
947.373992	2710.038608
947.675462	2706.950901
947.976893	2704.218596
948.278286	2700.805735
948.579641	2701.627443
948.880958	2699.411856
949.182236	2701.952597
949.483476	2701.236753
949.784678	2700.457895
950.085841	2702.560056
950.386967	2702.045859
950.688054	2704.858822
950.989103	2703.996785
951.290114	2704.533668
951.591087	2704.662217
951.892021	2708.087682
952.192917	2709.970552
952.493776	2715.268805
952.794596	2715.049515
953.095378	2715.203270
953.396122	2714.875595
953.696828	2711.603886
953.997496	2710.333516
954.298126	2708.382589
954.598718	2706.953422
954.899272	2702.111394
955.199788	2700.959490
955.500266	2696.556042
955.800706	2696.465301
956.101108	2692.714683
956.401472	2692.568489
956.701798	2687.844928
957.002087	2686.771162
957.302337	2686.909794
957.602550	2686.108251
957.902724	2680.187416
958.202861	2683.411233
958.502960	2683.323013
958.803022	2680.091634
959.103045	2683.038188
959.403031	2678.339833
959.702979	2677.432425
960.002889	2680.038702
960.302762	2678.286901
960.602596	2677.371931
960.902393	2676.827487
961.202153	2674.183401
961.501875	2676.071313
961.801559	2674.984945
962.101205	2673.281035
962.400814	2675.632733
962.700385	2674.581652
962.999918	2672.492094
963.299414	2670.299192
963.598873	2672.098884
963.898293	2668.945642
964.197677	2673.835562
964.497022	2673.454955
964.796331	2672.587876
965.095601	2674.576611
965.394835	2673.419667
965.694030	2673.117197
965.993189	2670.871363
966.292309	2672.292969
966.591393	2672.547547
966.890439	2670.851199
967.189447	2670.213493
967.488419	2671.080571
967.787353	2672.391271
968.086249	2673.036539
968.385108	2671.879594
968.683930	2672.371107
968.982714	2674.412774
969.281462	2671.549398
969.580172	2673.341529
969.878844	2674.987465
970.177480	2674.697599
970.476078	2673.749862
970.774639	2672.560150
971.073162	2673.243226
971.371649	2674.279183
971.670098	2674.372445
971.968510	2673.434790
972.266885	2674.478309
972.565223	2676.832528
972.863524	2675.040397
973.161788	2671.080571
973.460014	2672.552588
973.758204	2673.008812
974.056356	2670.732732
974.354471	2671.773730
974.652550	2672.744152
974.950591	2672.529903
975.248595	2673.344049
975.546563	2671.962773
975.844493	2671.239367
976.142386	2671.320026
976.440243	2673.404543
976.738062	2673.598627
977.035845	2673.641477
977.333590	2671.829182
977.631299	2668.224757
977.928971	2669.225427
978.226606	2668.134017
978.524204	2668.575118
978.821765	2666.178049
979.119290	2670.919254
979.416777	2671.945129
979.714228	2670.147958
980.011642	2670.878925
980.309020	2668.731393
980.606360	2670.480674
980.903664	2671.209121
981.200931	2670.311795
981.498162	2672.494615
981.795356	2672.802125
982.092513	2675.935202
982.389633	2677.991993
982.686717	2681.578774
982.983764	2682.463497
983.280775	2688.336441
983.577749	2690.975485
983.874686	2688.989270
984.171587	2682.735719
984.468451	2680.638599
984.765279	2681.651871
985.062070	2679.421160
985.358824	2678.387724
985.655543	2676.552744
985.952224	2672.832372
986.248869	2671.461178
986.545478	2672.562670
986.842050	2667.650066
987.138586	2670.178205
987.435086	2671.430931
987.731549	2668.123934
988.027975	2668.013029
988.324366	2668.872546
988.620719	2667.967659
988.917037	2667.140909
989.213318	2666.755261
989.509563	2667.259377
989.805772	2667.138389
990.101944	2666.392298
990.398080	2667.887000
990.694180	2668.328101
990.990244	2668.552432
991.286271	2664.514468
991.582262	2667.181239
991.878217	2669.192659
992.174136	2669.353976
992.470019	2665.116886
992.765865	2666.084788
993.061676	2665.537822
993.357450	2665.111845
993.653188	2661.993891
993.948890	2665.280724
994.244556	2669.114521
994.540186	2667.307267
994.835780	2665.608399
995.131337	2667.380364
995.426859	2667.461023
995.722345	2668.837258
996.017795	2669.575787
996.313208	2672.555109
996.608586	2671.413287
996.903928	2670.815911
997.199234	2675.274811
997.494504	2671.093174
997.789738	2671.630057
998.084936	2670.800787
998.380099	2669.280879
998.675225	2668.489418
998.970316	2670.120231
999.265371	2669.621157
999.560390	2665.489932
999.855373	2668.736435
1000.150320	2666.646876
1000.445232	2669.543019
1000.740108	2666.019253
1001.034948	2669.018739
1001.329752	2665.036228
1001.624521	2663.508758
1001.919254	2665.129489
1002.213951	2665.860456
1002.508613	2664.948007
1002.803239	2666.243584
1003.097829	2664.779129
1003.392384	2664.224602
1003.686903	2663.526402
1003.981386	2665.316012
1004.275834	2664.408604
1004.570246	2666.147802
1004.864623	2664.111176
1005.158964	2666.266269
1005.453270	2666.820796
1005.747540	2664.327946
1006.041775	2666.402380
1006.335974	2664.590086
1006.630138	2660.418531
1006.924266	2664.572442
1007.218359	2664.083450
1007.512416	2661.005825
1007.806438	2659.657317
1008.100425	2663.937256
1008.394376	2661.882986
1008.688292	2663.475991
1008.982172	2663.465908
1009.276017	2665.868018
1009.569827	2665.472287
1009.863602	2663.823830
1010.157341	2662.732420
1010.451045	2664.005312
1010.744714	2664.307781
1011.038347	2665.116886
1011.331945	2664.093532
1011.625508	2662.860970
1011.919036	2664.428769
1012.212528	2664.567400
1012.505986	2660.277378
1012.799408	2665.331135
1013.092795	2664.227122
1013.386147	2663.100425
1013.679464	2663.470949
1013.972745	2663.123110
1014.265992	2664.950528
1014.559204	2664.048162
1014.852380	2662.767708
1015.145521	2665.411794
1015.438628	2659.851401
1015.731699	2663.228974
1016.024736	2665.162257
1016.317737	2662.682009
1016.610703	2662.344252
1016.903635	2663.967503
1017.196531	2664.033038
1017.489393	2664.542195
1017.782219	2661.630928
1018.075011	2661.663696
1018.367768	2661.136895
1018.660490	2663.206289
1018.953177	2663.206289
1019.245829	2663.206289
