Dividing Wavelength (nm)	Counts (n)	Blue Motor Position (mm): 9.300000	Red Motor Position (mm): 0.000000	
326.493990	2124.846346
326.888308	2124.846346
327.282561	2124.846346
327.676750	2049.229038
328.070874	2165.175577
328.464933	2134.928654
328.858929	2021.502692
329.252859	2127.366923
329.646726	2132.408077
330.040528	2104.681731
330.434265	2124.846346
330.827938	2170.216731
331.221547	2152.572692
331.615091	2165.175577
332.008571	2235.751731
332.401986	2250.875192
332.795338	2167.696154
333.188625	2255.916346
333.581847	2296.245577
333.975006	2235.751731
334.368100	2263.478077
334.761129	2344.136538
335.154095	2291.204423
335.546996	2301.286731
335.939833	2351.698269
336.332606	2361.780577
336.725315	2371.862885
337.117960	2429.836154
337.510540	2359.260000
337.903056	2450.000769
338.295508	2465.124231
338.687896	2374.383462
339.080220	2429.836154
339.472480	2450.000769
339.864676	2444.959615
340.256807	2487.809423
340.648875	2442.439038
341.040879	2439.918462
341.432818	2439.918462
341.824694	2507.974038
342.216506	2472.685962
342.608253	2490.330000
342.999937	2505.453462
343.391557	2545.782692
343.783113	2502.932885
344.174605	2510.494615
344.566033	2480.247692
344.957397	2366.821731
345.348697	2497.891731
345.739934	2465.124231
346.131106	2475.206538
346.522215	2434.877308
346.913260	2482.768269
347.304241	2442.439038
347.695159	2507.974038
348.086012	2462.603654
348.476802	2447.480192
348.867528	2439.918462
349.258191	2475.206538
349.648789	2422.274423
350.039324	2500.412308
350.429796	2392.027500
350.820203	2505.453462
351.210548	2477.727115
351.600828	2475.206538
351.991045	2429.836154
352.381198	2475.206538
352.771288	2402.109808
353.161314	2432.356731
353.551276	2381.945192
353.941175	2419.753846
354.331010	2392.027500
354.720782	2344.136538
355.110490	2414.712692
355.500135	2470.165385
355.889717	2399.589231
356.279235	2354.218846
356.668689	2376.904038
357.058080	2442.439038
357.447408	2510.494615
357.836672	2510.494615
358.225873	2412.192115
358.615010	2427.315577
359.004084	2510.494615
359.393095	2429.836154
359.782043	2460.083077
360.170927	2470.165385
360.559748	2432.356731
360.948505	2404.630385
361.337199	2389.506923
361.725830	2414.712692
362.114398	2439.918462
362.502903	2354.218846
362.891344	2477.727115
363.279722	2500.412308
363.668037	2432.356731
364.056289	2525.618077
364.444478	2452.521346
364.832603	2417.233269
365.220665	2419.753846
365.608665	2404.630385
365.996601	2492.850577
366.384474	2439.918462
366.772284	2467.644808
367.160031	2399.589231
367.547715	2497.891731
367.935336	2444.959615
368.322893	2369.342308
368.710388	2477.727115
369.097820	2475.206538
369.485189	2482.768269
369.872495	2366.821731
370.259738	2379.424615
370.646918	2462.603654
371.034035	2412.192115
371.421090	2414.712692
371.808081	2437.397885
372.195010	2480.247692
372.581875	2505.453462
372.968678	2465.124231
373.355418	2492.850577
373.742096	2492.850577
374.128710	2460.083077
374.515262	2523.097500
374.901751	2407.150962
375.288177	2404.630385
375.674540	2424.795000
376.060841	2379.424615
376.447079	2485.288846
376.833254	2467.644808
377.219367	2497.891731
377.605417	2427.315577
377.991404	2455.041923
378.377329	2427.315577
378.763191	2533.179808
379.148991	2366.821731
379.534727	2452.521346
379.920402	2492.850577
380.306013	2452.521346
380.691563	2485.288846
381.077049	2487.809423
381.462474	2485.288846
381.847835	2414.712692
382.233134	2460.083077
382.618371	2462.603654
383.003545	2457.562500
383.388657	2422.274423
383.773706	2502.932885
384.158693	2439.918462
384.543618	2490.330000
384.928480	2457.562500
385.313280	2455.041923
385.698017	2419.753846
386.082692	2465.124231
386.467305	2505.453462
386.851856	2427.315577
387.236344	2513.015192
387.620770	2485.288846
388.005133	2513.015192
388.389435	2568.467885
388.773674	2573.509038
389.157851	2429.836154
389.541965	2392.027500
389.926018	2429.836154
390.310008	2497.891731
390.693936	2460.083077
391.077802	2470.165385
391.461606	2475.206538
391.845348	2465.124231
392.229027	2548.303269
392.612645	2480.247692
392.996200	2555.865000
393.379694	2452.521346
393.763125	2432.356731
394.146494	2447.480192
394.529801	2465.124231
394.913047	2497.891731
395.296230	2460.083077
395.679351	2490.330000
396.062410	2437.397885
396.445408	2422.274423
396.828343	2533.179808
397.211217	2450.000769
397.594028	2444.959615
397.976778	2462.603654
398.359466	2485.288846
398.742092	2550.823846
399.124656	2475.206538
399.507158	2376.904038
399.889598	2414.712692
400.271977	2472.685962
400.654294	2450.000769
401.036549	2513.015192
401.418742	2376.904038
401.800874	2533.179808
402.182944	2485.288846
402.564952	2404.630385
402.946898	2409.671538
403.328783	2492.850577
403.710606	2500.412308
404.092367	2543.262115
404.474067	2437.397885
404.855705	2505.453462
405.237282	2455.041923
405.618797	2480.247692
406.000250	2429.836154
406.381642	2507.974038
406.762972	2462.603654
407.144240	2452.521346
407.525447	2439.918462
407.906593	2455.041923
408.287677	2533.179808
408.668700	2379.424615
409.049661	2480.247692
409.430560	2419.753846
409.811399	2422.274423
410.192176	2555.865000
410.572891	2490.330000
410.953545	2475.206538
411.334138	2394.548077
411.714669	2490.330000
412.095139	2442.439038
412.475547	2384.465769
412.855894	2553.344423
413.236180	2442.439038
413.616405	2480.247692
413.996568	2439.918462
414.376670	2412.192115
414.756711	2485.288846
415.136691	2525.618077
415.516609	2515.535769
415.896466	2419.753846
416.276262	2510.494615
416.655997	2467.644808
417.035670	2538.220962
417.415283	2452.521346
417.794834	2455.041923
418.174324	2465.124231
418.553753	2482.768269
418.933121	2417.233269
419.312428	2520.576923
419.691674	2417.233269
420.070859	2528.138654
420.449983	2480.247692
420.829045	2507.974038
421.208047	2495.371154
421.586988	2518.056346
421.965867	2452.521346
422.344686	2485.288846
422.723444	2447.480192
423.102141	2472.685962
423.480777	2462.603654
423.859352	2510.494615
424.237866	2533.179808
424.616319	2533.179808
424.994712	2444.959615
425.373044	2450.000769
425.751314	2465.124231
426.129524	2434.877308
426.507673	2374.383462
426.885762	2487.809423
427.263789	2485.288846
427.641756	2432.356731
428.019662	2583.591346
428.397508	2487.809423
428.775292	2437.397885
429.153016	2427.315577
429.530679	2495.371154
429.908282	2550.823846
430.285824	2462.603654
430.663305	2447.480192
431.040726	2447.480192
431.418086	2447.480192
431.795385	2591.153077
432.172624	2439.918462
432.549802	2417.233269
432.926920	2407.150962
433.303977	2492.850577
433.680974	2475.206538
434.057910	2500.412308
434.434786	2467.644808
434.811601	2462.603654
435.188355	2545.782692
435.565050	2447.480192
435.941683	2419.753846
436.318257	2462.603654
436.694770	2434.877308
437.071222	2583.591346
437.447614	2482.768269
437.823946	2424.795000
438.200218	2450.000769
438.576429	2462.603654
438.952580	2596.194231
439.328670	2429.836154
439.704700	2432.356731
440.080670	2510.494615
440.456580	2500.412308
440.832429	2518.056346
441.208218	2490.330000
441.583947	2495.371154
441.959616	2424.795000
442.335224	2530.659231
442.710773	2452.521346
443.086261	2490.330000
443.461689	2452.521346
443.837057	2558.385577
444.212365	2465.124231
444.587612	2460.083077
444.962800	2555.865000
445.337927	2505.453462
445.712995	2507.974038
446.088002	2518.056346
446.462949	2505.453462
446.837837	2437.397885
447.212664	2467.644808
447.587431	2437.397885
447.962139	2528.138654
448.336786	2422.274423
448.711374	2518.056346
449.085901	2492.850577
449.460369	2528.138654
449.834776	2502.932885
450.209124	2465.124231
450.583412	2518.056346
450.957640	2429.836154
451.331808	2513.015192
451.705917	2525.618077
452.079965	2472.685962
452.453954	2533.179808
452.827883	2424.795000
453.201752	2444.959615
453.575562	2487.809423
453.949311	2500.412308
454.323001	2525.618077
454.696632	2376.904038
455.070202	2447.480192
455.443713	2437.397885
455.817164	2485.288846
456.190556	2407.150962
456.563888	2492.850577
456.937160	2518.056346
457.310373	2553.344423
457.683526	2502.932885
458.056619	2533.179808
458.429653	2490.330000
458.802628	2538.220962
459.175542	2475.206538
459.548398	2450.000769
459.921194	2495.371154
460.293930	2465.124231
460.666607	2518.056346
461.039224	2528.138654
461.411782	2480.247692
461.784280	2502.932885
462.156719	2482.768269
462.529099	2437.397885
462.901419	2407.150962
463.273680	2439.918462
463.645882	2525.618077
464.018024	2495.371154
464.390106	2518.056346
464.762130	2492.850577
465.134094	2525.618077
465.505999	2553.344423
465.877845	2568.467885
466.249631	2432.356731
466.621358	2525.618077
466.993026	2422.274423
467.364634	2460.083077
467.736184	2518.056346
468.107674	2495.371154
468.479105	2538.220962
468.850477	2490.330000
469.221790	2545.782692
469.593043	2513.015192
469.964238	2523.097500
470.335373	2513.015192
470.706449	2550.823846
471.077467	2573.509038
471.448425	2424.795000
471.819324	2485.288846
472.190164	2485.288846
472.560945	2460.083077
472.931667	2490.330000
473.302330	2427.315577
473.672934	2452.521346
474.043479	2462.603654
474.413965	2500.412308
474.784393	2409.671538
475.154761	2502.932885
475.525070	2455.041923
475.895321	2485.288846
476.265513	2480.247692
476.635645	2480.247692
477.005719	2550.823846
477.375734	2477.727115
477.745691	2482.768269
478.115588	2424.795000
478.485427	2550.823846
478.855207	2414.712692
479.224928	2467.644808
479.594591	2530.659231
479.964194	2452.521346
480.333739	2510.494615
480.703226	2452.521346
481.072653	2553.344423
481.442022	2455.041923
481.811333	2495.371154
482.180584	2404.630385
482.549777	2490.330000
482.918912	2545.782692
483.287988	2457.562500
483.657005	2553.344423
484.025964	2533.179808
484.394864	2495.371154
484.763706	2462.603654
485.132489	2492.850577
485.501213	2550.823846
485.869879	2565.947308
486.238487	2533.179808
486.607036	2460.083077
486.975527	2550.823846
487.343959	2505.453462
487.712333	2447.480192
488.080648	2651.646923
488.448905	2540.741538
488.817104	2495.371154
489.185244	2538.220962
489.553326	2462.603654
489.921350	2490.330000
490.289315	2500.412308
490.657222	2533.179808
491.025070	2467.644808
491.392861	2424.795000
491.760593	2455.041923
492.128267	2439.918462
492.495883	2545.782692
492.863440	2487.809423
493.230939	2548.303269
493.598380	2492.850577
493.965763	2500.412308
494.333088	2558.385577
494.700354	2538.220962
495.067563	2492.850577
495.434713	2439.918462
495.801805	2399.589231
496.168839	2538.220962
496.535815	2472.685962
496.902733	2535.700385
497.269593	2581.070769
497.636395	2495.371154
498.003139	2492.850577
498.369825	2520.576923
498.736453	2467.644808
499.103023	2520.576923
499.469535	2502.932885
499.835989	2439.918462
500.202385	2560.906154
500.568723	2497.891731
500.935003	2505.453462
501.301226	2460.083077
501.667390	2530.659231
502.033497	2450.000769
502.399546	2528.138654
502.765537	2482.768269
503.131470	2475.206538
503.497345	2460.083077
503.863163	2480.247692
504.228923	2442.439038
504.594625	2505.453462
504.960269	2543.262115
505.325856	2439.918462
505.691385	2530.659231
506.056856	2500.412308
506.422270	2518.056346
506.787625	2495.371154
507.152924	2475.206538
507.518164	2485.288846
507.883347	2510.494615
508.248472	2427.315577
508.613540	2502.932885
508.978550	2452.521346
509.343503	2487.809423
509.708398	2520.576923
510.073236	2482.768269
510.438016	2560.906154
510.802738	2525.618077
511.167403	2533.179808
511.532010	2510.494615
511.896561	2455.041923
512.261053	2510.494615
512.625488	2502.932885
512.989866	2525.618077
513.354186	2444.959615
513.718449	2482.768269
514.082655	2545.782692
514.446803	2439.918462
514.810894	2452.521346
515.174927	2442.439038
515.538904	2535.700385
515.902822	2432.356731
516.266684	2394.548077
516.630488	2540.741538
516.994235	2455.041923
517.357925	2598.714808
517.721558	2505.453462
518.085133	2538.220962
518.448651	2439.918462
518.812112	2472.685962
519.175516	2487.809423
519.538863	2507.974038
519.902152	2487.809423
520.265385	2525.618077
520.628560	2505.453462
520.991678	2497.891731
521.354739	2492.850577
521.717743	2507.974038
522.080690	2326.492500
522.443580	2563.426731
522.806413	2447.480192
523.169189	2470.165385
523.531908	2472.685962
523.894569	2457.562500
524.257174	2490.330000
524.619722	2523.097500
524.982213	2460.083077
525.344647	2444.959615
525.707025	2513.015192
526.069345	2475.206538
526.431608	2490.330000
526.793815	2550.823846
527.155964	2507.974038
527.518057	2470.165385
527.880093	2523.097500
528.242072	2455.041923
528.603995	2505.453462
528.965860	2487.809423
529.327669	2470.165385
529.689421	2434.877308
530.051117	2477.727115
530.412755	2548.303269
530.774337	2518.056346
531.135862	2510.494615
531.497331	2477.727115
531.858743	2477.727115
532.220098	2457.562500
532.581396	2497.891731
532.942638	2470.165385
533.303824	2543.262115
533.664953	2427.315577
534.026025	2472.685962
534.387040	2523.097500
534.747999	2414.712692
535.108902	2465.124231
535.469748	2558.385577
535.830537	2515.535769
536.191270	2434.877308
536.551947	2492.850577
536.912567	2513.015192
537.273131	2502.932885
537.633638	2497.891731
537.994089	2457.562500
538.354483	2470.165385
538.714821	2475.206538
539.075103	2490.330000
539.435328	2518.056346
539.795497	2457.562500
540.155609	2510.494615
540.515665	2427.315577
540.875665	2500.412308
541.235609	2543.262115
541.595496	2477.727115
541.955328	2555.865000
542.315102	2528.138654
542.674821	2505.453462
543.034483	2550.823846
543.394090	2513.015192
543.753640	2467.644808
544.113134	2518.056346
544.472571	2513.015192
544.831953	2510.494615
545.191278	2399.589231
545.550548	2573.509038
545.909761	2513.015192
546.268918	2465.124231
546.628019	2555.865000
546.987064	2510.494615
547.346053	2490.330000
547.704986	2465.124231
548.063863	2447.480192
548.422684	2588.632500
548.781449	2500.412308
549.140158	2646.605769
549.498811	2598.714808
549.857408	2583.591346
550.215949	2452.521346
550.574434	2545.782692
550.932864	2452.521346
551.291237	2502.932885
551.649555	2535.700385
552.007817	2530.659231
552.366022	2467.644808
552.724173	2560.906154
553.082267	2379.424615
553.440305	2487.809423
553.798288	2555.865000
554.156215	2492.850577
554.514086	2540.741538
554.871902	2404.630385
555.229661	2472.685962
555.587365	2538.220962
555.945014	2520.576923
556.302606	2520.576923
556.660143	2543.262115
557.017625	2384.465769
557.375050	2568.467885
557.732421	2505.453462
558.089735	2510.494615
558.446994	2505.453462
558.804197	2507.974038
559.161345	2477.727115
559.518437	2477.727115
559.875474	2424.795000
560.232455	2422.274423
560.589381	2422.274423
560.946251	2477.727115
561.303065	2528.138654
561.659825	2432.356731
562.016528	2535.700385
562.373177	2510.494615
562.729770	2487.809423
563.086307	2518.056346
563.442789	2520.576923
563.799216	2513.015192
564.155587	2525.618077
564.511904	2492.850577
564.868164	2482.768269
565.224370	2429.836154
565.580520	2490.330000
565.936615	2513.015192
566.292654	2475.206538
566.648638	2555.865000
567.004567	2510.494615
567.360441	2485.288846
567.716260	2495.371154
568.072023	2472.685962
568.427732	2502.932885
568.783385	2495.371154
569.138982	2452.521346
569.494525	2507.974038
569.850013	2485.288846
570.205445	2450.000769
570.560823	2452.521346
570.916145	2485.288846
571.271412	2568.467885
571.626625	2432.356731
571.981782	2535.700385
572.336884	2545.782692
572.691931	2487.809423
573.046923	2502.932885
573.401860	2424.795000
573.756743	2538.220962
574.111570	2513.015192
574.466342	2513.015192
574.821059	2455.041923
575.175722	2477.727115
575.530330	2407.150962
575.884882	2434.877308
576.239380	2591.153077
576.593823	2477.727115
576.948211	2487.809423
577.302544	2452.521346
577.656823	2447.480192
578.011047	2485.288846
578.365216	2553.344423
578.719330	2528.138654
579.073389	2560.906154
579.427394	2497.891731
579.781344	2477.727115
580.135239	2455.041923
580.489080	2533.179808
580.842866	2530.659231
581.196597	2538.220962
581.550273	2538.220962
581.903895	2477.727115
582.257463	2661.729231
582.610975	2475.206538
582.964434	2452.521346
583.317837	2492.850577
583.671186	2518.056346
584.024481	2399.589231
584.377721	2538.220962
584.730906	2414.712692
585.084037	2414.712692
585.437113	2447.480192
585.790135	2485.288846
586.143103	2417.233269
586.496016	2477.727115
586.848874	2513.015192
587.201679	2513.015192
587.554428	2427.315577
587.907124	2533.179808
588.259765	2472.685962
588.612352	2520.576923
588.964884	2485.288846
589.317362	2543.262115
589.669786	2379.424615
590.022155	2460.083077
590.374470	2565.947308
590.726731	2502.932885
591.078937	2505.453462
591.431090	2455.041923
591.783188	2545.782692
592.135232	2533.179808
592.487222	2455.041923
592.839157	2623.920577
593.191038	2598.714808
593.542866	2477.727115
593.894639	2414.712692
594.246358	2497.891731
594.598022	2490.330000
594.949633	2563.426731
595.301190	2558.385577
595.652692	2457.562500
596.004141	2518.056346
596.355535	2429.836154
596.706876	2439.918462
597.058162	2497.891731
597.409395	2386.986346
597.760573	2462.603654
598.111698	2581.070769
598.462768	2424.795000
598.813785	2533.179808
599.164748	2487.809423
599.515657	2540.741538
599.866511	2439.918462
600.217312	2497.891731
600.568060	2480.247692
600.918753	2513.015192
601.269392	2525.618077
601.619978	2419.753846
601.970510	2538.220962
602.320988	2510.494615
602.671412	2560.906154
603.021783	2578.550192
603.372100	2570.988462
603.722363	2492.850577
604.072572	2500.412308
604.422728	2581.070769
604.772830	2507.974038
605.122878	2530.659231
605.472872	2455.041923
605.822813	2389.506923
606.172701	2465.124231
606.522534	2578.550192
606.872314	2510.494615
607.222041	2331.533654
607.571714	2475.206538
607.921333	2427.315577
608.270899	2578.550192
608.620411	2495.371154
608.969870	2485.288846
609.319276	2437.397885
609.668627	2502.932885
610.017926	2502.932885
610.367171	2618.879423
610.716362	2407.150962
611.065500	2518.056346
611.414585	2465.124231
611.763616	2399.589231
612.112594	2507.974038
612.461518	2492.850577
612.810389	2548.303269
613.159207	2502.932885
613.507971	2460.083077
613.856682	2533.179808
614.205340	2434.877308
614.553945	2467.644808
614.902496	2450.000769
615.250994	2565.947308
615.599439	2520.576923
615.947830	2472.685962
616.296169	2528.138654
616.644454	2485.288846
616.992686	2457.562500
617.340864	2490.330000
617.688990	2581.070769
618.037063	2477.727115
618.385082	2502.932885
618.733048	2502.932885
619.080961	2505.453462
619.428821	2550.823846
619.776628	2507.974038
620.124382	2550.823846
620.472083	2450.000769
620.819731	2513.015192
621.167326	2444.959615
621.514868	2502.932885
621.862357	2490.330000
622.209793	2510.494615
622.557176	2525.618077
622.904506	2507.974038
623.251783	2429.836154
623.599007	2485.288846
623.946179	2465.124231
624.293297	2513.015192
624.640363	2462.603654
624.987376	2530.659231
625.334336	2462.603654
625.681243	2538.220962
626.028097	2475.206538
626.374899	2485.288846
626.721647	2525.618077
627.068343	2475.206538
627.414987	2502.932885
627.761577	2543.262115
628.108115	2417.233269
628.454600	2553.344423
628.801032	2442.439038
629.147412	2576.029615
629.493739	2424.795000
629.840014	2513.015192
630.186236	2480.247692
630.532405	2520.576923
630.878521	2447.480192
631.224585	2447.480192
631.570597	2505.453462
631.916556	2505.453462
632.262462	2470.165385
632.608316	2543.262115
632.954117	2467.644808
633.299866	2563.426731
633.645562	2513.015192
633.991206	2550.823846
634.336797	2495.371154
634.682336	2487.809423
635.027823	2419.753846
635.373257	2530.659231
635.718639	2535.700385
636.063968	2497.891731
636.409245	2518.056346
636.754470	2535.700385
637.099642	2450.000769
637.444762	2467.644808
637.789829	2452.521346
638.134845	2492.850577
638.479808	2502.932885
638.824719	2510.494615
639.169577	2452.521346
639.514383	2525.618077
639.859137	2460.083077
640.203839	2490.330000
640.548489	2545.782692
640.893086	2565.947308
641.237632	2487.809423
641.582125	2500.412308
641.926566	2550.823846
642.270955	2492.850577
642.615292	2447.480192
642.959576	2492.850577
643.303809	2455.041923
643.647990	2570.988462
643.992118	2540.741538
644.336195	2487.809423
644.680219	2419.753846
645.024192	2528.138654
645.368112	2470.165385
645.711981	2475.206538
646.055797	2523.097500
646.399562	2465.124231
646.743274	2437.397885
647.086935	2540.741538
647.430544	2528.138654
647.774101	2465.124231
648.117606	2487.809423
648.461059	2502.932885
648.804460	2530.659231
649.147810	2533.179808
649.491108	2613.838269
649.834354	2583.591346
650.177548	2450.000769
650.520690	2505.453462
650.863781	2399.589231
651.206820	2550.823846
651.549807	2475.206538
651.892742	2444.959615
652.235626	2528.138654
652.578458	2480.247692
652.921238	2480.247692
653.263967	2452.521346
653.606644	2442.439038
653.949269	2533.179808
654.291843	2485.288846
654.634365	2515.535769
654.976836	2444.959615
655.319255	2555.865000
655.661622	2470.165385
656.003938	2492.850577
656.346203	2472.685962
656.688416	2482.768269
657.030577	2477.727115
657.372687	2535.700385
657.714746	2505.453462
658.056753	2500.412308
658.398708	2444.959615
658.740612	2518.056346
659.082465	2518.056346
659.424266	2543.262115
659.766016	2480.247692
660.107715	2482.768269
660.449362	2553.344423
660.790958	2523.097500
661.132503	2495.371154
661.473996	2434.877308
661.815438	2540.741538
662.156829	2480.247692
662.498168	2470.165385
662.839456	2528.138654
663.180693	2492.850577
663.521879	2460.083077
663.863013	2510.494615
664.204097	2555.865000
664.545129	2432.356731
664.886110	2500.412308
665.227040	2439.918462
665.567918	2530.659231
665.908746	2447.480192
666.249522	2515.535769
666.590248	2560.906154
666.930922	2379.424615
667.271545	2520.576923
667.612118	2502.932885
667.952639	2558.385577
668.293109	2535.700385
668.633528	2419.753846
668.973896	2500.412308
669.314213	2485.288846
669.654480	2583.591346
669.994695	2523.097500
670.334859	2510.494615
670.674973	2444.959615
671.015035	2518.056346
671.355047	2490.330000
671.695008	2591.153077
672.034918	2495.371154
672.374777	2507.974038
672.714585	2533.179808
673.054342	2485.288846
673.394049	2429.836154
673.733705	2502.932885
674.073310	2477.727115
674.412864	2460.083077
674.752368	2533.179808
675.091820	2465.124231
675.431223	2520.576923
675.770574	2573.509038
676.109875	2495.371154
676.449125	2530.659231
676.788324	2457.562500
677.127473	2505.453462
677.466571	2505.453462
677.805619	2593.673654
678.144616	2540.741538
678.483562	2472.685962
678.822458	2528.138654
679.161303	2563.426731
679.500098	2555.865000
679.838842	2480.247692
680.177535	2545.782692
680.516179	2447.480192
680.854771	2520.576923
681.193314	2528.138654
681.531805	2565.947308
681.870247	2578.550192
682.208638	2497.891731
682.546978	2555.865000
682.885268	2477.727115
683.223508	2548.303269
683.561697	2487.809423
683.899836	2467.644808
684.237925	2502.932885
684.575963	2427.315577
684.913951	2452.521346
685.251889	2442.439038
685.589776	2442.439038
685.927614	2500.412308
686.265401	2533.179808
686.603137	2505.453462
686.940824	2510.494615
687.278460	2530.659231
687.616046	2581.070769
687.953582	2576.029615
688.291068	2437.397885
688.628504	2555.865000
688.965889	2515.535769
689.303224	2530.659231
689.640510	2437.397885
689.977745	2477.727115
690.314930	2497.891731
690.652065	2507.974038
690.989150	2465.124231
691.326185	2497.891731
691.663170	2523.097500
692.000105	2507.974038
692.336990	2402.109808
692.673825	2447.480192
693.010610	2513.015192
693.347345	2515.535769
693.684030	2447.480192
694.020665	2520.576923
694.357251	2437.397885
694.693786	2414.712692
695.030272	2462.603654
695.366707	2422.274423
695.703093	2510.494615
696.039429	2452.521346
696.375716	2427.315577
696.711952	2520.576923
697.048139	2455.041923
697.384276	2515.535769
697.720363	2530.659231
698.056400	2447.480192
698.392388	2505.453462
698.728326	2467.644808
699.064214	2513.015192
699.400053	2505.453462
699.735842	2623.920577
700.071581	2482.768269
700.407270	2482.768269
700.742910	2530.659231
701.078501	2578.550192
701.414042	2535.700385
701.749533	2455.041923
702.084974	2525.618077
702.420366	2455.041923
702.755709	2533.179808
703.091002	2432.356731
703.426246	2427.315577
703.761440	2523.097500
704.096584	2467.644808
704.431679	2409.671538
704.766725	2525.618077
705.101721	2528.138654
705.436668	2505.453462
705.771565	2467.644808
706.106413	2460.083077
706.441212	2482.768269
706.775961	2467.644808
707.110661	2482.768269
707.445311	2528.138654
707.779913	2540.741538
708.114465	2525.618077
708.448967	2462.603654
708.783421	2490.330000
709.117825	2482.768269
709.452180	2434.877308
709.786485	2346.657115
710.120742	2540.741538
710.454949	2530.659231
710.789107	2455.041923
711.123216	2538.220962
711.457275	2472.685962
711.791286	2470.165385
712.125247	2540.741538
712.459159	2518.056346
712.793023	2482.768269
713.126837	2525.618077
713.460602	2450.000769
713.794318	2439.918462
714.127985	2467.644808
714.461602	2495.371154
714.795171	2513.015192
715.128691	2399.589231
715.462162	2520.576923
715.795584	2523.097500
716.128957	2457.562500
716.462281	2409.671538
716.795556	2480.247692
717.128782	2550.823846
717.461960	2505.453462
717.795088	2492.850577
718.128167	2465.124231
718.461198	2510.494615
718.794180	2455.041923
719.127113	2412.192115
719.459997	2510.494615
719.792833	2412.192115
720.125619	2505.453462
720.458357	2482.768269
720.791046	2520.576923
721.123686	2465.124231
721.456278	2475.206538
721.788821	2472.685962
722.121315	2424.795000
722.453761	2520.576923
722.786158	2452.521346
723.118506	2397.068654
723.450805	2560.906154
723.783056	2477.727115
724.115259	2465.124231
724.447412	2530.659231
724.779518	2472.685962
725.111574	2525.618077
725.443582	2482.768269
725.775542	2422.274423
726.107453	2591.153077
726.439315	2480.247692
726.771129	2538.220962
727.102895	2581.070769
727.434612	2480.247692
727.766281	2495.371154
728.097901	2465.124231
728.429473	2437.397885
728.760996	2450.000769
729.092471	2455.041923
729.423897	2558.385577
729.755276	2452.521346
730.086606	2518.056346
730.417887	2434.877308
730.749120	2538.220962
731.080305	2462.603654
731.411442	2515.535769
731.742530	2427.315577
732.073570	2533.179808
732.404562	2467.644808
732.735506	2515.535769
733.066401	2457.562500
733.397249	2482.768269
733.728048	2515.535769
734.058798	2523.097500
734.389501	2528.138654
734.720156	2447.480192
735.050762	2505.453462
735.381320	2452.521346
735.711831	2510.494615
736.042293	2452.521346
736.372707	2548.303269
736.703073	2518.056346
737.033391	2475.206538
737.363661	2414.712692
737.693883	2505.453462
738.024056	2502.932885
738.354182	2563.426731
738.684260	2437.397885
739.014290	2507.974038
739.344272	2507.974038
739.674207	2555.865000
740.004093	2515.535769
740.333931	2472.685962
740.663722	2482.768269
740.993464	2457.562500
741.323159	2422.274423
741.652806	2543.262115
741.982405	2465.124231
742.311956	2409.671538
742.641460	2432.356731
742.970915	2490.330000
743.300323	2490.330000
743.629683	2523.097500
743.958996	2480.247692
744.288260	2470.165385
744.617477	2505.453462
744.946647	2485.288846
745.275768	2439.918462
745.604842	2419.753846
745.933869	2495.371154
746.262847	2502.932885
746.591778	2502.932885
746.920662	2545.782692
747.249498	2475.206538
747.578286	2482.768269
747.907027	2550.823846
748.235720	2515.535769
748.564365	2518.056346
748.892963	2407.150962
749.221514	2535.700385
749.550017	2485.288846
749.878473	2518.056346
750.206881	2553.344423
750.535242	2477.727115
750.863555	2427.315577
751.191821	2528.138654
751.520039	2457.562500
751.848210	2560.906154
752.176334	2502.932885
752.504411	2548.303269
752.832440	2472.685962
753.160421	2427.315577
753.488356	2475.206538
753.816243	2525.618077
754.144082	2467.644808
754.471875	2409.671538
754.799620	2507.974038
755.127318	2422.274423
755.454969	2447.480192
755.782572	2573.509038
756.110129	2470.165385
756.437638	2558.385577
756.765100	2545.782692
757.092515	2598.714808
757.419882	2490.330000
757.747203	2495.371154
758.074477	2467.644808
758.401703	2543.262115
758.728882	2528.138654
759.056014	2581.070769
759.383099	2523.097500
759.710138	2477.727115
760.037129	2505.453462
760.364073	2523.097500
760.690970	2485.288846
761.017820	2500.412308
761.344623	2497.891731
761.671379	2502.932885
761.998088	2545.782692
762.324751	2462.603654
762.651366	2470.165385
762.977935	2523.097500
763.304456	2515.535769
763.630931	2487.809423
763.957359	2530.659231
764.283740	2510.494615
764.610074	2480.247692
764.936362	2507.974038
765.262602	2447.480192
765.588796	2465.124231
765.914943	2525.618077
766.241044	2480.247692
766.567097	2427.315577
766.893104	2518.056346
767.219064	2513.015192
767.544978	2447.480192
767.870845	2535.700385
768.196665	2452.521346
768.522438	2482.768269
768.848165	2439.918462
769.173846	2593.673654
769.499479	2472.685962
769.825066	2475.206538
770.150607	2581.070769
770.476101	2570.988462
770.801548	2470.165385
771.126949	2535.700385
771.452303	2392.027500
771.777611	2480.247692
772.102872	2500.412308
772.428087	2520.576923
772.753256	2492.850577
773.078378	2455.041923
773.403453	2480.247692
773.728482	2535.700385
774.053465	2455.041923
774.378401	2424.795000
774.703291	2528.138654
775.028135	2485.288846
775.352932	2427.315577
775.677683	2533.179808
776.002388	2513.015192
776.327046	2497.891731
776.651658	2578.550192
776.976224	2432.356731
777.300743	2525.618077
777.625216	2475.206538
777.949643	2523.097500
778.274024	2432.356731
778.598359	2455.041923
778.922647	2518.056346
779.246889	2442.439038
779.571086	2475.206538
779.895236	2465.124231
780.219339	2502.932885
780.543397	2467.644808
780.867409	2520.576923
781.191374	2518.056346
781.515294	2563.426731
781.839167	2535.700385
782.162995	2467.644808
782.486776	2485.288846
782.810511	2513.015192
783.134201	2520.576923
783.457844	2437.397885
783.781441	2502.932885
784.104993	2477.727115
784.428498	2565.947308
784.751958	2535.700385
785.075372	2548.303269
785.398739	2450.000769
785.722061	2518.056346
786.045337	2553.344423
786.368568	2497.891731
786.691752	2578.550192
787.014891	2485.288846
787.337983	2497.891731
787.661030	2555.865000
787.984031	2553.344423
788.306987	2472.685962
788.629897	2502.932885
788.952760	2492.850577
789.275579	2497.891731
789.598351	2530.659231
789.921078	2530.659231
790.243759	2591.153077
790.566395	2465.124231
790.888984	2467.644808
791.211529	2470.165385
791.534027	2384.465769
791.856480	2510.494615
792.178888	2457.562500
792.501249	2462.603654
792.823566	2495.371154
793.145836	2513.015192
793.468062	2530.659231
793.790241	2467.644808
794.112375	2490.330000
794.434464	2487.809423
794.756507	2505.453462
795.078505	2439.918462
795.400457	2482.768269
795.722364	2591.153077
796.044226	2518.056346
796.366042	2462.603654
796.687812	2475.206538
797.009538	2495.371154
797.331218	2540.741538
797.652852	2573.509038
797.974442	2480.247692
798.295986	2477.727115
798.617484	2548.303269
798.938938	2520.576923
799.260346	2439.918462
799.581709	2510.494615
799.903026	2502.932885
800.224299	2422.274423
800.545526	2525.618077
800.866708	2545.782692
801.187845	2455.041923
801.508936	2550.823846
801.829983	2434.877308
802.150984	2467.644808
802.471940	2533.179808
802.792851	2523.097500
803.113717	2460.083077
803.434538	2507.974038
803.755314	2492.850577
804.076045	2455.041923
804.396731	2404.630385
804.717372	2480.247692
805.037967	2533.179808
805.358518	2439.918462
805.679024	2553.344423
805.999485	2487.809423
806.319901	2591.153077
806.640272	2480.247692
806.960598	2434.877308
807.280879	2576.029615
807.601115	2543.262115
807.921306	2439.918462
808.241453	2480.247692
808.561554	2502.932885
808.881611	2528.138654
809.201623	2525.618077
809.521590	2515.535769
809.841513	2510.494615
810.161390	2510.494615
810.481223	2553.344423
810.801011	2487.809423
811.120755	2472.685962
811.440453	2475.206538
811.760107	2475.206538
812.079716	2550.823846
812.399281	2462.603654
812.718801	2465.124231
813.038276	2482.768269
813.357707	2437.397885
813.677093	2555.865000
813.996434	2455.041923
814.315731	2482.768269
814.634983	2465.124231
814.954191	2422.274423
815.273354	2412.192115
815.592473	2447.480192
815.911547	2419.753846
816.230577	2533.179808
816.549562	2530.659231
816.868502	2591.153077
817.187399	2523.097500
817.506250	2500.412308
817.825058	2530.659231
818.143821	2505.453462
818.462539	2500.412308
818.781213	2515.535769
819.099843	2545.782692
819.418429	2470.165385
819.736970	2437.397885
820.055466	2515.535769
820.373919	2492.850577
820.692327	2447.480192
821.010691	2389.506923
821.329011	2553.344423
821.647286	2487.809423
821.965517	2490.330000
822.283704	2457.562500
822.601847	2455.041923
822.919945	2505.453462
823.237999	2497.891731
823.556010	2429.836154
823.873976	2497.891731
824.191897	2376.904038
824.509775	2528.138654
824.827609	2427.315577
825.145398	2550.823846
825.463144	2447.480192
825.780845	2492.850577
826.098502	2457.562500
826.416116	2608.797115
826.733685	2485.288846
827.051210	2477.727115
827.368692	2414.712692
827.686129	2427.315577
828.003522	2492.850577
828.320872	2558.385577
828.638177	2487.809423
828.955439	2507.974038
829.272656	2392.027500
829.589830	2485.288846
829.906960	2422.274423
830.224046	2457.562500
830.541088	2402.109808
830.858086	2404.630385
831.175041	2507.974038
831.491952	2500.412308
831.808819	2578.550192
832.125642	2450.000769
832.442421	2467.644808
832.759157	2573.509038
833.075849	2550.823846
833.392497	2507.974038
833.709101	2510.494615
834.025662	2477.727115
834.342179	2515.535769
834.658653	2576.029615
834.975083	2462.603654
835.291469	2545.782692
835.607811	2467.644808
835.924110	2502.932885
836.240366	2492.850577
836.556578	2555.865000
836.872746	2462.603654
837.188871	2462.603654
837.504952	2520.576923
837.820990	2520.576923
838.136984	2538.220962
838.452935	2495.371154
838.768842	2535.700385
839.084706	2460.083077
839.400526	2450.000769
839.716303	2472.685962
840.032037	2518.056346
840.347727	2427.315577
840.663373	2455.041923
840.978977	2439.918462
841.294537	2434.877308
841.610054	2472.685962
841.925527	2502.932885
842.240957	2497.891731
842.556344	2424.795000
842.871687	2457.562500
843.186987	2439.918462
843.502244	2485.288846
843.817458	2568.467885
844.132629	2457.562500
844.447756	2472.685962
844.762840	2545.782692
845.077881	2442.439038
845.392879	2462.603654
845.707833	2492.850577
846.022745	2510.494615
846.337613	2482.768269
846.652438	2510.494615
846.967221	2409.671538
847.281960	2540.741538
847.596656	2480.247692
847.911309	2540.741538
848.225919	2515.535769
848.540485	2520.576923
848.855009	2535.700385
849.169490	2475.206538
849.483928	2510.494615
849.798323	2422.274423
850.112675	2570.988462
850.426984	2457.562500
850.741251	2548.303269
851.055474	2520.576923
851.369654	2470.165385
851.683792	2515.535769
851.997887	2442.439038
852.311938	2487.809423
852.625947	2520.576923
852.939914	2495.371154
853.253837	2548.303269
853.567718	2434.877308
853.881555	2467.644808
854.195350	2465.124231
854.509103	2507.974038
854.822812	2497.891731
855.136479	2502.932885
855.450103	2487.809423
855.763685	2502.932885
856.077224	2518.056346
856.390720	2548.303269
856.704173	2540.741538
857.017584	2553.344423
857.330953	2530.659231
857.644278	2502.932885
857.957561	2497.891731
858.270802	2480.247692
858.584000	2505.453462
858.897155	2525.618077
859.210268	2540.741538
859.523339	2492.850577
859.836367	2570.988462
860.149352	2477.727115
860.462295	2482.768269
860.775195	2475.206538
861.088054	2424.795000
861.400869	2465.124231
861.713642	2538.220962
862.026373	2460.083077
862.339062	2548.303269
862.651708	2472.685962
862.964312	2462.603654
863.276873	2477.727115
863.589392	2455.041923
863.901869	2492.850577
864.214303	2460.083077
864.526696	2505.453462
864.839045	2482.768269
865.151353	2417.233269
865.463619	2419.753846
865.775842	2495.371154
866.088023	2437.397885
866.400162	2439.918462
866.712258	2452.521346
867.024313	2480.247692
867.336325	2487.809423
867.648296	2513.015192
867.960224	2606.276538
868.272110	2460.083077
868.583954	2545.782692
868.895755	2492.850577
869.207515	2505.453462
869.519233	2513.015192
869.830909	2555.865000
870.142542	2548.303269
870.454134	2419.753846
870.765684	2467.644808
871.077191	2500.412308
871.388657	2507.974038
871.700081	2437.397885
872.011463	2510.494615
872.322803	2513.015192
872.634101	2550.823846
872.945357	2518.056346
873.256571	2507.974038
873.567744	2460.083077
873.878874	2500.412308
874.189963	2490.330000
874.501010	2487.809423
874.812015	2583.591346
875.122979	2460.083077
875.433900	2439.918462
875.744780	2470.165385
876.055618	2593.673654
876.366415	2500.412308
876.677169	2520.576923
876.987882	2525.618077
877.298554	2475.206538
877.609183	2465.124231
877.919771	2460.083077
878.230317	2450.000769
878.540822	2417.233269
878.851285	2518.056346
879.161707	2462.603654
879.472087	2439.918462
879.782425	2450.000769
880.092722	2472.685962
880.402977	2497.891731
880.713191	2510.494615
881.023363	2500.412308
881.333494	2429.836154
881.643583	2515.535769
881.953631	2457.562500
882.263637	2530.659231
882.573602	2535.700385
882.883526	2444.959615
883.193408	2447.480192
883.503248	2588.632500
883.813048	2520.576923
884.122806	2472.685962
884.432522	2553.344423
884.742197	2452.521346
885.051831	2533.179808
885.361424	2434.877308
885.670975	2409.671538
885.980485	2434.877308
886.289954	2510.494615
886.599382	2510.494615
886.908768	2457.562500
887.218113	2530.659231
887.527417	2447.480192
887.836680	2545.782692
888.145901	2550.823846
888.455082	2492.850577
888.764221	2611.317692
889.073319	2558.385577
889.382376	2507.974038
889.691392	2434.877308
890.000366	2500.412308
890.309300	2505.453462
890.618193	2513.015192
890.927044	2563.426731
891.235855	2553.344423
891.544625	2535.700385
891.853353	2457.562500
892.162041	2480.247692
892.470687	2515.535769
892.779293	2530.659231
893.087858	2492.850577
893.396381	2437.397885
893.704864	2555.865000
894.013306	2437.397885
894.321707	2470.165385
894.630068	2525.618077
894.938387	2497.891731
895.246665	2513.015192
895.554903	2422.274423
895.863100	2480.247692
896.171256	2361.780577
896.479371	2462.603654
896.787446	2439.918462
897.095480	2535.700385
897.403473	2570.988462
897.711425	2495.371154
898.019336	2510.494615
898.327207	2500.412308
898.635038	2482.768269
898.942827	2465.124231
899.250576	2528.138654
899.558284	2460.083077
899.865952	2475.206538
900.173579	2475.206538
900.481165	2553.344423
900.788711	2452.521346
901.096216	2500.412308
901.403681	2477.727115
901.711105	2487.809423
902.018489	2394.548077
902.325832	2581.070769
902.633135	2439.918462
902.940397	2497.891731
903.247619	2497.891731
903.554800	2558.385577
903.861941	2500.412308
904.169041	2455.041923
904.476101	2402.109808
904.783121	2502.932885
905.090100	2447.480192
905.397039	2480.247692
905.703938	2523.097500
906.010796	2510.494615
906.317614	2465.124231
906.624391	2447.480192
906.931129	2455.041923
907.237826	2475.206538
907.544483	2399.589231
907.851099	2513.015192
908.157675	2442.439038
908.464211	2402.109808
908.770707	2482.768269
909.077163	2560.906154
909.383578	2450.000769
909.689954	2475.206538
909.996289	2570.988462
910.302584	2470.165385
910.608839	2450.000769
910.915054	2545.782692
911.221229	2563.426731
911.527363	2465.124231
911.833458	2455.041923
912.139513	2495.371154
912.445527	2477.727115
912.751502	2480.247692
913.057436	2513.015192
913.363331	2442.439038
913.669186	2583.591346
913.975000	2427.315577
914.280775	2540.741538
914.586510	2540.741538
914.892205	2490.330000
915.197859	2535.700385
915.503475	2497.891731
915.809050	2394.548077
916.114585	2505.453462
916.420081	2490.330000
916.725536	2507.974038
917.030952	2548.303269
917.336328	2482.768269
917.641665	2513.015192
917.946961	2455.041923
918.252218	2502.932885
918.557435	2487.809423
918.862612	2540.741538
919.167750	2424.795000
919.472848	2472.685962
919.777906	2480.247692
920.082925	2472.685962
920.387904	2444.959615
920.692843	2583.591346
920.997743	2515.535769
921.302603	2475.206538
921.607423	2500.412308
921.912204	2482.768269
922.216946	2540.741538
922.521647	2482.768269
922.826310	2397.068654
923.130932	2480.247692
923.435516	2485.288846
923.740059	2444.959615
924.044564	2495.371154
924.349028	2422.274423
924.653454	2444.959615
924.957840	2497.891731
925.262186	2482.768269
925.566493	2513.015192
925.870761	2480.247692
926.174989	2543.262115
926.479178	2518.056346
926.783328	2520.576923
927.087438	2439.918462
927.391509	2525.618077
927.695541	2570.988462
927.999533	2588.632500
928.303486	2444.959615
928.607400	2530.659231
928.911275	2563.426731
929.215110	2505.453462
929.518906	2513.015192
929.822663	2487.809423
930.126381	2470.165385
930.430060	2444.959615
930.733699	2513.015192
931.037299	2490.330000
931.340861	2487.809423
931.644383	2555.865000
931.947866	2497.891731
932.251309	2500.412308
932.554714	2450.000769
932.858080	2507.974038
933.161407	2513.015192
933.464694	2417.233269
933.767943	2475.206538
934.071153	2465.124231
934.374323	2578.550192
934.677455	2480.247692
934.980548	2518.056346
935.283602	2568.467885
935.586617	2452.521346
935.889593	2528.138654
936.192530	2465.124231
936.495428	2533.179808
936.798287	2513.015192
937.101108	2520.576923
937.403890	2442.439038
937.706632	2507.974038
938.009336	2444.959615
938.312002	2530.659231
938.614628	2480.247692
938.917216	2450.000769
939.219765	2472.685962
939.522275	2487.809423
939.824747	2475.206538
940.127179	2480.247692
940.429573	2525.618077
940.731929	2520.576923
941.034246	2518.056346
941.336524	2462.603654
941.638763	2545.782692
941.940964	2467.644808
942.243126	2465.124231
942.545250	2497.891731
942.847335	2515.535769
943.149381	2467.644808
943.451389	2442.439038
943.753359	2523.097500
944.055290	2437.397885
944.357182	2553.344423
944.659036	2472.685962
944.960851	2535.700385
945.262628	2540.741538
945.564367	2543.262115
945.866067	2485.288846
946.167729	2550.823846
946.469352	2523.097500
946.770937	2475.206538
947.072484	2485.288846
947.373992	2392.027500
947.675462	2510.494615
947.976893	2520.576923
948.278286	2462.603654
948.579641	2538.220962
948.880958	2439.918462
949.182236	2565.947308
949.483476	2374.383462
949.784678	2515.535769
950.085841	2422.274423
950.386967	2500.412308
950.688054	2487.809423
950.989103	2487.809423
951.290114	2538.220962
951.591087	2525.618077
951.892021	2495.371154
952.192917	2548.303269
952.493776	2467.644808
952.794596	2507.974038
953.095378	2497.891731
953.396122	2487.809423
953.696828	2553.344423
953.997496	2487.809423
954.298126	2482.768269
954.598718	2513.015192
954.899272	2538.220962
955.199788	2419.753846
955.500266	2437.397885
955.800706	2480.247692
956.101108	2495.371154
956.401472	2442.439038
956.701798	2510.494615
957.002087	2513.015192
957.302337	2475.206538
957.602550	2442.439038
957.902724	2500.412308
958.202861	2525.618077
958.502960	2465.124231
958.803022	2497.891731
959.103045	2444.959615
959.403031	2535.700385
959.702979	2518.056346
960.002889	2548.303269
960.302762	2523.097500
960.602596	2487.809423
960.902393	2513.015192
961.202153	2487.809423
961.501875	2457.562500
961.801559	2475.206538
962.101205	2442.439038
962.400814	2540.741538
962.700385	2422.274423
962.999918	2482.768269
963.299414	2447.480192
963.598873	2500.412308
963.898293	2480.247692
964.197677	2495.371154
964.497022	2525.618077
964.796331	2507.974038
965.095601	2540.741538
965.394835	2450.000769
965.694030	2528.138654
965.993189	2477.727115
966.292309	2447.480192
966.591393	2465.124231
966.890439	2510.494615
967.189447	2507.974038
967.488419	2432.356731
967.787353	2462.603654
968.086249	2477.727115
968.385108	2530.659231
968.683930	2513.015192
968.982714	2540.741538
969.281462	2560.906154
969.580172	2386.986346
969.878844	2429.836154
970.177480	2414.712692
970.476078	2485.288846
970.774639	2444.959615
971.073162	2472.685962
971.371649	2510.494615
971.670098	2442.439038
971.968510	2492.850577
972.266885	2457.562500
972.565223	2581.070769
972.863524	2460.083077
973.161788	2525.618077
973.460014	2530.659231
973.758204	2457.562500
974.056356	2520.576923
974.354471	2505.453462
974.652550	2507.974038
974.950591	2434.877308
975.248595	2457.562500
975.546563	2389.506923
975.844493	2528.138654
976.142386	2523.097500
976.440243	2477.727115
976.738062	2462.603654
977.035845	2495.371154
977.333590	2472.685962
977.631299	2490.330000
977.928971	2462.603654
978.226606	2409.671538
978.524204	2528.138654
978.821765	2480.247692
979.119290	2475.206538
979.416777	2495.371154
979.714228	2576.029615
980.011642	2447.480192
980.309020	2470.165385
980.606360	2513.015192
980.903664	2492.850577
981.200931	2427.315577
981.498162	2482.768269
981.795356	2485.288846
982.092513	2510.494615
982.389633	2485.288846
982.686717	2482.768269
982.983764	2510.494615
983.280775	2502.932885
983.577749	2500.412308
983.874686	2502.932885
984.171587	2535.700385
984.468451	2480.247692
984.765279	2576.029615
985.062070	2450.000769
985.358824	2545.782692
985.655543	2553.344423
985.952224	2495.371154
986.248869	2492.850577
986.545478	2455.041923
986.842050	2502.932885
987.138586	2540.741538
987.435086	2573.509038
987.731549	2540.741538
988.027975	2507.974038
988.324366	2500.412308
988.620719	2530.659231
988.917037	2540.741538
989.213318	2429.836154
989.509563	2518.056346
989.805772	2429.836154
990.101944	2495.371154
990.398080	2515.535769
990.694180	2460.083077
990.990244	2487.809423
991.286271	2540.741538
991.582262	2543.262115
991.878217	2472.685962
992.174136	2450.000769
992.470019	2553.344423
992.765865	2460.083077
993.061676	2480.247692
993.357450	2429.836154
993.653188	2495.371154
993.948890	2601.235385
994.244556	2485.288846
994.540186	2409.671538
994.835780	2555.865000
995.131337	2477.727115
995.426859	2490.330000
995.722345	2538.220962
996.017795	2470.165385
996.313208	2467.644808
996.608586	2593.673654
996.903928	2525.618077
997.199234	2528.138654
997.494504	2535.700385
997.789738	2412.192115
998.084936	2475.206538
998.380099	2402.109808
998.675225	2497.891731
998.970316	2507.974038
999.265371	2555.865000
999.560390	2397.068654
999.855373	2485.288846
1000.150320	2442.439038
1000.445232	2457.562500
1000.740108	2432.356731
1001.034948	2533.179808
1001.329752	2442.439038
1001.624521	2515.535769
1001.919254	2497.891731
1002.213951	2404.630385
1002.508613	2460.083077
1002.803239	2510.494615
1003.097829	2452.521346
1003.392384	2513.015192
1003.686903	2538.220962
1003.981386	2601.235385
1004.275834	2581.070769
1004.570246	2434.877308
1004.864623	2510.494615
1005.158964	2472.685962
1005.453270	2485.288846
1005.747540	2439.918462
1006.041775	2588.632500
1006.335974	2515.535769
1006.630138	2500.412308
1006.924266	2518.056346
1007.218359	2500.412308
1007.512416	2467.644808
1007.806438	2573.509038
1008.100425	2480.247692
1008.394376	2452.521346
1008.688292	2540.741538
1008.982172	2523.097500
1009.276017	2520.576923
1009.569827	2450.000769
1009.863602	2424.795000
1010.157341	2510.494615
1010.451045	2485.288846
1010.744714	2535.700385
1011.038347	2475.206538
1011.331945	2548.303269
1011.625508	2505.453462
1011.919036	2447.480192
1012.212528	2447.480192
1012.505986	2472.685962
1012.799408	2477.727115
1013.092795	2528.138654
1013.386147	2497.891731
1013.679464	2523.097500
1013.972745	2439.918462
1014.265992	2392.027500
1014.559204	2427.315577
1014.852380	2492.850577
1015.145521	2495.371154
1015.438628	2485.288846
1015.731699	2535.700385
1016.024736	2437.397885
1016.317737	2530.659231
1016.610703	2598.714808
1016.903635	2472.685962
1017.196531	2487.809423
1017.489393	2482.768269
1017.782219	2465.124231
1018.075011	2518.056346
1018.367768	2495.371154
1018.660490	2397.068654
1018.953177	2397.068654
1019.245829	2397.068654
