Dividing Wavelength (nm)	Counts (n)	Blue Motor Position (mm): 49.600000	Red Motor Position (mm): 0.000000	
326.493990	2129.998405
326.888308	2129.998405
327.282561	2129.998405
327.676750	2096.278127
328.070874	2095.348034
328.464933	2098.334918
328.858929	2105.271546
329.252859	2114.519543
329.646726	2127.034207
330.040528	2138.974180
330.434265	2157.697025
330.827938	2175.167144
331.221547	2190.157015
331.615091	2208.789119
332.008571	2230.438355
332.401986	2246.325551
332.795338	2267.500918
333.188625	2287.332817
333.581847	2306.527010
333.975006	2322.895637
334.368100	2344.287773
334.761129	2360.449712
335.154095	2378.592825
335.546996	2399.322050
335.939833	2424.789959
336.332606	2436.797987
336.725315	2451.608897
337.117960	2461.265228
337.510540	2467.710343
337.903056	2480.514873
338.295508	2488.963847
338.687896	2495.595485
339.080220	2506.375993
339.472480	2512.596777
339.864676	2516.483506
340.256807	2518.469721
340.648875	2519.346882
341.040879	2526.142357
341.432818	2529.966072
341.824694	2529.217461
342.216506	2532.111083
342.608253	2531.241484
342.999937	2531.435568
343.391557	2529.446833
343.783113	2531.065044
344.174605	2525.633200
344.566033	2524.766122
344.957397	2526.212933
345.348697	2522.018693
345.739934	2521.239835
346.131106	2520.783610
346.522215	2518.757067
346.913260	2514.383866
347.304241	2513.531911
347.695159	2511.825480
348.086012	2511.528052
348.476802	2510.154338
348.867528	2505.619820
349.258191	2504.702330
349.648789	2504.868688
350.039324	2503.016064
350.429796	2504.142762
350.820203	2503.825169
351.210548	2500.729900
351.600828	2497.775784
351.991045	2498.705877
352.381198	2498.713439
352.771288	2499.071361
353.161314	2499.124293
353.551276	2497.722852
353.941175	2497.004488
354.331010	2499.336021
354.720782	2494.488952
355.110490	2496.888541
355.500135	2497.306957
355.889717	2498.655466
356.279235	2496.702018
356.668689	2498.131186
357.058080	2499.066320
357.447408	2499.671258
357.836672	2497.039776
358.225873	2499.971207
358.615010	2495.025835
359.004084	2501.183604
359.393095	2502.872391
359.782043	2504.064624
360.170927	2503.094202
360.559748	2504.326764
360.948505	2505.609737
361.337199	2505.831548
361.725830	2506.093688
362.114398	2507.190139
362.502903	2509.304903
362.891344	2507.827845
363.279722	2506.065962
363.668037	2512.183402
364.056289	2509.307424
364.444478	2512.589215
364.832603	2512.531242
365.220665	2511.046622
365.608665	2512.579133
365.996601	2512.848834
366.384474	2511.459996
366.772284	2515.850841
367.160031	2517.252282
367.547715	2516.367560
367.935336	2517.106089
368.322893	2521.025586
368.710388	2523.662109
369.097820	2531.478418
369.485189	2532.174098
369.872495	2538.508307
370.259738	2542.810932
370.646918	2550.896943
371.034035	2554.493806
371.421090	2565.352452
371.808081	2574.829821
372.195010	2581.831983
372.581875	2597.613316
372.968678	2609.568412
373.355418	2621.052160
373.742096	2635.021198
374.128710	2651.001655
374.515262	2668.126455
374.901751	2677.729853
375.288177	2694.138809
375.674540	2716.040102
376.060841	2734.163050
376.447079	2753.624424
376.833254	2772.692589
377.219367	2789.456946
377.605417	2826.378357
377.991404	2833.952690
378.377329	2858.949252
378.763191	2874.360059
379.148991	2910.605955
379.534727	2934.329625
379.920402	2964.805921
380.306013	2976.965184
380.691563	3029.567103
381.077049	3049.522511
381.462474	3069.266190
381.847835	3108.042745
382.233134	3129.812968
382.618371	3130.949748
383.003545	3201.556149
383.388657	3210.005123
383.773706	3241.325812
384.158693	3260.202412
384.543618	3282.146555
384.928480	3319.257009
385.313280	3366.850543
385.698017	3365.295347
386.082692	3420.095210
386.467305	3427.450253
386.851856	3459.275057
387.236344	3482.666011
387.620770	3512.764220
388.005133	3537.513765
388.389435	3566.084504
388.773674	3576.736462
389.157851	3617.839510
389.541965	3636.390957
389.926018	3601.286882
390.310008	3670.131399
390.693936	3691.223587
391.077802	3732.268662
391.461606	3718.808781
391.845348	3781.951753
392.229027	3782.407978
392.612645	3798.169145
392.996200	3875.424828
393.379694	3914.370262
393.763125	3974.750682
394.146494	3948.428297
394.529801	4008.740662
394.913047	4055.729257
395.296230	4024.027961
395.679351	4077.996033
396.062410	4101.283644
396.445408	4084.499122
396.828343	4116.366776
397.211217	4141.060868
397.594028	4056.500553
397.976778	4126.559989
398.359466	4152.146365
398.742092	4184.031663
399.124656	4101.911267
399.507158	4181.332126
399.889598	4206.711815
400.271977	4266.436885
400.654294	4243.693719
401.036549	4249.453238
401.418742	4216.668093
401.800874	4322.975946
402.182944	4343.679965
402.564952	4406.303698
402.946898	4392.594280
403.328783	4389.617479
403.710606	4303.776711
404.092367	4498.705528
404.474067	4460.697748
404.855705	4469.958348
405.237282	4397.854724
405.618797	4504.505375
406.000250	4541.459553
406.381642	4619.789002
406.762972	4580.246191
407.144240	4592.476030
407.525447	4591.419909
407.906593	4656.072707
408.287677	4695.532338
408.668700	4627.086072
409.049661	4678.833516
409.430560	4715.533116
409.811399	4644.185666
410.192176	4800.232063
410.572891	4742.175614
410.953545	4847.308878
411.334138	4727.281525
411.714669	4795.606804
412.095139	4688.872974
412.475547	4831.910673
412.855894	4812.986182
413.236180	4822.241740
413.616405	4775.452271
413.996568	4861.900498
414.376670	4805.331190
414.756711	4759.854941
415.136691	4791.760404
415.516609	4865.005848
415.896466	4905.251900
416.276262	4943.211789
416.655997	4920.423253
417.035670	5102.726499
417.415283	5192.065828
417.794834	5136.857631
418.174324	5094.126291
418.553753	4997.691538
418.933121	5186.197925
419.312428	5250.286113
419.691674	5192.232186
420.070859	5312.559487
420.449983	5229.105706
420.829045	5344.626267
421.208047	5250.560856
421.586988	5323.271939
421.965867	5332.782076
422.344686	5466.566737
422.723444	5323.057690
423.102141	5141.155215
423.480777	5438.202685
423.859352	5207.494279
424.237866	5465.341737
424.616319	5456.514676
424.994712	5569.663374
425.373044	5446.959169
425.751314	5585.606023
426.129524	5391.370366
426.507673	5585.099387
426.885762	5664.772303
427.263789	5594.382672
427.641756	5478.176514
428.019662	5599.252427
428.397508	5609.367502
428.775292	5554.008071
429.153016	5652.187063
429.530679	5579.365075
429.908282	5666.370349
430.285824	5538.909815
430.663305	5811.061547
431.040726	5546.884921
431.418086	5545.508686
431.795385	5650.863760
432.172624	5665.394886
432.549802	5657.555892
432.926920	5671.683725
433.303977	5675.726731
433.680974	5719.267176
434.057910	5739.189816
434.434786	5736.482717
434.811601	5707.934662
435.188355	5943.167504
435.565050	5817.854502
435.941683	5803.285567
436.318257	6016.975037
436.694770	5994.337736
437.071222	6028.894846
437.447614	5963.243899
437.823946	5874.776690
438.200218	6027.586666
438.576429	5895.722684
438.952580	5995.076265
439.328670	6040.164345
439.704700	5946.872752
440.080670	5932.944044
440.456580	6209.221960
440.832429	6085.900213
441.208218	5933.649805
441.583947	6089.050934
441.959616	6092.105874
442.335224	6023.049628
442.710773	6157.829917
443.086261	6183.514596
443.461689	5977.248224
443.837057	6124.192818
444.212365	6283.372292
444.587612	6174.344737
444.962800	6329.645043
445.337927	6307.897505
445.712995	5919.295120
446.088002	6493.807697
446.462949	6326.010371
446.837837	6260.356904
447.212664	6431.511639
447.587431	6574.163690
447.962139	7112.304342
448.336786	8038.477730
448.711374	7780.594984
449.085901	6859.213213
449.460369	6779.257993
449.834776	6714.806841
450.209124	7100.913855
450.583412	7253.076043
450.957640	7394.175418
451.331808	7161.652197
451.705917	6713.327262
452.079965	6638.445963
452.453954	6850.451688
452.827883	6726.232616
453.201752	6822.546381
453.575562	6620.461647
453.949311	6821.525547
454.323001	6714.834567
454.696632	6789.052955
455.070202	6924.380209
455.443713	7082.818633
455.817164	7180.430495
456.190556	7262.011488
456.563888	7339.922521
456.937160	7382.681588
457.310373	7036.976901
457.683526	7067.652322
458.056619	6956.522606
458.429653	6942.987108
458.802628	6879.657613
459.175542	6993.696074
459.548398	7342.075093
459.921194	7503.518045
460.293930	7503.596183
460.666607	8033.577728
461.039224	8343.694389
461.411782	8466.756516
461.784280	8486.573292
462.156719	8381.039257
462.529099	8257.483097
462.901419	7845.260385
463.273680	7740.122080
463.645882	7750.683298
464.018024	7623.099256
464.390106	7783.082793
464.762130	8170.611413
465.134094	8642.957446
465.505999	9659.301952
465.877845	10882.295958
466.249631	11529.038188
466.621358	11156.035653
466.993026	10525.016782
467.364634	10270.045303
467.736184	9904.733048
468.107674	9573.209127
468.479105	9595.758208
468.850477	9367.600626
469.221790	9138.333991
469.593043	8812.161254
469.964238	8669.526847
470.335373	8684.047891
470.706449	8740.317250
471.077467	8730.146723
471.448425	10033.685763
471.819324	11099.393248
472.190164	11130.290480
472.560945	9875.227175
472.931667	9091.524357
473.302330	8956.343296
473.672934	8600.316846
474.043479	8959.665416
474.413965	8899.733658
474.784393	8786.368191
475.154761	8944.552037
475.525070	9022.082462
475.895321	8854.355712
476.265513	9029.339203
476.635645	9199.785656
477.005719	9200.884628
477.375734	9321.421137
477.745691	9556.888392
478.115588	9693.705307
478.485427	9928.055946
478.855207	10464.681732
479.224928	11283.660024
479.594591	11911.293760
479.964194	11716.934594
480.333739	11665.799650
480.703226	11583.850653
481.072653	11664.168837
481.442022	11904.730178
481.811333	12094.078437
482.180584	11893.541337
482.549777	11608.494334
482.918912	11432.820205
483.287988	11454.136724
483.657005	11461.330450
484.025964	11146.467543
484.394864	11281.124324
484.763706	11254.862433
485.132489	11007.495534
485.501213	10971.705863
485.869879	11047.923067
486.238487	10887.327029
486.607036	11000.193423
486.975527	10780.313416
487.343959	10968.038423
487.712333	11024.416167
488.080648	10950.757348
488.448905	10992.246044
488.817104	10930.673391
489.185244	11192.445387
489.553326	11352.875067
489.921350	11889.684854
490.289315	12953.547277
490.657222	13288.791569
491.025070	13207.298797
491.392861	13080.002101
491.760593	12697.171836
492.128267	12343.648320
492.495883	12020.328877
492.863440	11679.993019
493.230939	11344.927687
493.598380	11282.689602
493.965763	11146.742286
494.333088	11046.798890
494.700354	10965.008690
495.067563	11030.089986
495.434713	10861.647392
495.801805	10989.760755
496.168839	10909.936604
496.535815	10846.037459
496.902733	10845.908909
497.269593	10782.992789
497.636395	10877.932839
498.003139	10867.520336
498.369825	10735.061498
498.736453	10906.216233
499.103023	10819.639457
499.469535	10845.550988
499.835989	10838.959679
500.202385	10794.290015
500.568723	10647.337859
500.935003	10870.139215
501.301226	10681.027891
501.667390	10937.083218
502.033497	11034.145594
502.399546	10891.518749
502.765537	10805.831736
503.131470	10868.515964
503.497345	11052.876001
503.863163	10664.480303
504.228923	10972.467077
504.594625	11038.359999
504.960269	10781.639239
505.325856	11002.603094
505.691385	10798.363267
506.056856	10945.060844
506.422270	10976.941101
506.787625	10860.225786
507.152924	10980.323715
507.518164	10969.099586
507.883347	10889.908100
508.248472	10806.824844
508.613540	11035.136181
508.978550	10920.722153
509.343503	10894.898842
509.708398	11012.914775
510.073236	11129.342743
510.438016	11128.011879
510.802738	11080.567059
511.167403	11135.976902
511.532010	11031.491427
511.896561	11261.234451
512.261053	11332.264309
512.625488	11203.901409
512.989866	11189.554285
513.354186	11174.216574
513.718449	11079.274003
514.082655	11269.375915
514.446803	11165.886067
514.810894	11286.384768
515.174927	11149.409056
515.538904	11180.434837
515.902822	11328.324647
516.266684	11215.884231
516.630488	11154.714871
516.994235	11208.110772
517.357925	11269.615370
517.721558	11359.630213
518.085133	11376.893644
518.448651	11382.945549
518.812112	11260.415264
519.175516	11286.125148
519.538863	11408.320197
519.902152	11325.519245
520.265385	11488.734163
520.628560	11396.085317
520.991678	11372.933818
521.354739	11437.911770
521.717743	11369.137829
522.080690	11344.279899
522.443580	11483.685447
522.806413	11435.746595
523.169189	11469.056019
523.531908	11526.628516
523.894569	11348.748882
524.257174	11356.219872
524.619722	11472.446195
524.982213	11417.495097
525.344647	11465.824639
525.707025	11418.951991
526.069345	11507.330979
526.431608	11432.283322
526.793815	11539.987574
527.155964	11331.099802
527.518057	11388.085006
527.880093	11333.761532
528.242072	11393.300079
528.603995	11306.985443
528.965860	11224.544934
529.327669	11269.209557
529.689421	11221.379089
530.051117	11195.026457
530.412755	11305.205916
530.774337	11188.593945
531.135862	11169.309011
531.497331	11196.067456
531.858743	11048.205372
532.220098	11211.662265
532.581396	11084.594941
532.942638	11069.385780
533.303824	11031.693073
533.664953	11049.072451
534.026025	10954.742380
534.387040	11051.199818
534.747999	11060.399923
535.108902	11117.934612
535.469748	10876.538960
535.830537	10976.681481
536.191270	10951.707605
536.551947	10988.119859
536.912567	10981.543674
537.273131	10914.241750
537.633638	10882.225382
537.994089	10873.625173
538.354483	10819.236164
538.714821	10965.374173
539.075103	10971.534463
539.435328	10943.732500
539.795497	10768.512074
540.155609	10924.737432
540.515665	11011.152891
540.875665	10748.155895
541.235609	10811.828189
541.595496	10809.300050
541.955328	10972.608229
542.315102	10846.639877
542.674821	10799.759667
543.034483	10803.394338
543.394090	10804.604215
543.753640	10731.058822
544.113134	10958.762700
544.472571	10811.349279
544.831953	10951.561412
545.191278	10762.818091
545.550548	10782.599579
545.909761	10924.949161
546.268918	10901.439740
546.628019	10984.638943
546.987064	10842.649803
547.346053	10767.128278
547.704986	10866.640655
548.063863	10847.912768
548.422684	10840.930770
548.781449	10762.893708
549.140158	10870.585358
549.498811	10740.354710
549.857408	10597.170817
550.215949	10828.774028
550.574434	10682.106698
550.932864	10778.337283
551.291237	10836.048413
551.649555	10782.065217
552.007817	10796.941662
552.366022	10755.503377
552.724173	10752.899621
553.082267	10740.032076
553.440305	10868.732733
553.798288	10674.129072
554.156215	10830.465335
554.514086	10810.956069
554.871902	10651.819445
555.229661	10695.206136
555.587365	10664.313945
555.945014	10567.231404
556.302606	10686.646257
556.660143	10584.416698
557.017625	10737.312373
557.375050	10634.107351
557.732421	10764.073338
558.089735	10680.722901
558.446994	10680.780874
558.804197	10713.598786
559.161345	10720.437111
559.518437	10571.821375
559.875474	10652.222738
560.232455	10687.707419
560.589381	10640.668413
560.946251	10630.830601
561.303065	10741.418393
561.659825	10683.855978
562.016528	10608.528537
562.373177	10483.281069
562.729770	10599.673750
563.086307	10513.845585
563.442789	10607.026273
563.799216	10486.338529
564.155587	10539.721828
564.511904	10491.704837
564.868164	10482.512293
565.224370	10499.735395
565.580520	10419.555843
565.936615	10429.847359
566.292654	10299.276433
566.648638	10429.433984
567.004567	10380.416325
567.360441	10371.090190
567.716260	10275.761971
568.072023	10369.973575
568.427732	10326.037398
568.783385	10227.777748
569.138982	10307.306991
569.494525	10315.884515
569.850013	10197.190547
570.205445	10276.876066
570.560823	10170.089304
570.916145	10098.222615
571.271412	10158.136728
571.626625	10104.226629
571.981782	10077.160674
572.336884	10050.185460
572.691931	10062.642151
573.046923	9997.767542
573.401860	9963.936359
573.756743	9895.185103
574.111570	9944.394326
574.466342	9927.309856
574.821059	9959.658940
575.175722	9841.121248
575.530330	9845.940591
575.884882	9844.035035
576.239380	9772.674982
576.593823	9751.716385
576.948211	9766.640721
577.302544	9649.625458
577.656823	9662.049381
578.011047	9666.803189
578.365216	9635.747161
578.719330	9565.246625
579.073389	9576.397657
579.427394	9524.771200
579.781344	9501.440740
580.135239	9444.541237
580.489080	9454.578174
580.842866	9356.799954
581.196597	9363.534936
581.550273	9401.807376
581.903895	9370.942911
582.257463	9439.512686
582.610975	9314.744128
582.964434	9339.105504
583.317837	9263.210933
583.671186	9245.803829
584.024481	9238.758816
584.377721	9163.259976
584.730906	9135.268969
585.084037	9168.578393
585.437113	9101.057178
585.790135	9120.694993
586.143103	9025.127319
586.496016	8993.194130
586.848874	9054.882730
587.201679	9045.599445
587.554428	8927.918750
587.907124	8978.516811
588.259765	8946.565978
588.612352	8943.153117
588.964884	8824.857400
589.317362	8840.459772
589.669786	8834.584307
590.022155	8882.802943
590.374470	8902.579390
590.726731	8837.971962
591.078937	8694.097431
591.431090	8802.603227
591.783188	8679.281480
592.135232	8669.781426
592.487222	8671.986931
592.839157	8725.055157
593.191038	8654.345413
593.542866	8596.785518
593.894639	8501.043924
594.246358	8551.150473
594.598022	8571.166374
594.949633	8469.279614
595.301190	8437.285931
595.652692	8468.233574
596.004141	8581.173065
596.355535	8358.732151
596.706876	8337.836568
597.058162	8270.658152
597.409395	8347.220676
597.760573	8409.725943
598.111698	8317.876120
598.462768	8303.087895
598.813785	8270.068337
599.164748	8243.516580
599.515657	8227.248777
599.866511	8141.576887
600.217312	8266.640353
600.568060	8126.627346
600.918753	8227.077377
601.269392	8197.256432
601.619978	8109.016075
601.970510	8179.587187
602.320988	8172.138883
602.671412	8228.690547
603.021783	8162.797625
603.372100	8135.028429
603.722363	8134.889797
604.072572	8108.607741
604.422728	8120.676264
604.772830	8052.991212
605.122878	8065.037049
605.472872	8051.113382
605.822813	8088.070081
606.172701	8026.250411
606.522534	8101.232533
606.872314	8105.003316
607.222041	8070.544509
607.571714	8124.734392
607.921333	8083.832991
608.270899	8095.170546
608.620411	8181.810336
608.969870	8085.105882
609.319276	8081.708144
609.668627	8097.885207
610.017926	8131.131617
610.367171	8181.099534
610.716362	8152.929566
611.065500	8145.130901
611.414585	8175.143410
611.763616	8163.006832
612.112594	8141.720560
612.461518	8157.438878
612.810389	8225.101245
613.159207	8159.208323
613.507971	8109.474820
613.856682	8224.728200
614.205340	8179.761107
614.553945	8260.096935
614.902496	8156.372674
615.250994	8215.326448
615.599439	8198.103346
615.947830	8207.502577
616.296169	8183.945265
616.644454	8194.372892
616.992686	8190.642438
617.340864	8254.445802
617.688990	8154.565420
618.037063	8247.957837
618.385082	8193.311729
618.733048	8276.258874
619.080961	8216.180923
619.428821	8236.524500
619.776628	8239.521466
620.124382	8194.733334
620.472083	8172.196856
620.819731	8201.095270
621.167326	8097.345804
621.514868	8104.446269
621.862357	7997.336873
622.209793	8012.412444
622.557176	7942.884850
622.904506	7912.332937
623.251783	7848.690890
623.599007	7802.181205
623.946179	7804.482492
624.293297	7763.336594
624.640363	7678.622524
624.987376	7663.032756
625.334336	7613.914273
625.681243	7562.066006
626.028097	7548.689304
626.374899	7524.038062
626.721647	7516.453646
627.068343	7450.810261
627.414987	7419.355982
627.761577	7370.466872
628.108115	7411.355671
628.454600	7308.369939
628.801032	7361.176025
629.147412	7321.043399
629.493739	7306.078734
629.840014	7241.597335
630.186236	7303.464896
630.532405	7178.093920
630.878521	7232.089719
631.224585	7188.513985
631.570597	7115.235773
631.916556	7150.722976
632.262462	7144.101420
632.608316	7105.970132
632.954117	7081.296205
633.299866	7072.214566
633.645562	7059.450365
633.991206	6980.221070
634.336797	6925.295178
634.682336	6879.682818
635.027823	6849.675350
635.373257	6837.760583
635.718639	6774.390759
636.063968	6785.408200
636.409245	6674.512898
636.754470	6679.559093
637.099642	6635.602752
637.444762	6581.521254
637.789829	6588.107521
638.134845	6526.176946
638.479808	6515.988774
638.824719	6524.122676
639.169577	6451.840092
639.514383	6471.089737
639.859137	6396.417646
640.203839	6410.245531
640.548489	6394.375979
640.893086	6369.341609
641.237632	6339.573595
641.582125	6364.728953
641.926566	6330.958263
642.270955	6346.853022
642.615292	6339.598801
642.959576	6359.077820
643.303809	6343.488051
643.647990	6349.900399
643.992118	6339.261044
644.336195	6289.189783
644.680219	6309.505633
645.024192	6300.537421
645.368112	6395.248098
645.711981	6420.652993
646.055797	6496.643346
646.399562	6459.177491
646.743274	6582.617705
647.086935	6635.522094
647.430544	6630.843903
647.774101	6651.459702
648.117606	6652.233519
648.461059	6648.808055
648.804460	6611.251458
649.147810	6519.688981
649.491108	6492.572615
649.834354	6467.921372
650.177548	6381.722683
650.520690	6296.179343
650.863781	6274.484737
651.206820	6293.963756
651.549807	6216.125820
651.892742	6156.614999
652.235626	6165.749570
652.578458	6147.916488
652.921238	6061.269136
653.263967	6095.788437
653.606644	6032.320310
653.949269	6038.921701
654.291843	5976.003059
654.634365	6029.023395
654.976836	5980.981199
655.319255	5978.032124
655.661622	5958.729546
656.003938	5952.531447
656.346203	5915.173977
656.688416	5952.496159
657.030577	5895.195884
657.372687	5870.751329
657.714746	5857.195666
658.056753	5901.497326
658.398708	5841.414334
658.740612	5826.537889
659.082465	5881.302464
659.424266	5872.644282
659.766016	5868.631524
660.107715	5846.591599
660.449362	5856.134503
660.790958	5855.143917
661.132503	5844.055899
661.473996	5878.887751
661.815438	5860.696748
662.156829	5860.991655
662.498168	5858.549216
662.839456	5828.841696
663.180693	5868.659250
663.521879	5864.517942
663.863013	5855.390933
664.204097	5876.692329
664.545129	5915.872176
664.886110	5908.706176
665.227040	5943.759839
665.567918	5913.167597
665.908746	5936.545948
666.249522	5941.869407
666.590248	5931.537562
666.930922	5960.559485
667.271545	5970.848480
667.612118	5976.154294
667.952639	5946.807217
668.293109	5963.238858
668.633528	5926.400626
668.973896	5928.414567
669.314213	5920.348721
669.654480	5904.650568
669.994695	5892.607251
670.334859	5887.573659
670.674973	5880.868925
671.015035	5884.317074
671.355047	5880.226178
671.695008	5871.111771
672.034918	5840.746381
672.374777	5847.955231
672.714585	5837.247820
673.054342	5842.644376
673.394049	5829.184495
673.733705	5862.604824
674.073310	5850.727866
674.412864	5808.112472
674.752368	5803.494775
675.091820	5808.924098
675.431223	5745.771043
675.770574	5746.817082
676.109875	5693.078382
676.449125	5697.922931
676.788324	5668.636348
677.127473	5612.314056
677.466571	5603.272747
677.805619	5592.910655
678.144616	5577.696453
678.483562	5559.422270
678.822458	5525.223082
679.161303	5518.861146
679.500098	5511.342265
679.838842	5492.778216
680.177535	5500.087889
680.516179	5512.181618
680.854771	5521.104460
681.193314	5607.043530
681.531805	5711.720569
681.870247	5861.077355
682.208638	5966.777748
682.546978	5980.091435
682.885268	5952.067661
683.223508	5874.012955
683.561697	5816.947094
683.899836	5788.109173
684.237925	5738.569754
684.575963	5705.426688
684.913951	5663.491850
685.251889	5729.561213
685.589776	5694.341191
685.927614	5671.834960
686.265401	5739.202419
686.603137	5720.393874
686.940824	5800.228107
687.278460	5821.554708
687.616046	5831.984856
687.953582	5902.548407
688.291068	5882.376230
688.628504	5949.158915
688.965889	5908.489407
689.303224	5850.357341
689.640510	5803.232635
689.977745	5728.237910
690.314930	5626.988855
690.652065	5578.593778
690.989150	5481.299509
691.326185	5407.761677
691.663170	5354.176732
692.000105	5275.239825
692.336990	5199.017579
692.673825	5179.205844
693.010610	5102.751705
693.347345	5034.549935
693.684030	5018.193911
694.020665	4982.343745
694.357251	4887.852358
694.693786	4898.458945
695.030272	4870.026838
695.366707	4830.912525
695.703093	4798.603770
696.039429	4820.011030
696.375716	4800.995797
696.711952	4777.176346
697.048139	4761.878964
697.384276	4740.378443
697.720363	4754.155917
698.056400	4766.743678
698.392388	4713.259556
698.728326	4693.785579
699.064214	4670.371940
699.400053	4664.889685
699.735842	4629.861227
700.071581	4607.682671
700.407270	4578.542281
700.742910	4562.279519
701.078501	4510.514431
701.414042	4507.184748
701.749533	4473.540088
702.084974	4411.526334
702.420366	4465.181855
702.755709	4408.776384
703.091002	4355.395606
703.426246	4402.149787
703.761440	4357.853169
704.096584	4323.044001
704.431679	4340.083101
704.766725	4328.448118
705.101721	4311.913134
705.436668	4344.844471
705.771565	4293.432264
706.106413	4317.881860
706.441212	4351.740770
706.775961	4361.384497
707.110661	4341.222402
707.445311	4368.631156
707.779913	4390.459352
708.114465	4403.931835
708.448967	4425.281122
708.783421	4492.373838
709.117825	4529.572513
709.452180	4531.377246
709.786485	4579.071602
710.120742	4667.795910
710.454949	4651.036594
710.789107	4717.882294
711.123216	4793.489519
711.457275	4785.161533
711.791286	4859.107698
712.125247	4872.970872
712.459159	4779.447385
712.793023	4853.403633
713.126837	4813.944001
713.460602	4803.735665
713.794318	4726.409406
714.127985	4732.582299
714.461602	4648.372344
714.795171	4618.894197
715.128691	4551.302406
715.462162	4495.602698
715.795584	4447.333649
716.128957	4426.170886
716.462281	4376.845716
716.795556	4351.846634
717.128782	4312.868432
717.461960	4241.717587
717.795088	4251.696551
718.128167	4209.577711
718.461198	4152.955471
718.794180	4146.787619
719.127113	4128.208446
719.459997	4106.465950
719.792833	4062.623035
720.125619	4054.461407
720.458357	4019.790871
720.791046	4023.803630
721.123686	3996.427644
721.456278	3956.320224
721.788821	3970.553922
722.121315	3944.967545
722.453761	3921.952157
722.786158	3931.129578
723.118506	3956.090851
723.450805	3908.940939
723.783056	3927.928445
724.115259	3940.748099
724.447412	3947.140282
724.779518	3940.367492
725.111574	3946.752114
725.443582	3974.755723
725.775542	3963.534115
726.107453	4011.480529
726.439315	4014.028832
726.771129	4027.836553
727.102895	4064.084969
727.434612	4109.503245
727.766281	4123.333651
728.097901	4123.258033
728.429473	4128.271461
728.760996	4139.223368
729.092471	4132.188437
729.423897	4118.113536
729.755276	4119.759473
730.086606	4121.942292
730.417887	4157.154752
730.749120	4223.846697
731.080305	4286.966984
731.411442	4315.900686
731.742530	4286.067138
732.073570	4289.943785
732.404562	4343.725335
732.735506	4336.385415
733.066401	4299.935352
733.397249	4233.767687
733.728048	4152.834483
734.058798	4072.286927
734.389501	4000.579034
734.720156	3939.646607
735.050762	3894.974422
735.381320	3887.208525
735.711831	3835.133406
736.042293	3806.066113
736.372707	3827.186027
736.703073	3800.722490
737.033391	3790.856952
737.363661	3805.740958
737.693883	3832.922860
738.024056	3843.907534
738.354182	3838.947039
738.684260	3903.607398
739.014290	3924.505502
739.344272	3921.793361
739.674207	3959.234011
740.004093	3968.383705
740.333931	3962.367088
740.663722	3960.864824
740.993464	3957.222590
741.323159	3936.107717
741.652806	3904.378695
741.982405	3879.251064
742.311956	3847.655632
742.641460	3837.059127
742.970915	3812.065086
743.300323	3772.187038
743.629683	3738.784353
743.958996	3725.901684
744.288260	3700.237170
744.617477	3670.282634
744.946647	3654.939882
745.275768	3631.427941
745.604842	3628.788897
745.933869	3579.257039
746.262847	3570.674475
746.591778	3610.358438
746.920662	3580.325764
747.249498	3547.328892
747.578286	3594.088114
747.907027	3610.945732
748.235720	3611.487657
748.564365	3634.450112
748.892963	3636.370792
749.221514	3614.855147
749.550017	3592.618618
749.878473	3591.141560
750.206881	3562.807754
750.535242	3557.630489
750.863555	3558.331210
751.191821	3554.431877
751.520039	3537.884290
751.848210	3514.715147
752.176334	3552.448183
752.504411	3555.588822
752.832440	3512.333202
753.160421	3496.186386
753.488356	3507.027387
753.816243	3517.954088
754.144082	3474.806852
754.471875	3459.718679
754.799620	3477.234168
755.127318	3473.723004
755.454969	3472.140082
755.782572	3476.719970
756.110129	3455.431177
756.437638	3440.794187
756.765100	3457.722382
757.092515	3468.233188
757.419882	3473.876759
757.747203	3448.605455
758.074477	3451.584777
758.401703	3465.337045
758.728882	3484.798419
759.056014	3491.074656
759.383099	3493.139008
759.710138	3491.493072
760.037129	3509.064013
760.364073	3541.397974
760.690970	3524.129502
761.017820	3505.663755
761.344623	3519.693286
761.671379	3566.422262
761.998088	3619.021661
762.324751	3743.439858
762.651366	3996.021831
762.977935	4467.732678
763.304456	4919.780506
763.630931	5016.154764
763.957359	4656.481040
764.283740	4309.059841
764.610074	4114.350314
764.936362	3912.013522
765.262602	3755.158021
765.588796	3643.241885
765.914943	3555.261147
766.241044	3464.858135
766.567097	3437.759413
766.893104	3385.452400
767.219064	3356.191023
767.544978	3329.369564
767.870845	3273.987448
768.196665	3253.129674
768.522438	3263.035541
768.848165	3258.155704
769.173846	3222.595405
769.499479	3205.815924
769.825066	3188.335723
770.150607	3171.856191
770.476101	3182.805577
770.801548	3181.401616
771.126949	3136.754637
771.452303	3117.878037
771.777611	3124.716362
772.102872	3127.572175
772.428087	3105.018053
772.753256	3096.894234
773.078378	3088.306628
773.403453	3051.959909
773.728482	3043.647046
774.053465	3060.572720
774.378401	3052.206925
774.703291	3019.772142
775.028135	3018.436236
775.352932	3014.509177
775.677683	3000.376302
776.002388	3001.122393
776.327046	3000.630880
776.651658	2989.789879
776.976224	2975.999803
777.300743	2980.320072
777.625216	2968.894296
777.949643	2963.908595
778.274024	2965.221816
778.598359	2957.466001
778.922647	2962.925570
779.246889	2959.764767
779.571086	2945.974690
779.895236	2936.588062
780.219339	2949.301852
780.543397	2960.306691
780.867409	2967.865901
781.191374	2958.625466
781.515294	2954.494240
781.839167	2954.413582
782.162995	2945.483178
782.486776	2957.912143
782.810511	2954.627831
783.134201	2936.998916
783.457844	2946.861933
783.781441	2939.995882
784.104993	2917.716503
784.428498	2918.162645
784.751958	2930.987340
785.075372	2926.407452
785.398739	2910.147210
785.722061	2922.437543
786.045337	2935.877259
786.368568	2922.873603
786.691752	2912.720719
787.014891	2962.335755
787.337983	2994.074860
787.661030	3023.205167
787.984031	3088.762852
788.306987	3136.709267
788.629897	3126.170735
788.952760	3113.792181
789.275579	3096.548915
789.598351	3036.544060
789.921078	2990.777945
790.243759	2982.926348
790.566395	2964.400108
790.888984	2937.482867
791.211529	2926.263779
791.534027	2914.250709
791.856480	2904.859040
792.178888	2890.320352
792.501249	2879.562530
792.823566	2883.061090
793.145836	2877.069679
793.468062	2870.687578
793.790241	2869.613813
794.112375	2873.712271
794.434464	2887.472100
794.756507	2891.416803
795.078505	2895.537946
795.400457	2913.565112
795.722364	2946.851851
796.044226	2974.467292
796.366042	2978.134731
796.687812	2964.934470
797.009538	2982.961636
797.331218	2971.835810
797.652852	2957.942390
797.974442	2939.138886
798.295986	2935.463885
798.617484	2932.308122
798.938938	2917.308169
799.260346	2898.769326
799.581709	2897.246897
799.903026	2888.051833
800.224299	2884.066801
800.545526	2871.882332
800.866708	2857.328521
801.187845	2847.354598
801.508936	2848.617407
801.829983	2855.566637
802.150984	2843.082220
802.471940	2829.241732
802.792851	2832.294151
803.113717	2827.951197
803.434538	2835.510407
803.755314	2826.998418
804.076045	2821.589260
804.396731	2819.429126
804.717372	2820.525577
805.037967	2815.847386
805.358518	2823.973726
805.679024	2836.919409
805.999485	2830.323059
806.319901	2834.897907
806.640272	2828.299036
806.960598	2831.643842
807.280879	2838.338494
807.601115	2850.033971
807.921306	2834.996209
808.241453	2827.878100
808.561554	2833.607371
808.881611	2837.395798
809.201623	2834.527382
809.521590	2832.813389
809.841513	2827.545384
810.161390	2832.621826
810.481223	2828.251145
810.801011	2816.974084
811.120755	2815.010555
811.440453	2816.835452
811.760107	2814.032571
812.079716	2815.565082
812.399281	2807.043011
812.718801	2797.215282
813.038276	2793.436937
813.357707	2799.151085
813.677093	2803.713329
813.996434	2798.732669
814.315731	2797.096814
814.634983	2789.146915
814.954191	2793.605815
815.273354	2808.628454
815.592473	2814.387972
815.911547	2816.522901
816.230577	2822.985660
816.549562	2835.893534
816.868502	2833.380519
817.187399	2840.559122
817.506250	2858.218284
817.825058	2853.101513
818.143821	2868.308154
818.462539	2883.335833
818.781213	2911.606624
819.099843	2946.831687
819.418429	3003.274966
819.736970	3067.703432
820.055466	3141.095071
820.373919	3249.520208
820.692327	3394.344996
821.010691	3562.853125
821.329011	4011.173019
821.647286	4921.575156
821.965517	6320.311347
822.283704	7085.324087
822.601847	7066.150058
822.919945	6422.566111
823.237999	5908.655765
823.556010	5318.981917
823.873976	4758.577008
824.191897	4344.370603
824.509775	4041.808111
824.827609	3768.161677
825.145398	3638.162922
825.463144	3627.652116
825.780845	3715.791650
826.098502	3827.513702
826.416116	4107.401084
826.733685	4433.021814
827.051210	4499.474304
827.368692	4379.819997
827.686129	4114.367958
828.003522	3782.564253
828.320872	3521.382073
828.638177	3319.924962
828.955439	3178.626461
829.272656	3097.153853
829.589830	3025.652648
829.906960	2978.777478
830.224046	2931.700663
830.541088	2898.678585
830.858086	2883.030843
831.175041	2864.030735
831.491952	2863.715662
831.808819	2876.588249
832.125642	2899.457443
832.442421	2947.703806
832.759157	3029.504089
833.075849	3209.369938
833.392497	3492.705469
833.709101	3704.597768
834.025662	3653.223369
834.342179	3491.533401
834.658653	3310.422387
834.975083	3160.861435
835.291469	3062.677402
835.607811	2976.950060
835.924110	2914.298600
836.240366	2863.652648
836.556578	2817.848724
836.872746	2793.971299
837.188871	2774.451951
837.504952	2753.269023
837.820990	2748.628641
838.136984	2732.353276
838.452935	2727.307081
838.768842	2722.233159
839.084706	2742.203690
839.400526	2822.867193
839.716303	2957.627318
840.032037	3036.914585
840.347727	3022.063346
840.663373	2964.790797
840.978977	2887.527553
841.294537	2812.195070
841.610054	2765.579521
841.925527	2742.097826
842.240957	2719.470607
842.556344	2699.326156
842.871687	2680.936027
843.186987	2675.426046
843.502244	2666.651917
843.817458	2665.348779
844.132629	2648.750780
844.447756	2641.572177
844.762840	2636.475571
845.077881	2636.901548
845.392879	2636.402474
845.707833	2632.193110
846.022745	2625.851339
846.337613	2627.086422
846.652438	2626.529374
846.967221	2624.102058
847.281960	2625.301853
847.596656	2622.504013
847.911309	2621.533591
848.225919	2617.982098
848.540485	2615.653085
848.855009	2614.566716
849.169490	2615.544700
849.483928	2616.689042
849.798323	2614.808691
850.112675	2612.724174
850.426984	2616.200050
850.741251	2612.184771
851.055474	2611.204266
851.369654	2617.730040
851.683792	2615.973198
851.997887	2611.567229
852.311938	2611.118567
852.625947	2613.180399
852.939914	2617.296501
853.253837	2616.016048
853.567718	2610.448093
853.881555	2610.369955
854.195350	2615.471603
854.509103	2614.511263
854.822812	2611.184102
855.136479	2613.510594
855.450103	2611.206787
855.763685	2615.542179
856.077224	2613.916407
856.390720	2608.860130
856.704173	2613.031685
857.017584	2617.767849
857.330953	2617.044443
857.644278	2622.546862
857.957561	2621.095010
858.270802	2617.535956
858.584000	2617.203239
858.897155	2618.445884
859.210268	2621.336986
859.523339	2613.727364
859.836367	2612.620831
860.149352	2612.449431
860.462295	2612.220059
860.775195	2613.313989
861.088054	2608.076230
861.400869	2609.674276
861.713642	2605.250664
862.026373	2605.848040
862.339062	2611.219390
862.651708	2616.371449
862.964312	2618.705503
863.276873	2615.252313
863.589392	2616.615945
863.901869	2621.858745
864.214303	2626.448716
864.526696	2632.356948
864.839045	2632.692185
865.151353	2634.020529
865.463619	2633.700415
865.775842	2633.914664
866.088023	2632.430045
866.400162	2634.101187
866.712258	2633.718059
867.024313	2631.956176
867.336325	2628.613891
867.648296	2634.010446
867.960224	2637.201497
868.272110	2636.775519
868.583954	2627.829992
868.895755	2630.847122
869.207515	2635.164871
869.519233	2641.120994
869.830909	2637.211579
870.142542	2634.985910
870.454134	2637.297279
870.765684	2641.320119
871.077191	2640.526138
871.388657	2649.476706
871.700081	2644.165851
872.011463	2644.150727
872.322803	2647.223311
872.634101	2649.204484
872.945357	2655.319404
873.256571	2662.387101
873.567744	2658.820485
873.878874	2659.974909
874.189963	2659.311997
874.501010	2665.187462
874.812015	2668.058399
875.122979	2671.468740
875.433900	2662.006494
875.744780	2657.774446
876.055618	2664.519509
876.366415	2669.253153
876.677169	2669.832886
876.987882	2662.971875
877.298554	2664.252328
877.609183	2675.587363
877.919771	2680.376459
878.230317	2687.187058
878.540822	2699.293389
878.851285	2714.646223
879.161707	2737.064234
879.472087	2780.561830
879.782425	2826.703511
880.092722	2944.064093
880.402977	3140.530461
880.713191	3404.460071
881.023363	3707.642625
881.333494	3905.291144
881.643583	4077.252463
881.953631	4078.487546
882.263637	3898.132705
882.573602	3674.779343
882.883526	3538.806821
883.193408	3422.915735
883.503248	3316.071000
883.813048	3196.489790
884.122806	3078.345308
884.432522	2994.468070
884.742197	2927.032555
885.051831	2888.593757
885.361424	2849.605473
885.670975	2811.280101
885.980485	2780.634927
886.289954	2760.545928
886.599382	2746.957498
886.908768	2737.069275
887.218113	2716.551779
887.527417	2702.446630
887.836680	2693.433047
888.145901	2688.414579
888.455082	2680.759587
888.764221	2668.910354
889.073319	2660.216885
889.382376	2658.974240
889.691392	2661.799807
890.000366	2663.319715
890.309300	2659.869045
890.618193	2659.664878
890.927044	2664.791732
891.235855	2667.277021
891.544625	2663.047492
891.853353	2664.610250
892.162041	2670.878925
892.470687	2690.859538
892.779293	2703.018801
893.087858	2715.712427
893.396381	2738.074985
893.704864	2781.058383
894.013306	2855.743078
894.321707	2947.933179
894.630068	3003.393433
894.938387	3026.338244
895.246665	3016.248375
895.554903	2969.842033
895.863100	2924.017945
896.171256	2866.276569
896.479371	2802.425314
896.787446	2763.860487
897.095480	2739.920047
897.403473	2734.037021
897.711425	2720.327603
898.019336	2698.385981
898.327207	2685.825946
898.635038	2685.649506
898.942827	2681.760256
899.250576	2674.891683
899.558284	2661.053716
899.865952	2657.250166
900.173579	2654.545587
900.481165	2652.692962
900.788711	2645.332878
901.096216	2637.960190
901.403681	2633.634880
901.711105	2634.121352
902.018489	2630.784108
902.325832	2633.970117
902.633135	2639.951446
902.940397	2651.009217
903.247619	2691.739220
903.554800	2762.522061
903.861941	2896.641959
904.169041	3027.071732
904.476101	3091.384252
904.783121	3085.564240
905.090100	3025.314890
905.397039	2951.308231
905.703938	2872.575490
906.010796	2806.934626
906.317614	2751.381111
906.624391	2717.408775
906.931129	2686.662778
907.237826	2663.838954
907.544483	2645.315234
907.851099	2632.077164
908.157675	2621.876389
908.464211	2613.868516
908.770707	2601.555498
909.077163	2596.055599
909.383578	2593.454364
909.689954	2591.621904
909.996289	2590.096955
910.302584	2591.889085
910.608839	2589.164342
910.915054	2590.669126
911.221229	2591.135433
911.527363	2593.885382
911.833458	2589.189547
912.139513	2592.562079
912.445527	2594.999477
912.751502	2599.201279
913.057436	2603.508945
913.363331	2614.256685
913.669186	2621.878910
913.975000	2637.040180
914.280775	2652.942500
914.586510	2674.377486
914.892205	2712.271839
915.197859	2784.108282
915.503475	2867.249511
915.809050	2938.019750
916.114585	2954.910136
916.420081	2970.567959
916.725536	2979.422746
917.030952	2950.307562
917.336328	2903.797877
917.641665	2852.872141
917.946961	2800.625622
918.252218	2763.996598
918.557435	2738.528689
918.862612	2714.374000
919.167750	2694.254755
919.472848	2679.882426
919.777906	2660.990702
920.082925	2649.348157
920.387904	2634.852319
920.692843	2632.780405
920.997743	2627.383850
921.302603	2617.251130
921.607423	2612.136880
921.912204	2606.508432
922.216946	2605.553133
922.521647	2602.853595
922.826310	2596.388315
923.130932	2594.051740
923.435516	2589.454208
923.740059	2587.105030
924.044564	2585.885071
924.349028	2580.443146
924.653454	2571.658935
924.957840	2570.595252
925.262186	2570.257494
925.566493	2570.532237
925.870761	2565.571742
926.174989	2566.716084
926.479178	2564.951680
926.783328	2561.390105
927.087438	2564.815569
927.391509	2558.753581
927.695541	2560.255845
927.999533	2556.941286
928.303486	2557.110165
928.607400	2555.431461
928.911275	2556.336348
929.215110	2556.311142
929.518906	2553.498178
929.822663	2556.321224
930.126381	2554.004814
930.430060	2555.650751
930.733699	2556.142263
931.037299	2559.179559
931.340861	2558.259548
931.644383	2554.256872
931.947866	2558.715772
932.251309	2557.309291
932.554714	2555.373488
932.858080	2557.717624
933.161407	2555.532284
933.464694	2557.001780
933.767943	2556.172510
934.071153	2552.555482
934.374323	2551.333003
934.677455	2552.452139
934.980548	2554.231666
935.283602	2552.532797
935.586617	2552.084135
935.889593	2553.835936
936.192530	2552.958775
936.495428	2555.224773
936.798287	2553.064639
937.101108	2555.617983
937.403890	2560.933880
937.706632	2559.623180
938.009336	2563.131823
938.312002	2565.533933
938.614628	2574.315623
938.917216	2576.379976
939.219765	2575.170099
939.522275	2576.614389
939.824747	2580.498598
940.127179	2571.180025
940.429573	2569.952504
940.731929	2567.492421
941.034246	2567.578121
941.336524	2567.701629
941.638763	2568.248594
941.940964	2566.043090
942.243126	2565.039900
942.545250	2564.664334
942.847335	2562.688202
943.149381	2560.694425
943.451389	2558.052861
943.753359	2560.218036
944.055290	2556.144784
944.357182	2558.057902
944.659036	2555.625545
944.960851	2556.845504
945.262628	2557.883982
945.564367	2558.894733
945.866067	2557.137891
946.167729	2556.137222
946.469352	2557.614280
946.770937	2557.203426
947.072484	2554.677808
947.373992	2559.842470
947.675462	2556.452294
947.976893	2552.540359
948.278286	2552.507592
948.579641	2552.726882
948.880958	2555.139074
949.182236	2553.369629
949.483476	2555.650751
949.784678	2552.527756
950.085841	2550.780996
950.386967	2551.912735
950.688054	2550.629762
950.989103	2553.334341
951.290114	2553.505740
951.591087	2558.294836
951.892021	2556.386759
952.192917	2556.921122
952.493776	2560.260886
952.794596	2562.990671
953.095378	2560.528067
953.396122	2560.049158
953.696828	2560.288612
953.997496	2560.235680
954.298126	2557.392470
954.598718	2555.446584
954.899272	2552.487427
955.199788	2550.425595
955.500266	2552.847869
955.800706	2548.101623
956.101108	2543.035263
956.401472	2546.231355
956.701798	2544.706406
957.002087	2541.142310
957.302337	2543.743546
957.602550	2543.844369
957.902724	2540.933102
958.202861	2542.090047
958.502960	2540.229861
958.803022	2541.122146
959.103045	2539.955118
959.403031	2544.855120
959.702979	2541.399409
960.002889	2539.642567
960.302762	2536.441434
960.602596	2538.629295
960.902393	2538.609130
961.202153	2537.064017
961.501875	2537.353883
961.801559	2537.958822
962.101205	2537.517721
962.400814	2538.205838
962.700385	2536.759027
962.999918	2541.283463
963.299414	2536.509490
963.598873	2535.803728
963.898293	2536.252391
964.197677	2537.636188
964.497022	2538.924202
964.796331	2535.004705
965.095601	2537.363965
965.394835	2537.926054
965.694030	2532.451361
965.993189	2538.979655
966.292309	2534.182997
966.591393	2535.362627
966.890439	2537.076620
967.189447	2534.286341
967.488419	2535.629808
967.787353	2537.285827
968.086249	2534.495549
968.385108	2537.389171
968.683930	2536.784233
968.982714	2538.140303
969.281462	2535.841537
969.580172	2537.807587
969.878844	2537.300951
970.177480	2537.734490
970.476078	2537.731970
970.774639	2536.388502
971.073162	2535.135775
971.371649	2534.649304
971.670098	2531.732997
971.968510	2535.710467
972.266885	2534.195600
972.565223	2537.986548
972.863524	2537.341280
973.161788	2539.776157
973.460014	2535.788605
973.758204	2539.887063
974.056356	2536.643080
974.354471	2541.162475
974.652550	2539.660211
974.950591	2540.151723
975.248595	2537.099305
975.546563	2537.313554
975.844493	2537.323636
976.142386	2538.271373
976.440243	2536.146527
976.738062	2536.252391
977.035845	2536.738862
977.333590	2537.328677
977.631299	2536.207021
977.928971	2536.504449
978.226606	2535.259284
978.524204	2535.781043
978.821765	2533.532688
979.119290	2535.072761
979.416777	2535.082843
979.714228	2538.120138
980.011642	2535.896990
980.309020	2538.694830
980.606360	2536.806918
980.903664	2535.609644
981.200931	2533.492359
981.498162	2542.863864
981.795356	2539.077958
982.092513	2543.370500
982.389633	2543.327650
982.686717	2548.522559
982.983764	2549.913918
983.280775	2554.405586
983.577749	2551.191850
983.874686	2552.903322
984.171587	2546.927034
984.468451	2546.803526
984.765279	2544.293031
985.062070	2540.633154
985.358824	2537.442103
985.655543	2541.482588
985.952224	2537.114428
986.248869	2536.194418
986.545478	2530.414735
986.842050	2534.608975
987.138586	2531.145702
987.435086	2533.976310
987.731549	2526.661596
988.027975	2535.072761
988.324366	2531.390198
988.620719	2533.242822
988.917037	2533.250384
989.213318	2530.586134
989.509563	2531.511186
989.805772	2530.626463
990.101944	2532.693336
990.398080	2533.078985
990.694180	2532.053110
990.990244	2531.468336
991.286271	2530.886083
991.582262	2533.015970
991.878217	2532.932791
992.174136	2535.929757
992.470019	2531.425486
992.765865	2533.358769
993.061676	2532.108563
993.357450	2532.458923
993.653188	2534.745086
993.948890	2532.829448
994.244556	2532.335414
994.540186	2531.667462
994.835780	2534.747607
995.131337	2534.684592
995.426859	2536.902700
995.722345	2532.819365
996.017795	2536.892618
996.313208	2537.946219
996.608586	2537.066537
996.903928	2537.731970
997.199234	2535.473533
997.494504	2536.794315
997.789738	2537.686599
998.084936	2530.901206
998.380099	2535.783564
998.675225	2533.686444
998.970316	2531.322143
999.265371	2534.603934
999.560390	2531.667462
999.855373	2533.799870
1000.150320	2533.315919
1000.445232	2533.028573
1000.740108	2531.211237
1001.034948	2530.873480
1001.329752	2530.223171
1001.624521	2529.575383
1001.919254	2526.976668
1002.213951	2528.030269
1002.508613	2530.059333
1002.803239	2529.756864
1003.097829	2527.873993
1003.392384	2530.505476
1003.686903	2527.374919
1003.981386	2529.913140
1004.275834	2530.150074
1004.570246	2532.368182
1004.864623	2528.630166
1005.158964	2530.112266
1005.453270	2531.276772
1005.747540	2530.064375
1006.041775	2530.928933
1006.335974	2529.764426
1006.630138	2529.456916
1006.924266	2532.080836
1007.218359	2529.411545
1007.512416	2531.357431
1007.806438	2531.085208
1008.100425	2529.124199
1008.394376	2530.119827
1008.688292	2533.487318
1008.982172	2528.305012
1009.276017	2531.433048
1009.569827	2528.778880
1009.863602	2533.731814
1010.157341	2531.024714
1010.451045	2531.196114
1010.744714	2528.463808
1011.038347	2530.218130
1011.331945	2529.850126
1011.625508	2531.458254
1011.919036	2528.171421
1012.212528	2527.400125
1012.505986	2527.604292
1012.799408	2529.887934
1013.092795	2530.218130
1013.386147	2527.742923
1013.679464	2527.579086
1013.972745	2530.089580
1014.265992	2527.924405
1014.559204	2530.548325
1014.852380	2527.087573
1015.145521	2527.722759
1015.438628	2530.016484
1015.731699	2529.714014
1016.024736	2528.496576
1016.317737	2532.133768
1016.610703	2528.829292
1016.903635	2528.095804
1017.196531	2525.124044
1017.489393	2528.617563
1017.782219	2523.687315
1018.075011	2528.632687
1018.367768	2529.983716
1018.660490	2530.165198
1018.953177	2530.165198
1019.245829	2530.165198
