Dividing Wavelength (nm)	Counts (n)	Blue Motor Position (mm): 48.000000	Red Motor Position (mm): 0.000000	
326.493990	2278.646909
326.888308	2278.646909
327.282561	2278.646909
327.676750	2239.966135
328.070874	2236.157544
328.464933	2237.564026
328.858929	2239.716598
329.252859	2247.903432
329.646726	2254.255286
330.040528	2267.390012
330.434265	2280.053391
330.827938	2299.265228
331.221547	2316.453042
331.615091	2331.798314
332.008571	2351.269771
332.401986	2369.760723
332.795338	2390.323590
333.188625	2412.207239
333.581847	2431.532502
333.975006	2447.525563
334.368100	2469.197483
334.761129	2484.467138
335.154095	2505.639984
335.546996	2530.699560
335.939833	2570.123904
336.332606	2585.310380
336.725315	2600.973245
337.117960	2612.242744
337.510540	2623.111472
337.903056	2631.159674
338.295508	2641.095788
338.687896	2649.426295
339.080220	2656.962820
339.472480	2662.946669
339.864676	2668.139058
340.256807	2674.344718
340.648875	2677.452590
341.040879	2678.680111
341.432818	2684.290915
341.824694	2683.512057
342.216506	2684.432067
342.608253	2687.892819
342.999937	2685.795699
343.391557	2685.621779
343.783113	2687.030782
344.174605	2682.120698
344.566033	2682.274453
344.957397	2681.445183
345.348697	2682.019875
345.739934	2679.771520
346.131106	2681.372087
346.522215	2677.447548
346.913260	2678.317147
347.304241	2674.367403
347.695159	2671.476302
348.086012	2669.807680
348.476802	2670.158040
348.867528	2663.221412
349.258191	2664.010353
349.648789	2663.332318
350.039324	2658.044147
350.429796	2662.142605
350.820203	2661.653613
351.210548	2660.400887
351.600828	2659.642193
351.991045	2659.984992
352.381198	2657.776966
352.771288	2657.030875
353.161314	2656.068015
353.551276	2656.370484
353.941175	2655.856287
354.331010	2653.630617
354.720782	2656.347799
355.110490	2656.667912
355.500135	2653.620535
355.889717	2658.570948
356.279235	2655.440391
356.668689	2657.736637
357.058080	2657.666061
357.447408	2655.415186
357.836672	2656.919970
358.225873	2655.604229
358.615010	2658.780156
359.004084	2658.707059
359.393095	2656.919970
359.782043	2659.130516
360.170927	2663.780980
360.559748	2662.167811
360.948505	2660.607574
361.337199	2662.934067
361.725830	2662.883655
362.114398	2664.597647
362.502903	2664.390960
362.891344	2663.506237
363.279722	2665.341217
363.668037	2666.437668
364.056289	2664.879952
364.444478	2664.269972
364.832603	2667.917247
365.220665	2668.985972
365.608665	2669.132165
365.996601	2669.432114
366.384474	2670.284069
366.772284	2669.507731
367.160031	2672.106446
367.547715	2672.464368
367.935336	2674.614420
368.322893	2674.642146
368.710388	2671.254491
369.097820	2672.839934
369.485189	2673.490243
369.872495	2676.635923
370.259738	2677.956705
370.646918	2679.648012
371.034035	2681.445183
371.421090	2685.788137
371.808081	2690.249559
372.195010	2698.136444
372.581875	2704.253884
372.968678	2712.108002
373.355418	2719.629403
373.742096	2734.289079
374.128710	2745.717374
374.515262	2761.163470
374.901751	2778.086623
375.288177	2788.950310
375.674540	2811.615337
376.060841	2832.621826
376.447079	2858.419930
376.833254	2886.574775
377.219367	2903.598751
377.605417	2939.527055
377.991404	2958.469190
378.377329	2999.237001
378.763191	3020.034282
379.148991	3063.017680
379.534727	3105.471757
379.920402	3141.886532
380.306013	3163.142557
380.691563	3227.482803
381.077049	3249.033736
381.462474	3292.402783
381.847835	3348.740198
382.233134	3391.441291
382.618371	3418.209818
383.003545	3486.083913
383.388657	3511.077954
383.773706	3571.203796
384.158693	3599.288064
384.543618	3632.428610
384.928480	3689.572609
385.313280	3744.919437
385.698017	3770.488169
386.082692	3859.159545
386.467305	3859.358671
386.851856	3897.021131
387.236344	3975.877380
387.620770	4005.650435
388.005133	4054.194226
388.389435	4096.983539
388.773674	4110.433338
389.157851	4184.571067
389.541965	4251.409205
389.926018	4216.784040
390.310008	4314.902538
390.693936	4371.068553
391.077802	4404.637597
391.461606	4406.969131
391.845348	4466.235456
392.229027	4531.513357
392.612645	4528.816340
392.996200	4632.170076
393.379694	4689.495557
393.763125	4796.620076
394.146494	4822.929858
394.529801	4879.002612
394.913047	4966.217094
395.296230	4912.785905
395.679351	5015.287686
396.062410	5074.301953
396.445408	5039.727200
396.828343	5101.831694
397.211217	5161.266898
397.594028	5042.951018
397.976778	5166.487013
398.359466	5208.230287
398.742092	5233.400769
399.124656	5150.761134
399.507158	5270.385194
399.889598	5330.107743
400.271977	5456.035767
400.654294	5450.248522
401.036549	5496.372559
401.418742	5420.767854
401.800874	5624.135562
402.182944	5684.710067
402.564952	5786.949708
402.946898	5850.833730
403.328783	5681.619839
403.710606	5707.168407
404.092367	6027.931985
404.474067	6049.871087
404.855705	5946.787052
405.237282	5885.317743
405.618797	6141.294932
406.000250	6113.969358
406.381642	6326.433828
406.762972	6346.439647
407.144240	6399.533079
407.525447	6386.489094
407.906593	6397.251957
408.287677	6566.791002
408.668700	6480.970399
409.049661	6591.666576
409.430560	6621.830320
409.811399	6482.565924
410.192176	6743.619556
410.572891	6768.490088
410.953545	6960.212731
411.334138	6683.750813
411.714669	6856.579210
412.095139	6649.014742
412.475547	6894.909624
412.855894	6967.857640
413.236180	7155.542319
413.616405	6811.299567
413.996568	7027.779316
414.376670	7092.986641
414.756711	6982.819785
415.136691	7074.866213
415.516609	7277.649147
415.896466	7261.943432
416.276262	7470.216183
416.655997	7462.780481
417.035670	7630.592931
417.415283	7971.130435
417.794834	8042.641723
418.174324	7901.048314
418.553753	7823.938825
418.933121	8116.547559
419.312428	8222.381542
419.691674	7992.099114
420.070859	8477.496695
420.449983	8154.547776
420.829045	8525.503603
421.208047	8287.757746
421.586988	8606.739276
421.965867	8627.564283
422.344686	8722.262358
422.723444	8797.201630
423.102141	8122.508723
423.480777	8896.439264
423.859352	8424.257069
424.237866	9041.274135
424.616319	8897.255931
424.994712	9335.279268
425.373044	8869.280048
425.751314	9364.270944
426.129524	9244.026822
426.507673	9318.751846
426.885762	9474.828489
427.263789	9398.381912
427.641756	9333.802210
428.019662	9416.509901
428.397508	9694.398466
428.775292	9347.141103
429.153016	9736.590403
429.530679	9568.372140
429.908282	9575.107122
430.285824	9310.907810
430.663305	9991.594649
431.040726	9446.106515
431.418086	9419.600128
431.795385	9759.235266
432.172624	9866.677378
432.549802	9760.157797
432.926920	9834.328293
433.303977	9703.223005
433.680974	9905.151464
434.057910	10013.710191
434.434786	10091.530483
434.811601	9897.224249
435.188355	10462.022523
435.565050	10223.137366
435.941683	10135.938008
436.318257	10608.687333
436.694770	10791.396392
437.071222	10828.277474
437.447614	10656.840434
437.823946	10595.272822
438.200218	10668.336786
438.576429	10520.028560
438.952580	10775.105904
439.328670	10782.324836
439.704700	10593.521022
440.080670	10590.801319
440.456580	11091.851682
440.832429	10896.910263
441.208218	10490.988993
441.583947	10769.986612
441.959616	10966.132867
442.335224	10778.574217
442.710773	10879.951821
443.086261	11113.992430
443.461689	10386.090144
443.837057	11071.772766
444.212365	11300.245420
444.587612	10933.372929
444.962800	11146.641463
445.337927	10874.900585
445.712995	10574.490666
446.088002	11599.611821
446.462949	11307.802110
446.837837	11267.024217
447.212664	11181.707729
447.587431	11792.561984
447.962139	12555.026421
448.336786	14853.376680
448.711374	15330.486603
449.085901	13135.918579
449.460369	12794.234213
449.834776	12233.693193
450.209124	13184.989171
450.583412	13610.679325
450.957640	14522.472821
451.331808	13547.034757
451.705917	12635.243782
452.079965	11861.063703
452.453954	12783.506637
452.827883	12453.812655
453.201752	12733.150551
453.575562	12298.184674
453.949311	12702.228114
454.323001	12689.710929
454.696632	12946.401441
455.070202	13209.879868
455.443713	13385.339748
455.817164	13901.664807
456.190556	13846.121374
456.563888	14219.254979
456.937160	14357.677502
457.310373	13721.829205
457.683526	13849.574564
458.056619	13346.240559
458.429653	13579.986260
458.802628	12916.958582
459.175542	13348.234335
459.548398	14291.948417
459.921194	14660.539942
460.293930	14738.037601
460.666607	15567.360340
461.039224	16634.234852
461.411782	17362.416922
461.784280	17120.454141
462.156719	17249.157319
462.529099	16905.610246
462.901419	15875.359717
463.273680	15627.463497
463.645882	15540.803542
464.018024	15253.891312
464.390106	15487.082486
464.762130	16200.743512
465.134094	17010.955238
465.505999	19089.768288
465.877845	22361.391434
466.249631	25152.821992
466.621358	24747.906433
466.993026	23328.022602
467.364634	22731.321386
467.736184	21265.310998
468.107674	20466.784667
468.479105	20607.019484
468.850477	20056.149918
469.221790	19661.495628
469.593043	18976.339806
469.964238	18393.607627
470.335373	18034.715282
470.706449	18549.296102
471.077467	18153.719280
471.448425	20034.624192
471.819324	24191.504200
472.190164	25965.128317
472.560945	22266.595057
472.931667	19990.834209
473.302330	19391.075533
473.672934	19055.001970
474.043479	19261.028887
474.413965	19065.527900
474.784393	18639.169793
475.154761	19441.552606
475.525070	19329.933898
475.895321	19064.348270
476.265513	19683.124698
476.635645	20264.667165
477.005719	20013.330358
477.375734	20193.460867
477.745691	20682.838438
478.115588	21245.060683
478.485427	21811.353659
478.855207	22907.741606
479.224928	24716.086670
479.594591	26959.579092
479.964194	26819.198081
480.333739	27055.640799
480.703226	26648.895301
481.072653	26375.420267
481.442022	27018.275767
481.811333	27943.836654
482.180584	27810.833372
482.549777	26854.276950
482.918912	26539.867746
483.287988	26674.942943
483.657005	26281.508612
484.025964	26086.476452
484.394864	25944.918331
484.763706	25586.787200
485.132489	25073.872482
485.501213	25254.456695
485.869879	25161.303733
486.238487	25017.779563
486.607036	25136.317254
486.975527	24910.292080
487.343959	25181.864079
487.712333	25083.634676
488.080648	24739.165072
488.448905	25260.117910
488.817104	25039.786720
489.185244	25747.940286
489.553326	25678.221128
489.921350	26747.948933
490.289315	29126.138466
490.657222	30790.742589
491.025070	31327.002891
491.392861	31051.639945
491.760593	30186.013336
492.128267	29274.812175
492.495883	28203.057826
492.863440	27330.484507
493.230939	26479.535217
493.598380	26298.288092
493.965763	25936.953308
494.333088	25424.202427
494.700354	25403.533696
495.067563	25242.597380
495.434713	24984.754964
495.801805	25181.775859
496.168839	24944.319869
496.535815	24821.729090
496.902733	25039.466607
497.269593	24748.743264
497.636395	24907.660598
498.003139	24825.739328
498.369825	24565.104112
498.736453	24784.545539
499.103023	24650.549149
499.469535	24653.105014
499.835989	24879.714962
500.202385	24896.633074
500.568723	24438.543424
500.935003	24607.195226
501.301226	24314.258817
501.667390	25160.237529
502.033497	25347.924728
502.399546	25082.838174
502.765537	24609.521718
503.131470	24995.404401
503.497345	25154.480532
503.863163	24399.020778
504.228923	24925.846561
504.594625	25189.793814
504.960269	24763.965028
505.325856	25230.153292
505.691385	24625.592917
506.056856	25223.007456
506.422270	25224.824792
506.787625	24731.457148
507.152924	25177.362329
507.518164	25206.926176
507.883347	25033.107191
508.248472	24705.938827
508.613540	25461.582583
508.978550	25272.267091
509.343503	25289.976665
509.708398	25496.505176
510.073236	25655.997201
510.438016	25871.665325
510.802738	25525.958117
511.167403	25785.297756
511.532010	25540.640478
511.896561	26279.981142
512.261053	26247.538797
512.625488	26067.826703
512.989866	25968.541178
513.354186	25792.511648
513.718449	25939.206704
514.082655	26302.900748
514.446803	26002.936971
514.810894	26506.502870
515.174927	25995.367678
515.538904	26036.664811
515.902822	26537.165688
516.266684	26278.062983
516.630488	26188.292636
516.994235	26128.776774
517.357925	26488.556362
517.721558	26627.009132
518.085133	26766.588599
518.448651	26639.851471
518.812112	26424.274089
519.175516	26652.867730
519.538863	26773.081606
519.902152	26597.195748
520.265385	26833.600657
520.628560	26651.625086
520.991678	26619.069314
521.354739	26675.137028
521.717743	26783.322710
522.080690	26542.279938
522.443580	26867.507458
522.806413	26828.390625
523.169189	26961.787117
523.531908	27008.458120
523.894569	26634.429710
524.257174	26740.067089
524.619722	26866.073250
524.982213	26579.846617
525.344647	26587.791475
525.707025	26765.713959
526.069345	26699.579062
526.431608	26692.350047
526.793815	26854.755860
527.155964	26371.785595
527.518057	26538.718363
527.880093	26445.474661
528.242072	26667.192169
528.603995	26383.024847
528.965860	26167.606261
529.327669	26221.208850
529.689421	26202.861571
530.051117	26045.300307
530.412755	26228.180766
530.774337	25989.754353
531.135862	25900.644397
531.497331	26078.246768
531.858743	25692.147316
532.220098	26125.517668
532.581396	25835.986558
532.942638	25707.684152
533.303824	25833.203841
533.664953	25816.822612
534.026025	25490.372612
534.387040	25744.154379
534.747999	25784.997808
535.108902	25951.696163
535.469748	25454.814834
535.830537	25602.886125
536.191270	25737.873102
536.551947	25552.250255
536.912567	25182.584964
537.273131	25639.386599
537.633638	25293.830627
537.994089	25528.975248
538.354483	25000.861450
538.714821	25510.267526
539.075103	25561.094960
539.435328	25319.366592
539.795497	24938.076400
540.155609	25263.165288
540.515665	25583.379380
540.875665	24795.651201
541.235609	25147.385108
541.595496	25061.756068
541.955328	25443.326044
542.315102	25357.061819
542.674821	24856.230747
543.034483	24752.647638
543.394090	24916.656537
543.753640	24726.153854
544.113134	25357.570976
544.472571	24936.067500
544.831953	25246.572330
545.191278	24903.604990
545.550548	24793.816221
545.909761	24980.306146
546.268918	25233.528344
546.628019	25218.316663
546.987064	24880.566917
547.346053	24629.756910
547.704986	24706.654671
548.063863	24875.601380
548.422684	24918.113431
548.781449	24393.036928
549.140158	24820.005015
549.498811	24393.881322
549.857408	24160.276773
550.215949	24524.185066
550.574434	24244.075873
550.932864	24422.222688
551.291237	24633.542817
551.649555	24457.777947
552.007817	24518.806155
552.366022	24375.095462
552.724173	24378.384815
553.082267	24356.455795
553.440305	24843.819426
553.798288	24077.465739
554.156215	24560.829213
554.514086	24705.878333
554.871902	24108.042857
555.229661	24374.107396
555.587365	24216.931780
555.945014	24120.262614
556.302606	24323.474046
556.660143	24325.979500
557.017625	24546.716503
557.375050	24086.973355
557.732421	24455.433810
558.089735	24287.190342
558.446994	24328.772299
558.804197	24371.586819
559.161345	24247.445885
559.518437	24059.983017
559.875474	24211.290729
560.232455	24401.717795
560.589381	24203.048443
560.946251	24228.027360
561.303065	24517.533264
561.659825	24611.596153
562.016528	24213.130750
562.373177	23948.071922
562.729770	24308.496778
563.086307	24148.500638
563.442789	24344.961965
563.799216	24182.349465
564.155587	24168.577033
564.511904	24154.429034
564.868164	24119.675320
565.224370	24066.957453
565.580520	24024.417677
565.936615	24133.064624
566.292654	23842.600902
566.648638	24073.352157
567.004567	23900.070055
567.360441	23840.554193
567.716260	23544.267937
568.072023	23861.537996
568.427732	23651.064782
568.783385	23404.191916
569.138982	23662.808150
569.494525	23692.412326
569.850013	23451.109935
570.205445	23558.983066
570.560823	23389.280183
570.916145	23165.712572
571.271412	23349.631508
571.626625	23097.939299
571.981782	23201.489641
572.336884	23002.797603
572.691931	23148.502072
573.046923	22898.049988
573.401860	22770.493672
573.756743	22807.475577
574.111570	22702.579247
574.466342	22612.206482
574.821059	22688.622813
575.175722	22395.976270
575.530330	22349.360721
575.884882	22340.294206
576.239380	22270.806941
576.593823	22162.790138
576.948211	22139.494966
577.302544	21998.098162
577.656823	21851.587108
578.011047	21953.496553
578.365216	21834.026248
578.719330	21706.086805
579.073389	21588.249834
579.427394	21756.906677
579.781344	21497.113334
580.135239	21380.569419
580.489080	21323.127991
580.842866	21113.927668
581.196597	21337.386895
581.550273	21286.728340
581.903895	21159.129174
582.257463	21469.734827
582.610975	21015.811691
582.964434	21349.725119
583.317837	20997.701346
583.671186	21083.582443
584.024481	21075.871998
584.377721	20846.025629
584.730906	20940.443920
585.084037	20915.255795
585.437113	20851.591063
585.790135	21055.639327
586.143103	20499.965541
586.496016	20538.142199
586.848874	20760.026065
587.201679	20664.546612
587.554428	20382.587315
587.907124	20715.507636
588.259765	20453.481062
588.612352	20530.187259
588.964884	20106.395099
589.317362	20275.341808
589.669786	20328.873821
590.022155	20321.624642
590.374470	20578.458827
590.726731	20332.263997
591.078937	20139.686879
591.431090	20207.437466
591.783188	19976.532455
592.135232	19927.885321
592.487222	20042.286745
592.839157	20043.607528
593.191038	19915.042981
593.542866	19813.932558
593.894639	19506.185240
594.246358	19723.106090
594.598022	19611.605849
594.949633	19374.321258
595.301190	19370.719353
595.652692	19531.083498
596.004141	19739.462113
596.355535	19081.205888
596.706876	19103.200442
597.058162	18982.313573
597.409395	19241.620445
597.760573	19273.639333
598.111698	19043.883706
598.462768	19000.413836
598.813785	18978.363829
599.164748	18768.188043
599.515657	18833.062652
599.866511	18629.742835
600.217312	18984.524119
600.568060	18479.118199
600.918753	18793.348442
601.269392	18686.765847
601.619978	18497.067227
601.970510	18678.962140
602.320988	18632.553278
602.671412	18826.050407
603.021783	18763.391385
603.372100	18457.131207
603.722363	18632.754924
604.072572	18568.016427
604.422728	18719.119972
604.772830	18459.795456
605.122878	18422.599303
605.472872	18401.857475
605.822813	18384.883910
606.172701	18386.739055
606.522534	18538.954175
606.872314	18581.304908
607.222041	18422.599303
607.571714	18631.676117
607.921333	18462.298389
608.270899	18536.665491
608.620411	18688.842802
608.969870	18491.801742
609.319276	18479.219022
609.668627	18511.154732
610.017926	18644.339496
610.367171	18749.999560
610.716362	18810.939548
611.065500	18618.483418
611.414585	18771.001007
611.763616	18754.816382
612.112594	18695.839923
612.461518	18658.356424
612.810389	18857.328246
613.159207	18713.355413
613.507971	18630.320047
613.856682	18866.409884
614.205340	18785.786711
614.553945	18938.473179
614.902496	18692.611064
615.250994	18892.873422
615.599439	18844.115382
615.947830	18821.843564
616.296169	18906.570237
616.644454	18864.756386
616.992686	18849.229632
617.340864	19063.579494
617.688990	18811.778900
618.037063	18985.907916
618.385082	18846.230146
618.733048	19107.883674
619.080961	19004.393827
619.428821	19034.988590
619.776628	18905.617458
620.124382	18835.247992
620.472083	18897.168485
620.819731	18901.516480
621.167326	18595.558771
621.514868	18628.815262
621.862357	18426.854037
622.209793	18422.682482
622.557176	18252.732583
622.904506	18072.534018
623.251783	18022.298920
623.599007	17760.481554
623.946179	17708.716465
624.293297	17630.828118
624.640363	17348.367227
624.987376	17384.325777
625.334336	17193.354267
625.681243	17039.606636
626.028097	17059.793937
626.374899	16962.366077
626.721647	16830.164338
627.068343	16678.418045
627.414987	16605.162518
627.761577	16567.016107
628.108115	16584.922285
628.454600	16324.261864
628.801032	16426.173830
629.147412	16367.197371
629.493739	16375.238012
629.840014	16176.397260
630.186236	16272.383350
630.532405	16035.237391
630.878521	16240.561066
631.224585	16145.885676
631.570597	15968.109386
631.916556	15999.790517
632.262462	15965.818182
632.608316	15881.154523
632.954117	15828.918087
633.299866	15814.518031
633.645562	15736.760754
633.991206	15507.337842
634.336797	15387.232352
634.682336	15347.326578
635.027823	15207.731987
635.373257	15077.254322
635.718639	14993.155273
636.063968	14935.620584
636.409245	14679.197253
636.754470	14716.985742
637.099642	14572.559205
637.444762	14358.534498
637.789829	14392.257297
638.134845	14225.052306
638.479808	14248.665070
638.824719	14156.432120
639.169577	14025.891441
639.514383	14063.296802
639.859137	13898.070464
640.203839	13993.733920
640.548489	13837.884129
640.893086	13834.161237
641.237632	13707.729098
641.582125	13878.820818
641.926566	13681.996528
642.270955	13705.994941
642.615292	13647.452022
642.959576	13659.744875
643.303809	13680.385880
643.647990	13606.719498
643.992118	13684.633052
644.336195	13442.519035
644.680219	13678.422350
645.024192	13582.466507
645.368112	13831.436493
645.711981	13859.946738
646.055797	14052.168455
646.399562	14031.774467
646.743274	14290.809117
647.086935	14565.340273
647.430544	14526.137740
647.774101	14574.227827
648.117606	14711.667325
648.461059	14685.786041
648.804460	14665.850798
649.147810	14388.942738
649.491108	14311.964319
649.834354	14323.052337
650.177548	13997.877749
650.520690	13807.906907
650.863781	13737.169437
651.206820	13776.636630
651.549807	13607.359725
651.892742	13385.140622
652.235626	13326.569976
652.578458	13329.433352
652.921238	13036.925441
653.263967	13243.118716
653.606644	13079.427409
653.949269	13055.088718
654.291843	12843.700535
654.634365	13016.181093
654.976836	12852.852749
655.319255	12849.144981
655.661622	12815.245742
656.003938	12744.329310
656.346203	12661.992144
656.688416	12744.092376
657.030577	12693.837113
657.372687	12596.583173
657.714746	12583.660175
658.056753	12778.727623
658.398708	12580.340575
658.740612	12589.868356
659.082465	12707.236500
659.424266	12671.091427
659.766016	12700.892208
660.107715	12616.110082
660.449362	12694.232844
660.790958	12645.502530
661.132503	12578.813106
661.473996	12661.639263
661.815438	12668.139831
662.156829	12704.579812
662.498168	12663.171774
662.839456	12671.898012
663.180693	12680.674660
663.521879	12782.160649
663.863013	12745.357705
664.204097	12722.594375
664.545129	12858.329963
664.886110	12829.338287
665.227040	12919.552256
665.567918	12915.504209
665.908746	12935.363835
666.249522	12930.073144
666.590248	12986.266886
666.930922	13101.096809
667.271545	13070.877612
667.612118	13148.345023
667.952639	13047.194271
668.293109	13086.938728
668.633528	13028.718442
668.973896	12998.516890
669.314213	13060.134913
669.654480	12809.345071
669.994695	12907.178744
670.334859	12930.153802
670.674973	12857.835930
671.015035	12888.347514
671.355047	12840.761542
671.695008	12812.624342
672.034918	12825.297803
672.374777	12862.473792
672.714585	12779.723251
673.054342	12830.338956
673.394049	12772.877364
673.733705	12871.799926
674.073310	12763.954522
674.412864	12778.689815
674.752368	12623.528140
675.091820	12676.944207
675.431223	12656.721618
675.770574	12512.597550
676.109875	12419.976430
676.449125	12385.167263
676.788324	12341.430212
677.127473	12165.743480
677.466571	12169.927638
677.805619	12041.330324
678.144616	11989.693785
678.483562	11968.064714
678.822458	11829.745535
679.161303	11804.373408
679.500098	11792.599793
679.838842	11745.344017
680.177535	11785.882456
680.516179	11858.901048
680.854771	11789.857405
681.193314	12001.268274
681.531805	12186.447499
681.870247	12622.847585
682.208638	13031.710367
682.546978	13324.692147
682.885268	13343.432636
683.223508	13055.131568
683.561697	12899.012075
683.899836	12811.842963
684.237925	12603.776900
684.575963	12514.480421
684.913951	12427.132348
685.251889	12391.035166
685.589776	12488.447902
685.927614	12402.110581
686.265401	12376.453629
686.603137	12443.753032
686.940824	12590.788367
687.278460	12732.706930
687.616046	12747.787542
687.953582	12897.676169
688.291068	12850.480887
688.628504	13085.154160
688.965889	13084.221546
689.303224	13029.860264
689.640510	12916.993870
689.977745	12591.151330
690.314930	12376.710728
690.652065	12288.170422
690.989150	11985.146664
691.326185	11769.813778
691.663170	11556.648587
692.000105	11327.046715
692.336990	11199.432426
692.673825	10935.512898
693.010610	10830.450211
693.347345	10623.372214
693.684030	10435.337176
694.020665	10373.182269
694.357251	10174.649028
694.693786	10091.870761
695.030272	9950.322723
695.366707	9829.798817
695.703093	9772.934601
696.039429	9756.520604
696.375716	9658.591150
696.711952	9537.127068
697.048139	9599.034958
697.384276	9544.431700
697.720363	9572.155526
698.056400	9494.599895
698.392388	9443.318757
698.728326	9407.985310
699.064214	9354.097896
699.400053	9387.614007
699.735842	9209.739414
700.071581	9170.993106
700.407270	9092.217515
700.742910	9013.898149
701.078501	8914.738653
701.414042	8784.714692
701.749533	8733.118483
702.084974	8588.112213
702.420366	8706.342394
702.755709	8581.349505
703.091002	8447.660626
703.426246	8480.778486
703.761440	8439.204090
704.096584	8393.997543
704.431679	8328.470105
704.766725	8312.139287
705.101721	8264.122296
705.436668	8321.898961
705.771565	8207.863019
706.106413	8298.460116
706.441212	8325.006832
706.775961	8288.957541
707.110661	8343.182712
707.445311	8465.846588
707.779913	8353.570010
708.114465	8483.689752
708.448967	8519.038323
708.783421	8684.907408
709.117825	8858.408800
709.452180	8887.710507
709.786485	8974.824166
710.120742	9270.303837
710.454949	9275.763406
710.789107	9385.824397
711.123216	9608.358572
711.457275	9782.263257
711.791286	9925.789948
712.125247	9936.056258
712.459159	9916.887270
712.793023	10129.213108
713.126837	9713.779182
713.460602	9876.495025
713.794318	9705.211741
714.127985	9732.146626
714.461602	9382.507318
714.795171	9344.892749
715.128691	9089.931352
715.462162	8845.909259
715.795584	8793.166187
716.128957	8617.179506
716.462281	8452.205226
716.795556	8492.486566
717.128782	8288.145915
717.461960	8033.106380
717.795088	8096.249353
718.128167	8010.217021
718.461198	7852.151642
718.794180	7801.805639
719.127113	7797.220709
719.459997	7609.997297
719.792833	7396.577528
720.125619	7467.655277
720.458357	7319.435271
720.791046	7317.877555
721.123686	7299.031201
721.456278	7139.652602
721.788821	7156.119531
722.121315	7063.511014
722.453761	7139.667725
722.786158	7063.440438
723.118506	7077.187664
723.450805	7039.888167
723.783056	7099.441838
724.115259	7024.500045
724.447412	7016.774477
724.779518	7072.131387
725.111574	7076.018117
725.443582	7150.246587
725.775542	7123.404963
726.107453	7316.181207
726.439315	7223.628142
726.771129	7314.237842
727.102895	7483.340827
727.434612	7588.070798
727.766281	7638.522666
728.097901	7703.087244
728.429473	7717.429326
728.760996	7712.587298
729.092471	7675.144128
729.423897	7620.487938
729.755276	7604.141997
730.086606	7520.295005
730.417887	7623.394163
730.749120	7858.523661
731.080305	8039.634674
731.411442	8138.637895
731.742530	8115.536807
732.073570	8222.447078
732.404562	8311.846900
732.735506	8179.138525
733.066401	8306.687279
733.397249	8226.394301
733.728048	7977.376424
734.058798	7644.980384
734.389501	7410.904487
734.720156	7244.352326
735.050762	7028.797629
735.381320	6943.143384
735.711831	6871.715275
736.042293	6766.322392
736.372707	6784.909126
736.703073	6655.442213
737.033391	6699.184305
737.363661	6705.395007
737.693883	6740.589822
738.024056	6821.986813
738.354182	6855.334045
738.684260	6890.241515
739.014290	7019.710949
739.344272	7128.609954
739.674207	7153.422513
740.004093	7233.201294
740.333931	7242.330823
740.663722	7249.920280
740.993464	7324.801580
741.323159	7297.377703
741.652806	7057.522123
741.982405	7092.323729
742.311956	7130.447455
742.641460	6948.723941
742.970915	6761.235868
743.300323	6750.475525
743.629683	6713.186110
743.958996	6569.482978
744.288260	6479.132898
744.617477	6426.478047
744.946647	6413.781901
745.275768	6262.060814
745.604842	6217.033228
745.933869	6196.233427
746.262847	6153.983517
746.591778	6143.210571
746.920662	6100.267502
747.249498	6102.500733
747.578286	6152.151057
747.907027	6226.470268
748.235720	6284.758609
748.564365	6254.138641
748.892963	6305.467669
749.221514	6435.531959
749.550017	6244.797382
749.878473	6137.801413
750.206881	6204.465631
750.535242	6157.895452
750.863555	6082.494914
751.191821	6090.215441
751.520039	6084.090439
751.848210	5992.613661
752.176334	6027.354773
752.504411	6068.399848
752.832440	5984.096632
753.160421	5921.971972
753.488356	5974.624304
753.816243	5999.099106
754.144082	5851.592424
754.471875	5825.806922
754.799620	5867.492223
755.127318	5877.776177
755.454969	5842.510785
755.782572	5808.629190
756.110129	5847.372978
756.437638	5820.841385
756.765100	5771.057470
757.092515	5776.625425
757.419882	5833.840000
757.747203	5803.030989
758.074477	5865.528693
758.401703	5843.970199
758.728882	5809.695394
759.056014	5886.935953
759.383099	5986.483618
759.710138	6005.438357
760.037129	5988.021170
760.364073	5991.993599
760.690970	6072.342030
761.017820	6045.608791
761.344623	6012.090159
761.671379	6124.177694
761.998088	6253.498414
762.324751	6519.830133
762.651366	7173.090575
762.977935	8551.952016
763.304456	10209.072547
763.630931	11055.928420
763.957359	10574.410007
764.283740	9603.796328
764.610074	8731.427176
764.936362	7724.602888
765.262602	7139.632437
765.588796	6617.822603
765.914943	6291.627181
766.241044	6116.268124
766.567097	5894.202777
766.893104	5644.206916
767.219064	5469.198219
767.544978	5406.899640
767.870845	5322.432587
768.196665	5218.156319
768.522438	5144.631091
768.848165	5110.028611
769.173846	5042.638466
769.499479	4992.340353
769.825066	4948.230257
770.150607	4887.070979
770.476101	4869.225294
770.801548	4855.614179
771.126949	4765.743009
771.452303	4716.685020
771.777611	4688.252912
772.102872	4704.084656
772.428087	4669.623328
772.753256	4625.193119
773.078378	4571.517433
773.403453	4498.705528
773.728482	4489.331502
774.053465	4443.086477
774.378401	4432.699180
774.703291	4418.974638
775.028135	4348.012836
775.352932	4299.527019
775.677683	4290.407571
776.002388	4304.963903
776.327046	4313.261642
776.651658	4243.897886
776.976224	4181.170809
777.300743	4183.368752
777.625216	4206.036300
777.949643	4195.475083
778.274024	4157.684073
778.598359	4123.658805
778.922647	4146.908607
779.246889	4131.759939
779.571086	4125.944968
779.895236	4109.175570
780.219339	4100.161987
780.543397	4100.421606
780.867409	4151.054956
781.191374	4157.507633
781.515294	4091.387859
781.839167	4090.813167
782.162995	4117.107826
782.486776	4104.482256
782.810511	4113.488277
783.134201	4098.924384
783.457844	4049.490829
783.781441	3998.597860
784.104993	4006.333511
784.428498	4023.014689
784.751958	4016.360366
785.075372	3991.754494
785.398739	3962.775421
785.722061	3971.305053
786.045337	4018.283566
786.368568	4044.016136
786.691752	3954.636478
787.014891	4019.957229
787.337983	4153.472189
787.661030	4317.108043
787.984031	4477.318433
788.306987	4636.835664
788.629897	4726.384200
788.952760	4685.465154
789.275579	4614.435297
789.598351	4536.612484
789.921078	4384.543558
790.243759	4189.823949
790.566395	4183.313299
790.888984	4172.842823
791.211529	4063.230494
791.534027	4005.841998
791.856480	3987.560254
792.178888	3928.188065
792.501249	3886.873288
792.823566	3896.320411
793.145836	3919.227414
793.468062	3864.334289
793.790241	3825.824915
794.112375	3854.693083
794.434464	3922.065583
794.756507	3944.392854
795.078505	3916.555602
795.400457	3968.025783
795.722364	4110.713122
796.044226	4212.536868
796.366042	4287.312303
796.687812	4253.733177
797.009538	4257.627468
797.331218	4222.430132
797.652852	4196.095145
797.974442	4173.175539
798.295986	4170.581865
798.617484	4084.960387
798.938938	4004.385105
799.260346	4049.659708
799.581709	4038.869118
799.903026	3961.575627
800.224299	3925.226387
800.545526	3920.485182
800.866708	3878.018502
801.187845	3828.481603
801.508936	3857.566540
801.829983	3844.051207
802.150984	3772.035804
802.471940	3768.428858
802.792851	3770.407511
803.113717	3774.190897
803.434538	3771.050258
803.755314	3710.442986
804.076045	3697.391439
804.396731	3715.700909
804.717372	3735.759661
805.037967	3723.272723
805.358518	3709.129765
805.679024	3741.143613
805.999485	3756.922424
806.319901	3761.593053
806.640272	3773.621247
806.960598	3782.675159
807.280879	3759.871499
807.601115	3778.967390
807.921306	3795.242755
808.241453	3832.254907
808.561554	3799.391625
808.881611	3733.811255
809.201623	3778.092750
809.521590	3788.245634
809.841513	3756.630038
810.161390	3790.723361
810.481223	3761.063732
810.801011	3712.981207
811.120755	3710.352245
811.440453	3741.350300
811.760107	3735.908375
812.079716	3694.505378
812.399281	3669.977644
812.718801	3694.565872
813.038276	3666.532015
813.357707	3660.986746
813.677093	3678.275383
813.996434	3620.463431
814.315731	3639.382881
814.634983	3643.435969
814.954191	3661.798372
815.273354	3682.504911
815.592473	3672.594003
815.911547	3690.810212
816.230577	3737.148498
816.549562	3786.214049
816.868502	3824.060511
817.187399	3844.320909
817.506250	3845.049355
817.825058	3825.774504
818.143821	3922.829318
818.462539	4021.401520
818.781213	4062.736461
819.099843	4131.414620
819.418429	4407.022063
819.736970	4645.277076
820.055466	4901.992794
820.373919	5272.908291
820.692327	5689.448751
821.010691	6201.897163
821.329011	7714.041671
821.647286	10645.323918
821.965517	15422.888433
822.283704	19409.274098
822.601847	21323.440543
822.919945	19384.622856
823.237999	16702.711366
823.556010	14175.898535
823.873976	12008.570386
824.191897	9898.156863
824.509775	8572.744255
824.827609	7450.341434
825.145398	6933.333298
825.463144	6815.582027
825.780845	6918.356030
826.098502	7161.253946
826.416116	8130.405691
826.733685	9506.179425
827.051210	10582.659856
827.368692	10505.767136
827.686129	9154.581629
828.003522	7654.273751
828.320872	6628.068748
828.638177	5909.716928
828.955439	5338.274413
829.272656	4835.885623
829.589830	4569.014500
829.906960	4392.203591
830.224046	4197.110937
830.541088	4074.066454
830.858086	4027.516439
831.175041	3948.231692
831.491952	3942.673820
831.808819	3949.681024
832.125642	4030.689846
832.442421	4192.851162
832.759157	4492.341071
833.075849	5085.440383
833.392497	5985.432538
833.709101	6774.965450
834.025662	7058.643780
834.342179	6628.522452
834.658653	5952.919616
834.975083	5290.151558
835.291469	4704.951734
835.607811	4312.238288
835.924110	4161.590967
836.240366	3958.992035
836.556578	3756.972836
836.872746	3652.494922
837.188871	3606.179322
837.504952	3538.937891
837.820990	3452.978656
838.136984	3413.715629
838.452935	3438.571038
838.768842	3433.146757
839.084706	3455.121147
839.400526	3631.183445
839.716303	4003.069364
840.032037	4558.710382
840.347727	4782.731697
840.663373	4458.678766
840.978977	4067.828026
841.294537	3758.684308
841.610054	3535.472098
841.925527	3432.935028
842.240957	3358.394007
842.556344	3305.184628
842.871687	3239.962180
843.186987	3192.880323
843.502244	3157.599808
843.817458	3120.015486
844.132629	3091.273347
844.447756	3101.716097
844.762840	3082.330340
845.077881	3047.138045
845.392879	3034.686395
845.707833	3028.901671
846.022745	3031.313863
846.337613	3028.100128
846.652438	3015.668642
846.967221	3015.320803
847.281960	2999.005108
847.596656	2993.724500
847.911309	2997.132320
848.225919	2990.515805
848.540485	2989.479848
848.855009	2985.935917
849.169490	2973.632981
849.483928	2967.276086
849.798323	2965.541929
850.112675	2960.021866
850.426984	2975.465440
850.741251	2972.544092
851.055474	2958.902729
851.369654	2953.811164
851.683792	2960.208388
851.997887	2973.126345
852.311938	2970.376396
852.625947	2956.609004
852.939914	2961.294757
853.253837	2965.541929
853.567718	2951.635906
853.881555	2955.031123
854.195350	2967.497897
854.509103	2958.935497
854.822812	2953.667491
855.136479	2951.772017
855.450103	2954.247224
855.763685	2947.456790
856.077224	2945.233641
856.390720	2959.411886
856.704173	2965.970427
857.017584	2957.014817
857.330953	2957.309725
857.644278	2967.288689
857.957561	2977.265132
858.270802	2978.820328
858.584000	2976.544247
858.897155	2960.399952
859.210268	2962.030765
859.523339	2959.706793
859.836367	2959.989098
860.149352	2953.939713
860.462295	2952.692028
860.775195	2955.610856
861.088054	2955.583130
861.400869	2942.072837
861.713642	2938.228958
862.026373	2951.572892
862.339062	2954.660598
862.651708	2956.712348
862.964312	2961.859366
863.276873	2956.145218
863.589392	2969.141313
863.901869	2980.178919
864.214303	3003.801766
864.526696	3015.666122
864.839045	3012.396933
865.151353	3011.393744
865.463619	3013.183353
865.775842	3014.839373
866.088023	3035.240922
866.400162	3037.481715
866.712258	3004.242867
867.024313	2998.231291
867.336325	3010.710667
867.648296	3034.449461
867.960224	3023.437060
868.272110	3007.685975
868.583954	3014.030267
868.895755	3024.442771
869.207515	3013.747963
869.519233	3024.276413
869.830909	3032.629604
870.142542	3042.207797
870.454134	3039.243598
870.765684	3038.681510
871.077191	3042.106974
871.388657	3053.668860
871.700081	3068.021025
872.011463	3079.550144
872.322803	3077.142993
872.634101	3074.254412
872.945357	3097.090839
873.256571	3118.941720
873.567744	3112.262191
873.878874	3105.675924
874.189963	3128.991260
874.501010	3128.736682
874.812015	3121.477420
875.122979	3119.390383
875.433900	3117.260495
875.744780	3126.611836
876.055618	3132.363792
876.366415	3126.158132
876.677169	3136.278248
876.987882	3132.081487
877.298554	3134.539050
877.609183	3154.242400
877.919771	3181.184847
878.230317	3208.822972
878.540822	3260.991353
878.851285	3298.767239
879.161707	3348.876309
879.472087	3464.379226
879.782425	3722.632496
880.092722	4186.559802
880.402977	4733.711517
880.713191	5403.370832
881.023363	6636.903370
881.333494	7954.204761
881.643583	8468.162998
881.953631	8120.938404
882.263637	7425.178514
882.573602	6796.944881
882.883526	6211.268668
883.193408	5643.843953
883.503248	5193.222773
883.813048	4874.231160
884.122806	4538.507958
884.432522	4213.620716
884.742197	3970.324549
885.051831	3781.624078
885.361424	3653.296466
885.670975	3580.139241
885.980485	3484.334633
886.289954	3404.530647
886.599382	3357.307638
886.908768	3323.617607
887.218113	3281.226545
887.527417	3222.141701
887.836680	3171.500790
888.145901	3167.107424
888.455082	3150.325423
888.764221	3096.962289
889.073319	3068.356262
889.382376	3070.229050
889.691392	3074.478743
890.000366	3068.668813
890.309300	3060.711352
890.618193	3073.800708
890.927044	3083.550299
891.235855	3083.058787
891.544625	3075.166861
891.853353	3086.708582
892.162041	3107.412601
892.470687	3147.499857
892.779293	3200.701674
893.087858	3249.169847
893.396381	3326.458298
893.704864	3461.609112
894.013306	3718.176116
894.321707	4031.181358
894.630068	4223.554310
894.938387	4205.650652
895.246665	4169.855939
895.554903	4037.742420
895.863100	3828.978157
896.171256	3655.867454
896.479371	3509.928571
896.787446	3384.348388
897.095480	3277.596914
897.403473	3217.186247
897.711425	3184.108716
898.019336	3171.178156
898.327207	3139.040800
898.635038	3101.133844
898.942827	3090.943152
899.250576	3076.759865
899.558284	3044.214176
899.865952	3025.135929
900.173579	3001.182887
900.481165	2996.802124
900.788711	2980.015082
901.096216	2956.737554
901.403681	2945.067283
901.711105	2956.122533
902.018489	2950.045422
902.325832	2951.580453
902.633135	2965.073102
902.940397	2996.807165
903.247619	3093.579675
903.554800	3305.529947
903.861941	3681.723532
904.169041	4132.216164
904.476101	4420.890277
904.783121	4337.680992
905.090100	4071.984457
905.397039	3786.629944
905.703938	3531.988660
906.010796	3348.125177
906.317614	3232.019842
906.624391	3137.992240
906.931129	3060.918039
907.237826	3002.057527
907.544483	2949.697583
907.851099	2923.528953
908.157675	2901.428534
908.464211	2881.274001
908.770707	2862.803214
909.077163	2850.959023
909.383578	2834.038390
909.689954	2829.781135
909.996289	2826.695949
910.302584	2827.419355
910.608839	2826.343068
910.915054	2818.501554
911.221229	2812.847900
911.527363	2815.502067
911.833458	2824.578665
912.139513	2829.955055
912.445527	2831.217864
912.751502	2837.705829
913.057436	2848.970287
913.363331	2865.417052
913.669186	2889.954868
913.975000	2928.537339
914.280775	2991.826505
914.586510	3060.013152
914.892205	3147.588077
915.197859	3284.195784
915.503475	3500.783918
915.809050	3729.322107
916.114585	3869.362840
916.420081	3873.756206
916.725536	3805.511586
917.030952	3683.697144
917.336328	3548.906773
917.641665	3412.611617
917.946961	3311.531441
918.252218	3235.601582
918.557435	3153.914725
918.862612	3091.570775
919.167750	3043.014381
919.472848	3000.041065
919.777906	2971.074595
920.082925	2946.816563
920.387904	2916.173909
920.692843	2897.173801
920.997743	2884.792727
921.302603	2870.916951
921.607423	2859.571834
921.912204	2845.416274
922.216946	2836.458144
922.521647	2827.144612
922.826310	2817.339568
923.130932	2812.618527
923.435516	2798.629325
923.740059	2793.530198
924.044564	2784.332613
924.349028	2778.731891
924.653454	2773.630243
924.957840	2764.732607
925.262186	2762.103645
925.566493	2758.408479
925.870761	2753.216091
926.174989	2747.547313
926.479178	2743.781571
926.783328	2737.233112
927.087438	2740.792167
927.391509	2737.374265
927.695541	2732.398646
927.999533	2730.427555
928.303486	2727.591906
928.607400	2728.262379
928.911275	2725.396483
929.215110	2724.358006
929.518906	2722.402038
929.822663	2723.473283
930.126381	2723.541339
930.430060	2722.530587
930.733699	2725.812378
931.037299	2726.911350
931.340861	2728.516957
931.644383	2728.554766
931.947866	2726.661813
932.251309	2724.952862
932.554714	2725.275496
932.858080	2720.597305
933.161407	2719.216029
933.464694	2720.158724
933.767943	2715.044474
934.071153	2716.592108
934.374323	2719.521018
934.677455	2720.357850
934.980548	2716.387941
935.283602	2715.299052
935.586617	2713.728733
935.889593	2715.500698
936.192530	2716.579505
936.495428	2717.280226
936.798287	2717.333158
937.101108	2721.464383
937.403890	2725.535115
937.706632	2729.908316
938.009336	2736.839902
938.312002	2743.915162
938.614628	2756.475197
938.917216	2763.111876
939.219765	2761.929725
939.522275	2762.396032
939.824747	2758.166504
940.127179	2753.982346
940.429573	2752.149887
940.731929	2749.447828
941.034246	2745.989597
941.336524	2744.177302
941.638763	2742.959863
941.940964	2740.409039
942.243126	2736.544995
942.545250	2736.187073
942.847335	2731.614747
943.149381	2730.210785
943.451389	2726.787842
943.753359	2722.908674
944.055290	2720.955227
944.357182	2719.074876
944.659036	2720.771225
944.960851	2719.394990
945.262628	2717.801985
945.564367	2718.495144
945.866067	2720.032696
946.167729	2719.619321
946.469352	2717.827191
946.770937	2718.631255
947.072484	2716.105637
947.373992	2717.219732
947.675462	2717.093703
947.976893	2711.220759
948.278286	2710.003320
948.579641	2710.038608
948.880958	2705.148689
949.182236	2710.338557
949.483476	2708.901828
949.784678	2709.148844
950.085841	2709.365614
950.386967	2710.300748
950.688054	2709.307641
950.989103	2711.142621
951.290114	2713.547251
951.591087	2715.011706
951.892021	2718.197716
952.192917	2717.164279
952.493776	2720.244424
952.794596	2721.464383
953.095378	2719.271481
953.396122	2722.555793
953.696828	2715.916593
953.997496	2718.409444
954.298126	2714.676470
954.598718	2713.829556
954.899272	2710.056252
955.199788	2706.235057
955.500266	2704.405119
955.800706	2702.484439
956.101108	2699.389171
956.401472	2698.597709
956.701798	2698.252390
957.002087	2694.549663
957.302337	2695.537729
957.602550	2695.159642
957.902724	2690.015145
958.202861	2687.426512
958.502960	2687.814681
958.803022	2688.313756
959.103045	2687.328210
959.403031	2685.997345
959.702979	2685.876358
960.002889	2685.238652
960.302762	2684.759742
960.602596	2684.011131
960.902393	2683.769155
961.202153	2686.657737
961.501875	2684.076666
961.801559	2681.568692
962.101205	2680.857889
962.400814	2685.079855
962.700385	2680.416788
962.999918	2679.393434
963.299414	2678.347394
963.598873	2678.501150
963.898293	2675.451252
964.197677	2680.419309
964.497022	2681.069617
964.796331	2678.924607
965.095601	2679.887467
965.394835	2679.436284
965.694030	2682.098013
965.993189	2682.652540
966.292309	2679.955522
966.591393	2680.384021
966.890439	2679.043074
967.189447	2679.322858
967.488419	2680.051304
967.787353	2678.670028
968.086249	2679.650533
968.385108	2679.688341
968.683930	2681.336799
968.982714	2679.428722
969.281462	2682.435770
969.580172	2679.521983
969.878844	2679.194308
970.177480	2680.673887
970.476078	2678.445697
970.774639	2679.232117
971.073162	2679.642971
971.371649	2679.337981
971.670098	2680.505008
971.968510	2678.385203
972.266885	2678.735563
972.565223	2679.763959
972.863524	2679.302693
973.161788	2679.837055
973.460014	2681.258661
973.758204	2680.348732
974.056356	2681.883764
974.354471	2681.546007
974.652550	2679.317817
974.950591	2682.196315
975.248595	2681.576253
975.546563	2678.677590
975.844493	2678.440656
976.142386	2678.813701
976.440243	2679.824452
976.738062	2679.123732
977.035845	2681.170441
977.333590	2680.217662
977.631299	2679.859741
977.928971	2676.323371
978.226606	2675.080727
978.524204	2676.688855
978.821765	2672.313133
979.119290	2675.461334
979.416777	2677.775223
979.714228	2677.989472
980.011642	2677.258505
980.309020	2677.747497
980.606360	2676.983762
980.903664	2677.316478
981.200931	2678.957374
981.498162	2680.981397
981.795356	2679.075841
982.092513	2683.406192
982.389633	2685.276460
982.686717	2687.539938
982.983764	2691.656041
983.280775	2694.574869
983.577749	2696.082174
983.874686	2696.901361
984.171587	2691.109075
984.468451	2688.464990
984.765279	2685.462983
985.062070	2684.716892
985.358824	2684.351409
985.655543	2683.449042
985.952224	2680.131963
986.248869	2680.865451
986.545478	2679.738753
986.842050	2676.038546
987.138586	2677.873526
987.435086	2675.166426
987.731549	2673.555778
988.027975	2675.330264
988.324366	2674.180881
988.620719	2675.892352
988.917037	2674.080058
989.213318	2674.609379
989.509563	2671.768689
989.805772	2673.805315
990.101944	2675.398319
990.398080	2673.578463
990.694180	2675.725994
990.990244	2676.585511
991.286271	2674.649708
991.582262	2675.547033
991.878217	2675.562157
992.174136	2674.178360
992.470019	2676.214986
992.765865	2670.931857
993.061676	2671.226765
993.357450	2672.290448
993.653188	2669.096877
993.948890	2674.710202
994.244556	2675.237002
994.540186	2672.373627
994.835780	2673.875891
995.131337	2674.884122
995.426859	2674.619461
995.722345	2678.788495
996.017795	2679.897549
996.313208	2678.554082
996.608586	2678.423012
996.903928	2681.656912
997.199234	2679.484175
997.494504	2678.170954
997.789738	2677.097188
998.084936	2679.310255
998.380099	2677.190450
998.675225	2674.304389
998.970316	2677.611386
999.265371	2676.179698
999.560390	2675.398319
999.855373	2673.573422
1000.150320	2676.217507
1000.445232	2674.468227
1000.740108	2674.682476
1001.034948	2673.424708
1001.329752	2674.944616
1001.624521	2672.910510
1001.919254	2674.082578
1002.213951	2672.192146
1002.508613	2673.734739
1002.803239	2673.512928
1003.097829	2673.543175
1003.392384	2672.824810
1003.686903	2673.719615
1003.981386	2672.723987
1004.275834	2671.536796
1004.570246	2674.223731
1004.864623	2670.306754
1005.158964	2671.856909
1005.453270	2672.608041
1005.747540	2672.353462
1006.041775	2670.606703
1006.335974	2671.236847
1006.630138	2669.474964
1006.924266	2672.368586
1007.218359	2669.255673
1007.512416	2670.208452
1007.806438	2668.597803
1008.100425	2670.352124
1008.394376	2667.755930
1008.688292	2670.778102
1008.982172	2673.200376
1009.276017	2671.720798
1009.569827	2670.742814
1009.863602	2672.701302
1010.157341	2670.389933
1010.451045	2673.230623
1010.744714	2671.335149
1011.038347	2670.667197
1011.331945	2672.166940
1011.625508	2670.084943
1011.919036	2673.578463
1012.212528	2671.574604
1012.505986	2670.889007
1012.799408	2670.389933
1013.092795	2671.882115
1013.386147	2670.931857
1013.679464	2673.313802
1013.972745	2673.291117
1014.265992	2670.843637
1014.559204	2670.407577
1014.852380	2670.281548
1015.145521	2671.325067
1015.438628	2672.562670
1015.731699	2672.131652
1016.024736	2671.680468
1016.317737	2669.956394
1016.610703	2671.846827
1016.903635	2672.620644
1017.196531	2668.933040
1017.489393	2669.487567
1017.782219	2671.594769
1018.075011	2671.549398
1018.367768	2670.831034
1018.660490	2669.858091
1018.953177	2669.858091
1019.245829	2669.858091
