Dividing Wavelength (nm)	Counts (n)	Blue Motor Position (mm): 34.000000	Red Motor Position (mm): 0.000000	
326.493990	2129.234671
326.888308	2129.234671
327.282561	2129.234671
327.676750	2099.149064
328.070874	2096.588158
328.464933	2099.869949
328.858929	2105.266505
329.252859	2114.945520
329.646726	2125.930194
330.040528	2140.478964
330.434265	2156.149391
330.827938	2175.416681
331.221547	2193.272448
331.615091	2210.805581
332.008571	2231.186966
332.401986	2249.569533
332.795338	2269.076278
333.188625	2287.216870
333.581847	2309.430715
333.975006	2324.372695
334.368100	2345.941272
334.761129	2363.020701
335.154095	2378.116436
335.546996	2398.838099
335.939833	2423.191913
336.332606	2439.263112
336.725315	2450.867848
337.117960	2462.500310
337.510540	2466.961731
337.903056	2479.609986
338.295508	2485.982005
338.687896	2496.495331
339.080220	2506.111332
339.472480	2511.908659
339.864676	2516.803619
340.256807	2520.707993
340.648875	2522.527850
341.040879	2527.591689
341.432818	2526.394415
341.824694	2529.028418
342.216506	2529.774508
342.608253	2531.244005
342.999937	2530.507996
343.391557	2529.265352
343.783113	2526.263345
344.174605	2528.073119
344.566033	2525.194620
344.957397	2523.977181
345.348697	2522.094310
345.739934	2523.609177
346.131106	2517.761439
346.522215	2516.596932
346.913260	2513.670542
347.304241	2511.943947
347.695159	2509.501508
348.086012	2512.737929
348.476802	2509.141066
348.867528	2507.719460
349.258191	2503.636126
349.648789	2506.960767
350.039324	2500.971876
350.429796	2502.769047
350.820203	2498.975579
351.210548	2498.496669
351.600828	2497.737976
351.991045	2496.460043
352.381198	2497.528768
352.771288	2498.587410
353.161314	2496.623881
353.551276	2496.704539
353.941175	2495.950887
354.331010	2496.996926
354.720782	2496.823006
355.110490	2495.257728
355.500135	2494.925012
355.889717	2494.776298
356.279235	2497.289313
356.668689	2498.602533
357.058080	2499.494818
357.447408	2496.144971
357.836672	2494.037769
358.225873	2495.272851
358.615010	2493.286637
359.004084	2499.262925
359.393095	2497.498521
359.782043	2500.099756
360.170927	2500.356855
360.559748	2499.756958
360.948505	2501.617143
361.337199	2500.177894
361.725830	2502.849706
362.114398	2503.454644
362.502903	2503.144613
362.891344	2503.845333
363.279722	2501.574294
363.668037	2507.895901
364.056289	2502.726197
364.444478	2505.992865
364.832603	2507.545540
365.220665	2507.361538
365.608665	2506.320540
365.996601	2507.565705
366.384474	2507.694254
366.772284	2510.955881
367.160031	2507.515293
367.547715	2507.946312
367.935336	2505.818945
368.322893	2507.411950
368.710388	2508.054697
369.097820	2515.813033
369.485189	2509.173833
369.872495	2509.882115
370.259738	2511.545696
370.646918	2511.006292
371.034035	2511.107116
371.421090	2511.596108
371.808081	2513.237003
372.195010	2511.152486
372.581875	2513.282373
372.968678	2511.218021
373.355418	2515.150121
373.742096	2512.377486
374.128710	2513.090810
374.515262	2513.045439
374.901751	2515.944103
375.288177	2514.187261
375.674540	2513.670542
376.060841	2517.637930
376.447079	2515.530728
376.833254	2516.163393
377.219367	2513.925121
377.605417	2516.491068
377.991404	2516.455780
378.377329	2512.231293
378.763191	2512.962260
379.148991	2516.909484
379.534727	2516.559123
379.920402	2517.829494
380.306013	2517.458969
380.691563	2518.873013
381.077049	2517.010307
381.462474	2520.135822
381.847835	2517.945441
382.233134	2521.501975
382.618371	2519.762777
383.003545	2520.534073
383.388657	2519.520801
383.773706	2519.228414
384.158693	2522.099352
384.543618	2521.005421
384.928480	2520.377797
385.313280	2521.990967
385.698017	2521.597757
386.082692	2524.007428
386.467305	2521.630524
386.851856	2526.429703
387.236344	2522.966430
387.620770	2522.905936
388.005133	2522.686646
388.389435	2522.333765
388.773674	2522.235463
389.157851	2521.610360
389.541965	2523.518436
389.926018	2523.541122
390.310008	2524.927439
390.693936	2523.460463
391.077802	2524.745957
391.461606	2526.039013
391.845348	2527.190917
392.229027	2526.026410
392.612645	2527.087573
392.996200	2525.655886
393.379694	2528.037831
393.763125	2527.102697
394.146494	2528.700743
394.529801	2530.346679
394.913047	2530.303829
395.296230	2530.571011
395.679351	2529.310722
396.062410	2531.475898
396.445408	2531.307019
396.828343	2532.491690
397.211217	2529.610671
397.594028	2528.579755
397.976778	2527.931967
398.359466	2529.837523
398.742092	2526.359127
399.124656	2535.284489
399.507158	2533.159643
399.889598	2534.372041
400.271977	2532.297606
400.654294	2536.960673
401.036549	2534.500590
401.418742	2537.673996
401.800874	2538.493184
402.182944	2537.943698
402.564952	2537.086702
402.946898	2539.743390
403.328783	2537.121990
403.710606	2538.175591
404.092367	2539.428318
404.474067	2541.928730
404.855705	2539.143493
405.237282	2539.849254
405.618797	2543.367980
406.000250	2548.711603
406.381642	2546.254040
406.762972	2548.802343
407.144240	2551.552293
407.525447	2556.714434
407.906593	2560.432285
408.287677	2564.704663
408.668700	2569.156002
409.049661	2576.468196
409.430560	2582.152097
409.811399	2590.994281
410.192176	2599.355034
410.572891	2607.476333
410.953545	2625.143057
411.334138	2629.889303
411.714669	2643.722229
412.095139	2653.597850
412.475547	2674.445541
412.855894	2687.734023
413.236180	2701.912268
413.616405	2716.156048
413.996568	2739.002557
414.376670	2754.894795
414.756711	2764.541043
415.136691	2789.703962
415.516609	2819.761842
415.896466	2846.699248
416.276262	2875.907693
416.655997	2895.689181
417.035670	2948.404527
417.415283	2995.786332
417.794834	3012.754855
418.174324	3034.588093
418.553753	3046.964125
418.933121	3118.485496
419.312428	3167.775377
419.691674	3190.889068
420.070859	3255.889705
420.449983	3273.732869
420.829045	3340.654187
421.208047	3358.943493
421.586988	3422.031013
421.965867	3466.967858
422.344686	3561.539904
422.723444	3551.296280
423.102141	3526.014893
423.480777	3681.234541
423.859352	3639.498828
424.237866	3793.369967
424.616319	3838.611802
424.994712	3935.938839
425.373044	3927.250410
425.751314	4049.760531
426.129524	4001.531812
426.507673	4151.657373
426.885762	4237.009149
427.263789	4257.846759
427.641756	4233.742482
428.019662	4356.534907
428.397508	4408.889810
428.775292	4428.872944
429.153016	4537.958472
429.530679	4542.682033
429.908282	4639.593175
430.285824	4598.301084
430.663305	4832.659285
431.040726	4691.575033
431.418086	4732.494078
431.795385	4849.244681
432.172624	4904.163011
432.549802	4940.711376
432.926920	4988.854396
433.303977	5026.610117
433.680974	5096.301549
434.057910	5147.557480
434.434786	5190.631619
434.811601	5194.687228
435.188355	5421.458492
435.565050	5348.374364
435.941683	5362.678638
436.318257	5579.352472
436.694770	5596.815029
437.071222	5651.297299
437.447614	5624.816118
437.823946	5566.159772
438.200218	5734.988015
438.576429	5632.718127
438.952580	5741.239045
439.328670	5803.232635
439.704700	5735.751749
440.080670	5739.988839
440.456580	6016.014698
440.832429	5918.670017
441.208218	5788.494822
441.583947	5947.515499
441.959616	5968.388397
442.335224	5906.621659
442.710773	6050.995264
443.086261	6087.851140
443.461689	5893.769237
443.837057	6047.620212
444.212365	6205.751125
444.587612	6104.262616
444.962800	6265.133397
445.337927	6252.555718
445.712995	5870.668150
446.088002	6444.459842
446.462949	6285.171984
446.837837	6219.959617
447.212664	6392.006637
447.587431	6539.044491
447.962139	7079.461225
448.336786	8000.452306
448.711374	7743.141732
449.085901	6823.988151
449.460369	6747.861687
449.834776	6685.079157
450.209124	7079.622542
450.583412	7228.936477
450.957640	7370.857561
451.331808	7142.253837
451.705917	6696.837648
452.079965	6625.671679
452.453954	6836.149934
452.827883	6710.209308
453.201752	6804.627599
453.575562	6608.693073
453.949311	6813.394166
454.323001	6695.607606
454.696632	6774.403362
455.070202	6912.132726
455.443713	7071.725574
455.817164	7169.821387
456.190556	7253.237360
456.563888	7325.598082
456.937160	7373.007613
457.310373	7024.119438
457.683526	7050.436782
458.056619	6944.617921
458.429653	6932.410767
458.802628	6863.508276
459.175542	6976.830894
459.548398	7327.579255
459.921194	7490.650500
460.293930	7492.835840
460.666607	8022.003239
461.039224	8326.435999
461.411782	8452.069115
461.784280	8473.383113
462.156719	8361.850105
462.529099	8245.558247
462.901419	7832.221441
463.273680	7725.112045
463.645882	7737.422543
464.018024	7604.933458
464.390106	7769.053262
464.762130	8158.719331
465.134094	8626.692163
465.505999	9649.007916
465.877845	10863.041271
466.249631	11515.716939
466.621358	11130.161931
466.993026	10502.268575
467.364634	10250.067210
467.736184	9886.698320
468.107674	9552.701713
468.479105	9582.525179
468.850477	9346.077420
469.221790	9113.823901
469.593043	8787.631000
469.964238	8660.112493
470.335373	8667.941405
470.706449	8728.062205
471.077467	8707.033032
471.448425	10019.958702
471.819324	11083.170815
472.190164	11104.847777
472.560945	9850.679276
472.931667	9069.562570
473.302330	8935.462836
473.672934	8585.238755
474.043479	8938.026263
474.413965	8879.674907
474.784393	8764.945807
475.154761	8918.564889
475.525070	9009.875308
475.895321	8836.787291
476.265513	9010.124845
476.635645	9177.700361
477.005719	9180.488119
477.375734	9293.200757
477.745691	9528.330255
478.115588	9657.535028
478.485427	9901.836905
478.855207	10439.435634
479.224928	11257.831672
479.594591	11884.651262
479.964194	11687.020387
480.333739	11632.739763
480.703226	11548.928060
481.072653	11639.252934
481.442022	11868.978315
481.811333	12062.624158
482.180584	11865.260464
482.549777	11580.571383
482.918912	11402.011193
483.287988	11424.124214
483.657005	11438.370515
484.025964	11122.106167
484.394864	11252.235992
484.763706	11218.205683
485.132489	10981.896555
485.501213	10937.403331
485.869879	11011.440237
486.238487	10856.631444
486.607036	10970.652261
486.975527	10752.788716
487.343959	10940.964906
487.712333	10997.718216
488.080648	10923.414129
488.448905	10964.935593
488.817104	10904.199771
489.185244	11165.064359
489.553326	11327.996972
489.921350	11862.986904
490.289315	12920.076536
490.657222	13265.960184
491.025070	13170.558868
491.392861	13039.902242
491.760593	12662.748317
492.128267	12315.029690
492.495883	11987.974752
492.863440	11654.762044
493.230939	11313.276803
493.598380	11251.681465
493.965763	11117.939653
494.333088	11020.196721
494.700354	10942.835174
495.067563	10999.041519
495.434713	10831.231590
495.801805	10960.345622
496.168839	10882.739579
496.535815	10820.478809
496.902733	10823.654736
497.269593	10753.010526
497.636395	10853.279076
498.003139	10843.239618
498.369825	10711.499145
498.736453	10859.520025
499.103023	10785.798191
499.469535	10823.052318
499.835989	10815.601493
500.202385	10772.970975
500.568723	10627.977308
500.935003	10844.401604
501.301226	10658.113326
501.667390	10913.616647
502.033497	11009.627942
502.399546	10871.124761
502.765537	10776.555235
503.131470	10853.773109
503.497345	11021.588080
503.863163	10630.329006
504.228923	10941.272417
504.594625	11011.467963
504.960269	10761.411609
505.325856	10983.514765
505.691385	10766.132650
506.056856	10924.276167
506.422270	10950.144847
506.787625	10839.252066
507.152924	10962.364604
507.518164	10934.915522
507.883347	10853.669766
508.248472	10774.188414
508.613540	11008.687767
508.978550	10889.895497
509.343503	10864.689728
509.708398	10981.132820
510.073236	11093.701786
510.438016	11102.448187
510.802738	11050.156299
511.167403	11107.247366
511.532010	11004.238949
511.896561	11237.278888
512.261053	11303.401183
512.625488	11171.138950
512.989866	11156.968266
513.354186	11145.262707
513.718449	11052.757534
514.082655	11241.415155
514.446803	11131.333999
514.810894	11256.420149
515.174927	11126.101281
515.538904	11150.694550
515.902822	11298.702827
516.266684	11185.065137
516.630488	11125.211518
516.994235	11182.700836
517.357925	11247.935887
517.721558	11335.961995
518.085133	11347.604540
518.448651	11359.491581
518.812112	11242.196534
519.175516	11257.526683
519.538863	11377.110414
519.902152	11292.451797
520.265385	11460.239041
520.628560	11367.708662
520.991678	11342.278561
521.354739	11410.371947
521.717743	11341.774446
522.080690	11318.809469
522.443580	11451.001126
522.806413	11415.092987
523.169189	11444.036772
523.531908	11496.646254
523.894569	11314.978192
524.257174	11321.602269
524.619722	11443.656165
524.982213	11391.147507
525.344647	11439.232552
525.707025	11390.391333
526.069345	11484.764254
526.431608	11403.694938
526.793815	11512.039417
527.155964	11303.312962
527.518057	11352.940602
527.880093	11303.411265
528.242072	11368.454752
528.603995	11271.359609
528.965860	11202.502488
529.327669	11253.342525
529.689421	11197.897394
530.051117	11176.764877
530.412755	11275.626946
530.774337	11165.313897
531.135862	11144.539302
531.497331	11168.063846
531.858743	11019.314519
532.220098	11185.150837
532.581396	11056.437576
532.942638	11040.638600
533.303824	11005.922694
533.664953	11018.485250
534.026025	10928.503174
534.387040	11027.410612
534.747999	11023.788543
535.108902	11084.615106
535.469748	10838.677374
535.830537	10954.039139
536.191270	10934.025758
536.551947	10953.625764
536.912567	10946.729466
537.273131	10877.486697
537.633638	10857.518687
537.994089	10850.234219
538.354483	10794.600046
538.714821	10940.163363
539.075103	10950.633839
539.435328	10913.281410
539.795497	10749.572459
540.155609	10900.542414
540.515665	10980.172480
540.875665	10721.415095
541.235609	10792.213059
541.595496	10782.692840
541.955328	10948.302306
542.315102	10827.256640
542.674821	10776.162025
543.034483	10772.197158
543.394090	10774.284196
543.753640	10703.655110
544.113134	10927.305900
544.472571	10787.116453
544.831953	10926.116188
545.191278	10735.028731
545.550548	10766.288926
545.909761	10901.598536
546.268918	10874.625842
546.628019	10958.152720
546.987064	10820.927472
547.346053	10740.135419
547.704986	10844.560401
548.063863	10830.049439
548.422684	10823.805970
548.781449	10732.855993
549.140158	10845.125010
549.498811	10715.620288
549.857408	10575.201468
550.215949	10800.336879
550.574434	10658.307410
550.932864	10756.660322
551.291237	10818.890845
551.649555	10758.825497
552.007817	10778.382654
552.366022	10736.783052
552.724173	10729.904398
553.082267	10710.216171
553.440305	10851.761689
553.798288	10650.498663
554.156215	10805.206633
554.514086	10778.649835
554.871902	10629.335899
555.229661	10671.787456
555.587365	10645.258383
555.945014	10538.892558
556.302606	10667.487351
556.660143	10552.740607
557.017625	10713.382016
557.375050	10607.084246
557.732421	10744.496018
558.089735	10659.572740
558.446994	10664.258492
558.804197	10691.760507
559.161345	10697.436846
559.518437	10544.735255
559.875474	10631.556527
560.232455	10665.027268
560.589381	10614.351069
560.946251	10608.029462
561.303065	10713.631553
561.659825	10654.531586
562.016528	10586.135731
562.373177	10469.916970
562.729770	10578.231202
563.086307	10490.711730
563.442789	10590.892060
563.799216	10469.422937
564.155587	10516.754331
564.511904	10468.916301
564.868164	10459.990938
565.224370	10474.998453
565.580520	10397.243697
565.936615	10400.162525
566.292654	10272.976734
566.648638	10406.554708
567.004567	10361.547286
567.360441	10344.672024
567.716260	10252.287838
568.072023	10350.466830
568.427732	10308.184152
568.783385	10210.479029
569.138982	10279.177353
569.494525	10289.547006
569.850013	10174.364203
570.205445	10255.355380
570.560823	10153.259412
570.916145	10071.060878
571.271412	10141.952104
571.626625	10083.759545
571.981782	10059.128467
572.336884	10031.054281
572.691931	10036.539057
573.046923	9978.711981
573.401860	9945.432804
573.756743	9877.702381
574.111570	9917.343494
574.466342	9902.761957
574.821059	9934.959807
575.175722	9821.352363
575.530330	9833.897275
575.884882	9826.111213
576.239380	9750.887115
576.593823	9734.102593
576.948211	9745.737576
577.302544	9623.320717
577.656823	9641.766299
578.011047	9645.776537
578.365216	9621.394996
578.719330	9544.033449
579.073389	9554.259430
579.427394	9500.792952
579.781344	9481.402154
580.135239	9431.149412
580.489080	9435.774670
580.842866	9338.984517
581.196597	9345.732101
581.550273	9390.298422
581.903895	9349.926341
582.257463	9420.482330
582.610975	9298.982961
582.964434	9321.075817
583.317837	9245.685362
583.671186	9225.472855
584.024481	9229.369667
584.377721	9137.842478
584.730906	9118.118964
585.084037	9153.565837
585.437113	9084.202081
585.790135	9103.779402
586.143103	9003.657045
586.496016	8981.435639
586.848874	9036.132158
587.201679	9022.725209
587.554428	8908.258250
587.907124	8953.018655
588.259765	8931.802959
588.612352	8931.649203
588.964884	8804.773443
589.317362	8822.432605
589.669786	8819.808685
590.022155	8866.073874
590.374470	8886.283860
590.726731	8820.461514
591.078937	8681.905401
591.431090	8787.371380
591.783188	8666.406373
592.135232	8652.356678
592.487222	8655.240217
592.839157	8706.566725
593.191038	8636.744224
593.542866	8587.290505
593.894639	8482.184968
594.246358	8537.922485
594.598022	8555.195999
594.949633	8450.382849
595.301190	8422.049043
595.652692	8448.792365
596.004141	8560.786638
596.355535	8344.788320
596.706876	8320.147160
597.058162	8254.942355
597.409395	8331.189807
597.760573	8390.340186
598.111698	8308.189543
598.462768	8290.674054
598.813785	8257.843539
599.164748	8227.334476
599.515657	8218.530101
599.866511	8127.880072
600.217312	8248.409020
600.568060	8112.141590
600.918753	8215.023978
601.269392	8181.530552
601.619978	8087.064370
601.970510	8158.769743
602.320988	8159.745206
602.671412	8209.375366
603.021783	8149.148701
603.372100	8117.346582
603.722363	8124.472253
604.072572	8098.628777
604.422728	8115.783824
604.772830	8033.035804
605.122878	8045.971405
605.472872	8037.363635
605.822813	8069.034684
606.172701	8015.056529
606.522534	8092.579393
606.872314	8088.072601
607.222041	8058.995226
607.571714	8116.925645
607.921333	8074.751352
608.270899	8082.280315
608.620411	8174.021754
608.969870	8075.094151
609.319276	8072.497956
609.668627	8087.089576
610.017926	8118.180892
610.367171	8170.019077
610.716362	8141.239130
611.065500	8135.744272
611.414585	8160.413159
611.763616	8150.076273
612.112594	8126.949980
612.461518	8149.655337
612.810389	8209.541724
613.159207	8145.440932
613.507971	8096.657686
613.856682	8212.601704
614.205340	8166.961618
614.553945	8243.856858
614.902496	8149.015110
615.250994	8197.639559
615.599439	8179.143566
615.947830	8194.007408
616.296169	8166.916247
616.644454	8179.624996
616.992686	8179.188936
617.340864	8236.456444
617.688990	8144.049573
618.037063	8231.110300
618.385082	8176.128956
618.733048	8265.647245
619.080961	8203.905714
619.428821	8225.257521
619.776628	8224.796255
620.124382	8171.312133
620.472083	8161.118920
620.819731	8188.603291
621.167326	8081.609842
621.514868	8090.779701
621.862357	7974.228224
622.209793	7995.201944
622.557176	7928.295751
622.904506	7899.833396
623.251783	7833.514497
623.599007	7788.809544
623.946179	7791.312477
624.293297	7749.203719
624.640363	7659.904720
624.987376	7652.852146
625.334336	7600.073785
625.681243	7543.161679
626.028097	7537.079527
626.374899	7510.195053
626.721647	7502.524938
627.068343	7438.406502
627.414987	7405.850731
627.761577	7362.673248
628.108115	7398.992241
628.454600	7292.354193
628.801032	7346.614652
629.147412	7298.068341
629.493739	7295.023484
629.840014	7230.196766
630.186236	7288.245652
630.532405	7170.907756
630.878521	7223.532361
631.224585	7175.091913
631.570597	7099.577949
631.916556	7135.609596
632.262462	7128.521734
632.608316	7090.241732
632.954117	7068.037970
633.299866	7052.266720
633.645562	7051.447533
633.991206	6968.654143
634.336797	6913.887047
634.682336	6870.031529
635.027823	6833.594069
635.373257	6828.762123
635.718639	6757.139930
636.063968	6777.024762
636.409245	6670.371590
636.754470	6665.927813
637.099642	6622.954497
637.444762	6566.448204
637.789829	6576.313742
638.134845	6520.533374
638.479808	6502.493605
638.824719	6507.630541
639.169577	6441.498164
639.514383	6458.665814
639.859137	6384.278548
640.203839	6395.202728
640.548489	6374.110540
640.893086	6355.516244
641.237632	6321.836296
641.582125	6349.169432
641.926566	6317.609288
642.270955	6333.322565
642.615292	6326.736297
642.959576	6342.925963
643.303809	6329.733263
643.647990	6339.041754
643.992118	6325.965001
644.336195	6272.342247
644.680219	6301.822915
645.024192	6288.562160
645.368112	6384.018928
645.711981	6408.460963
646.055797	6484.216902
646.399562	6440.207629
646.743274	6566.163378
647.086935	6622.785618
647.430544	6615.450740
647.774101	6638.077959
648.117606	6647.401573
648.461059	6633.924048
648.804460	6593.327636
649.147810	6506.040057
649.491108	6472.773483
649.834354	6446.660306
650.177548	6369.487802
650.520690	6283.057220
650.863781	6260.160299
651.206820	6278.137053
651.549807	6202.426484
651.892742	6148.667620
652.235626	6150.898330
652.578458	6131.588191
652.921238	6042.049737
653.263967	6075.238173
653.606644	6022.275811
653.949269	6023.745307
654.291843	5966.180371
654.634365	6009.864490
654.976836	5970.629189
655.319255	5968.234641
655.661622	5941.559376
656.003938	5945.433503
656.346203	5902.802985
656.688416	5936.359426
657.030577	5884.543926
657.372687	5857.588876
657.714746	5846.057237
658.056753	5884.985027
658.398708	5823.069575
658.740612	5820.314585
659.082465	5866.403334
659.424266	5860.424525
659.766016	5856.696592
660.107715	5833.351008
660.449362	5850.246436
660.790958	5844.474314
661.132503	5831.208518
661.473996	5866.824270
661.815438	5853.785326
662.156829	5847.809038
662.498168	5841.812585
662.839456	5817.201672
663.180693	5852.857753
663.521879	5853.626529
663.863013	5841.752091
664.204097	5861.210945
664.545129	5902.417337
664.886110	5899.803498
665.227040	5929.526142
665.567918	5898.570936
665.908746	5925.868784
666.249522	5928.797695
666.590248	5922.876860
666.930922	5940.430157
667.271545	5955.750224
667.612118	5959.760462
667.952639	5932.676863
668.293109	5955.097394
668.633528	5910.929325
668.973896	5917.359317
669.314213	5906.049488
669.654480	5891.838475
669.994695	5878.280292
670.334859	5869.622110
670.674973	5863.499629
671.015035	5867.759404
671.355047	5864.102047
671.695008	5854.473443
672.034918	5823.548485
672.374777	5832.410833
672.714585	5823.432538
673.054342	5826.268187
673.394049	5817.927598
673.733705	5846.032031
674.073310	5841.061453
674.412864	5799.683663
674.752368	5791.365759
675.091820	5790.932219
675.431223	5730.723198
675.770574	5728.074072
676.109875	5681.957597
676.449125	5686.555129
676.788324	5653.076826
677.127473	5593.790337
677.466571	5584.847330
677.805619	5577.033541
678.144616	5563.611469
678.483562	5541.039703
678.822458	5511.463253
679.161303	5507.019476
679.500098	5497.605121
679.838842	5478.531916
680.177535	5482.554756
680.516179	5502.628631
680.854771	5512.658007
681.193314	5590.921920
681.531805	5702.313776
681.870247	5848.706363
682.208638	5955.044462
682.546978	5961.870185
682.885268	5937.624755
683.223508	5859.958218
683.561697	5802.065608
683.899836	5774.361947
684.237925	5730.299742
684.575963	5694.212642
684.913951	5648.817051
685.251889	5717.346497
685.589776	5684.452968
685.927614	5650.654552
686.265401	5718.004367
686.603137	5704.363005
686.940824	5783.378050
687.278460	5807.890661
687.616046	5814.613040
687.953582	5884.808586
688.291068	5865.385021
688.628504	5928.807777
688.965889	5892.801336
689.303224	5838.276216
689.640510	5789.437517
689.977745	5712.113779
690.314930	5614.970744
690.652065	5558.260284
690.989150	5467.096058
691.326185	5390.591507
691.663170	5336.434392
692.000105	5264.000572
692.336990	5180.914795
692.673825	5155.509901
693.010610	5094.141414
693.347345	5023.608110
693.684030	5003.781252
694.020665	4965.639882
694.357251	4874.367271
694.693786	4887.749014
695.030272	4852.327347
695.366707	4818.024815
695.703093	4781.892345
696.039429	4805.099297
696.375716	4784.128097
696.711952	4761.195888
697.048139	4751.572325
697.384276	4728.004931
697.720363	4743.032611
698.056400	4751.584928
698.392388	4700.742371
698.728326	4683.698230
699.064214	4660.198891
699.400053	4648.112725
699.735842	4619.940237
700.071581	4594.323613
700.407270	4569.596754
700.742910	4551.635122
701.078501	4498.917256
701.414042	4500.038913
701.749533	4468.340137
702.084974	4397.015372
702.420366	4456.367397
702.755709	4398.656268
703.091002	4345.451930
703.426246	4393.363056
703.761440	4347.188608
704.096584	4306.569511
704.431679	4330.976257
704.766725	4315.091581
705.101721	4305.599088
705.436668	4331.966844
705.771565	4276.919964
706.106413	4308.477587
706.441212	4342.928833
706.775961	4348.585007
707.110661	4331.205629
707.445311	4358.458107
707.779913	4377.823700
708.114465	4397.027975
708.448967	4414.455244
708.783421	4475.652331
709.117825	4516.964587
709.452180	4522.318292
709.786485	4569.735385
710.120742	4650.948374
710.454949	4638.358092
710.789107	4705.952403
711.123216	4781.930154
711.457275	4772.646869
711.791286	4845.962890
712.125247	4861.744222
712.459159	4763.419037
712.793023	4838.219677
713.126837	4798.371877
713.460602	4791.273932
713.794318	4711.419535
714.127985	4721.494281
714.461602	4635.010766
714.795171	4605.066312
715.128691	4536.584758
715.462162	4483.017457
715.795584	4433.467956
716.128957	4415.682765
716.462281	4362.259137
716.795556	4337.376002
717.128782	4297.543325
717.461960	4231.821802
717.795088	4240.968976
718.128167	4201.196792
718.461198	4142.777381
718.794180	4139.747648
719.127113	4118.665542
719.459997	4094.704938
719.792833	4051.945871
720.125619	4040.535219
720.458357	4009.380888
720.791046	4013.683513
721.123686	3984.795181
721.456278	3946.442083
721.788821	3959.501192
722.121315	3938.824899
722.453761	3907.448758
722.786158	3919.010644
723.118506	3944.730611
723.450805	3894.462745
723.783056	3919.096344
724.115259	3935.439764
724.447412	3937.715845
724.779518	3931.416924
725.111574	3933.990433
725.443582	3966.899085
725.775542	3952.609934
726.107453	4001.168849
726.439315	4003.641535
726.771129	4015.077392
727.102895	4053.193557
727.434612	4105.140126
727.766281	4112.848051
728.097901	4112.795118
728.429473	4119.373824
728.760996	4125.715596
729.092471	4118.789050
729.423897	4101.341617
729.755276	4109.588945
730.086606	4110.400570
730.417887	4146.896004
730.749120	4210.774985
731.080305	4275.936939
731.411442	4303.179335
731.742530	4271.273872
732.073570	4273.209675
732.404562	4332.682688
732.735506	4323.616172
733.066401	4282.152682
733.397249	4221.245461
733.728048	4142.913492
734.058798	4059.381573
734.389501	3989.024709
734.720156	3928.188065
735.050762	3884.866909
735.381320	3878.991444
735.711831	3827.952282
736.042293	3798.138898
736.372707	3821.295438
736.703073	3792.908701
737.033391	3779.836989
737.363661	3801.801297
737.693883	3821.711334
738.024056	3835.299764
738.354182	3825.918177
738.684260	3892.605080
739.014290	3911.577463
739.344272	3906.576638
739.674207	3949.237402
740.004093	3958.374494
740.333931	3949.900314
740.663722	3951.642033
740.993464	3947.891414
741.323159	3920.472579
741.652806	3895.546593
741.982405	3867.691698
742.311956	3838.637008
742.641460	3825.424143
742.970915	3804.868839
743.300323	3762.127416
743.629683	3728.346644
743.958996	3716.467165
744.288260	3691.246272
744.617477	3658.425840
744.946647	3647.075682
745.275768	3618.116774
745.604842	3618.318420
745.933869	3567.246490
746.262847	3563.914288
746.591778	3600.145060
746.920662	3569.348652
747.249498	3540.745145
747.578286	3586.584357
747.907027	3602.277468
748.235720	3602.153960
748.564365	3626.739667
748.892963	3627.521046
749.221514	3610.403808
749.550017	3586.319696
749.878473	3582.299376
750.206881	3553.872309
750.535242	3549.773851
750.863555	3552.208728
751.191821	3548.684962
751.520039	3528.522867
751.848210	3505.734331
752.176334	3539.444527
752.504411	3546.776885
752.832440	3506.651821
753.160421	3489.055674
753.488356	3498.550687
753.816243	3508.718694
754.144082	3469.921974
754.471875	3452.066207
754.799620	3471.459526
755.127318	3464.517857
755.454969	3463.512147
755.782572	3469.692602
756.110129	3443.650001
756.437638	3434.545677
756.765100	3449.737194
757.092515	3460.144656
757.419882	3466.070533
757.747203	3439.606996
758.074477	3440.784105
758.401703	3454.364973
758.728882	3477.143427
759.056014	3485.680621
759.383099	3489.874861
759.710138	3487.540807
760.037129	3502.462622
760.364073	3532.102086
760.690970	3517.639016
761.017820	3494.371570
761.344623	3511.554343
761.671379	3558.096796
761.998088	3609.440948
762.324751	3737.571955
762.651366	3983.184532
762.977935	4455.722129
763.304456	4900.210746
763.630931	4991.503522
763.957359	4631.386176
764.283740	4290.142911
764.610074	4095.864403
764.936362	3902.395001
765.262602	3744.521186
765.588796	3632.025317
765.914943	3543.951318
766.241044	3456.678863
766.567097	3425.988318
766.893104	3377.958725
767.219064	3348.168027
767.544978	3321.543173
767.870845	3261.734923
768.196665	3246.402254
768.522438	3257.528080
768.848165	3251.703027
769.173846	3215.484857
769.499479	3200.086653
769.825066	3182.840866
770.150607	3165.166580
770.476101	3179.231399
770.801548	3175.747962
771.126949	3128.887917
771.452303	3114.719754
771.777611	3120.491875
772.102872	3125.298615
772.428087	3101.547219
772.753256	3087.855445
773.078378	3083.504929
773.403453	3048.413457
773.728482	3036.594472
774.053465	3056.756567
774.378401	3045.608055
774.703291	3013.654701
775.028135	3013.410205
775.352932	3008.747138
775.677683	2999.892351
776.002388	2997.389418
776.327046	2997.717093
776.651658	2985.711586
776.976224	2972.491160
777.300743	2974.232878
777.625216	2963.946404
777.949643	2960.533543
778.274024	2960.914150
778.598359	2952.669343
778.922647	2956.228397
779.246889	2955.139508
779.571086	2940.394133
779.895236	2936.270469
780.219339	2945.336984
780.543397	2959.031279
780.867409	2962.355920
781.191374	2953.193623
781.515294	2952.369394
781.839167	2950.211780
782.162995	2945.236161
782.486776	2951.429219
782.810511	2948.656584
783.134201	2936.023453
783.457844	2943.267591
783.781441	2933.170160
784.104993	2915.274063
784.428498	2915.866399
784.751958	2927.849222
785.075372	2925.719334
785.398739	2903.487846
785.722061	2921.242790
786.045337	2934.586724
786.368568	2919.521236
786.691752	2910.686613
787.014891	2957.161011
787.337983	2988.312821
787.661030	3015.991276
787.984031	3081.281780
788.306987	3128.890437
788.629897	3123.017493
788.952760	3106.570728
789.275579	3089.035075
789.598351	3030.028369
789.921078	2986.618993
790.243759	2977.161789
790.566395	2958.280147
790.888984	2939.390943
791.211529	2919.100299
791.534027	2912.388003
791.856480	2897.768657
792.178888	2885.415309
792.501249	2878.103116
792.823566	2876.162271
793.145836	2872.383927
793.468062	2865.858153
793.790241	2862.624253
794.112375	2871.703371
794.434464	2885.712737
794.756507	2887.169631
795.078505	2895.061557
795.400457	2908.050090
795.722364	2944.545523
796.044226	2971.319091
796.366042	2972.173567
796.687812	2959.515230
797.009538	2980.408292
797.331218	2968.770788
797.652852	2952.928962
797.974442	2936.086467
798.295986	2933.243256
798.617484	2928.242432
798.938938	2911.959505
799.260346	2894.171793
799.581709	2893.309756
799.903026	2882.284753
800.224299	2878.917262
800.545526	2869.439893
800.866708	2852.236955
801.187845	2843.387210
801.508936	2845.925431
801.829983	2850.641430
802.150984	2838.983762
802.471940	2827.028665
802.792851	2825.881803
803.113717	2823.877944
803.434538	2831.227947
803.755314	2824.157728
804.076045	2816.734629
804.396731	2816.588436
804.717372	2820.029023
805.037967	2810.473516
805.358518	2819.933241
805.679024	2832.735252
805.999485	2826.751402
806.319901	2830.842298
806.640272	2823.799806
806.960598	2828.246104
807.280879	2837.806652
807.601115	2844.869309
807.921306	2830.101249
808.241453	2826.378357
808.561554	2837.032835
808.881611	2836.735407
809.201623	2829.072853
809.521590	2829.012359
809.841513	2824.248469
810.161390	2829.501351
810.481223	2824.951710
810.801011	2814.682880
811.120755	2808.734318
811.440453	2810.559216
811.760107	2811.017961
812.079716	2810.377734
812.399281	2799.929943
812.718801	2794.087246
813.038276	2789.940897
813.357707	2797.951290
813.677093	2801.916157
813.996434	2798.563790
814.315731	2789.686318
814.634983	2787.064918
814.954191	2791.543983
815.273354	2805.714667
815.592473	2812.220276
815.911547	2812.288332
816.230577	2819.933241
816.549562	2831.238029
816.868502	2828.173007
817.187399	2838.850171
817.506250	2856.557224
817.825058	2851.586646
818.143821	2864.078626
818.462539	2878.771068
818.781213	2904.964904
819.099843	2940.736932
819.418429	2996.555108
819.736970	3060.638255
820.055466	3132.492342
820.373919	3236.761047
820.692327	3377.562995
821.010691	3544.483160
821.329011	3990.020337
821.647286	4882.791039
821.965517	6261.226503
822.283704	7000.985583
822.601847	6982.310628
822.919945	6350.119689
823.237999	5848.567731
823.556010	5265.583495
823.873976	4710.575142
824.191897	4304.487514
824.509775	4007.966845
824.827609	3744.838779
825.145398	3620.045015
825.463144	3607.300978
825.780845	3696.100903
826.098502	3802.146616
826.416116	4082.737239
826.733685	4399.447729
827.051210	4462.515084
827.368692	4349.305892
827.686129	4082.137341
828.003522	3755.919235
828.320872	3499.937004
828.638177	3306.946512
828.955439	3170.674041
829.272656	3086.396031
829.589830	3017.927079
829.906960	2967.931436
830.224046	2925.709252
830.541088	2893.559293
830.858086	2874.531458
831.175041	2858.475383
831.491952	2858.747605
831.808819	2873.752600
832.125642	2893.229098
832.442421	2940.379010
832.759157	3021.944879
833.075849	3200.542877
833.392497	3479.394302
833.709101	3679.780168
834.025662	3632.773929
834.342179	3472.712253
834.658653	3298.094245
834.975083	3147.068838
835.291469	3052.574930
835.607811	2965.088225
835.924110	2906.015984
836.240366	2856.907584
836.556578	2814.854279
836.872746	2790.850825
837.188871	2770.688730
837.504952	2749.170565
837.820990	2743.766448
838.136984	2730.339335
838.452935	2721.726523
838.768842	2723.642162
839.084706	2741.253433
839.400526	2817.107675
839.716303	2948.160031
840.032037	3030.620705
840.347727	3015.023375
840.663373	2954.176648
840.978977	2881.601676
841.294537	2809.825728
841.610054	2760.999632
841.925527	2737.195304
842.240957	2714.870554
842.556344	2692.795341
842.871687	2680.184895
843.186987	2667.466064
843.502244	2663.052534
843.817458	2661.381391
844.132629	2649.761532
844.447756	2641.506642
844.762840	2631.144550
845.077881	2635.328708
845.392879	2635.772330
845.707833	2629.682616
846.022745	2623.532408
846.337613	2626.846967
846.652438	2625.584158
846.967221	2626.138685
847.281960	2621.636934
847.596656	2622.108282
847.911309	2619.401182
848.225919	2618.922273
848.540485	2614.861623
848.855009	2613.644185
849.169490	2615.975718
849.483928	2615.993362
849.798323	2612.895573
850.112675	2615.842128
850.426984	2611.428598
850.741251	2610.627054
851.055474	2609.457507
851.369654	2616.419340
851.683792	2618.541666
851.997887	2613.359360
852.311938	2612.414143
852.625947	2611.801643
852.939914	2615.668208
853.253837	2617.863631
853.567718	2611.231993
853.881555	2610.097733
854.195350	2616.164762
854.509103	2610.538834
854.822812	2610.997579
855.136479	2609.974225
855.450103	2612.429267
855.763685	2615.194340
856.077224	2611.400871
856.390720	2610.518669
856.704173	2612.222579
857.017584	2617.782972
857.330953	2617.435133
857.644278	2618.813888
857.957561	2620.968981
858.270802	2614.715430
858.584000	2617.982098
858.897155	2619.549897
859.210268	2617.052005
859.523339	2618.118209
859.836367	2610.405243
860.149352	2608.787033
860.462295	2610.652260
860.775195	2608.207300
861.088054	2606.573967
861.400869	2607.977928
861.713642	2604.378544
862.026373	2608.726539
862.339062	2609.568412
862.651708	2615.711058
862.964312	2614.347426
863.276873	2611.605038
863.589392	2615.272477
863.901869	2620.724485
864.214303	2624.631380
864.526696	2630.310239
864.839045	2630.438789
865.151353	2633.980199
865.463619	2632.460292
865.775842	2635.689151
866.088023	2633.057668
866.400162	2634.280148
866.712258	2632.288892
867.024313	2631.268059
867.336325	2627.172121
867.648296	2630.085908
867.960224	2635.555560
868.272110	2632.760240
868.583954	2626.579786
868.895755	2629.798562
869.207515	2634.706126
869.519233	2641.262146
869.830909	2636.563791
870.142542	2632.903913
870.454134	2633.040024
870.765684	2639.921199
871.077191	2639.321302
871.388657	2642.542599
871.700081	2640.692496
872.011463	2642.313227
872.322803	2643.341622
872.634101	2647.157776
872.945357	2653.612973
873.256571	2659.622028
873.567744	2655.395021
873.878874	2655.422747
874.189963	2656.088180
874.501010	2661.749395
874.812015	2663.460867
875.122979	2665.058913
875.433900	2655.838642
875.744780	2658.623880
876.055618	2661.890548
876.366415	2668.320539
876.677169	2666.467915
876.987882	2659.962306
877.298554	2657.797131
877.609183	2671.236847
877.919771	2676.595593
878.230317	2683.602797
878.540822	2694.370702
878.851285	2708.473330
879.161707	2729.958727
879.472087	2771.780140
879.782425	2818.189002
880.092722	2933.449944
880.402977	3119.486165
880.713191	3375.793550
881.023363	3671.704239
881.333494	3859.646016
881.643583	4037.230743
881.953631	4034.175804
882.263637	3855.219883
882.573602	3635.143271
882.883526	3501.058661
883.193408	3392.963720
883.503248	3290.577885
883.813048	3175.994979
884.122806	3063.577248
884.432522	2975.465440
884.742197	2912.246851
885.051831	2875.821993
885.361424	2837.473936
885.670975	2803.645273
885.980485	2772.601848
886.289954	2753.435381
886.599382	2743.143865
886.908768	2733.091805
887.218113	2712.208825
887.527417	2696.853470
887.836680	2689.387521
888.145901	2684.396779
888.455082	2677.903773
888.764221	2663.385250
889.073319	2655.125319
889.382376	2657.570279
889.691392	2657.625732
890.000366	2659.286792
890.309300	2656.680515
890.618193	2655.841163
890.927044	2659.246462
891.235855	2661.028510
891.544625	2658.931390
891.853353	2659.932059
892.162041	2667.980262
892.470687	2687.660926
892.779293	2696.611495
893.087858	2708.150696
893.396381	2728.784139
893.704864	2772.581683
894.013306	2842.101715
894.321707	2936.368772
894.630068	2985.837614
894.938387	3006.050121
895.246665	2998.584172
895.554903	2955.825105
895.863100	2909.378434
896.171256	2854.339116
896.479371	2793.946093
896.787446	2754.937645
897.095480	2737.399471
897.403473	2729.784808
897.711425	2714.031202
898.019336	2696.959334
898.327207	2680.608352
898.635038	2681.167920
898.942827	2677.432425
899.250576	2668.882628
899.558284	2654.863179
899.865952	2654.356543
900.173579	2650.817653
900.481165	2648.576860
900.788711	2639.601086
901.096216	2632.939201
901.403681	2629.914509
901.711105	2631.305867
902.018489	2627.381329
902.325832	2633.067751
902.633135	2634.388533
902.940397	2650.479896
903.247619	2685.223528
903.554800	2756.306318
903.861941	2882.506563
904.169041	3006.874349
904.476101	3072.600913
904.783121	3066.090263
905.090100	3007.683455
905.397039	2931.269645
905.703938	2859.632328
906.010796	2795.274437
906.317614	2745.114957
906.624391	2705.831765
906.931129	2682.536593
907.237826	2660.065650
907.544483	2640.289203
907.851099	2626.912502
908.157675	2620.306070
908.464211	2611.990686
908.770707	2598.621546
909.077163	2595.097780
909.383578	2594.205496
909.689954	2591.768098
909.996289	2587.614187
910.302584	2589.315576
910.608839	2584.874320
910.915054	2587.568817
911.221229	2587.132757
911.527363	2591.818509
911.833458	2588.997984
912.139513	2593.040989
912.445527	2592.178952
912.751502	2597.222626
913.057436	2601.316043
913.363331	2610.924482
913.669186	2620.056532
913.975000	2633.342493
914.280775	2649.764052
914.586510	2671.418328
914.892205	2705.073072
915.197859	2767.893410
915.503475	2854.316431
915.809050	2920.937800
916.114585	2936.174687
916.420081	2948.139866
916.725536	2959.855508
917.030952	2934.248967
917.336328	2885.039743
917.641665	2836.702640
917.946961	2788.685649
918.252218	2752.175092
918.557435	2725.688870
918.862612	2705.365458
919.167750	2690.657892
919.472848	2672.555109
919.777906	2653.368477
920.082925	2643.649132
920.387904	2636.672176
920.692843	2627.832512
920.997743	2626.171452
921.302603	2614.223917
921.607423	2609.200408
921.912204	2604.421394
922.216946	2602.248657
922.521647	2600.713625
922.826310	2595.395208
923.130932	2591.357244
923.435516	2586.021182
923.740059	2583.188054
924.044564	2585.622931
924.349028	2583.296439
924.653454	2570.212124
924.957840	2570.474264
925.262186	2568.460323
925.566493	2570.383523
925.870761	2564.797925
926.174989	2567.999057
926.479178	2563.756926
926.783328	2561.667368
927.087438	2558.955227
927.391509	2560.631411
927.695541	2557.034548
927.999533	2556.278375
928.303486	2557.437840
928.607400	2555.197047
928.911275	2552.893240
929.215110	2557.702501
929.518906	2555.534804
929.822663	2558.267110
930.126381	2553.079762
930.430060	2557.304249
930.733699	2554.173693
931.037299	2555.474311
931.340861	2557.483210
931.644383	2558.854404
931.947866	2556.918601
932.251309	2556.414486
932.554714	2558.602347
932.858080	2556.240566
933.161407	2555.554969
933.464694	2557.084959
933.767943	2552.043805
934.071153	2556.187634
934.374323	2553.853580
934.677455	2553.823333
934.980548	2552.101779
935.283602	2553.825853
935.586617	2553.906512
935.889593	2551.244782
936.192530	2551.322920
936.495428	2552.285781
936.798287	2554.735782
937.101108	2556.117058
937.403890	2558.713252
937.706632	2561.576627
938.009336	2565.768347
938.312002	2567.759602
938.614628	2572.069789
938.917216	2577.985583
939.219765	2573.594738
939.522275	2577.685634
939.824747	2575.326374
940.127179	2569.138358
940.429573	2566.711042
940.731929	2569.307237
941.034246	2566.229612
941.336524	2567.363872
941.638763	2567.053841
941.940964	2568.288924
942.243126	2565.012174
942.545250	2565.176011
942.847335	2563.862791
943.149381	2560.308777
943.451389	2561.503531
943.753359	2558.919939
944.055290	2560.165104
944.357182	2556.283416
944.659036	2557.621842
944.960851	2556.664023
945.262628	2556.124619
945.564367	2554.990360
945.866067	2556.492624
946.167729	2560.099569
946.469352	2559.401369
946.770937	2556.979095
947.072484	2553.772921
947.373992	2557.382387
947.675462	2552.376522
947.976893	2556.699311
948.278286	2554.065308
948.579641	2554.108158
948.880958	2552.958775
949.182236	2553.936759
949.483476	2553.561193
949.784678	2554.095555
950.085841	2553.402396
950.386967	2552.837787
950.688054	2556.331307
950.989103	2554.743343
951.290114	2554.985319
951.591087	2556.447253
951.892021	2559.789538
952.192917	2558.365412
952.493776	2560.936401
952.794596	2562.305074
953.095378	2561.869014
953.396122	2562.310115
953.696828	2557.105124
953.997496	2558.161246
954.298126	2554.554300
954.598718	2555.277706
954.899272	2554.266954
955.199788	2552.021120
955.500266	2552.699155
955.800706	2549.031716
956.101108	2546.032229
956.401472	2548.436860
956.701798	2543.241951
957.002087	2544.424101
957.302337	2544.837476
957.602550	2545.858310
957.902724	2541.401930
958.202861	2543.388144
958.502960	2542.979811
958.803022	2543.279759
959.103045	2542.185829
959.403031	2542.717671
959.702979	2540.731456
960.002889	2540.204656
960.302762	2540.088709
960.602596	2541.495191
960.902393	2539.186343
961.202153	2539.907227
961.501875	2539.609799
961.801559	2540.255067
962.101205	2536.786753
962.400814	2539.917310
962.700385	2538.039480
962.999918	2540.572660
963.299414	2537.109387
963.598873	2538.553678
963.898293	2536.204500
964.197677	2538.619213
964.497022	2537.673996
964.796331	2539.070396
965.095601	2537.666435
965.394835	2537.835313
965.694030	2539.640046
965.993189	2537.394212
966.292309	2536.030580
966.591393	2536.955632
966.890439	2535.919675
967.189447	2540.572660
967.488419	2537.817669
967.787353	2535.619726
968.086249	2539.027546
968.385108	2537.132072
968.683930	2539.203987
968.982714	2538.987217
969.281462	2538.813297
969.580172	2539.829090
969.878844	2537.968904
970.177480	2538.820859
970.476078	2536.136444
970.774639	2541.323792
971.073162	2539.408153
971.371649	2535.622247
971.670098	2537.041332
971.968510	2537.706764
972.266885	2533.774664
972.565223	2537.873122
972.863524	2539.400592
973.161788	2539.135931
973.460014	2537.603420
973.758204	2537.873122
974.056356	2539.945036
974.354471	2538.893956
974.652550	2539.342618
974.950591	2538.664583
975.248595	2537.096784
975.546563	2538.891435
975.844493	2535.450848
976.142386	2539.703061
976.440243	2538.820859
976.738062	2535.168543
977.035845	2536.237268
977.333590	2537.048893
977.631299	2537.553009
977.928971	2540.222300
978.226606	2535.939839
978.524204	2537.381609
978.821765	2536.055786
979.119290	2535.513862
979.416777	2540.726415
979.714228	2537.810107
980.011642	2535.647453
980.309020	2537.026208
980.606360	2538.541075
980.903664	2537.116949
981.200931	2537.472350
981.498162	2540.479398
981.795356	2541.656508
982.092513	2544.892929
982.389633	2545.104657
982.686717	2548.958619
982.983764	2551.968188
983.280775	2553.974567
983.577749	2552.096737
983.874686	2551.940462
984.171587	2547.345450
984.468451	2542.619368
984.765279	2543.494008
985.062070	2544.663556
985.358824	2542.573998
985.655543	2540.083668
985.952224	2537.053934
986.248869	2541.099460
986.545478	2532.219468
986.842050	2532.494211
987.138586	2530.286185
987.435086	2534.845909
987.731549	2528.297450
988.027975	2534.215765
988.324366	2535.607123
988.620719	2534.364479
988.917037	2535.849099
989.213318	2534.004036
989.509563	2530.712163
989.805772	2533.847761
990.101944	2534.830786
990.398080	2534.916485
990.694180	2535.881866
990.990244	2535.045035
991.286271	2534.361958
991.582262	2534.112421
991.878217	2533.920857
992.174136	2536.121321
992.470019	2532.365661
992.765865	2533.686444
993.061676	2533.240302
993.357450	2536.741383
993.653188	2531.838861
993.948890	2533.951104
994.244556	2534.523275
994.540186	2536.776671
994.835780	2532.544622
995.131337	2538.001671
995.426859	2535.836496
995.722345	2534.455220
996.017795	2537.815149
996.313208	2540.928061
996.608586	2536.995961
996.903928	2537.495035
997.199234	2537.946219
997.494504	2537.442103
997.789738	2533.144520
998.084936	2536.113759
998.380099	2535.871784
998.675225	2533.270548
998.970316	2533.081505
999.265371	2536.086033
999.560390	2533.706608
999.855373	2537.263142
1000.150320	2533.590662
1000.445232	2533.300795
1000.740108	2533.457071
1001.034948	2531.559077
1001.329752	2532.216947
1001.624521	2534.782895
1001.919254	2529.552698
1002.213951	2527.695032
1002.508613	2527.816020
1002.803239	2531.329704
1003.097829	2527.715197
1003.392384	2534.044366
1003.686903	2531.498583
1003.981386	2532.900024
1004.275834	2530.820548
1004.570246	2533.762061
1004.864623	2533.847761
1005.158964	2533.502442
1005.453270	2534.069571
1005.747540	2531.377595
1006.041775	2533.666279
1006.335974	2532.214427
1006.630138	2532.378264
1006.924266	2531.180990
1007.218359	2531.410363
1007.512416	2531.107893
1007.806438	2530.870959
1008.100425	2532.302647
1008.394376	2529.998840
1008.688292	2533.401618
1008.982172	2532.842050
1009.276017	2534.976979
1009.569827	2531.551515
1009.863602	2532.794159
1010.157341	2531.922040
1010.451045	2532.713501
1010.744714	2529.472039
1011.038347	2533.220137
1011.331945	2528.163860
1011.625508	2532.252235
1011.919036	2532.695857
1012.212528	2532.388347
1012.505986	2530.586134
1012.799408	2530.891124
1013.092795	2530.611340
1013.386147	2533.109232
1013.679464	2531.231402
1013.972745	2530.487832
1014.265992	2532.259797
1014.559204	2531.491021
1014.852380	2531.995137
1015.145521	2530.442461
1015.438628	2532.000178
1015.731699	2531.382636
1016.024736	2530.780218
1016.317737	2530.495393
1016.610703	2532.584952
1016.903635	2528.947759
1017.196531	2528.431041
1017.489393	2527.279137
1017.782219	2527.909281
1018.075011	2527.773170
1018.367768	2530.865918
1018.660490	2531.591844
1018.953177	2531.591844
1019.245829	2531.591844
