Dividing Wavelength (nm)	Counts (n)	Blue Motor Position (mm): 28.000000	Red Motor Position (mm): 0.000000	
326.493990	2100.285845
326.888308	2100.285845
327.282561	2100.285845
327.676750	2075.531259
328.070874	2075.836248
328.464933	2082.561148
328.858929	2093.933991
329.252859	2105.132914
329.646726	2120.246293
330.040528	2136.700619
330.434265	2158.478404
330.827938	2176.261074
331.221547	2195.288909
331.615091	2215.882023
332.008571	2236.812894
332.401986	2259.896337
332.795338	2275.597011
333.188625	2298.415794
333.581847	2316.707620
333.975006	2336.330312
334.368100	2352.535101
334.761129	2373.004706
335.154095	2386.336037
335.546996	2429.695002
335.939833	2508.684841
336.332606	2519.470390
336.725315	2534.462781
337.117960	2539.529141
337.510540	2547.141283
337.903056	2558.493962
338.295508	2563.792214
338.687896	2570.985941
339.080220	2578.807291
339.472480	2584.607139
339.864676	2583.919021
340.256807	2589.202150
340.648875	2590.636359
341.040879	2589.847418
341.432818	2593.827409
341.824694	2596.456371
342.216506	2594.613829
342.608253	2592.103334
342.999937	2592.078129
343.391557	2592.133581
343.783113	2592.068046
344.174605	2587.962027
344.566033	2586.663929
344.957397	2585.423806
345.348697	2583.034299
345.739934	2583.306521
346.131106	2581.090934
346.522215	2579.523135
346.913260	2576.059862
347.304241	2579.140007
347.695159	2574.847465
348.086012	2575.782599
348.476802	2571.560632
348.867528	2568.593913
349.258191	2570.660787
349.648789	2568.593913
350.039324	2568.571228
350.429796	2566.529561
350.820203	2566.348079
351.210548	2564.697102
351.600828	2561.317008
351.991045	2564.949159
352.381198	2561.516133
352.771288	2564.649211
353.161314	2561.435475
353.551276	2563.688871
353.941175	2559.038406
354.331010	2562.272307
354.720782	2564.150136
355.110490	2569.584500
355.500135	2566.075857
355.889717	2564.288768
356.279235	2564.891186
356.668689	2564.102245
357.058080	2564.094684
357.447408	2559.965979
357.836672	2560.543191
358.225873	2563.792214
358.615010	2563.772050
359.004084	2570.164233
359.393095	2568.878739
359.782043	2569.644994
360.170927	2571.366548
360.559748	2571.520303
360.948505	2568.946794
361.337199	2570.076013
361.725830	2570.005437
362.114398	2572.662125
362.502903	2574.139183
362.891344	2572.848647
363.279722	2572.765468
363.668037	2577.945254
364.056289	2572.936867
364.444478	2573.531724
364.832603	2576.871488
365.220665	2577.363001
365.608665	2574.706312
365.996601	2576.206056
366.384474	2579.049267
366.772284	2578.706468
367.160031	2576.009451
367.547715	2581.053125
367.935336	2573.251940
368.322893	2578.378793
368.710388	2578.351067
369.097820	2581.060687
369.485189	2582.051274
369.872495	2583.006572
370.259738	2580.327199
370.646918	2585.219639
371.034035	2582.875502
371.421090	2584.806264
371.808081	2582.898187
372.195010	2584.292067
372.581875	2582.263002
372.968678	2583.566140
373.355418	2585.391038
373.742096	2584.816347
374.128710	2586.585792
374.515262	2586.545462
374.901751	2585.161666
375.288177	2587.611666
375.674540	2586.525298
376.060841	2589.265165
376.447079	2585.416244
376.833254	2588.410689
377.219367	2584.317272
377.605417	2587.694845
377.991404	2585.696028
378.377329	2584.803744
378.763191	2587.122674
379.148991	2592.068046
379.534727	2590.608632
379.920402	2591.538725
380.306013	2591.221132
380.691563	2593.860177
381.077049	2592.027717
381.462474	2591.599219
381.847835	2592.862028
382.233134	2593.434199
382.618371	2596.048037
383.003545	2591.425299
383.388657	2596.201792
383.773706	2597.058789
384.158693	2598.316557
384.543618	2597.247832
384.928480	2595.798500
385.313280	2597.883017
385.698017	2598.697164
386.082692	2599.970055
386.467305	2599.231526
386.851856	2601.736979
387.236344	2597.820003
387.620770	2599.975096
388.005133	2600.375868
388.389435	2600.650611
388.773674	2599.556680
389.157851	2602.435179
389.541965	2602.304109
389.926018	2602.198245
390.310008	2601.996599
390.693936	2602.334356
391.077802	2605.129676
391.461606	2603.453492
391.845348	2606.195880
392.229027	2604.313009
392.612645	2606.856271
392.996200	2607.282249
393.379694	2609.089502
393.763125	2609.528083
394.146494	2605.835437
394.529801	2608.572784
394.913047	2614.223917
395.296230	2608.353494
395.679351	2609.490274
396.062410	2610.448093
396.445408	2608.837445
396.828343	2610.311982
397.211217	2609.200408
397.594028	2609.051694
397.976778	2607.556992
398.359466	2611.605038
398.742092	2607.118411
399.124656	2614.004627
399.507158	2613.462703
399.889598	2614.599483
400.271977	2614.503702
400.654294	2615.779113
401.036549	2613.908845
401.418742	2618.261882
401.800874	2617.505709
402.182944	2616.903291
402.564952	2618.471090
402.946898	2615.695934
403.328783	2618.498816
403.710606	2617.798096
404.092367	2619.862448
404.474067	2621.334465
404.855705	2621.173148
405.237282	2622.861935
405.618797	2623.383694
406.000250	2621.558796
406.381642	2624.573406
406.762972	2627.212450
407.144240	2625.647172
407.525447	2626.486524
407.906593	2627.164559
408.287677	2626.274796
408.668700	2626.526853
409.049661	2625.627007
409.430560	2628.029117
409.811399	2629.060033
410.192176	2627.875362
410.572891	2629.712863
410.953545	2633.168574
411.334138	2629.581793
411.714669	2633.314767
412.095139	2630.985754
412.475547	2632.120014
412.855894	2631.016001
413.236180	2631.464664
413.616405	2631.441978
413.996568	2630.804272
414.376670	2632.583800
414.756711	2631.303347
415.136691	2636.208389
415.516609	2633.513893
415.896466	2638.517238
416.276262	2637.403143
416.655997	2634.756537
417.035670	2631.825106
417.415283	2639.356590
417.794834	2635.535395
418.174324	2638.386168
418.553753	2640.813483
418.933121	2642.366159
419.312428	2642.824904
419.691674	2645.443783
420.070859	2643.689462
420.449983	2644.911942
420.829045	2647.001500
421.208047	2645.058135
421.586988	2646.787251
421.965867	2649.980822
422.344686	2648.995276
422.723444	2652.997952
423.102141	2649.471665
423.480777	2651.838487
423.859352	2653.393683
424.237866	2656.753612
424.616319	2656.814106
424.994712	2660.799138
425.373044	2660.284940
425.751314	2661.136895
426.129524	2662.921464
426.507673	2664.600168
426.885762	2666.987154
427.263789	2668.484377
427.641756	2668.965807
428.019662	2670.221054
428.397508	2671.587207
428.775292	2680.169772
429.153016	2679.252282
429.530679	2682.163548
429.908282	2681.828311
430.285824	2682.282015
430.663305	2686.128415
431.040726	2690.226873
431.418086	2690.932635
431.795385	2697.405477
432.172624	2700.619212
432.549802	2703.497711
432.926920	2708.879143
433.303977	2713.254864
433.680974	2716.871892
434.057910	2724.705845
434.434786	2725.953531
434.811601	2733.414438
435.188355	2742.123032
435.565050	2745.878691
435.941683	2753.100144
436.318257	2765.972731
436.694770	2774.250305
437.071222	2791.758232
437.447614	2794.576237
437.823946	2808.769606
438.200218	2826.065805
438.576429	2840.791015
438.952580	2857.777183
439.328670	2878.755945
439.704700	2901.889800
440.080670	2916.695669
440.456580	2950.342850
440.832429	2978.956439
441.208218	2990.946824
441.583947	3027.331352
441.959616	3059.551887
442.335224	3103.155347
442.710773	3142.141110
443.086261	3199.355686
443.461689	3223.641444
443.837057	3272.457457
444.212365	3343.545288
444.587612	3397.299112
444.962800	3441.867953
445.337927	3517.800333
445.712995	3520.913245
446.088002	3675.129703
446.462949	3759.811006
446.837837	3852.240561
447.212664	3940.526289
447.587431	4226.160586
447.962139	4533.499572
448.336786	4809.328825
448.711374	4795.823574
449.085901	4624.651195
449.460369	4734.404676
449.834776	4872.547415
450.209124	5242.984002
450.583412	5339.028065
450.957640	5508.642727
451.331808	5510.482749
451.705917	5496.473382
452.079965	5642.863449
452.453954	5835.869065
452.827883	5983.295088
453.201752	6109.356702
453.575562	6289.487211
453.949311	6635.257433
454.323001	6820.008160
454.696632	6967.842517
455.070202	7421.901764
455.443713	7657.079153
455.817164	7969.623130
456.190556	8291.278992
456.563888	8376.043473
456.937160	8670.449379
457.310373	8524.240794
457.683526	8832.729162
458.056619	9057.554541
458.429653	9272.385833
458.802628	9645.600096
459.175542	9926.256254
459.548398	10530.637668
459.921194	11246.511762
460.293930	11735.291956
460.666607	12650.967141
461.039224	13526.643290
461.411782	13946.584008
461.784280	13833.944467
462.156719	13959.610350
462.529099	14081.772631
462.901419	13918.416561
463.273680	13827.181759
463.645882	14168.916537
464.018024	14468.477022
464.390106	15139.139527
464.762130	16636.987322
465.134094	18826.753648
465.505999	21623.681583
465.877845	24181.394166
466.249631	25176.349057
466.621358	24729.544030
466.993026	24111.581747
467.364634	23499.565506
467.736184	22926.078803
468.107674	22680.546884
468.479105	22633.059215
468.850477	22638.722952
469.221790	22224.967729
469.593043	21613.276642
469.964238	21460.161676
470.335373	21754.013054
470.706449	23205.293191
471.077467	25209.668563
471.448425	28374.938487
471.819324	30432.762693
472.190164	29501.099489
472.560945	27581.324761
472.931667	25948.863034
473.302330	25583.001294
473.672934	25382.133998
474.043479	26025.649889
474.413965	25807.541848
474.784393	25840.165675
475.154761	26765.555163
475.525070	27080.342453
475.895321	27031.823868
476.265513	27766.446012
476.635645	28760.914431
477.005719	28952.057341
477.375734	29611.727610
477.745691	30414.554045
478.115588	31747.820770
478.485427	33659.572502
478.855207	36631.423435
479.224928	39037.019201
479.594591	40678.154233
479.964194	40132.598043
480.333739	40616.735335
480.703226	41032.476772
481.072653	41897.800912
481.442022	42585.310953
481.811333	43075.623658
482.180584	42214.304715
482.549777	42042.403889
482.918912	41848.122861
483.287988	41856.428162
483.657005	41376.459905
484.025964	41054.340256
484.394864	41310.723258
484.763706	41185.977386
485.132489	40632.378035
485.501213	40721.359442
485.869879	41077.423700
486.238487	40911.176528
486.607036	41290.306585
486.975527	40973.023924
487.343959	41365.064376
487.712333	41624.570373
488.080648	41715.585886
488.448905	42319.740448
488.817104	42324.408556
489.185244	43456.981906
489.553326	45273.992713
489.921350	48074.104137
490.289315	51039.157074
490.657222	51719.722926
491.025070	52114.243626
491.392861	51353.382276
491.760593	50258.683115
492.128267	48740.806816
492.495883	47366.736991
492.863440	46157.744791
493.230939	44952.011696
493.598380	43998.699257
493.965763	43789.168738
494.333088	43095.823562
494.700354	42727.184146
495.067563	42517.124306
495.434713	42474.345074
495.801805	42642.036537
496.168839	42322.876045
496.535815	42088.222937
496.902733	42190.414687
497.269593	41841.022396
497.636395	41843.603467
498.003139	42297.410657
498.369825	41818.254025
498.736453	42177.111082
499.103023	41768.492795
499.469535	41708.682025
499.835989	41854.615867
500.202385	41562.128121
500.568723	41631.668318
500.935003	41862.774975
501.301226	41708.717313
501.667390	42370.698951
502.033497	42652.869976
502.399546	42123.725263
502.765537	41452.263735
503.131470	41879.153684
503.497345	42274.581792
503.863163	40943.850767
504.228923	41625.490384
504.594625	42061.618247
504.960269	41341.595285
505.325856	42099.305913
505.691385	41457.297327
506.056856	41638.315079
506.422270	42089.568925
506.787625	41682.210927
507.152924	41910.308015
507.518164	42034.927858
507.883347	41226.483057
508.248472	41504.222908
508.613540	42012.487162
508.978550	42329.028774
509.343503	42105.861934
509.708398	42323.211282
510.073236	42853.215512
510.438016	42884.465625
510.802738	42335.294928
511.167403	42994.105680
511.532010	43221.834764
511.896561	43544.813929
512.261053	44435.248056
512.625488	43973.758148
512.989866	43850.378428
513.354186	43698.438051
513.718449	43712.528076
514.082655	44411.267287
514.446803	44067.258949
514.810894	44631.913550
515.174927	44540.330908
515.538904	44437.408191
515.902822	45123.930166
516.266684	44554.786417
516.630488	45000.598337
516.994235	44854.382190
517.357925	45438.493124
517.721558	45633.127033
518.085133	45953.799871
518.448651	46074.989209
518.812112	45841.188055
519.175516	45947.642101
519.538863	46294.241593
519.902152	46260.299504
520.265385	46733.676453
520.628560	46774.487114
520.991678	46555.126345
521.354739	46791.949671
521.717743	47127.622461
522.080690	47001.943975
522.443580	47564.869461
522.806413	47603.499823
523.169189	47560.478616
523.531908	47752.685209
523.894569	47583.471318
524.257174	47775.808982
524.619722	48058.814317
524.982213	48056.838185
525.344647	47967.382910
525.707025	48013.219602
526.069345	48431.158982
526.431608	48331.881018
526.793815	48654.386315
527.155964	48179.761681
527.518057	48349.648565
527.880093	48127.507600
528.242072	48656.982509
528.603995	48371.252430
528.965860	48357.848002
529.327669	48452.417527
529.689421	48345.650930
530.051117	48307.638110
530.412755	48466.963777
530.774337	48537.658398
531.135862	48329.405812
531.497331	48523.654072
531.858743	48426.085060
532.220098	48758.743241
532.581396	48452.979616
532.942638	48110.405486
533.303824	48447.988874
533.664953	48400.871729
534.026025	48109.903891
534.387040	48605.345971
534.747999	48550.009225
535.108902	48720.417869
535.469748	48210.059015
535.830537	48327.573353
536.191270	48510.756280
536.551947	48158.664452
536.912567	48480.821909
537.273131	48601.809601
537.633638	48090.679451
537.994089	48409.333306
538.354483	48010.242800
538.714821	48593.007747
539.075103	48937.893246
539.435328	48707.610817
539.795497	48565.425073
540.155609	48565.278880
540.515665	49028.712153
540.875665	48466.200042
541.235609	48810.001693
541.595496	48762.282131
541.955328	49454.619077
542.315102	48792.650042
542.674821	48565.377182
543.034483	48611.044995
543.394090	48584.881407
543.753640	48531.752686
544.113134	49548.513088
544.472571	48529.348056
544.831953	49809.470937
545.191278	48989.751595
545.550548	48694.713025
545.909761	49158.191669
546.268918	49362.426455
546.628019	49674.171409
546.987064	49208.885512
547.346053	48469.121391
547.704986	49354.658037
548.063863	48917.963044
548.422684	49081.344320
548.781449	48919.251059
549.140158	49313.307973
549.498811	49150.408127
549.857408	48562.110515
550.215949	49432.001940
550.574434	49355.444457
550.932864	49099.192525
551.291237	49822.522484
551.649555	49404.477240
552.007817	49641.265277
552.366022	49287.971133
552.724173	49451.155804
553.082267	49839.367500
553.440305	50111.907400
553.798288	49415.635834
554.156215	49733.344473
554.514086	49935.892993
554.871902	49662.049955
555.229661	49679.540238
555.587365	49486.335496
555.945014	49599.022929
556.302606	49522.319252
556.660143	49735.083671
557.017625	49812.788016
557.375050	49589.568245
557.732421	49929.115162
558.089735	49890.958668
558.446994	49814.300363
558.804197	50281.484254
559.161345	50192.361695
559.518437	49428.329459
559.875474	49732.437065
560.232455	49909.532800
560.589381	50088.352609
560.946251	49770.424680
561.303065	50432.066040
561.659825	50225.565255
562.016528	49906.997099
562.373177	49592.620663
562.729770	50084.813719
563.086307	49582.213201
563.442789	50050.614531
563.799216	50078.527400
564.155587	49863.305419
564.511904	49894.268186
564.868164	49960.178752
565.224370	50184.994049
565.580520	49919.952865
565.936615	50131.005812
566.292654	49817.047791
566.648638	50095.652200
567.004567	50037.139527
567.360441	50070.464075
567.716260	49933.460637
568.072023	50209.075641
568.427732	50167.037459
568.783385	49710.618951
569.138982	50097.557756
569.494525	50043.012471
569.850013	49804.480195
570.205445	49777.676380
570.560823	49705.320699
570.916145	49582.886195
571.271412	49607.015678
571.626625	49360.422597
571.981782	49385.388911
572.336884	49060.418490
572.691931	49391.009797
573.046923	48980.649792
573.401860	48814.082507
573.756743	48776.241086
574.111570	48902.612731
574.466342	48719.747395
574.821059	48830.738480
575.175722	48340.786217
575.530330	48353.983957
575.884882	48059.363803
576.239380	48004.437912
576.593823	47970.513467
576.948211	47881.108603
577.302544	47389.177687
577.656823	47401.888957
578.011047	47638.535842
578.365216	47338.995522
578.719330	47102.257896
579.073389	46953.571584
579.427394	47023.875515
579.781344	46984.400760
580.135239	46626.897253
580.489080	46687.191973
580.842866	46163.660585
581.196597	46608.713811
581.550273	46533.691359
581.903895	46407.007163
582.257463	46791.687531
582.610975	46157.225552
582.964434	46452.372507
583.317837	46065.325317
583.671186	45888.864768
584.024481	46113.972452
584.377721	45610.076357
584.730906	45918.715960
585.084037	45940.813858
585.437113	45639.010060
585.790135	45671.495255
586.143103	45255.645433
586.496016	45370.903854
586.848874	45370.215737
587.201679	45391.474282
587.554428	44860.048447
587.907124	45038.185180
588.259765	44790.001614
588.612352	45021.022572
588.964884	44377.176485
589.317362	44674.768399
589.669786	44607.113594
590.022155	44380.085230
590.374470	44799.461339
590.726731	44304.372141
591.078937	43799.982013
591.431090	43907.784568
591.783188	43555.546546
592.135232	43219.946852
592.487222	43480.292201
592.839157	43542.119432
593.191038	43194.030280
593.542866	42930.670321
593.894639	42324.141375
594.246358	42619.626087
594.598022	42586.977054
594.949633	42187.959645
595.301190	42126.034111
595.652692	41970.660708
596.004141	42292.848413
596.355535	41289.857923
596.706876	41221.678837
597.058162	41064.490619
597.409395	41520.193283
597.760573	41600.483740
598.111698	41179.249966
598.462768	41187.789681
598.813785	41214.369164
599.164748	40650.349749
599.515657	41034.394931
599.866511	40513.167350
600.217312	41135.323872
600.568060	40094.597825
600.918753	40849.069513
601.269392	40787.310337
601.619978	40425.315162
601.970510	40652.540130
602.320988	40831.836328
602.671412	41132.568882
603.021783	40899.009703
603.372100	40510.798007
603.722363	40627.785544
604.072572	40685.443741
604.422728	40712.481970
604.772830	40525.926510
605.122878	40643.213995
605.472872	40537.463191
605.822813	40819.873670
606.172701	40638.717286
606.522534	40897.482234
606.872314	41160.121308
607.222041	40899.750753
607.571714	41297.467544
607.921333	40727.991080
608.270899	41008.632114
608.620411	41386.930381
608.969870	41155.180977
609.319276	41156.521924
609.668627	41190.063241
610.017926	41684.759230
610.367171	41839.656243
610.716362	41910.492017
611.065500	41852.523789
611.414585	42046.189796
611.763616	42343.774149
612.112594	42267.496450
612.461518	42491.207734
612.810389	42798.539158
613.159207	42644.985612
613.507971	42734.080444
613.856682	43204.115108
614.205340	43084.493568
614.553945	43795.694512
614.902496	43227.836257
615.250994	43709.314341
615.599439	43773.621820
615.947830	43974.849558
616.296169	44042.582501
616.644454	44146.793233
616.992686	44325.678578
617.340864	44838.583214
617.688990	44543.695878
618.037063	45155.870916
618.385082	45102.182628
618.733048	45387.242234
619.080961	45412.097643
619.428821	45429.502227
619.776628	45539.903496
620.124382	45378.400050
620.472083	45513.984403
620.819731	45631.755839
621.167326	45305.807435
621.514868	45308.348176
621.862357	44851.806160
622.209793	44891.437191
622.557176	44557.415379
622.904506	44298.620184
623.251783	43955.783914
623.599007	43728.430396
623.946179	43509.112477
624.293297	43457.932163
624.640363	42853.351623
624.987376	42844.789224
625.334336	42589.681633
625.681243	42230.295255
626.028097	42190.941488
626.374899	42046.036041
626.721647	42032.021633
627.068343	41920.216402
627.414987	41686.203520
627.761577	41449.549074
628.108115	41775.373970
628.454600	41214.016284
628.801032	41401.857238
629.147412	41352.718591
629.493739	41349.441841
629.840014	40989.170740
630.186236	41316.457571
630.532405	40907.501527
630.878521	41133.390590
631.224585	41002.151711
631.570597	40704.995856
631.916556	40866.847142
632.262462	40813.277320
632.608316	40835.770949
632.954117	40728.517880
633.299866	40698.550741
633.645562	40644.887658
633.991206	40156.719964
634.336797	39705.080470
634.682336	39719.956915
635.027823	39457.055701
635.373257	39276.312692
635.718639	39052.619052
636.063968	38904.230167
636.409245	38322.249121
636.754470	38360.463587
637.099642	38114.636761
637.444762	37629.876887
637.789829	37780.710730
638.134845	37420.749661
638.479808	37363.179684
638.824719	37279.473845
639.169577	36881.189923
639.514383	36933.501977
639.859137	36629.490153
640.203839	36871.520990
640.548489	36504.562799
640.893086	36572.230207
641.237632	36311.647923
641.582125	36439.970495
641.926566	36359.639708
642.270955	36321.699984
642.615292	36340.490885
642.959576	36310.687584
643.303809	36318.766033
643.647990	36466.242468
643.992118	36415.157935
644.336195	36397.382827
644.680219	36482.464901
645.024192	36785.652496
645.368112	37299.779612
645.711981	37278.024513
646.055797	38166.474946
646.399562	38078.093437
646.743274	39051.731808
647.086935	39480.955812
647.430544	39363.721258
647.774101	39477.059000
648.117606	39754.163665
648.461059	40051.717771
648.804460	39672.738948
649.147810	39037.767812
649.491108	38807.034201
649.834354	38422.247969
650.177548	37584.778724
650.520690	37123.835781
650.863781	37167.040990
651.206820	36997.391040
651.549807	36551.004429
651.892742	36056.716773
652.235626	35876.591305
652.578458	35735.484368
652.921238	35107.427175
653.263967	35445.567610
653.606644	35120.282117
653.949269	35049.262342
654.291843	34631.353209
654.634365	35029.506060
654.976836	34638.335207
655.319255	34643.141947
655.661622	34633.470493
656.003938	34416.617699
656.346203	34282.863284
656.688416	34511.081360
657.030577	34301.792817
657.372687	34127.348729
657.714746	34401.491717
658.056753	34522.802043
658.398708	33962.248420
658.740612	34017.048283
659.082465	34300.131757
659.424266	34113.125114
659.766016	34246.448510
660.107715	34105.323928
660.449362	34222.326588
660.790958	34202.146850
661.132503	34209.113724
661.473996	34246.715691
661.815438	34364.267837
662.156829	34568.805092
662.498168	34323.056404
662.839456	34349.351062
663.180693	34503.287736
663.521879	34657.728526
663.863013	34629.765245
664.204097	34615.828975
664.545129	35075.337710
664.886110	35010.425293
665.227040	35088.532930
665.567918	35203.219180
665.908746	35254.419659
666.249522	35419.746820
666.590248	35422.794198
666.930922	35537.558586
667.271545	35497.418398
667.612118	35572.511426
667.952639	35346.024987
668.293109	35418.179022
668.633528	35309.811858
668.973896	35233.365280
669.314213	35276.731806
669.654480	35010.062330
669.994695	35027.587901
670.334859	34927.044608
670.674973	34806.034231
671.015035	34983.384543
671.355047	34907.242956
671.695008	34858.336202
672.034918	34756.971201
672.374777	34835.378787
672.714585	34665.101213
673.054342	34893.190739
673.394049	34627.219462
673.733705	34929.479485
674.073310	34569.291564
674.412864	34644.314015
674.752368	34248.719549
675.091820	34570.503961
675.431223	34131.545490
675.770574	33857.021896
676.109875	33710.105028
676.449125	33432.468522
676.788324	33355.371635
677.127473	32804.837306
677.466571	32723.881416
677.805619	32373.354866
678.144616	32376.258571
678.483562	32298.145892
678.822458	31962.679788
679.161303	31896.519685
679.500098	31795.958748
679.838842	31671.369152
680.177535	31830.276403
680.516179	32107.968363
680.854771	32349.169930
681.193314	33213.248905
681.531805	34325.312320
681.870247	35072.527267
682.208638	35773.643382
682.546978	35990.604561
682.885268	36096.131035
683.223508	35595.234427
683.561697	35259.886791
683.899836	35059.924382
684.237925	34550.470416
684.575963	34403.603960
684.913951	33930.612659
685.251889	34070.537446
685.589776	34054.249478
685.927614	34035.894637
686.265401	34173.465205
686.603137	34256.528297
686.940824	34749.296044
687.278460	35130.135053
687.616046	35229.985187
687.953582	35823.107184
688.291068	35683.260535
688.628504	35981.076781
688.965889	35915.728303
689.303224	35533.283687
689.640510	35231.361422
689.977745	34487.826518
690.314930	33685.980587
690.652065	33192.219732
690.989150	32457.970633
691.326185	31553.229711
691.663170	30838.704127
692.000105	30092.883059
692.336990	29411.061961
692.673825	28952.889132
693.010610	28428.530994
693.347345	27837.400253
693.684030	27145.078430
694.020665	26870.280093
694.357251	26175.241089
694.693786	26135.877239
695.030272	25883.315431
695.366707	25324.135523
695.703093	25027.892117
696.039429	25022.054461
696.375716	24745.511885
696.711952	24713.669436
697.048139	24537.811305
697.384276	24347.361554
697.720363	24484.775846
698.056400	24273.836325
698.392388	24044.181520
698.728326	24013.168342
699.064214	23807.466580
699.400053	23757.682665
699.735842	23384.294482
700.071581	23101.984825
700.407270	22813.227533
700.742910	22619.667390
701.078501	22355.977235
701.414042	22065.463101
701.749533	21759.243252
702.084974	21392.990822
702.420366	21616.061879
702.755709	21158.804020
703.091002	20862.532888
703.426246	20872.186697
703.761440	20765.263824
704.096584	20491.093111
704.431679	20445.760535
704.766725	20334.724080
705.101721	20283.016965
705.436668	20363.927484
705.771565	20039.322547
706.106413	20383.540093
706.441212	20378.307376
706.775961	20495.199130
707.110661	20556.701207
707.445311	20927.848598
707.779913	20746.243551
708.114465	20981.549489
708.448967	21269.482552
708.783421	21949.783743
709.117825	22222.863047
709.452180	22427.906939
709.786485	22834.004649
710.120742	23629.523931
710.454949	23625.284321
710.789107	24081.261727
711.123216	24798.043228
711.457275	24910.188737
711.791286	25448.626817
712.125247	25522.147005
712.459159	25212.410951
712.793023	25902.607927
713.126837	24795.610872
713.460602	25091.337559
713.794318	24720.414500
714.127985	24357.968142
714.461602	23451.354431
714.795171	23422.289658
715.128691	22397.801168
715.462162	21850.674659
715.795584	21427.031213
716.128957	21164.976913
716.462281	20753.896022
716.795556	20520.357009
717.128782	20010.000676
717.461960	19456.945769
717.795088	19377.819819
718.128167	18949.989695
718.461198	18493.291403
718.794180	18346.442592
719.127113	17979.665882
719.459997	17777.288761
719.792833	17407.825116
720.125619	17383.153709
720.458357	17047.034776
720.791046	16878.675361
721.123686	16706.250256
721.456278	16457.965867
721.788821	16418.952377
722.121315	16155.685679
722.453761	16227.040692
722.786158	16136.735982
723.118506	16147.622354
723.450805	16002.653893
723.783056	16166.163718
724.115259	16058.391410
724.447412	15981.685213
724.779518	16216.638271
725.111574	16245.884525
725.443582	16442.960872
725.775542	16430.967968
726.107453	16886.456382
726.439315	16766.441632
726.771129	17165.166655
727.102895	17539.308490
727.434612	17743.649141
727.766281	17864.132718
728.097901	18129.022667
728.429473	18170.705448
728.760996	18161.800250
729.092471	18243.779493
729.423897	18128.694992
729.755276	18010.742075
730.086606	18122.668293
730.417887	18648.294281
730.749120	19154.756323
731.080305	19319.327311
731.411442	19656.121758
731.742530	19733.064889
732.073570	19830.843109
732.404562	20137.753596
732.735506	19952.181162
733.066401	19649.923659
733.397249	19136.192274
733.728048	18499.587804
734.058798	17667.646185
734.389501	16972.851677
734.720156	16504.757857
735.050762	15973.964686
735.381320	15607.019098
735.711831	15362.049268
736.042293	14999.295399
736.372707	15009.138252
736.703073	14794.009532
737.033391	14980.968284
737.363661	14932.253094
737.693883	15027.893864
738.024056	15185.578636
738.354182	15364.973137
738.684260	15622.132477
739.014290	15847.540109
739.344272	16025.772624
739.674207	16300.001311
740.004093	16420.588232
740.333931	16416.968683
740.663722	16458.228007
740.993464	16461.030888
741.323159	16299.688760
741.652806	16028.570465
741.982405	15821.021120
742.311956	15487.422764
742.641460	15379.549633
742.970915	15068.608743
743.300323	14740.512807
743.629683	14529.059088
743.958996	14243.117281
744.288260	13975.255571
744.617477	13680.705993
744.946647	13608.418367
745.275768	13328.725070
745.604842	13139.805309
745.933869	12971.561840
746.262847	12913.210484
746.591778	12835.407837
746.920662	12725.233419
747.249498	12722.990106
747.578286	12834.634019
747.907027	12980.638438
748.235720	13195.550388
748.564365	13219.939490
748.892963	13115.161628
749.221514	13172.257737
749.550017	13025.630736
749.878473	12985.253614
750.206881	12754.371288
750.535242	12667.383658
750.863555	12578.150194
751.191821	12476.384421
751.520039	12489.614930
751.848210	12396.376269
752.176334	12439.301694
752.504411	12332.666166
752.832440	12163.638798
753.160421	12227.361504
753.488356	12104.236362
753.816243	12017.054647
754.144082	11867.019827
754.471875	11804.822071
754.799620	11758.367838
755.127318	11718.923330
755.454969	11688.532734
755.782572	11634.040381
756.110129	11644.616722
756.437638	11556.257898
756.765100	11552.653473
757.092515	11555.915099
757.419882	11568.792727
757.747203	11561.576315
758.074477	11634.146245
758.401703	11590.043711
758.728882	11749.611354
759.056014	11790.648867
759.383099	11902.864951
759.710138	12003.887154
760.037129	12086.017632
760.364073	12104.753080
760.690970	12081.362127
761.017820	12090.403436
761.344623	12273.495623
761.671379	12631.644398
761.998088	13290.326601
762.324751	14892.322114
762.651366	17793.710319
762.977935	21390.994525
763.304456	23523.863867
763.630931	23947.366161
763.957359	22785.594448
764.283740	20894.944986
764.610074	19034.492036
764.936362	16916.841937
765.262602	15400.752726
765.588796	13936.685703
765.914943	12922.604675
766.241044	12058.681975
766.567097	11415.927298
766.893104	10869.776252
767.219064	10503.276806
767.544978	10117.464699
767.870845	9799.002408
768.196665	9612.623388
768.522438	9410.437831
768.848165	9246.751566
769.173846	9079.665042
769.499479	8952.965722
769.825066	8798.991240
770.150607	8613.580122
770.476101	8551.800782
770.801548	8440.817259
771.126949	8294.190258
771.452303	8205.523924
771.777611	8046.107516
772.102872	8021.960389
772.428087	7903.032008
772.753256	7779.402751
773.078378	7692.518465
773.403453	7543.373408
773.728482	7433.161182
774.053465	7370.257664
774.378401	7279.625279
774.703291	7184.105496
775.028135	7087.305260
775.352932	7049.612553
775.677683	6961.117618
776.002388	6876.806840
776.327046	6874.986984
776.651658	6785.854343
776.976224	6709.075049
777.300743	6695.700868
777.625216	6632.026053
777.949643	6588.162974
778.274024	6591.951401
778.598359	6519.804928
778.922647	6522.887593
779.246889	6473.448997
779.571086	6484.136244
779.895236	6487.549105
780.219339	6481.565255
780.543397	6478.626262
780.867409	6533.083327
781.191374	6537.000303
781.515294	6497.447410
781.839167	6543.868876
782.162995	6520.886255
782.486776	6472.493699
782.810511	6428.446617
783.134201	6354.460123
783.457844	6345.643145
783.781441	6302.599252
784.104993	6254.980513
784.428498	6228.332974
784.751958	6210.280602
785.075372	6187.184556
785.398739	6142.804758
785.722061	6167.408109
786.045337	6171.216701
786.368568	6278.363905
786.691752	6298.500794
787.014891	6554.014198
787.337983	6831.413770
787.661030	7264.131293
787.984031	7680.618821
788.306987	7933.856143
788.629897	8016.112651
788.952760	7934.082995
789.275579	7763.510514
789.598351	7461.598330
789.921078	7197.961108
790.243759	6921.894920
790.566395	6722.202213
790.888984	6528.989910
791.211529	6393.007306
791.534027	6228.716102
791.856480	6089.098825
792.178888	6033.976329
792.501249	5960.831707
792.823566	5861.679773
793.145836	5849.006312
793.468062	5832.410833
793.790241	5790.680162
794.112375	5827.949412
794.434464	5929.137973
794.756507	5955.283917
795.078505	6077.920067
795.400457	6289.643487
795.722364	6519.278127
796.044226	6711.877930
796.366042	6866.575818
796.687812	6813.505071
797.009538	6841.695204
797.331218	6757.812924
797.652852	6689.394384
797.974442	6570.650005
798.295986	6498.627040
798.617484	6370.649788
798.938938	6265.352687
799.260346	6198.118818
799.581709	6058.667900
799.903026	6008.190827
800.224299	5933.433036
800.545526	5820.967414
800.866708	5753.509214
801.187845	5703.138005
801.508936	5627.997086
801.829983	5597.389720
802.150984	5486.963245
802.471940	5464.194874
802.792851	5448.978151
803.113717	5420.326753
803.434538	5400.111726
803.755314	5363.490264
804.076045	5352.734962
804.396731	5315.821113
804.717372	5330.337116
805.037967	5330.281663
805.358518	5350.494170
805.679024	5408.424589
805.999485	5418.811887
806.319901	5426.303041
806.640272	5440.251914
806.960598	5489.173791
807.280879	5487.548019
807.601115	5520.295355
807.921306	5484.435107
808.241453	5478.957893
808.561554	5494.066231
808.881611	5460.028360
809.201623	5464.419205
809.521590	5412.671761
809.841513	5404.202623
810.161390	5415.930867
810.481223	5327.274615
810.801011	5316.541998
811.120755	5292.072238
811.440453	5245.333180
811.760107	5213.231112
812.079716	5186.576011
812.399281	5139.194206
812.718801	5134.798320
813.038276	5100.737764
813.357707	5063.178647
813.677093	5089.324592
813.996434	5024.833111
814.315731	5048.392943
814.634983	5049.481832
814.954191	5050.464857
815.273354	5109.511892
815.592473	5152.094519
815.911547	5227.200149
816.230577	5280.573366
816.549562	5369.322879
816.868502	5427.447383
817.187399	5480.548377
817.506250	5563.427467
817.825058	5592.368731
818.143821	5752.533751
818.462539	5923.030615
818.781213	6155.952087
819.099843	6521.423138
819.418429	7153.989643
819.736970	7772.882019
820.055466	8485.817119
820.373919	9430.204195
820.692327	10947.256266
821.010691	13779.212660
821.329011	20185.369815
821.647286	29652.598765
821.965517	39632.122371
822.283704	44637.708357
822.601847	45869.539505
822.919945	41367.993287
823.237999	36427.881808
823.556010	31400.288665
823.873976	26824.829050
824.191897	22706.155946
824.509775	19679.928607
824.827609	16964.385059
825.145398	15440.383757
825.463144	14718.361977
825.780845	15049.979159
826.098502	16352.290679
826.416116	18751.322863
826.733685	20846.466730
827.051210	21185.391065
827.368692	19699.556339
827.686129	17206.622583
828.003522	14809.753055
828.320872	12654.838747
828.638177	11049.871473
828.955439	9831.084311
829.272656	8781.321996
829.589830	7950.905326
829.906960	7219.406176
830.224046	6690.543767
830.541088	6288.400843
830.858086	6029.865268
831.175041	5830.560730
831.491952	5778.266320
831.808819	5813.582124
832.125642	6074.643317
832.442421	6643.945862
832.759157	7786.281406
833.075849	9540.275269
833.392497	11321.819038
833.709101	12346.705780
834.025662	12035.895960
834.342179	10991.512556
834.658653	9713.597700
834.975083	8644.948702
835.291469	7763.681913
835.607811	7040.808178
835.924110	6526.620568
836.240366	6038.692328
836.556578	5588.484522
836.872746	5236.299432
837.188871	4968.052074
837.504952	4745.321294
837.820990	4581.753496
838.136984	4465.038182
838.452935	4424.192233
838.768842	4463.641782
839.084706	4767.736785
839.400526	5522.435324
839.716303	6398.963429
840.032037	6918.676143
840.347727	6735.989769
840.663373	6146.421786
840.978977	5586.916723
841.294537	5159.298328
841.610054	4835.673895
841.925527	4593.020475
842.240957	4390.668560
842.556344	4205.113769
842.871687	4044.815159
843.186987	3893.608270
843.502244	3777.036628
843.817458	3691.210984
844.132629	3617.597535
844.447756	3569.812438
844.762840	3522.191178
845.077881	3485.768841
845.392879	3449.986731
845.707833	3422.532608
846.022745	3396.469842
846.337613	3384.189591
846.652438	3356.160776
846.967221	3350.244982
847.281960	3329.840912
847.596656	3321.091989
847.911309	3309.525062
848.225919	3296.355047
848.540485	3287.122174
848.855009	3276.818056
849.169490	3265.593927
849.483928	3258.412803
849.798323	3252.738984
850.112675	3240.153744
850.426984	3243.662387
850.741251	3234.174935
851.055474	3231.558576
851.369654	3232.234091
851.683792	3230.431878
851.997887	3233.529667
852.311938	3230.817527
852.625947	3233.300295
852.939914	3224.553893
853.253837	3232.140830
853.567718	3229.705952
853.881555	3222.600446
854.195350	3229.595047
854.509103	3225.725961
854.822812	3223.714541
855.136479	3219.409396
855.450103	3222.187071
855.763685	3214.451421
856.077224	3215.822615
856.390720	3223.913667
856.704173	3236.438413
857.017584	3240.486460
857.330953	3242.182808
857.644278	3249.923500
857.957561	3255.829212
858.270802	3252.239910
858.584000	3250.664549
858.897155	3247.652460
859.210268	3237.872622
859.523339	3227.266034
859.836367	3223.825446
860.149352	3218.426371
860.462295	3213.755742
860.775195	3205.783157
861.088054	3200.502548
861.400869	3200.721838
861.713642	3200.507589
862.026373	3206.614947
862.339062	3210.080740
862.651708	3218.557441
862.964312	3235.636870
863.276873	3243.687592
863.589392	3276.596245
863.901869	3295.188020
864.214303	3318.178202
864.526696	3337.758044
864.839045	3351.921166
865.151353	3365.917929
865.463619	3369.880276
865.775842	3371.019577
866.088023	3374.699619
866.400162	3370.028990
866.712258	3370.381871
867.024313	3369.479504
867.336325	3369.083774
867.648296	3372.718446
867.960224	3365.996067
868.272110	3373.678786
868.583954	3371.158209
868.895755	3381.487533
869.207515	3376.718601
869.519233	3395.154101
869.830909	3399.582755
870.142542	3411.401740
870.454134	3417.196546
870.765684	3428.902105
871.077191	3452.875312
871.388657	3463.108855
871.700081	3478.885146
872.011463	3498.843074
872.322803	3523.322917
872.634101	3535.817417
872.945357	3558.999163
873.256571	3585.427412
873.567744	3597.425358
873.878874	3607.663941
874.189963	3621.955613
874.501010	3625.081128
874.812015	3620.652474
875.122979	3639.186276
875.433900	3635.576810
875.744780	3635.372643
876.055618	3643.776247
876.366415	3645.298675
876.677169	3653.276301
876.987882	3671.623581
877.298554	3693.751726
877.609183	3733.513827
877.919771	3780.517545
878.230317	3848.479861
878.540822	3953.545068
878.851285	4117.289307
879.161707	4343.067464
879.472087	4733.600612
879.782425	5382.187904
880.092722	6599.235868
880.402977	8535.843009
880.713191	10855.371155
881.023363	13127.577990
881.333494	14340.101519
881.643583	14738.945008
881.953631	14317.744002
882.263637	13530.361141
882.573602	12543.409082
882.883526	11624.041253
883.193408	10700.411127
883.503248	9811.811980
883.813048	9000.733176
884.122806	8239.894511
884.432522	7490.905078
884.742197	6835.381158
885.051831	6278.505058
885.361424	5791.907683
885.670975	5402.697838
885.980485	5077.636677
886.289954	4811.955266
886.599382	4595.614149
886.908768	4420.688631
887.218113	4255.825256
887.527417	4117.722846
887.836680	3999.044002
888.145901	3898.904002
888.455082	3821.214780
888.764221	3749.479161
889.073319	3692.655275
889.382376	3656.033812
889.691392	3634.926501
890.000366	3626.815285
890.309300	3619.792957
890.618193	3623.125160
890.927044	3618.283132
891.235855	3625.648258
891.544625	3641.502687
891.853353	3670.703570
892.162041	3732.588775
892.470687	3827.554031
892.779293	3951.412660
893.087858	4128.006800
893.396381	4414.735028
893.704864	4833.891847
894.013306	5394.821035
894.321707	5940.193223
894.630068	6259.623416
894.938387	6275.775273
895.246665	6095.831286
895.554903	5788.457013
895.863100	5466.208815
896.171256	5199.877096
896.479371	4971.633814
896.787446	4753.407305
897.095480	4562.909663
897.403473	4419.579577
897.711425	4273.040796
898.019336	4152.511849
898.327207	4027.965102
898.635038	3926.471552
898.942827	3821.192095
899.250576	3737.488776
899.558284	3653.916528
899.865952	3602.095987
900.173579	3538.595092
900.481165	3492.037516
900.788711	3450.773151
901.096216	3416.737801
901.403681	3389.795354
901.711105	3381.457286
902.018489	3376.648025
902.325832	3412.160433
902.633135	3476.523365
902.940397	3657.583967
903.247619	4082.694389
903.554800	4834.867310
903.861941	5768.438591
904.169041	6433.926351
904.476101	6609.643330
904.783121	6338.739284
905.090100	5944.768070
905.397039	5547.598244
905.703938	5198.442887
906.010796	4882.140730
906.317614	4634.368019
906.624391	4396.942276
906.931129	4207.573852
907.237826	4026.165410
907.544483	3856.102085
907.851099	3684.566743
908.157675	3527.933052
908.464211	3387.635220
908.770707	3283.527831
909.077163	3208.152499
909.383578	3149.228972
909.689954	3101.668206
909.996289	3075.945719
910.302584	3052.872358
910.608839	3037.827034
910.915054	3026.877648
911.221229	3022.920342
911.527363	3028.730272
911.833458	3035.455171
912.139513	3047.755587
912.445527	3062.962227
912.751502	3097.352979
913.057436	3139.776809
913.363331	3199.537167
913.669186	3291.182823
913.975000	3413.851741
914.280775	3606.386009
914.586510	3882.684089
914.892205	4256.478085
915.197859	4751.955453
915.503475	5315.175846
915.809050	5778.301608
916.114585	6042.160642
916.420081	6085.338125
916.725536	6022.739597
917.030952	5793.445235
917.336328	5602.698055
917.641665	5398.554010
917.946961	5175.800545
918.252218	4982.517665
918.557435	4764.709572
918.862612	4564.399324
919.167750	4397.043099
919.472848	4208.826579
919.777906	4044.971435
920.082925	3885.086199
920.387904	3740.674786
920.692843	3628.156232
920.997743	3530.962786
921.302603	3440.358128
921.607423	3373.406563
921.912204	3308.889876
922.216946	3258.957247
922.521647	3210.509238
922.826310	3170.802590
923.130932	3130.813637
923.435516	3092.614294
923.740059	3065.334090
924.044564	3032.359903
924.349028	3008.016171
924.653454	2978.860658
924.957840	2950.731019
925.262186	2933.447423
925.566493	2907.561098
925.870761	2886.494116
926.174989	2875.706047
926.479178	2858.876155
926.783328	2842.058866
927.087438	2834.313133
927.391509	2816.797644
927.695541	2805.460089
927.999533	2796.756537
928.303486	2788.710855
928.607400	2780.866820
928.911275	2775.180398
929.215110	2769.809049
929.518906	2764.649428
929.822663	2766.386105
930.126381	2766.890221
930.430060	2768.679830
930.733699	2770.043462
931.037299	2773.932712
931.340861	2769.667896
931.644383	2772.833741
931.947866	2775.629061
932.251309	2769.940119
932.554714	2768.659666
932.858080	2769.307454
933.161407	2763.527771
933.464694	2762.201947
933.767943	2760.878645
934.071153	2755.988725
934.374323	2750.619897
934.677455	2748.623600
934.980548	2746.024885
935.283602	2742.037332
935.586617	2741.268556
935.889593	2745.021695
936.192530	2742.165882
936.495428	2753.682397
936.798287	2759.961155
937.101108	2771.790222
937.403890	2794.490538
937.706632	2819.018272
938.009336	2850.076821
938.312002	2879.323075
938.614628	2901.226888
938.917216	2922.699683
939.219765	2931.743513
939.522275	2942.370265
939.824747	2942.057714
940.127179	2933.593617
940.429573	2929.293512
940.731929	2930.500869
941.034246	2919.097779
941.336524	2918.686925
941.638763	2912.151069
941.940964	2906.363824
942.243126	2891.631052
942.545250	2882.536810
942.847335	2865.631301
943.149381	2852.846935
943.451389	2841.101046
943.753359	2828.498162
944.055290	2819.497182
944.357182	2810.927220
944.659036	2804.713998
944.960851	2801.969090
945.262628	2799.269552
945.564367	2796.146557
945.866067	2796.370888
946.167729	2795.428192
946.469352	2795.067750
946.770937	2790.475259
947.072484	2785.424023
947.373992	2783.480658
947.675462	2780.400513
947.976893	2777.196860
948.278286	2772.503545
948.579641	2768.989861
948.880958	2764.704880
949.182236	2766.381064
949.483476	2762.819489
949.784678	2763.084149
950.085841	2764.278903
950.386967	2765.743358
950.688054	2772.475819
950.989103	2779.452776
951.290114	2786.487706
951.591087	2799.261990
951.892021	2810.037456
952.192917	2821.692604
952.493776	2833.877073
952.794596	2834.050993
953.095378	2836.485870
953.396122	2836.906806
953.696828	2834.179542
953.997496	2828.346927
954.298126	2822.811740
954.598718	2810.665080
954.899272	2800.121507
955.199788	2788.713376
955.500266	2775.956736
955.800706	2762.620363
956.101108	2746.501274
956.401472	2737.853174
956.701798	2724.053016
957.002087	2708.506097
957.302337	2699.346321
957.602550	2690.882223
957.902724	2681.954340
958.202861	2670.352124
958.502960	2664.300219
958.803022	2659.518685
959.103045	2650.147180
959.403031	2645.060656
959.702979	2639.091929
960.002889	2636.518420
960.302762	2627.381329
960.602596	2625.904271
960.902393	2621.863786
961.202153	2621.654578
961.501875	2614.266767
961.801559	2613.414812
962.101205	2611.237034
962.400814	2610.097733
962.700385	2608.330809
962.999918	2607.362907
963.299414	2604.439038
963.598873	2603.735797
963.898293	2602.135231
964.197677	2599.113059
964.497022	2600.569952
964.796331	2600.668255
965.095601	2594.878490
965.394835	2594.664241
965.694030	2594.949066
965.993189	2592.859507
966.292309	2594.197934
966.591393	2592.874631
966.890439	2593.910588
967.189447	2595.871597
967.488419	2594.565938
967.787353	2593.961000
968.086249	2594.351689
968.385108	2597.812441
968.683930	2596.065681
968.982714	2599.148347
969.281462	2599.176073
969.580172	2597.532657
969.878844	2602.442741
970.177480	2607.544389
970.476078	2607.042794
970.774639	2611.617641
971.073162	2610.863988
971.371649	2615.511932
971.670098	2610.460696
971.968510	2613.850872
972.266885	2614.677621
972.565223	2620.661471
972.863524	2620.812706
973.161788	2623.373612
973.460014	2623.030813
973.758204	2624.162552
974.056356	2624.291102
974.354471	2624.797738
974.652550	2626.070629
974.950591	2623.164404
975.248595	2626.191617
975.546563	2624.664147
975.844493	2622.582151
976.142386	2619.348250
976.440243	2617.188116
976.738062	2617.669546
977.035845	2615.055708
977.333590	2609.684358
977.631299	2611.098402
977.928971	2609.059255
978.226606	2607.499018
978.524204	2606.803339
978.821765	2602.644387
979.119290	2603.329984
979.416777	2601.603389
979.714228	2605.086826
980.011642	2605.510283
980.309020	2608.013216
980.606360	2612.900615
980.903664	2621.483179
981.200931	2634.554891
981.498162	2653.444094
981.795356	2683.771676
982.092513	2716.788713
982.389633	2757.901843
982.686717	2799.234264
982.983764	2828.238542
983.280775	2847.367201
983.577749	2844.523990
983.874686	2837.975531
984.171587	2823.381391
984.468451	2806.624595
984.765279	2788.632717
985.062070	2770.280397
985.358824	2753.400093
985.655543	2728.832030
985.952224	2711.644216
986.248869	2686.776204
986.545478	2659.548932
986.842050	2641.562095
987.138586	2621.798251
987.435086	2612.751901
987.731549	2598.664396
988.027975	2597.648604
988.324366	2588.214084
988.620719	2585.524629
988.917037	2582.326017
989.213318	2578.514904
989.509563	2576.745459
989.805772	2577.642785
990.101944	2573.156158
990.398080	2573.319995
990.694180	2571.079202
990.990244	2572.031980
991.286271	2571.185067
991.582262	2572.468040
991.878217	2571.895869
992.174136	2573.748493
992.470019	2572.810839
992.765865	2577.042887
993.061676	2578.335943
993.357450	2578.706468
993.653188	2585.141501
993.948890	2586.570668
994.244556	2596.327821
994.540186	2605.911055
994.835780	2614.697786
995.131337	2627.966103
995.426859	2644.359935
995.722345	2663.120589
996.017795	2680.752025
996.313208	2692.197965
996.608586	2701.796322
996.903928	2706.451827
997.199234	2706.923175
997.494504	2701.735828
997.789738	2693.596885
998.084936	2686.463652
998.380099	2675.491581
998.675225	2662.654282
998.970316	2651.283960
999.265371	2640.092598
999.560390	2625.286730
999.855373	2614.309617
1000.150320	2605.517845
1000.445232	2595.894282
1000.740108	2587.662078
1001.034948	2583.359453
1001.329752	2577.499112
1001.624521	2573.589697
1001.919254	2565.896896
1002.213951	2567.628532
1002.508613	2561.863973
1002.803239	2561.317008
1003.097829	2558.219219
1003.392384	2561.611915
1003.686903	2561.979920
1003.981386	2558.632593
1004.275834	2557.775597
1004.570246	2556.885834
1004.864623	2555.865000
1005.158964	2553.969526
1005.453270	2555.398693
1005.747540	2554.841646
1006.041775	2552.908363
1006.335974	2553.215874
1006.630138	2551.511964
1006.924266	2552.817623
1007.218359	2550.360060
1007.512416	2553.578837
1007.806438	2551.146480
1008.100425	2552.338713
1008.394376	2551.610266
1008.688292	2549.608928
1008.982172	2549.684545
1009.276017	2550.155893
1009.569827	2548.678835
1009.863602	2547.602549
1010.157341	2549.182951
1010.451045	2550.355019
1010.744714	2548.187323
1011.038347	2548.915769
1011.331945	2546.281767
1011.625508	2549.341747
1011.919036	2545.949050
1012.212528	2546.357384
1012.505986	2546.148176
1012.799408	2547.405944
1013.092795	2546.304452
1013.386147	2547.889895
1013.679464	2546.894267
1013.972745	2546.261602
1014.265992	2546.420398
1014.559204	2543.914945
1014.852380	2544.040974
1015.145521	2546.715306
1015.438628	2544.746735
1015.731699	2544.983669
1016.024736	2547.700851
1016.317737	2544.739173
1016.610703	2545.928886
1016.903635	2543.965356
1017.196531	2541.749769
1017.489393	2544.144317
1017.782219	2544.865202
1018.075011	2547.849565
1018.367768	2546.601880
1018.660490	2548.353681
1018.953177	2548.353681
1019.245829	2548.353681
