Dividing Wavelength (nm)	Counts (n)	Blue Motor Position (mm): 5.800000	Red Motor Position (mm): 0.000000	
326.493990	2089.558269
326.888308	2089.558269
327.282561	2089.558269
327.676750	2099.640577
328.070874	2097.120000
328.464933	2102.161154
328.858929	2094.599423
329.252859	2147.531538
329.646726	2112.243462
330.040528	2147.531538
330.434265	2145.010962
330.827938	2155.093269
331.221547	2167.696154
331.615091	2185.340192
332.008571	2192.901923
332.401986	2271.039808
332.795338	2210.545962
333.188625	2167.696154
333.581847	2306.327885
333.975006	2286.163269
334.368100	2293.725000
334.761129	2278.601538
335.154095	2318.930769
335.546996	2346.657115
335.939833	2326.492500
336.332606	2407.150962
336.725315	2419.753846
337.117960	2359.260000
337.510540	2432.356731
337.903056	2407.150962
338.295508	2457.562500
338.687896	2399.589231
339.080220	2369.342308
339.472480	2505.453462
339.864676	2497.891731
340.256807	2457.562500
340.648875	2485.288846
341.040879	2455.041923
341.432818	2523.097500
341.824694	2452.521346
342.216506	2412.192115
342.608253	2502.932885
342.999937	2523.097500
343.391557	2470.165385
343.783113	2490.330000
344.174605	2495.371154
344.566033	2500.412308
344.957397	2419.753846
345.348697	2550.823846
345.739934	2409.671538
346.131106	2442.439038
346.522215	2450.000769
346.913260	2480.247692
347.304241	2475.206538
347.695159	2389.506923
348.086012	2434.877308
348.476802	2500.412308
348.867528	2450.000769
349.258191	2407.150962
349.648789	2475.206538
350.039324	2442.439038
350.429796	2530.659231
350.820203	2429.836154
351.210548	2457.562500
351.600828	2417.233269
351.991045	2535.700385
352.381198	2414.712692
352.771288	2409.671538
353.161314	2497.891731
353.551276	2427.315577
353.941175	2462.603654
354.331010	2497.891731
354.720782	2465.124231
355.110490	2487.809423
355.500135	2397.068654
355.889717	2500.412308
356.279235	2447.480192
356.668689	2402.109808
357.058080	2392.027500
357.447408	2507.974038
357.836672	2424.795000
358.225873	2472.685962
358.615010	2434.877308
359.004084	2399.589231
359.393095	2432.356731
359.782043	2523.097500
360.170927	2470.165385
360.559748	2482.768269
360.948505	2414.712692
361.337199	2389.506923
361.725830	2455.041923
362.114398	2384.465769
362.502903	2414.712692
362.891344	2497.891731
363.279722	2414.712692
363.668037	2422.274423
364.056289	2407.150962
364.444478	2422.274423
364.832603	2507.974038
365.220665	2462.603654
365.608665	2535.700385
365.996601	2356.739423
366.384474	2470.165385
366.772284	2477.727115
367.160031	2515.535769
367.547715	2402.109808
367.935336	2386.986346
368.322893	2450.000769
368.710388	2487.809423
369.097820	2447.480192
369.485189	2419.753846
369.872495	2467.644808
370.259738	2470.165385
370.646918	2518.056346
371.034035	2533.179808
371.421090	2394.548077
371.808081	2376.904038
372.195010	2480.247692
372.581875	2497.891731
372.968678	2439.918462
373.355418	2432.356731
373.742096	2513.015192
374.128710	2419.753846
374.515262	2427.315577
374.901751	2485.288846
375.288177	2384.465769
375.674540	2475.206538
376.060841	2424.795000
376.447079	2497.891731
376.833254	2472.685962
377.219367	2513.015192
377.605417	2427.315577
377.991404	2518.056346
378.377329	2497.891731
378.763191	2510.494615
379.148991	2470.165385
379.534727	2492.850577
379.920402	2442.439038
380.306013	2487.809423
380.691563	2455.041923
381.077049	2404.630385
381.462474	2450.000769
381.847835	2475.206538
382.233134	2482.768269
382.618371	2528.138654
383.003545	2472.685962
383.388657	2419.753846
383.773706	2472.685962
384.158693	2565.947308
384.543618	2507.974038
384.928480	2495.371154
385.313280	2490.330000
385.698017	2399.589231
386.082692	2487.809423
386.467305	2432.356731
386.851856	2462.603654
387.236344	2429.836154
387.620770	2470.165385
388.005133	2523.097500
388.389435	2465.124231
388.773674	2510.494615
389.157851	2429.836154
389.541965	2480.247692
389.926018	2530.659231
390.310008	2427.315577
390.693936	2439.918462
391.077802	2339.095385
391.461606	2480.247692
391.845348	2505.453462
392.229027	2523.097500
392.612645	2450.000769
392.996200	2369.342308
393.379694	2510.494615
393.763125	2502.932885
394.146494	2500.412308
394.529801	2455.041923
394.913047	2475.206538
395.296230	2404.630385
395.679351	2470.165385
396.062410	2465.124231
396.445408	2477.727115
396.828343	2543.262115
397.211217	2417.233269
397.594028	2555.865000
397.976778	2422.274423
398.359466	2457.562500
398.742092	2460.083077
399.124656	2457.562500
399.507158	2457.562500
399.889598	2470.165385
400.271977	2523.097500
400.654294	2505.453462
401.036549	2487.809423
401.418742	2442.439038
401.800874	2414.712692
402.182944	2485.288846
402.564952	2518.056346
402.946898	2482.768269
403.328783	2460.083077
403.710606	2533.179808
404.092367	2533.179808
404.474067	2588.632500
404.855705	2424.795000
405.237282	2495.371154
405.618797	2485.288846
406.000250	2444.959615
406.381642	2467.644808
406.762972	2467.644808
407.144240	2442.439038
407.525447	2462.603654
407.906593	2548.303269
408.287677	2518.056346
408.668700	2502.932885
409.049661	2525.618077
409.430560	2439.918462
409.811399	2437.397885
410.192176	2467.644808
410.572891	2495.371154
410.953545	2523.097500
411.334138	2429.836154
411.714669	2492.850577
412.095139	2482.768269
412.475547	2467.644808
412.855894	2510.494615
413.236180	2429.836154
413.616405	2470.165385
413.996568	2434.877308
414.376670	2518.056346
414.756711	2414.712692
415.136691	2414.712692
415.516609	2520.576923
415.896466	2442.439038
416.276262	2507.974038
416.655997	2543.262115
417.035670	2558.385577
417.415283	2636.523462
417.794834	2480.247692
418.174324	2502.932885
418.553753	2555.865000
418.933121	2442.439038
419.312428	2472.685962
419.691674	2470.165385
420.070859	2480.247692
420.449983	2447.480192
420.829045	2540.741538
421.208047	2555.865000
421.586988	2505.453462
421.965867	2450.000769
422.344686	2533.179808
422.723444	2399.589231
423.102141	2381.945192
423.480777	2507.974038
423.859352	2500.412308
424.237866	2460.083077
424.616319	2414.712692
424.994712	2505.453462
425.373044	2432.356731
425.751314	2475.206538
426.129524	2455.041923
426.507673	2513.015192
426.885762	2588.632500
427.263789	2525.618077
427.641756	2386.986346
428.019662	2472.685962
428.397508	2525.618077
428.775292	2472.685962
429.153016	2497.891731
429.530679	2462.603654
429.908282	2555.865000
430.285824	2507.974038
430.663305	2500.412308
431.040726	2502.932885
431.418086	2465.124231
431.795385	2482.768269
432.172624	2457.562500
432.549802	2485.288846
432.926920	2475.206538
433.303977	2553.344423
433.680974	2434.877308
434.057910	2507.974038
434.434786	2427.315577
434.811601	2528.138654
435.188355	2455.041923
435.565050	2407.150962
435.941683	2432.356731
436.318257	2482.768269
436.694770	2417.233269
437.071222	2402.109808
437.447614	2422.274423
437.823946	2439.918462
438.200218	2520.576923
438.576429	2538.220962
438.952580	2434.877308
439.328670	2439.918462
439.704700	2344.136538
440.080670	2495.371154
440.456580	2442.439038
440.832429	2477.727115
441.208218	2540.741538
441.583947	2502.932885
441.959616	2487.809423
442.335224	2535.700385
442.710773	2482.768269
443.086261	2505.453462
443.461689	2434.877308
443.837057	2457.562500
444.212365	2482.768269
444.587612	2480.247692
444.962800	2538.220962
445.337927	2447.480192
445.712995	2548.303269
446.088002	2560.906154
446.462949	2455.041923
446.837837	2553.344423
447.212664	2472.685962
447.587431	2497.891731
447.962139	2495.371154
448.336786	2427.315577
448.711374	2485.288846
449.085901	2374.383462
449.460369	2543.262115
449.834776	2608.797115
450.209124	2437.397885
450.583412	2573.509038
450.957640	2487.809423
451.331808	2555.865000
451.705917	2518.056346
452.079965	2472.685962
452.453954	2510.494615
452.827883	2573.509038
453.201752	2477.727115
453.575562	2553.344423
453.949311	2429.836154
454.323001	2480.247692
454.696632	2434.877308
455.070202	2432.356731
455.443713	2455.041923
455.817164	2525.618077
456.190556	2581.070769
456.563888	2392.027500
456.937160	2525.618077
457.310373	2457.562500
457.683526	2422.274423
458.056619	2505.453462
458.429653	2465.124231
458.802628	2477.727115
459.175542	2447.480192
459.548398	2434.877308
459.921194	2442.439038
460.293930	2472.685962
460.666607	2513.015192
461.039224	2472.685962
461.411782	2492.850577
461.784280	2455.041923
462.156719	2424.795000
462.529099	2470.165385
462.901419	2460.083077
463.273680	2455.041923
463.645882	2573.509038
464.018024	2518.056346
464.390106	2545.782692
464.762130	2500.412308
465.134094	2507.974038
465.505999	2510.494615
465.877845	2487.809423
466.249631	2558.385577
466.621358	2555.865000
466.993026	2533.179808
467.364634	2465.124231
467.736184	2528.138654
468.107674	2553.344423
468.479105	2502.932885
468.850477	2530.659231
469.221790	2477.727115
469.593043	2528.138654
469.964238	2480.247692
470.335373	2490.330000
470.706449	2525.618077
471.077467	2442.439038
471.448425	2487.809423
471.819324	2455.041923
472.190164	2450.000769
472.560945	2568.467885
472.931667	2495.371154
473.302330	2477.727115
473.672934	2452.521346
474.043479	2480.247692
474.413965	2518.056346
474.784393	2513.015192
475.154761	2523.097500
475.525070	2515.535769
475.895321	2495.371154
476.265513	2447.480192
476.635645	2520.576923
477.005719	2530.659231
477.375734	2482.768269
477.745691	2462.603654
478.115588	2497.891731
478.485427	2581.070769
478.855207	2424.795000
479.224928	2485.288846
479.594591	2520.576923
479.964194	2518.056346
480.333739	2414.712692
480.703226	2417.233269
481.072653	2507.974038
481.442022	2581.070769
481.811333	2482.768269
482.180584	2533.179808
482.549777	2487.809423
482.918912	2528.138654
483.287988	2586.111923
483.657005	2475.206538
484.025964	2490.330000
484.394864	2513.015192
484.763706	2523.097500
485.132489	2452.521346
485.501213	2502.932885
485.869879	2485.288846
486.238487	2500.412308
486.607036	2495.371154
486.975527	2490.330000
487.343959	2515.535769
487.712333	2477.727115
488.080648	2555.865000
488.448905	2497.891731
488.817104	2550.823846
489.185244	2487.809423
489.553326	2452.521346
489.921350	2472.685962
490.289315	2482.768269
490.657222	2570.988462
491.025070	2482.768269
491.392861	2500.412308
491.760593	2485.288846
492.128267	2480.247692
492.495883	2439.918462
492.863440	2520.576923
493.230939	2455.041923
493.598380	2507.974038
493.965763	2540.741538
494.333088	2455.041923
494.700354	2611.317692
495.067563	2492.850577
495.434713	2523.097500
495.801805	2485.288846
496.168839	2533.179808
496.535815	2515.535769
496.902733	2419.753846
497.269593	2455.041923
497.636395	2452.521346
498.003139	2495.371154
498.369825	2462.603654
498.736453	2455.041923
499.103023	2548.303269
499.469535	2525.618077
499.835989	2563.426731
500.202385	2555.865000
500.568723	2457.562500
500.935003	2533.179808
501.301226	2513.015192
501.667390	2510.494615
502.033497	2427.315577
502.399546	2417.233269
502.765537	2490.330000
503.131470	2505.453462
503.497345	2530.659231
503.863163	2462.603654
504.228923	2538.220962
504.594625	2550.823846
504.960269	2543.262115
505.325856	2500.412308
505.691385	2560.906154
506.056856	2502.932885
506.422270	2490.330000
506.787625	2540.741538
507.152924	2505.453462
507.518164	2480.247692
507.883347	2470.165385
508.248472	2364.301154
508.613540	2414.712692
508.978550	2487.809423
509.343503	2520.576923
509.708398	2550.823846
510.073236	2523.097500
510.438016	2462.603654
510.802738	2477.727115
511.167403	2485.288846
511.532010	2480.247692
511.896561	2505.453462
512.261053	2485.288846
512.625488	2518.056346
512.989866	2507.974038
513.354186	2460.083077
513.718449	2457.562500
514.082655	2487.809423
514.446803	2467.644808
514.810894	2528.138654
515.174927	2570.988462
515.538904	2548.303269
515.902822	2427.315577
516.266684	2437.397885
516.630488	2553.344423
516.994235	2530.659231
517.357925	2563.426731
517.721558	2482.768269
518.085133	2472.685962
518.448651	2465.124231
518.812112	2540.741538
519.175516	2480.247692
519.538863	2475.206538
519.902152	2505.453462
520.265385	2578.550192
520.628560	2470.165385
520.991678	2535.700385
521.354739	2533.179808
521.717743	2528.138654
522.080690	2477.727115
522.443580	2540.741538
522.806413	2477.727115
523.169189	2530.659231
523.531908	2437.397885
523.894569	2437.397885
524.257174	2520.576923
524.619722	2523.097500
524.982213	2409.671538
525.344647	2502.932885
525.707025	2507.974038
526.069345	2485.288846
526.431608	2379.424615
526.793815	2525.618077
527.155964	2434.877308
527.518057	2447.480192
527.880093	2583.591346
528.242072	2450.000769
528.603995	2472.685962
528.965860	2568.467885
529.327669	2442.439038
529.689421	2530.659231
530.051117	2545.782692
530.412755	2555.865000
530.774337	2467.644808
531.135862	2490.330000
531.497331	2439.918462
531.858743	2497.891731
532.220098	2477.727115
532.581396	2523.097500
532.942638	2429.836154
533.303824	2434.877308
533.664953	2513.015192
534.026025	2422.274423
534.387040	2475.206538
534.747999	2525.618077
535.108902	2477.727115
535.469748	2540.741538
535.830537	2490.330000
536.191270	2482.768269
536.551947	2533.179808
536.912567	2573.509038
537.273131	2576.029615
537.633638	2545.782692
537.994089	2495.371154
538.354483	2540.741538
538.714821	2470.165385
539.075103	2472.685962
539.435328	2432.356731
539.795497	2477.727115
540.155609	2530.659231
540.515665	2555.865000
540.875665	2490.330000
541.235609	2576.029615
541.595496	2386.986346
541.955328	2444.959615
542.315102	2558.385577
542.674821	2490.330000
543.034483	2492.850577
543.394090	2543.262115
543.753640	2472.685962
544.113134	2563.426731
544.472571	2535.700385
544.831953	2505.453462
545.191278	2500.412308
545.550548	2480.247692
545.909761	2510.494615
546.268918	2523.097500
546.628019	2472.685962
546.987064	2530.659231
547.346053	2555.865000
547.704986	2550.823846
548.063863	2495.371154
548.422684	2530.659231
548.781449	2530.659231
549.140158	2452.521346
549.498811	2485.288846
549.857408	2432.356731
550.215949	2505.453462
550.574434	2530.659231
550.932864	2510.494615
551.291237	2573.509038
551.649555	2434.877308
552.007817	2528.138654
552.366022	2409.671538
552.724173	2470.165385
553.082267	2545.782692
553.440305	2523.097500
553.798288	2422.274423
554.156215	2475.206538
554.514086	2485.288846
554.871902	2427.315577
555.229661	2460.083077
555.587365	2434.877308
555.945014	2482.768269
556.302606	2462.603654
556.660143	2487.809423
557.017625	2490.330000
557.375050	2513.015192
557.732421	2515.535769
558.089735	2570.988462
558.446994	2573.509038
558.804197	2465.124231
559.161345	2520.576923
559.518437	2492.850577
559.875474	2470.165385
560.232455	2555.865000
560.589381	2462.603654
560.946251	2525.618077
561.303065	2485.288846
561.659825	2545.782692
562.016528	2497.891731
562.373177	2581.070769
562.729770	2472.685962
563.086307	2492.850577
563.442789	2467.644808
563.799216	2472.685962
564.155587	2475.206538
564.511904	2545.782692
564.868164	2444.959615
565.224370	2528.138654
565.580520	2495.371154
565.936615	2507.974038
566.292654	2548.303269
566.648638	2588.632500
567.004567	2447.480192
567.360441	2518.056346
567.716260	2472.685962
568.072023	2553.344423
568.427732	2497.891731
568.783385	2563.426731
569.138982	2427.315577
569.494525	2550.823846
569.850013	2545.782692
570.205445	2482.768269
570.560823	2460.083077
570.916145	2523.097500
571.271412	2611.317692
571.626625	2528.138654
571.981782	2490.330000
572.336884	2555.865000
572.691931	2510.494615
573.046923	2485.288846
573.401860	2507.974038
573.756743	2444.959615
574.111570	2447.480192
574.466342	2384.465769
574.821059	2467.644808
575.175722	2437.397885
575.530330	2543.262115
575.884882	2432.356731
576.239380	2487.809423
576.593823	2507.974038
576.948211	2492.850577
577.302544	2439.918462
577.656823	2409.671538
578.011047	2472.685962
578.365216	2457.562500
578.719330	2460.083077
579.073389	2444.959615
579.427394	2409.671538
579.781344	2525.618077
580.135239	2583.591346
580.489080	2490.330000
580.842866	2553.344423
581.196597	2434.877308
581.550273	2482.768269
581.903895	2434.877308
582.257463	2515.535769
582.610975	2586.111923
582.964434	2467.644808
583.317837	2480.247692
583.671186	2482.768269
584.024481	2507.974038
584.377721	2462.603654
584.730906	2507.974038
585.084037	2570.988462
585.437113	2500.412308
585.790135	2548.303269
586.143103	2530.659231
586.496016	2487.809423
586.848874	2429.836154
587.201679	2530.659231
587.554428	2543.262115
587.907124	2570.988462
588.259765	2507.974038
588.612352	2429.836154
588.964884	2510.494615
589.317362	2545.782692
589.669786	2409.671538
590.022155	2578.550192
590.374470	2480.247692
590.726731	2515.535769
591.078937	2523.097500
591.431090	2530.659231
591.783188	2507.974038
592.135232	2495.371154
592.487222	2533.179808
592.839157	2490.330000
593.191038	2475.206538
593.542866	2548.303269
593.894639	2477.727115
594.246358	2429.836154
594.598022	2560.906154
594.949633	2477.727115
595.301190	2492.850577
595.652692	2487.809423
596.004141	2520.576923
596.355535	2505.453462
596.706876	2598.714808
597.058162	2525.618077
597.409395	2407.150962
597.760573	2520.576923
598.111698	2492.850577
598.462768	2492.850577
598.813785	2553.344423
599.164748	2507.974038
599.515657	2444.959615
599.866511	2429.836154
600.217312	2505.453462
600.568060	2450.000769
600.918753	2507.974038
601.269392	2492.850577
601.619978	2439.918462
601.970510	2452.521346
602.320988	2540.741538
602.671412	2457.562500
603.021783	2505.453462
603.372100	2460.083077
603.722363	2470.165385
604.072572	2510.494615
604.422728	2467.644808
604.772830	2472.685962
605.122878	2565.947308
605.472872	2480.247692
605.822813	2530.659231
606.172701	2533.179808
606.522534	2525.618077
606.872314	2482.768269
607.222041	2510.494615
607.571714	2576.029615
607.921333	2505.453462
608.270899	2563.426731
608.620411	2470.165385
608.969870	2500.412308
609.319276	2457.562500
609.668627	2442.439038
610.017926	2495.371154
610.367171	2460.083077
610.716362	2409.671538
611.065500	2487.809423
611.414585	2470.165385
611.763616	2553.344423
612.112594	2470.165385
612.461518	2465.124231
612.810389	2502.932885
613.159207	2560.906154
613.507971	2364.301154
613.856682	2399.589231
614.205340	2482.768269
614.553945	2455.041923
614.902496	2434.877308
615.250994	2477.727115
615.599439	2490.330000
615.947830	2565.947308
616.296169	2472.685962
616.644454	2543.262115
616.992686	2502.932885
617.340864	2525.618077
617.688990	2492.850577
618.037063	2510.494615
618.385082	2465.124231
618.733048	2565.947308
619.080961	2507.974038
619.428821	2535.700385
619.776628	2490.330000
620.124382	2533.179808
620.472083	2417.233269
620.819731	2407.150962
621.167326	2528.138654
621.514868	2455.041923
621.862357	2485.288846
622.209793	2487.809423
622.557176	2523.097500
622.904506	2533.179808
623.251783	2452.521346
623.599007	2538.220962
623.946179	2472.685962
624.293297	2555.865000
624.640363	2490.330000
624.987376	2500.412308
625.334336	2487.809423
625.681243	2515.535769
626.028097	2447.480192
626.374899	2470.165385
626.721647	2570.988462
627.068343	2437.397885
627.414987	2553.344423
627.761577	2482.768269
628.108115	2596.194231
628.454600	2460.083077
628.801032	2462.603654
629.147412	2444.959615
629.493739	2525.618077
629.840014	2538.220962
630.186236	2480.247692
630.532405	2550.823846
630.878521	2573.509038
631.224585	2513.015192
631.570597	2497.891731
631.916556	2450.000769
632.262462	2429.836154
632.608316	2525.618077
632.954117	2485.288846
633.299866	2452.521346
633.645562	2570.988462
633.991206	2540.741538
634.336797	2543.262115
634.682336	2477.727115
635.027823	2525.618077
635.373257	2565.947308
635.718639	2495.371154
636.063968	2505.453462
636.409245	2477.727115
636.754470	2518.056346
637.099642	2543.262115
637.444762	2392.027500
637.789829	2523.097500
638.134845	2492.850577
638.479808	2502.932885
638.824719	2505.453462
639.169577	2530.659231
639.514383	2424.795000
639.859137	2475.206538
640.203839	2414.712692
640.548489	2482.768269
640.893086	2495.371154
641.237632	2553.344423
641.582125	2462.603654
641.926566	2507.974038
642.270955	2520.576923
642.615292	2361.780577
642.959576	2480.247692
643.303809	2525.618077
643.647990	2538.220962
643.992118	2485.288846
644.336195	2555.865000
644.680219	2480.247692
645.024192	2523.097500
645.368112	2563.426731
645.711981	2568.467885
646.055797	2467.644808
646.399562	2460.083077
646.743274	2525.618077
647.086935	2530.659231
647.430544	2437.397885
647.774101	2523.097500
648.117606	2530.659231
648.461059	2538.220962
648.804460	2631.482308
649.147810	2407.150962
649.491108	2455.041923
649.834354	2424.795000
650.177548	2518.056346
650.520690	2560.906154
650.863781	2412.192115
651.206820	2462.603654
651.549807	2513.015192
651.892742	2477.727115
652.235626	2540.741538
652.578458	2409.671538
652.921238	2500.412308
653.263967	2540.741538
653.606644	2513.015192
653.949269	2485.288846
654.291843	2555.865000
654.634365	2560.906154
654.976836	2480.247692
655.319255	2460.083077
655.661622	2558.385577
656.003938	2437.397885
656.346203	2475.206538
656.688416	2510.494615
657.030577	2465.124231
657.372687	2563.426731
657.714746	2507.974038
658.056753	2492.850577
658.398708	2480.247692
658.740612	2513.015192
659.082465	2495.371154
659.424266	2533.179808
659.766016	2475.206538
660.107715	2404.630385
660.449362	2530.659231
660.790958	2467.644808
661.132503	2505.453462
661.473996	2432.356731
661.815438	2543.262115
662.156829	2515.535769
662.498168	2543.262115
662.839456	2442.439038
663.180693	2439.918462
663.521879	2520.576923
663.863013	2593.673654
664.204097	2540.741538
664.545129	2525.618077
664.886110	2480.247692
665.227040	2490.330000
665.567918	2611.317692
665.908746	2535.700385
666.249522	2543.262115
666.590248	2540.741538
666.930922	2545.782692
667.271545	2540.741538
667.612118	2497.891731
667.952639	2475.206538
668.293109	2495.371154
668.633528	2628.961731
668.973896	2586.111923
669.314213	2613.838269
669.654480	2467.644808
669.994695	2487.809423
670.334859	2467.644808
670.674973	2462.603654
671.015035	2495.371154
671.355047	2386.986346
671.695008	2528.138654
672.034918	2502.932885
672.374777	2495.371154
672.714585	2518.056346
673.054342	2402.109808
673.394049	2513.015192
673.733705	2495.371154
674.073310	2437.397885
674.412864	2487.809423
674.752368	2505.453462
675.091820	2581.070769
675.431223	2447.480192
675.770574	2482.768269
676.109875	2538.220962
676.449125	2548.303269
676.788324	2429.836154
677.127473	2457.562500
677.466571	2616.358846
677.805619	2553.344423
678.144616	2452.521346
678.483562	2535.700385
678.822458	2467.644808
679.161303	2472.685962
679.500098	2450.000769
679.838842	2455.041923
680.177535	2507.974038
680.516179	2518.056346
680.854771	2500.412308
681.193314	2495.371154
681.531805	2513.015192
681.870247	2543.262115
682.208638	2497.891731
682.546978	2460.083077
682.885268	2538.220962
683.223508	2429.836154
683.561697	2470.165385
683.899836	2578.550192
684.237925	2455.041923
684.575963	2477.727115
684.913951	2545.782692
685.251889	2444.959615
685.589776	2502.932885
685.927614	2518.056346
686.265401	2533.179808
686.603137	2447.480192
686.940824	2412.192115
687.278460	2475.206538
687.616046	2533.179808
687.953582	2429.836154
688.291068	2422.274423
688.628504	2525.618077
688.965889	2412.192115
689.303224	2485.288846
689.640510	2444.959615
689.977745	2505.453462
690.314930	2452.521346
690.652065	2480.247692
690.989150	2548.303269
691.326185	2528.138654
691.663170	2492.850577
692.000105	2510.494615
692.336990	2505.453462
692.673825	2528.138654
693.010610	2452.521346
693.347345	2515.535769
693.684030	2500.412308
694.020665	2553.344423
694.357251	2502.932885
694.693786	2520.576923
695.030272	2502.932885
695.366707	2505.453462
695.703093	2601.235385
696.039429	2419.753846
696.375716	2495.371154
696.711952	2510.494615
697.048139	2497.891731
697.384276	2460.083077
697.720363	2399.589231
698.056400	2502.932885
698.392388	2535.700385
698.728326	2583.591346
699.064214	2475.206538
699.400053	2470.165385
699.735842	2485.288846
700.071581	2502.932885
700.407270	2475.206538
700.742910	2497.891731
701.078501	2450.000769
701.414042	2427.315577
701.749533	2419.753846
702.084974	2497.891731
702.420366	2437.397885
702.755709	2550.823846
703.091002	2608.797115
703.426246	2606.276538
703.761440	2487.809423
704.096584	2588.632500
704.431679	2490.330000
704.766725	2513.015192
705.101721	2528.138654
705.436668	2513.015192
705.771565	2513.015192
706.106413	2576.029615
706.441212	2480.247692
706.775961	2502.932885
707.110661	2470.165385
707.445311	2540.741538
707.779913	2462.603654
708.114465	2505.453462
708.448967	2596.194231
708.783421	2545.782692
709.117825	2480.247692
709.452180	2581.070769
709.786485	2518.056346
710.120742	2497.891731
710.454949	2487.809423
710.789107	2515.535769
711.123216	2409.671538
711.457275	2477.727115
711.791286	2472.685962
712.125247	2513.015192
712.459159	2518.056346
712.793023	2515.535769
713.126837	2457.562500
713.460602	2434.877308
713.794318	2485.288846
714.127985	2457.562500
714.461602	2502.932885
714.795171	2457.562500
715.128691	2376.904038
715.462162	2502.932885
715.795584	2472.685962
716.128957	2520.576923
716.462281	2543.262115
716.795556	2492.850577
717.128782	2495.371154
717.461960	2429.836154
717.795088	2530.659231
718.128167	2485.288846
718.461198	2470.165385
718.794180	2467.644808
719.127113	2470.165385
719.459997	2525.618077
719.792833	2568.467885
720.125619	2560.906154
720.458357	2513.015192
720.791046	2535.700385
721.123686	2477.727115
721.456278	2457.562500
721.788821	2460.083077
722.121315	2485.288846
722.453761	2558.385577
722.786158	2507.974038
723.118506	2543.262115
723.450805	2520.576923
723.783056	2487.809423
724.115259	2568.467885
724.447412	2452.521346
724.779518	2475.206538
725.111574	2545.782692
725.443582	2457.562500
725.775542	2457.562500
726.107453	2520.576923
726.439315	2513.015192
726.771129	2492.850577
727.102895	2497.891731
727.434612	2518.056346
727.766281	2510.494615
728.097901	2475.206538
728.429473	2500.412308
728.760996	2432.356731
729.092471	2442.439038
729.423897	2495.371154
729.755276	2457.562500
730.086606	2520.576923
730.417887	2450.000769
730.749120	2490.330000
731.080305	2518.056346
731.411442	2533.179808
731.742530	2394.548077
732.073570	2485.288846
732.404562	2495.371154
732.735506	2543.262115
733.066401	2535.700385
733.397249	2502.932885
733.728048	2422.274423
734.058798	2482.768269
734.389501	2530.659231
734.720156	2452.521346
735.050762	2414.712692
735.381320	2495.371154
735.711831	2419.753846
736.042293	2555.865000
736.372707	2581.070769
736.703073	2513.015192
737.033391	2452.521346
737.363661	2455.041923
737.693883	2502.932885
738.024056	2530.659231
738.354182	2470.165385
738.684260	2505.453462
739.014290	2492.850577
739.344272	2465.124231
739.674207	2520.576923
740.004093	2480.247692
740.333931	2437.397885
740.663722	2540.741538
740.993464	2417.233269
741.323159	2480.247692
741.652806	2495.371154
741.982405	2528.138654
742.311956	2470.165385
742.641460	2492.850577
742.970915	2525.618077
743.300323	2507.974038
743.629683	2472.685962
743.958996	2565.947308
744.288260	2470.165385
744.617477	2432.356731
744.946647	2538.220962
745.275768	2455.041923
745.604842	2462.603654
745.933869	2450.000769
746.262847	2525.618077
746.591778	2442.439038
746.920662	2502.932885
747.249498	2525.618077
747.578286	2485.288846
747.907027	2528.138654
748.235720	2530.659231
748.564365	2510.494615
748.892963	2513.015192
749.221514	2558.385577
749.550017	2538.220962
749.878473	2530.659231
750.206881	2656.688077
750.535242	2500.412308
750.863555	2518.056346
751.191821	2457.562500
751.520039	2601.235385
751.848210	2507.974038
752.176334	2515.535769
752.504411	2513.015192
752.832440	2507.974038
753.160421	2490.330000
753.488356	2528.138654
753.816243	2457.562500
754.144082	2525.618077
754.471875	2507.974038
754.799620	2520.576923
755.127318	2563.426731
755.454969	2502.932885
755.782572	2492.850577
756.110129	2472.685962
756.437638	2530.659231
756.765100	2429.836154
757.092515	2434.877308
757.419882	2576.029615
757.747203	2540.741538
758.074477	2540.741538
758.401703	2535.700385
758.728882	2507.974038
759.056014	2538.220962
759.383099	2495.371154
759.710138	2535.700385
760.037129	2528.138654
760.364073	2502.932885
760.690970	2513.015192
761.017820	2507.974038
761.344623	2502.932885
761.671379	2497.891731
761.998088	2470.165385
762.324751	2530.659231
762.651366	2533.179808
762.977935	2455.041923
763.304456	2467.644808
763.630931	2455.041923
763.957359	2495.371154
764.283740	2450.000769
764.610074	2513.015192
764.936362	2407.150962
765.262602	2533.179808
765.588796	2407.150962
765.914943	2520.576923
766.241044	2500.412308
766.567097	2507.974038
766.893104	2535.700385
767.219064	2457.562500
767.544978	2500.412308
767.870845	2500.412308
768.196665	2578.550192
768.522438	2457.562500
768.848165	2543.262115
769.173846	2500.412308
769.499479	2515.535769
769.825066	2492.850577
770.150607	2482.768269
770.476101	2570.988462
770.801548	2490.330000
771.126949	2467.644808
771.452303	2550.823846
771.777611	2530.659231
772.102872	2444.959615
772.428087	2485.288846
772.753256	2482.768269
773.078378	2490.330000
773.403453	2495.371154
773.728482	2457.562500
774.053465	2402.109808
774.378401	2439.918462
774.703291	2490.330000
775.028135	2462.603654
775.352932	2467.644808
775.677683	2470.165385
776.002388	2495.371154
776.327046	2520.576923
776.651658	2576.029615
776.976224	2507.974038
777.300743	2475.206538
777.625216	2553.344423
777.949643	2495.371154
778.274024	2513.015192
778.598359	2477.727115
778.922647	2507.974038
779.246889	2515.535769
779.571086	2472.685962
779.895236	2555.865000
780.219339	2523.097500
780.543397	2518.056346
780.867409	2502.932885
781.191374	2505.453462
781.515294	2573.509038
781.839167	2500.412308
782.162995	2467.644808
782.486776	2470.165385
782.810511	2528.138654
783.134201	2460.083077
783.457844	2450.000769
783.781441	2472.685962
784.104993	2505.453462
784.428498	2442.439038
784.751958	2480.247692
785.075372	2434.877308
785.398739	2500.412308
785.722061	2502.932885
786.045337	2545.782692
786.368568	2439.918462
786.691752	2432.356731
787.014891	2495.371154
787.337983	2490.330000
787.661030	2472.685962
787.984031	2540.741538
788.306987	2490.330000
788.629897	2513.015192
788.952760	2525.618077
789.275579	2515.535769
789.598351	2565.947308
789.921078	2419.753846
790.243759	2470.165385
790.566395	2487.809423
790.888984	2472.685962
791.211529	2371.862885
791.534027	2555.865000
791.856480	2545.782692
792.178888	2457.562500
792.501249	2495.371154
792.823566	2414.712692
793.145836	2518.056346
793.468062	2497.891731
793.790241	2457.562500
794.112375	2518.056346
794.434464	2477.727115
794.756507	2487.809423
795.078505	2533.179808
795.400457	2467.644808
795.722364	2447.480192
796.044226	2381.945192
796.366042	2452.521346
796.687812	2540.741538
797.009538	2412.192115
797.331218	2513.015192
797.652852	2444.959615
797.974442	2525.618077
798.295986	2414.712692
798.617484	2515.535769
798.938938	2450.000769
799.260346	2543.262115
799.581709	2507.974038
799.903026	2447.480192
800.224299	2487.809423
800.545526	2465.124231
800.866708	2576.029615
801.187845	2487.809423
801.508936	2467.644808
801.829983	2437.397885
802.150984	2513.015192
802.471940	2427.315577
802.792851	2507.974038
803.113717	2407.150962
803.434538	2432.356731
803.755314	2450.000769
804.076045	2568.467885
804.396731	2477.727115
804.717372	2533.179808
805.037967	2409.671538
805.358518	2490.330000
805.679024	2437.397885
805.999485	2523.097500
806.319901	2450.000769
806.640272	2404.630385
806.960598	2581.070769
807.280879	2513.015192
807.601115	2404.630385
807.921306	2505.453462
808.241453	2437.397885
808.561554	2444.959615
808.881611	2424.795000
809.201623	2492.850577
809.521590	2477.727115
809.841513	2518.056346
810.161390	2442.439038
810.481223	2381.945192
810.801011	2450.000769
811.120755	2467.644808
811.440453	2583.591346
811.760107	2485.288846
812.079716	2460.083077
812.399281	2399.589231
812.718801	2452.521346
813.038276	2485.288846
813.357707	2528.138654
813.677093	2485.288846
813.996434	2485.288846
814.315731	2555.865000
814.634983	2507.974038
814.954191	2492.850577
815.273354	2462.603654
815.592473	2457.562500
815.911547	2518.056346
816.230577	2513.015192
816.549562	2505.453462
816.868502	2545.782692
817.187399	2427.315577
817.506250	2513.015192
817.825058	2530.659231
818.143821	2462.603654
818.462539	2497.891731
818.781213	2482.768269
819.099843	2520.576923
819.418429	2404.630385
819.736970	2470.165385
820.055466	2553.344423
820.373919	2439.918462
820.692327	2530.659231
821.010691	2427.315577
821.329011	2545.782692
821.647286	2596.194231
821.965517	2560.906154
822.283704	2490.330000
822.601847	2407.150962
822.919945	2462.603654
823.237999	2427.315577
823.556010	2505.453462
823.873976	2485.288846
824.191897	2462.603654
824.509775	2439.918462
824.827609	2593.673654
825.145398	2523.097500
825.463144	2553.344423
825.780845	2455.041923
826.098502	2505.453462
826.416116	2535.700385
826.733685	2535.700385
827.051210	2475.206538
827.368692	2482.768269
827.686129	2538.220962
828.003522	2513.015192
828.320872	2502.932885
828.638177	2502.932885
828.955439	2530.659231
829.272656	2472.685962
829.589830	2505.453462
829.906960	2505.453462
830.224046	2450.000769
830.541088	2465.124231
830.858086	2560.906154
831.175041	2543.262115
831.491952	2482.768269
831.808819	2429.836154
832.125642	2487.809423
832.442421	2465.124231
832.759157	2470.165385
833.075849	2560.906154
833.392497	2470.165385
833.709101	2528.138654
834.025662	2487.809423
834.342179	2510.494615
834.658653	2394.548077
834.975083	2480.247692
835.291469	2467.644808
835.607811	2513.015192
835.924110	2525.618077
836.240366	2487.809423
836.556578	2399.589231
836.872746	2472.685962
837.188871	2465.124231
837.504952	2477.727115
837.820990	2492.850577
838.136984	2424.795000
838.452935	2500.412308
838.768842	2417.233269
839.084706	2482.768269
839.400526	2500.412308
839.716303	2538.220962
840.032037	2439.918462
840.347727	2442.439038
840.663373	2520.576923
840.978977	2470.165385
841.294537	2487.809423
841.610054	2455.041923
841.925527	2510.494615
842.240957	2409.671538
842.556344	2540.741538
842.871687	2482.768269
843.186987	2558.385577
843.502244	2424.795000
843.817458	2460.083077
844.132629	2455.041923
844.447756	2560.906154
844.762840	2437.397885
845.077881	2467.644808
845.392879	2460.083077
845.707833	2482.768269
846.022745	2470.165385
846.337613	2528.138654
846.652438	2639.044038
846.967221	2485.288846
847.281960	2434.877308
847.596656	2510.494615
847.911309	2366.821731
848.225919	2492.850577
848.540485	2533.179808
848.855009	2497.891731
849.169490	2591.153077
849.483928	2482.768269
849.798323	2515.535769
850.112675	2419.753846
850.426984	2492.850577
850.741251	2485.288846
851.055474	2475.206538
851.369654	2442.439038
851.683792	2470.165385
851.997887	2535.700385
852.311938	2538.220962
852.625947	2523.097500
852.939914	2530.659231
853.253837	2500.412308
853.567718	2412.192115
853.881555	2492.850577
854.195350	2505.453462
854.509103	2399.589231
854.822812	2525.618077
855.136479	2510.494615
855.450103	2485.288846
855.763685	2477.727115
856.077224	2515.535769
856.390720	2507.974038
856.704173	2475.206538
857.017584	2518.056346
857.330953	2518.056346
857.644278	2467.644808
857.957561	2462.603654
858.270802	2477.727115
858.584000	2482.768269
858.897155	2457.562500
859.210268	2502.932885
859.523339	2525.618077
859.836367	2613.838269
860.149352	2490.330000
860.462295	2487.809423
860.775195	2515.535769
861.088054	2513.015192
861.400869	2465.124231
861.713642	2470.165385
862.026373	2523.097500
862.339062	2513.015192
862.651708	2414.712692
862.964312	2492.850577
863.276873	2495.371154
863.589392	2465.124231
863.901869	2606.276538
864.214303	2538.220962
864.526696	2475.206538
864.839045	2482.768269
865.151353	2497.891731
865.463619	2502.932885
865.775842	2462.603654
866.088023	2543.262115
866.400162	2480.247692
866.712258	2553.344423
867.024313	2565.947308
867.336325	2555.865000
867.648296	2460.083077
867.960224	2525.618077
868.272110	2545.782692
868.583954	2412.192115
868.895755	2507.974038
869.207515	2490.330000
869.519233	2432.356731
869.830909	2538.220962
870.142542	2439.918462
870.454134	2497.891731
870.765684	2450.000769
871.077191	2525.618077
871.388657	2457.562500
871.700081	2429.836154
872.011463	2497.891731
872.322803	2530.659231
872.634101	2467.644808
872.945357	2613.838269
873.256571	2465.124231
873.567744	2497.891731
873.878874	2439.918462
874.189963	2462.603654
874.501010	2424.795000
874.812015	2497.891731
875.122979	2497.891731
875.433900	2475.206538
875.744780	2515.535769
876.055618	2502.932885
876.366415	2467.644808
876.677169	2407.150962
876.987882	2487.809423
877.298554	2432.356731
877.609183	2550.823846
877.919771	2543.262115
878.230317	2427.315577
878.540822	2487.809423
878.851285	2495.371154
879.161707	2439.918462
879.472087	2470.165385
879.782425	2472.685962
880.092722	2593.673654
880.402977	2497.891731
880.713191	2455.041923
881.023363	2419.753846
881.333494	2505.453462
881.643583	2450.000769
881.953631	2553.344423
882.263637	2568.467885
882.573602	2424.795000
882.883526	2492.850577
883.193408	2495.371154
883.503248	2535.700385
883.813048	2492.850577
884.122806	2472.685962
884.432522	2540.741538
884.742197	2472.685962
885.051831	2553.344423
885.361424	2520.576923
885.670975	2490.330000
885.980485	2500.412308
886.289954	2490.330000
886.599382	2490.330000
886.908768	2525.618077
887.218113	2419.753846
887.527417	2490.330000
887.836680	2384.465769
888.145901	2455.041923
888.455082	2472.685962
888.764221	2505.453462
889.073319	2485.288846
889.382376	2502.932885
889.691392	2507.974038
890.000366	2465.124231
890.309300	2538.220962
890.618193	2507.974038
890.927044	2530.659231
891.235855	2422.274423
891.544625	2538.220962
891.853353	2558.385577
892.162041	2487.809423
892.470687	2475.206538
892.779293	2555.865000
893.087858	2467.644808
893.396381	2417.233269
893.704864	2543.262115
894.013306	2548.303269
894.321707	2427.315577
894.630068	2477.727115
894.938387	2442.439038
895.246665	2444.959615
895.554903	2487.809423
895.863100	2588.632500
896.171256	2467.644808
896.479371	2485.288846
896.787446	2528.138654
897.095480	2482.768269
897.403473	2507.974038
897.711425	2533.179808
898.019336	2482.768269
898.327207	2477.727115
898.635038	2550.823846
898.942827	2482.768269
899.250576	2485.288846
899.558284	2515.535769
899.865952	2487.809423
900.173579	2515.535769
900.481165	2530.659231
900.788711	2538.220962
901.096216	2548.303269
901.403681	2452.521346
901.711105	2543.262115
902.018489	2495.371154
902.325832	2447.480192
902.633135	2593.673654
902.940397	2465.124231
903.247619	2434.877308
903.554800	2487.809423
903.861941	2442.439038
904.169041	2424.795000
904.476101	2502.932885
904.783121	2487.809423
905.090100	2417.233269
905.397039	2485.288846
905.703938	2497.891731
906.010796	2444.959615
906.317614	2462.603654
906.624391	2462.603654
906.931129	2487.809423
907.237826	2472.685962
907.544483	2507.974038
907.851099	2525.618077
908.157675	2525.618077
908.464211	2442.439038
908.770707	2555.865000
909.077163	2523.097500
909.383578	2568.467885
909.689954	2447.480192
909.996289	2495.371154
910.302584	2422.274423
910.608839	2540.741538
910.915054	2447.480192
911.221229	2533.179808
911.527363	2492.850577
911.833458	2424.795000
912.139513	2510.494615
912.445527	2548.303269
912.751502	2475.206538
913.057436	2570.988462
913.363331	2533.179808
913.669186	2465.124231
913.975000	2437.397885
914.280775	2533.179808
914.586510	2475.206538
914.892205	2490.330000
915.197859	2492.850577
915.503475	2548.303269
915.809050	2490.330000
916.114585	2513.015192
916.420081	2485.288846
916.725536	2530.659231
917.030952	2442.439038
917.336328	2510.494615
917.641665	2465.124231
917.946961	2518.056346
918.252218	2475.206538
918.557435	2485.288846
918.862612	2444.959615
919.167750	2452.521346
919.472848	2467.644808
919.777906	2507.974038
920.082925	2472.685962
920.387904	2518.056346
920.692843	2470.165385
920.997743	2497.891731
921.302603	2427.315577
921.607423	2510.494615
921.912204	2457.562500
922.216946	2495.371154
922.521647	2457.562500
922.826310	2568.467885
923.130932	2374.383462
923.435516	2507.974038
923.740059	2457.562500
924.044564	2563.426731
924.349028	2502.932885
924.653454	2412.192115
924.957840	2513.015192
925.262186	2497.891731
925.566493	2485.288846
925.870761	2450.000769
926.174989	2596.194231
926.479178	2414.712692
926.783328	2528.138654
927.087438	2407.150962
927.391509	2500.412308
927.695541	2442.439038
927.999533	2487.809423
928.303486	2507.974038
928.607400	2568.467885
928.911275	2495.371154
929.215110	2510.494615
929.518906	2447.480192
929.822663	2487.809423
930.126381	2578.550192
930.430060	2477.727115
930.733699	2490.330000
931.037299	2452.521346
931.340861	2502.932885
931.644383	2447.480192
931.947866	2593.673654
932.251309	2419.753846
932.554714	2515.535769
932.858080	2394.548077
933.161407	2497.891731
933.464694	2470.165385
933.767943	2475.206538
934.071153	2513.015192
934.374323	2452.521346
934.677455	2518.056346
934.980548	2530.659231
935.283602	2553.344423
935.586617	2414.712692
935.889593	2520.576923
936.192530	2477.727115
936.495428	2535.700385
936.798287	2540.741538
937.101108	2568.467885
937.403890	2520.576923
937.706632	2553.344423
938.009336	2492.850577
938.312002	2510.494615
938.614628	2467.644808
938.917216	2596.194231
939.219765	2465.124231
939.522275	2550.823846
939.824747	2490.330000
940.127179	2492.850577
940.429573	2487.809423
940.731929	2523.097500
941.034246	2455.041923
941.336524	2495.371154
941.638763	2515.535769
941.940964	2518.056346
942.243126	2414.712692
942.545250	2507.974038
942.847335	2513.015192
943.149381	2447.480192
943.451389	2487.809423
943.753359	2507.974038
944.055290	2462.603654
944.357182	2565.947308
944.659036	2502.932885
944.960851	2467.644808
945.262628	2392.027500
945.564367	2520.576923
945.866067	2402.109808
946.167729	2530.659231
946.469352	2482.768269
946.770937	2500.412308
947.072484	2439.918462
947.373992	2495.371154
947.675462	2480.247692
947.976893	2515.535769
948.278286	2460.083077
948.579641	2495.371154
948.880958	2376.904038
949.182236	2525.618077
949.483476	2452.521346
949.784678	2465.124231
950.085841	2497.891731
950.386967	2523.097500
950.688054	2452.521346
950.989103	2525.618077
951.290114	2472.685962
951.591087	2452.521346
951.892021	2500.412308
952.192917	2455.041923
952.493776	2543.262115
952.794596	2505.453462
953.095378	2606.276538
953.396122	2465.124231
953.696828	2437.397885
953.997496	2439.918462
954.298126	2487.809423
954.598718	2482.768269
954.899272	2432.356731
955.199788	2573.509038
955.500266	2606.276538
955.800706	2462.603654
956.101108	2530.659231
956.401472	2394.548077
956.701798	2515.535769
957.002087	2467.644808
957.302337	2450.000769
957.602550	2495.371154
957.902724	2477.727115
958.202861	2548.303269
958.502960	2482.768269
958.803022	2490.330000
959.103045	2528.138654
959.403031	2492.850577
959.702979	2507.974038
960.002889	2439.918462
960.302762	2495.371154
960.602596	2442.439038
960.902393	2586.111923
961.202153	2472.685962
961.501875	2535.700385
961.801559	2563.426731
962.101205	2550.823846
962.400814	2437.397885
962.700385	2505.453462
962.999918	2427.315577
963.299414	2560.906154
963.598873	2540.741538
963.898293	2513.015192
964.197677	2528.138654
964.497022	2507.974038
964.796331	2490.330000
965.095601	2570.988462
965.394835	2520.576923
965.694030	2457.562500
965.993189	2528.138654
966.292309	2490.330000
966.591393	2530.659231
966.890439	2550.823846
967.189447	2533.179808
967.488419	2523.097500
967.787353	2550.823846
968.086249	2581.070769
968.385108	2500.412308
968.683930	2495.371154
968.982714	2505.453462
969.281462	2470.165385
969.580172	2470.165385
969.878844	2429.836154
970.177480	2462.603654
970.476078	2432.356731
970.774639	2550.823846
971.073162	2490.330000
971.371649	2485.288846
971.670098	2460.083077
971.968510	2460.083077
972.266885	2450.000769
972.565223	2470.165385
972.863524	2427.315577
973.161788	2550.823846
973.460014	2450.000769
973.758204	2455.041923
974.056356	2465.124231
974.354471	2548.303269
974.652550	2485.288846
974.950591	2545.782692
975.248595	2482.768269
975.546563	2472.685962
975.844493	2457.562500
976.142386	2502.932885
976.440243	2563.426731
976.738062	2475.206538
977.035845	2535.700385
977.333590	2487.809423
977.631299	2515.535769
977.928971	2520.576923
978.226606	2518.056346
978.524204	2497.891731
978.821765	2422.274423
979.119290	2487.809423
979.416777	2500.412308
979.714228	2447.480192
980.011642	2397.068654
980.309020	2424.795000
980.606360	2502.932885
980.903664	2490.330000
981.200931	2477.727115
981.498162	2457.562500
981.795356	2452.521346
982.092513	2439.918462
982.389633	2525.618077
982.686717	2497.891731
982.983764	2558.385577
983.280775	2465.124231
983.577749	2520.576923
983.874686	2492.850577
984.171587	2437.397885
984.468451	2543.262115
984.765279	2407.150962
985.062070	2565.947308
985.358824	2515.535769
985.655543	2518.056346
985.952224	2601.235385
986.248869	2482.768269
986.545478	2447.480192
986.842050	2472.685962
987.138586	2492.850577
987.435086	2520.576923
987.731549	2515.535769
988.027975	2523.097500
988.324366	2465.124231
988.620719	2510.494615
988.917037	2535.700385
989.213318	2573.509038
989.509563	2510.494615
989.805772	2538.220962
990.101944	2510.494615
990.398080	2533.179808
990.694180	2515.535769
990.990244	2424.795000
991.286271	2513.015192
991.582262	2465.124231
991.878217	2439.918462
992.174136	2487.809423
992.470019	2533.179808
992.765865	2500.412308
993.061676	2548.303269
993.357450	2444.959615
993.653188	2497.891731
993.948890	2460.083077
994.244556	2540.741538
994.540186	2447.480192
994.835780	2422.274423
995.131337	2523.097500
995.426859	2560.906154
995.722345	2500.412308
996.017795	2507.974038
996.313208	2495.371154
996.608586	2525.618077
996.903928	2404.630385
997.199234	2424.795000
997.494504	2442.439038
997.789738	2507.974038
998.084936	2447.480192
998.380099	2573.509038
998.675225	2432.356731
998.970316	2439.918462
999.265371	2447.480192
999.560390	2528.138654
999.855373	2450.000769
1000.150320	2490.330000
1000.445232	2490.330000
1000.740108	2543.262115
1001.034948	2427.315577
1001.329752	2485.288846
1001.624521	2475.206538
1001.919254	2490.330000
1002.213951	2414.712692
1002.508613	2492.850577
1002.803239	2573.509038
1003.097829	2462.603654
1003.392384	2495.371154
1003.686903	2386.986346
1003.981386	2419.753846
1004.275834	2414.712692
1004.570246	2485.288846
1004.864623	2518.056346
1005.158964	2543.262115
1005.453270	2399.589231
1005.747540	2553.344423
1006.041775	2462.603654
1006.335974	2457.562500
1006.630138	2540.741538
1006.924266	2490.330000
1007.218359	2485.288846
1007.512416	2480.247692
1007.806438	2412.192115
1008.100425	2601.235385
1008.394376	2460.083077
1008.688292	2467.644808
1008.982172	2429.836154
1009.276017	2545.782692
1009.569827	2510.494615
1009.863602	2510.494615
1010.157341	2502.932885
1010.451045	2465.124231
1010.744714	2518.056346
1011.038347	2555.865000
1011.331945	2490.330000
1011.625508	2490.330000
1011.919036	2593.673654
1012.212528	2482.768269
1012.505986	2397.068654
1012.799408	2470.165385
1013.092795	2414.712692
1013.386147	2465.124231
1013.679464	2545.782692
1013.972745	2487.809423
1014.265992	2455.041923
1014.559204	2513.015192
1014.852380	2457.562500
1015.145521	2533.179808
1015.438628	2487.809423
1015.731699	2462.603654
1016.024736	2530.659231
1016.317737	2437.397885
1016.610703	2450.000769
1016.903635	2462.603654
1017.196531	2399.589231
1017.489393	2510.494615
1017.782219	2432.356731
1018.075011	2470.165385
1018.367768	2419.753846
1018.660490	2465.124231
1018.953177	2465.124231
1019.245829	2465.124231
