Dividing Wavelength (nm)	Counts (n)	Blue Motor Position (mm): 27.600000	Red Motor Position (mm): 0.000000	
326.493990	2055.908567
326.888308	2055.908567
327.282561	2055.908567
327.676750	2030.218847
328.070874	2034.130783
328.464933	2038.072965
328.858929	2047.111754
329.252859	2055.694318
329.646726	2069.532286
330.040528	2086.894019
330.434265	2104.787595
330.827938	2125.393311
331.221547	2146.425005
331.615091	2165.087357
332.008571	2185.136026
332.401986	2207.092771
332.795338	2230.090515
333.188625	2247.661457
333.581847	2266.850609
333.975006	2283.357867
334.368100	2302.791515
334.761129	2317.552014
335.154095	2335.490960
335.546996	2384.818650
335.939833	2488.863024
336.332606	2498.088336
336.725315	2513.360511
337.117960	2519.707324
337.510540	2531.566638
337.903056	2537.709284
338.295508	2547.519370
338.687896	2550.871737
339.080220	2556.492624
339.472480	2560.921277
339.864676	2568.583831
340.256807	2568.974521
340.648875	2572.359655
341.040879	2570.355797
341.432818	2574.318144
341.824694	2576.211097
342.216506	2575.041549
342.608253	2573.224213
342.999937	2572.168092
343.391557	2573.365366
343.783113	2571.812690
344.174605	2570.784295
344.566033	2564.946639
344.957397	2567.263049
345.348697	2563.872873
345.739934	2561.271637
346.131106	2560.074363
346.522215	2557.316852
346.913260	2560.759960
347.304241	2554.077911
347.695159	2554.826522
348.086012	2551.653116
348.476802	2549.409802
348.867528	2545.969215
349.258191	2543.670449
349.648789	2543.259595
350.039324	2540.358411
350.429796	2544.759338
350.820203	2545.528114
351.210548	2545.787733
351.600828	2541.376724
351.991045	2541.001158
352.381198	2539.934954
352.771288	2542.085006
353.161314	2539.390509
353.551276	2538.500746
353.941175	2540.721374
354.331010	2540.045859
354.720782	2543.766231
355.110490	2545.528114
355.500135	2541.147351
355.889717	2545.376879
356.279235	2542.097609
356.668689	2542.427804
357.058080	2542.692465
357.447408	2542.223638
357.836672	2544.807229
358.225873	2541.689275
358.615010	2546.790923
359.004084	2548.101623
359.393095	2546.246478
359.782043	2545.772610
360.170927	2547.436191
360.559748	2548.439380
360.948505	2548.877961
361.337199	2546.823691
361.725830	2548.951058
362.114398	2547.988197
362.502903	2548.819988
362.891344	2552.563044
363.279722	2550.216387
363.668037	2552.242931
364.056289	2550.428116
364.444478	2550.574309
364.832603	2551.985832
365.220665	2554.156049
365.608665	2553.674619
365.996601	2555.673436
366.384474	2549.674463
366.772284	2554.529094
367.160031	2555.244938
367.547715	2556.971533
367.935336	2552.104299
368.322893	2553.707386
368.710388	2554.095555
369.097820	2553.324258
369.485189	2552.749567
369.872495	2556.164949
370.259738	2558.907336
370.646918	2558.100752
371.034035	2557.780638
371.421090	2555.131512
371.808081	2557.019424
372.195010	2558.430947
372.581875	2557.470607
372.968678	2556.500185
373.355418	2558.551935
373.742096	2558.544373
374.128710	2560.028993
374.515262	2563.010836
374.901751	2562.751216
375.288177	2562.894889
375.674540	2559.509754
376.060841	2562.572255
376.447079	2562.640311
376.833254	2565.024777
377.219367	2562.022769
377.605417	2561.758109
377.991404	2560.951524
378.377329	2563.525033
378.763191	2565.617112
379.148991	2563.817420
379.534727	2565.808676
379.920402	2562.927657
380.306013	2563.399004
380.691563	2565.317163
381.077049	2563.986299
381.462474	2562.988150
381.847835	2565.644838
382.233134	2569.042576
382.618371	2565.448233
383.003545	2566.312791
383.388657	2563.298181
383.773706	2566.499314
384.158693	2570.139027
384.543618	2570.239850
384.928480	2568.979562
385.313280	2567.988975
385.698017	2570.333112
386.082692	2568.997206
386.467305	2569.057700
386.851856	2570.363358
387.236344	2568.611557
387.620770	2566.968141
388.005133	2566.935374
388.389435	2570.270097
388.773674	2566.199365
389.157851	2572.150448
389.541965	2570.585169
389.926018	2573.945098
390.310008	2571.905952
390.693936	2575.833010
391.077802	2572.137845
391.461606	2574.247567
391.845348	2573.834193
392.229027	2573.627506
392.612645	2572.939388
392.996200	2578.146900
393.379694	2576.135480
393.763125	2573.148596
394.146494	2574.807136
394.529801	2577.610017
394.913047	2575.853175
395.296230	2578.030953
395.679351	2576.294276
396.062410	2577.332754
396.445408	2576.659760
396.828343	2578.000707
397.211217	2578.446849
397.594028	2578.759400
397.976778	2578.950964
398.359466	2577.635223
398.742092	2580.468351
399.124656	2577.496591
399.507158	2580.342323
399.889598	2579.772672
400.271977	2581.214442
400.654294	2579.717219
401.036549	2580.775862
401.418742	2583.019175
401.800874	2580.917014
402.182944	2580.498598
402.564952	2579.313927
402.946898	2581.285018
403.328783	2582.444484
403.710606	2585.070925
404.092367	2584.045050
404.474067	2584.113106
404.855705	2588.259455
405.237282	2585.504464
405.618797	2584.135791
406.000250	2584.501274
406.381642	2586.986563
406.762972	2582.089082
407.144240	2585.023034
407.525447	2585.887592
407.906593	2582.310893
408.287677	2586.520257
408.668700	2585.706110
409.049661	2587.987232
409.430560	2590.800196
409.811399	2588.975298
410.192176	2587.084866
410.572891	2588.435895
410.953545	2588.183837
411.334138	2589.434043
411.714669	2589.187027
412.095139	2590.089393
412.475547	2589.668457
412.855894	2593.935794
413.236180	2590.500247
413.616405	2592.970413
413.996568	2589.214753
414.376670	2590.263313
414.756711	2590.104517
415.136691	2592.488983
415.516609	2594.810434
415.896466	2594.611308
416.276262	2593.053592
416.655997	2593.719024
417.035670	2592.872110
417.415283	2598.114910
417.794834	2593.189703
418.174324	2594.331524
418.553753	2595.387646
418.933121	2594.969230
419.312428	2594.611308
419.691674	2595.806062
420.070859	2597.020980
420.449983	2598.160281
420.829045	2597.300764
421.208047	2598.351845
421.586988	2597.043665
421.965867	2600.126331
422.344686	2598.707246
422.723444	2603.357710
423.102141	2600.995930
423.480777	2599.781012
423.859352	2603.377875
424.237866	2603.332505
424.616319	2603.755962
424.994712	2604.494491
425.373044	2603.604727
425.751314	2604.759151
426.129524	2601.386619
426.507673	2602.089860
426.885762	2598.558532
427.263789	2608.555140
427.641756	2606.697475
428.019662	2608.645881
428.397508	2606.861312
428.775292	2610.823659
429.153016	2613.351798
429.530679	2610.753083
429.908282	2613.447580
430.285824	2612.872888
430.663305	2613.326592
431.040726	2613.553444
431.418086	2614.264247
431.795385	2617.588888
432.172624	2615.879937
432.549802	2618.534104
432.926920	2619.280195
433.303977	2620.933693
433.680974	2621.813375
434.057910	2622.625000
434.434786	2623.534929
434.811601	2624.946452
435.188355	2627.928294
435.565050	2626.668006
435.941683	2629.249077
436.318257	2632.596403
436.694770	2635.076650
437.071222	2638.411374
437.447614	2640.347177
437.823946	2645.284987
438.200218	2646.184833
438.576429	2650.749598
438.952580	2654.366626
439.328670	2656.844353
439.704700	2659.864004
440.080670	2666.409942
440.456580	2674.364883
440.832429	2679.842097
441.208218	2683.781758
441.583947	2692.795341
441.959616	2701.521579
442.335224	2708.700182
442.710773	2718.926162
443.086261	2732.373440
443.461689	2738.536251
443.837057	2755.240114
444.212365	2770.040942
444.587612	2782.434618
444.962800	2791.039868
445.337927	2813.031902
445.712995	2814.403096
446.088002	2854.790300
446.462949	2879.749052
446.837837	2901.312588
447.212664	2927.566917
447.587431	2996.257679
447.962139	3076.233065
448.336786	3144.873415
448.711374	3156.541166
449.085901	3122.843573
449.460369	3153.433295
449.834776	3190.334541
450.209124	3302.099442
450.583412	3331.688495
450.957640	3386.690004
451.331808	3399.860018
451.705917	3400.492683
452.079965	3440.433745
452.453954	3507.135772
452.827883	3557.864903
453.201752	3600.807972
453.575562	3657.785613
453.949311	3760.980553
454.323001	3831.861697
454.696632	3882.658884
455.070202	4033.129764
455.443713	4113.311837
455.817164	4206.442113
456.190556	4334.729396
456.563888	4381.400398
456.937160	4494.728057
457.310373	4473.671158
457.683526	4562.022420
458.056619	4651.127335
458.429653	4748.209876
458.802628	4875.824165
459.175542	4978.756964
459.548398	5209.898909
459.921194	5451.481084
460.293930	5644.509385
460.666607	5978.163194
461.039224	6301.520446
461.411782	6491.957594
461.784280	6487.395350
462.156719	6577.266520
462.529099	6663.959243
462.901419	6596.417863
463.273680	6593.720846
463.645882	6782.426358
464.018024	6900.296097
464.390106	7170.242323
464.762130	7757.130933
465.134094	8558.087101
465.505999	9595.087735
465.877845	10567.677546
466.249631	11114.183994
466.621358	11027.324913
466.993026	10860.979439
467.364634	10733.796168
467.736184	10591.217214
468.107674	10504.451395
468.479105	10592.837945
468.850477	10618.240319
469.221790	10573.210213
469.593043	10409.604606
469.964238	10369.769408
470.335373	10574.168032
470.706449	11176.422079
471.077467	11947.204420
471.448425	13426.931788
471.819324	14429.939922
472.190164	14298.822031
472.560945	13490.969565
472.931667	12782.503447
473.302330	12785.790280
473.672934	12663.030622
474.043479	13073.962798
474.413965	13097.235285
474.784393	13131.520172
475.154761	13660.501048
475.525070	13886.990008
475.895321	13914.388679
476.265513	14380.826480
476.635645	14906.235699
477.005719	15080.916721
477.375734	15478.749459
477.745691	16030.024838
478.115588	16636.687374
478.485427	17694.954115
478.855207	19210.186330
479.224928	20624.038420
479.594591	21647.944657
479.964194	21412.147206
480.333739	21850.392354
480.703226	22231.831260
481.072653	22786.884984
481.442022	23319.490449
481.811333	23691.240257
482.180584	23462.936482
482.549777	23451.006591
482.918912	23442.797072
483.287988	23537.253172
483.657005	23545.906313
484.025964	23407.526639
484.394864	23696.825856
484.763706	23775.679584
485.132489	23507.323842
485.501213	23683.547457
485.869879	23968.891888
486.238487	24063.569798
486.607036	24400.301231
486.975527	24282.728920
487.343959	24676.392624
487.712333	25069.179167
488.080648	25150.094728
488.448905	25627.020649
488.817104	25680.701376
489.185244	26575.813694
489.553326	27713.728146
489.921350	29550.906089
490.289315	31791.368778
490.657222	32490.304594
491.025070	32959.184834
491.392861	32712.722822
491.760593	32091.541763
492.128267	31280.604111
492.495883	30515.430054
492.863440	29852.198210
493.230939	29136.203129
493.598380	28747.164684
493.965763	28723.950171
494.333088	28375.641728
494.700354	28299.981571
495.067563	28352.538120
495.434713	28342.183590
495.801805	28687.001034
496.168839	28617.793553
496.535815	28570.081553
496.902733	28765.398538
497.269593	28653.631116
497.636395	28865.175575
498.003139	29209.488903
498.369825	29032.531801
498.736453	29484.788836
499.103023	29396.596370
499.469535	29545.474246
499.835989	29718.945391
500.202385	29638.906991
500.568723	29761.575908
500.935003	30114.554980
501.301226	30063.026826
501.667390	30747.998646
502.033497	30980.564717
502.399546	30832.848827
502.765537	30485.019294
503.131470	30975.868882
503.497345	31431.891659
503.863163	30473.749794
504.228923	31260.346235
504.594625	31668.581394
504.960269	31201.226103
505.325856	31904.267939
505.691385	31614.169700
506.056856	31938.169698
506.422270	32448.301700
506.787625	32031.501621
507.152924	32504.654238
507.518164	32721.796899
507.883347	32310.221976
508.248472	32488.671260
508.613540	33171.868594
508.978550	33441.986220
509.343503	33307.894048
509.708398	33689.048129
510.073236	34306.226512
510.438016	34422.316723
510.802738	34135.379288
511.167403	34695.048188
511.532010	34957.415039
511.896561	35443.987209
512.261053	36209.831739
512.625488	36005.365060
512.989866	35958.452082
513.354186	36017.264703
513.718449	36000.016396
514.082655	36868.884467
514.446803	36603.629034
514.810894	37226.919816
515.174927	37262.651514
515.538904	37274.813298
515.902822	37923.229191
516.266684	37628.672051
516.630488	37993.344079
516.994235	38015.406689
517.357925	38615.934141
517.721558	38902.843850
518.085133	39262.618397
518.448651	39464.199016
518.812112	39363.353254
519.175516	39525.204539
519.538863	39974.762037
519.902152	40032.205985
520.265385	40588.419174
520.628560	40605.692687
520.991678	40579.534140
521.354739	40809.960241
521.717743	41186.126100
522.080690	41104.948400
522.443580	41780.667182
522.806413	41812.300422
523.169189	41963.061169
523.531908	42186.119624
523.894569	42059.652197
524.257174	42262.621654
524.619722	42613.942186
524.982213	42759.797890
525.344647	42780.912763
525.707025	42910.412444
526.069345	43375.700862
526.431608	43282.051347
526.793815	43675.659598
527.155964	43237.358997
527.518057	43492.917771
527.880093	43341.176519
528.242072	43977.649919
528.603995	43726.126589
528.965860	43656.765353
529.327669	43882.561154
529.689421	43941.600628
530.051117	43889.147422
530.412755	44189.925346
530.774337	44243.492646
531.135862	44190.878124
531.497331	44342.626937
531.858743	44338.881359
532.220098	44738.178553
532.581396	44487.960882
532.942638	44244.926855
533.303824	44501.123334
533.664953	44575.954222
534.026025	44242.370990
534.387040	44812.104553
534.747999	44902.741979
535.108902	45201.321959
535.469748	44535.125917
535.830537	44799.037883
536.191270	45037.297937
536.551947	44775.301610
536.912567	45056.913066
537.273131	45242.488022
537.633638	44827.840515
537.994089	45061.306432
538.354483	44798.586699
538.714821	45446.982427
539.075103	45726.070787
539.435328	45595.159583
539.795497	45345.148599
540.155609	45469.496221
540.515665	46054.234779
540.875665	45369.388988
541.235609	45656.092010
541.595496	45767.859432
541.955328	46346.609099
542.315102	45781.347039
542.674821	45675.893662
543.034483	45562.288739
543.394090	45581.994610
543.753640	45561.225056
544.113134	46612.625746
544.472571	45731.709317
544.831953	46852.624998
545.191278	46117.468492
545.550548	45813.930537
545.909761	46445.715663
546.268918	46598.331554
546.628019	47013.500821
546.987064	46450.655994
547.346053	45725.644809
547.704986	46642.512227
548.063863	46294.624720
548.422684	46507.026176
548.781449	46085.837772
549.140158	46625.931872
549.498811	46391.997127
549.857408	45787.890456
550.215949	46616.293186
550.574434	46458.310986
550.932864	46392.718013
551.291237	47110.348948
551.649555	46868.734006
552.007817	47038.424285
552.366022	46701.357616
552.724173	46772.508461
553.082267	47185.184877
553.440305	47534.536838
553.798288	46785.605379
554.156215	47179.354782
554.514086	47356.143006
554.871902	46992.133890
555.229661	47152.369486
555.587365	46855.558950
555.945014	46982.406984
556.302606	46984.156264
556.660143	47101.537011
557.017625	47304.461097
557.375050	47008.013525
557.732421	47420.248839
558.089735	47474.779000
558.446994	47334.314810
558.804197	47825.431580
559.161345	47679.200309
559.518437	47021.244033
559.875474	47284.062068
560.232455	47504.912497
560.589381	47561.597752
560.946251	47363.714819
561.303065	48020.824182
561.659825	47705.346254
562.016528	47512.716204
562.373177	47093.897142
562.729770	47708.040751
563.086307	47246.323990
563.442789	47791.794481
563.799216	47635.831263
564.155587	47515.325001
564.511904	47506.477776
564.868164	47538.968012
565.224370	47840.492027
565.580520	47592.303420
565.936615	47775.446019
566.292654	47428.584387
566.648638	47798.658012
567.004567	47734.542096
567.360441	47834.188064
567.716260	47544.382212
568.072023	47913.893747
568.427732	47851.668265
568.783385	47379.362561
569.138982	47780.116648
569.494525	47916.081608
569.850013	47512.658230
570.205445	47653.618974
570.560823	47419.182635
570.916145	47296.889284
571.271412	47517.422121
571.626625	47181.449382
571.981782	47246.036645
572.336884	46836.314345
572.691931	47167.417330
573.046923	46843.346755
573.401860	46667.029878
573.756743	46686.314813
574.111570	46826.889908
574.466342	46750.229082
574.821059	46885.069865
575.175722	46386.361118
575.530330	46501.977460
575.884882	46127.563403
576.239380	46031.211829
576.593823	46124.170706
576.948211	46054.897690
577.302544	45599.855418
577.656823	45599.053874
578.011047	45858.917793
578.365216	45672.720256
578.719330	45398.894861
579.073389	45386.158386
579.427394	45427.251351
579.781344	45355.621596
580.135239	45119.987983
580.489080	45169.482032
580.842866	44661.338765
581.196597	45164.032544
581.550273	45151.457386
581.903895	45081.700420
582.257463	45532.699687
582.610975	44972.856867
582.964434	45295.455425
583.317837	44804.061392
583.671186	44750.184061
584.024481	45030.923398
584.377721	44577.464047
584.730906	44777.315551
585.084037	44905.812042
585.437113	44617.750428
585.790135	44744.520324
586.143103	44294.158763
586.496016	44456.761180
586.848874	44552.477568
587.201679	44582.164923
587.554428	44091.832053
587.907124	44360.734761
588.259765	44141.729394
588.612352	44285.724913
588.964884	43741.784413
589.317362	44061.411211
589.669786	44047.449735
590.022155	43914.567440
590.374470	44367.595772
590.726731	43923.376857
591.078937	43282.837767
591.431090	43602.673772
591.783188	43146.638392
592.135232	42928.215279
592.487222	43201.544120
592.839157	43335.553112
593.191038	42984.731654
593.542866	42810.080879
593.894639	42208.588047
594.246358	42505.169210
594.598022	42491.769823
594.949633	42077.785228
595.301190	42046.338510
595.652692	42000.335461
596.004141	42469.976915
596.355535	41392.571432
596.706876	41405.655747
597.058162	41128.210804
597.409395	41614.997222
597.760573	41833.972342
598.111698	41429.523090
598.462768	41359.158665
598.813785	41364.565302
599.164748	40972.126599
599.515657	41248.165060
599.866511	40737.254200
600.217312	41455.485032
600.568060	40403.696173
600.918753	41212.703063
601.269392	41137.350416
601.619978	40853.813238
601.970510	41057.216234
602.320988	41201.115971
602.671412	41465.869809
603.021783	41331.563388
603.372100	40905.916084
603.722363	41019.268949
604.072572	41053.594165
604.422728	41029.895701
604.772830	40839.277071
605.122878	40976.313277
605.472872	40846.806035
605.822813	41101.936310
606.172701	40831.601915
606.522534	41176.860459
606.872314	41383.141954
607.222041	41201.972967
607.571714	41543.982488
607.921333	41033.316124
608.270899	41258.723757
608.620411	41645.665082
608.969870	41380.858311
609.319276	41411.992477
609.668627	41431.884871
610.017926	41818.957266
610.367171	41961.742907
610.716362	42005.235462
611.065500	41892.437124
611.414585	42121.764254
611.763616	42298.612972
612.112594	42192.479039
612.461518	42330.062210
612.810389	42691.641490
613.159207	42485.755726
613.507971	42476.091834
613.856682	42964.110815
614.205340	42792.489773
614.553945	43481.872603
614.902496	42824.428003
615.250994	43224.768715
615.599439	43299.166064
615.947830	43403.525510
616.296169	43409.877364
616.644454	43456.898727
616.992686	43630.180828
617.340864	44067.221140
617.688990	43593.365282
618.037063	44261.786994
618.385082	44096.716932
618.733048	44434.776708
619.080961	44303.036235
619.428821	44324.796376
619.776628	44346.977452
620.124382	44156.835212
620.472083	44249.731074
620.819731	44362.080749
621.167326	43902.473712
621.514868	43882.195671
621.862357	43367.337587
622.209793	43442.843990
622.557176	43013.133515
622.904506	42767.762913
623.251783	42385.451888
623.599007	42093.150665
623.946179	42002.462828
624.293297	41760.681527
624.640363	41211.568803
624.987376	41044.134440
625.334336	40840.129026
625.681243	40447.218975
626.028097	40357.622548
626.374899	40163.253299
626.721647	40152.223255
627.068343	39939.859608
627.414987	39655.104992
627.761577	39405.199872
628.108115	39720.912214
628.454600	38973.286413
628.801032	39197.532060
629.147412	39095.917522
629.493739	38999.240794
629.840014	38560.746109
630.186236	39000.218778
630.532405	38446.400137
630.878521	38677.078296
631.224585	38452.764594
631.570597	38126.818709
631.916556	38293.748957
632.262462	38148.745208
632.608316	38106.661656
632.954117	37959.875859
633.299866	37911.810977
633.645562	37830.348452
633.991206	37292.948849
634.336797	36902.367811
634.682336	36787.510161
635.027823	36538.278036
635.373257	36409.310197
635.718639	36095.523576
636.063968	35983.390670
636.409245	35331.740877
636.754470	35291.789733
637.099642	35067.508798
637.444762	34497.500492
637.789829	34643.830064
638.134845	34277.343221
638.479808	34187.020867
638.824719	34138.502282
639.169577	33624.518839
639.514383	33734.055550
639.859137	33342.940150
640.203839	33508.668083
640.548489	33212.465006
640.893086	33203.232133
641.237632	32942.833851
641.582125	33046.515262
641.926566	32841.894828
642.270955	32862.732437
642.615292	32794.818013
642.959576	32683.199305
643.303809	32695.459391
643.647990	32783.114974
643.992118	32728.630183
644.336195	32587.256065
644.680219	32676.290403
645.024192	32886.632548
645.368112	33411.073865
645.711981	33422.013168
646.055797	34152.496525
646.399562	33972.066067
646.743274	34835.356102
647.086935	35223.547633
647.430544	35200.716247
647.774101	35234.645733
648.117606	35514.008836
648.461059	35635.974512
648.804460	35232.755301
649.147810	34731.432715
649.491108	34362.715161
649.834354	34221.325919
650.177548	33391.057963
650.520690	32898.897675
650.863781	32875.902452
651.206820	32706.928016
651.549807	32301.813331
651.892742	31728.724880
652.235626	31628.307616
652.578458	31499.657369
652.921238	30827.061582
653.263967	31122.369854
653.606644	30837.020382
653.949269	30744.190054
654.291843	30350.725476
654.634365	30727.186242
654.976836	30259.969583
655.319255	30336.842138
655.661622	30229.969677
656.003938	30078.069629
656.346203	29902.808874
656.688416	30143.753343
657.030577	29917.710525
657.372687	29734.366280
657.714746	29896.061290
658.056753	30085.432234
658.398708	29459.348653
658.740612	29538.187258
659.082465	29747.269113
659.424266	29643.076025
659.766016	29645.342024
660.107715	29507.554686
660.449362	29604.798544
660.790958	29595.532903
661.132503	29514.365285
661.473996	29591.068962
661.815438	29683.780822
662.156829	29790.791915
662.498168	29602.081362
662.839456	29584.137375
663.180693	29697.792709
663.521879	29797.005137
663.863013	29744.183927
664.204097	29729.708254
664.545129	30149.981688
664.886110	30079.176162
665.227040	30190.588183
665.567918	30171.444401
665.908746	30262.159964
666.249522	30340.796923
666.590248	30361.022032
666.930922	30454.227926
667.271545	30456.589707
667.612118	30517.111279
667.952639	30326.185139
668.293109	30362.352897
668.633528	30235.782127
668.973896	30185.579796
669.314213	30158.750776
669.654480	29975.880399
669.994695	29972.737240
670.334859	29875.349709
670.674973	29712.449864
671.015035	29905.881458
671.355047	29834.617186
671.695008	29769.777865
672.034918	29687.944815
672.374777	29787.641194
672.714585	29651.903086
673.054342	29788.639343
673.394049	29640.235335
673.733705	29865.814367
674.073310	29586.234495
674.412864	29636.192330
674.752368	29328.518107
675.091820	29569.891074
675.431223	29155.576284
675.770574	28953.657908
676.109875	28789.079358
676.449125	28580.914992
676.788324	28473.883734
677.127473	28011.151182
677.466571	27917.531913
677.805619	27638.819120
678.144616	27567.459067
678.483562	27519.558023
678.822458	27211.750210
679.161303	27157.124267
679.500098	27066.688488
679.838842	27003.890834
680.177535	27096.562366
680.516179	27338.079005
680.854771	27478.157547
681.193314	28251.155475
681.531805	29276.024572
681.870247	30023.287410
682.208638	30753.811096
682.546978	31019.232887
682.885268	31137.304272
683.223508	30689.531343
683.561697	30422.569480
683.899836	30264.269687
684.237925	29861.635250
684.575963	29712.966582
684.913951	29340.344654
685.251889	29529.125784
685.589776	29549.398784
685.927614	29561.280783
686.265401	29746.641490
686.603137	29875.969771
686.940824	30366.869771
687.278460	30720.985623
687.616046	30884.807999
687.953582	31542.570192
688.291068	31465.354838
688.628504	31789.705197
688.965889	31766.785591
689.303224	31483.540801
689.640510	31194.347448
689.977745	30550.261907
690.314930	29805.103751
690.652065	29375.655417
690.989150	28708.612460
691.326185	27868.428554
691.663170	27221.073824
692.000105	26484.644427
692.336990	25883.766614
692.673825	25471.644726
693.010610	24979.096269
693.347345	24483.374405
693.684030	23853.252860
694.020665	23664.980887
694.357251	22992.165809
694.693786	22990.681190
695.030272	22767.103496
695.366707	22282.260443
695.703093	22006.136282
696.039429	22073.196231
696.375716	21838.308708
696.711952	21848.816994
697.048139	21709.504707
697.384276	21549.412784
697.720363	21676.008760
698.056400	21560.319321
698.392388	21410.047566
698.728326	21396.446533
699.064214	21237.314950
699.400053	21235.847974
699.735842	20860.249245
700.071581	20656.689973
700.407270	20396.546270
700.742910	20236.633308
701.078501	19983.209463
701.414042	19782.831160
701.749533	19478.620210
702.084974	19159.958793
702.420366	19398.206245
702.755709	18989.623246
703.091002	18693.064768
703.426246	18762.415922
703.761440	18688.225261
704.096584	18449.856822
704.431679	18392.647287
704.766725	18340.667950
705.101721	18271.987270
705.436668	18401.766734
705.771565	18133.849572
706.106413	18440.273588
706.441212	18515.515330
706.775961	18623.229664
707.110661	18697.886632
707.445311	19073.119877
707.779913	18950.166135
708.114465	19246.646475
708.448967	19559.487880
708.783421	20188.908705
709.117825	20571.834751
709.452180	20795.606529
709.786485	21248.498750
710.120742	22021.594980
710.454949	22124.598356
710.789107	22637.255976
711.123216	23359.111398
711.457275	23554.108270
711.791286	24116.174238
712.125247	24266.985397
712.459159	23984.335462
712.793023	24727.358690
713.126837	23693.362583
713.460602	23942.403145
713.794318	23601.820270
714.127985	23312.488287
714.461602	22425.724119
714.795171	22394.284963
715.128691	21414.173750
715.462162	20894.090511
715.795584	20478.278497
716.128957	20205.110973
716.462281	19824.115689
716.795556	19542.973060
717.128782	19073.376976
717.461960	18473.988825
717.795088	18433.783103
718.128167	18106.886961
718.461198	17655.675965
718.794180	17523.852313
719.127113	17187.688010
719.459997	16997.553331
719.792833	16629.647402
720.125619	16671.095769
720.458357	16341.777353
720.791046	16204.859615
721.123686	16061.403500
721.456278	15837.440158
721.788821	15837.079715
722.121315	15573.281176
722.453761	15686.137487
722.786158	15566.780608
723.118506	15646.687937
723.450805	15527.356264
723.783056	15720.122425
724.115259	15601.468787
724.447412	15597.718169
724.779518	15821.353836
725.111574	15866.099117
725.443582	16140.600027
725.775542	16093.422388
726.107453	16612.394053
726.439315	16545.450051
726.771129	16958.063452
727.102895	17380.507103
727.434612	17658.632602
727.766281	17810.827557
728.097901	18132.813615
728.429473	18215.196151
728.760996	18225.515393
729.092471	18350.619188
729.423897	18232.081496
729.755276	18110.014997
730.086606	18224.731494
730.417887	18805.628692
730.749120	19370.195073
731.080305	19589.011397
731.411442	19971.483740
731.742530	20088.360371
732.073570	20253.087635
732.404562	20572.056562
732.735506	20411.188302
733.066401	20192.379539
733.397249	19683.525470
733.728048	19056.594975
734.058798	18196.601855
734.389501	17441.386597
734.720156	16925.598421
735.050762	16353.435021
735.381320	15978.915099
735.711831	15713.689913
736.042293	15341.055383
736.372707	15387.262599
736.703073	15177.711916
737.033391	15380.739346
737.363661	15384.245468
737.693883	15513.853533
738.024056	15718.879781
738.354182	15939.243739
738.684260	16302.282433
739.014290	16586.437152
739.344272	16803.874720
739.674207	17147.928429
740.004093	17334.151173
740.333931	17369.938324
740.663722	17454.765820
740.993464	17482.857650
741.323159	17331.159248
741.652806	17026.149276
741.982405	16859.055190
742.311956	16500.992115
742.641460	16381.776388
742.970915	16046.113680
743.300323	15699.972933
743.629683	15489.703886
743.958996	15172.796791
744.288260	14858.574110
744.617477	14559.192586
744.946647	14530.170663
745.275768	14209.328947
745.604842	14009.318648
745.933869	13834.945136
746.262847	13804.489005
746.591778	13726.519999
746.920662	13617.787352
747.249498	13615.168472
747.578286	13778.267443
747.907027	13956.280668
748.235720	14215.002766
748.564365	14297.309684
748.892963	14218.062746
749.221514	14323.420341
749.550017	14191.332028
749.878473	14157.563859
750.206881	13929.640690
750.535242	13856.463301
750.863555	13778.582515
751.191821	13679.924614
751.520039	13705.087533
751.848210	13624.691212
752.176334	13678.581147
752.504411	13598.981327
752.832440	13424.038165
753.160421	13532.191080
753.488356	13422.737548
753.816243	13331.719515
754.144082	13164.443948
754.471875	13120.288482
754.799620	13082.172317
755.127318	13057.384964
755.454969	13043.554558
755.782572	13020.730734
756.110129	13036.282694
756.437638	12938.113784
756.765100	12956.902165
757.092515	12974.301707
757.419882	13013.693283
757.747203	13022.313657
758.074477	13118.521557
758.401703	13104.875154
758.728882	13298.810863
759.056014	13339.523221
759.383099	13513.909336
759.710138	13632.878046
760.037129	13763.358231
760.364073	13815.327486
760.690970	13842.307741
761.017820	13862.053941
761.344623	14082.836315
761.671379	14479.030678
761.998088	15183.511763
762.324751	16964.395141
762.651366	20403.926519
762.977935	24899.267077
763.304456	27850.091357
763.630931	28868.066677
763.957359	27630.929714
764.283740	25347.556724
764.610074	23079.665117
764.936362	20439.517066
765.262602	18565.155572
765.588796	16640.569062
765.914943	15353.388565
766.241044	14246.777158
766.567097	13474.268222
766.893104	12759.946805
767.219064	12287.474743
767.544978	11822.985348
767.870845	11438.826740
768.196665	11209.766791
768.522438	10985.959725
768.848165	10785.513366
769.173846	10576.517210
769.499479	10446.727663
769.825066	10278.123752
770.150607	10047.493484
770.476101	9974.270724
770.801548	9842.835241
771.126949	9689.019554
771.452303	9576.508562
771.777611	9377.259477
772.102872	9368.233291
772.428087	9231.938135
772.753256	9068.420748
773.078378	8982.763983
773.403453	8797.902351
773.728482	8688.829426
774.053465	8611.319165
774.378401	8512.333588
774.703291	8390.025114
775.028135	8270.728728
775.352932	8233.227585
775.677683	8127.784291
776.002388	8025.542129
776.327046	8032.584621
776.651658	7935.950743
776.976224	7835.387285
777.300743	7834.598345
777.625216	7751.041220
777.949643	7701.970628
778.274024	7726.644556
778.598359	7632.367417
778.922647	7651.624625
779.246889	7601.432376
779.571086	7616.707073
779.895236	7622.267465
780.219339	7632.001933
780.543397	7635.510576
780.867409	7716.421096
781.191374	7726.795790
781.515294	7692.944442
781.839167	7779.387628
782.162995	7755.729493
782.486776	7699.941564
782.810511	7650.989439
783.134201	7560.692292
783.457844	7553.780870
783.781441	7504.662387
784.104993	7440.533869
784.428498	7416.187617
784.751958	7401.825369
785.075372	7372.311934
785.398739	7318.633728
785.722061	7366.738938
786.045337	7360.008998
786.368568	7523.614605
786.691752	7554.912609
787.014891	7895.674444
787.337983	8250.433043
787.661030	8857.030044
787.984031	9477.772523
788.306987	9887.996417
788.629897	10094.068704
788.952760	10029.141163
789.275579	9810.934819
789.598351	9406.460361
789.921078	9055.167555
790.243759	8635.194069
790.566395	8345.612548
790.888984	8094.563087
791.211529	7883.313535
791.534027	7664.081316
791.856480	7463.274514
792.178888	7387.271558
792.501249	7292.137423
792.823566	7134.669421
793.145836	7135.206304
793.468062	7114.557738
793.790241	7067.564102
794.112375	7135.034905
794.434464	7285.344468
794.756507	7330.016653
795.078505	7497.841706
795.400457	7801.513252
795.722364	8154.484762
796.044226	8445.452600
796.366042	8724.515754
796.687812	8675.639247
797.009538	8746.827901
797.331218	8633.734655
797.652852	8552.854383
797.974442	8398.700939
798.295986	8310.747928
798.617484	8117.021427
798.938938	7973.703944
799.260346	7862.906944
799.581709	7667.471492
799.903026	7593.013649
800.224299	7485.490879
800.545526	7315.631721
800.866708	7215.975671
801.187845	7149.122409
801.508936	7043.961419
801.829983	7009.351378
802.150984	6854.204827
802.471940	6810.185472
802.792851	6794.681403
803.113717	6765.621672
803.434538	6730.613379
803.755314	6674.810326
804.076045	6679.392735
804.396731	6623.657738
804.717372	6661.524365
805.037967	6655.996740
805.358518	6705.198402
805.679024	6789.698222
805.999485	6797.433873
806.319901	6838.461303
806.640272	6864.690427
806.960598	6945.810154
807.280879	6947.350227
807.601115	7023.680857
807.921306	6969.722867
808.241453	6979.565720
808.561554	7006.853486
808.881611	6966.272197
809.201623	6968.790254
809.521590	6916.934425
809.841513	6897.157978
810.161390	6935.468227
810.481223	6804.062990
810.801011	6783.081708
811.120755	6760.439365
811.440453	6687.198962
811.760107	6653.014898
812.079716	6621.026256
812.399281	6553.550412
812.718801	6546.712086
813.038276	6500.575446
813.357707	6437.674449
813.677093	6483.644731
813.996434	6388.951697
814.315731	6425.837820
814.634983	6421.515031
814.954191	6437.883657
815.273354	6540.440891
815.592473	6607.838597
815.911547	6728.869139
816.230577	6809.497354
816.549562	6956.464633
816.868502	7056.960035
817.187399	7158.287227
817.506250	7307.863303
817.825058	7339.289856
818.143821	7607.983356
818.462539	7880.553503
818.781213	8253.482941
819.099843	8802.746900
819.418429	9817.442949
819.736970	10787.565115
820.055466	11962.388375
820.373919	13510.549407
820.692327	15855.409351
821.010691	20009.088227
821.329011	29032.110864
821.647286	42031.479709
821.965517	55452.785569
822.283704	60816.381698
822.601847	62773.544143
822.919945	60048.097248
823.237999	55818.397772
823.556010	49611.048601
823.873976	42887.961665
824.191897	36359.228854
824.509775	31526.957738
824.827609	27015.785437
825.145398	24436.368166
825.463144	23091.463937
825.780845	23407.493872
826.098502	25200.385278
826.416116	29028.624906
826.733685	32702.741338
827.051210	33880.488467
827.368692	32074.676583
827.686129	28089.316792
828.003522	23947.305667
828.320872	20230.825899
828.638177	17381.086836
828.955439	15222.827722
829.272656	13405.287594
829.589830	11937.159921
829.906960	10663.550210
830.224046	9728.113702
830.541088	8987.366556
830.858086	8524.754991
831.175041	8150.701376
831.491952	8037.716515
831.808819	8084.148063
832.125642	8486.739650
832.442421	9375.013643
832.759157	11187.913389
833.075849	14130.823058
833.392497	17369.378756
833.709101	19543.202432
834.025662	19376.206649
834.342179	17657.508425
834.658653	15448.487412
834.975083	13517.211291
835.291469	11897.014692
835.607811	10572.199461
835.924110	9671.246967
836.240366	8803.833268
836.556578	7993.722366
836.872746	7351.819644
837.188871	6849.768612
837.504952	6437.379542
837.820990	6124.306244
838.136984	5900.751235
838.452935	5812.064736
838.768842	5846.916753
839.084706	6271.341578
839.400526	7486.683112
839.716303	9075.274197
840.032037	10174.981744
840.347727	10093.405792
840.663373	9102.579607
840.978977	8058.680154
841.294537	7246.031030
841.610054	6650.726214
841.925527	6216.826540
842.240957	5859.098702
842.556344	5527.196694
842.871687	5243.074743
843.186987	4962.874809
843.502244	4736.126230
843.817458	4574.335438
844.132629	4441.279224
844.447756	4347.569215
844.762840	4268.327318
845.077881	4190.867468
845.392879	4133.272285
845.707833	4083.732867
846.022745	4041.563615
846.337613	4012.186291
846.652438	3968.091318
846.967221	3952.801498
847.281960	3920.780089
847.596656	3904.033376
847.911309	3879.233420
848.225919	3859.951006
848.540485	3839.521730
848.855009	3828.269875
849.169490	3806.731545
849.483928	3796.308959
849.798323	3785.939306
850.112675	3768.380967
850.426984	3776.265332
850.741251	3760.660440
851.055474	3752.788678
851.369654	3762.263527
851.683792	3755.538628
851.997887	3763.465842
852.311938	3766.651851
852.625947	3768.179321
852.939914	3760.857045
853.253837	3768.340638
853.567718	3764.020369
853.881555	3757.582816
854.195350	3770.667130
854.509103	3765.666306
854.822812	3766.566152
855.136479	3756.448556
855.450103	3766.321656
855.763685	3752.375304
856.077224	3754.948813
856.390720	3773.525465
856.704173	3795.877941
857.017584	3806.295485
857.330953	3822.001200
857.644278	3843.484077
857.957561	3847.569932
858.270802	3845.248481
858.584000	3848.880632
858.897155	3840.280424
859.210268	3824.131088
859.523339	3802.489414
859.836367	3801.360196
860.149352	3793.553969
860.462295	3786.657670
860.775195	3773.830454
861.088054	3768.814506
861.400869	3771.607306
861.713642	3771.690485
862.026373	3781.588790
862.339062	3789.455511
862.651708	3805.435968
862.964312	3842.944674
863.276873	3851.224769
863.589392	3911.675765
863.901869	3956.163948
864.214303	4001.204137
864.526696	4032.860062
864.839045	4080.251950
865.151353	4103.486628
865.463619	4116.245788
865.775842	4122.605204
866.088023	4139.074653
866.400162	4134.227584
866.712258	4138.336124
867.024313	4139.787977
867.336325	4136.778408
867.648296	4139.493069
867.960224	4143.377278
868.272110	4152.456396
868.583954	4155.365142
868.895755	4171.025487
869.207515	4161.172551
869.519233	4212.367989
869.830909	4222.944330
870.142542	4244.444851
870.454134	4257.846759
870.765684	4293.591060
871.077191	4324.644568
871.388657	4353.081717
871.700081	4392.105288
872.011463	4433.087349
872.322803	4466.956341
872.634101	4496.056401
872.945357	4537.968554
873.256571	4590.504939
873.567744	4623.078355
873.878874	4637.889265
874.189963	4680.101367
874.501010	4688.144527
874.812015	4686.357438
875.122979	4729.010641
875.433900	4726.164910
875.744780	4742.099997
876.055618	4768.704687
876.366415	4766.781486
876.677169	4787.024240
876.987882	4832.548379
877.298554	4886.241709
877.609183	4966.564934
877.919771	5072.777004
878.230317	5217.485846
878.540822	5433.138846
878.851285	5753.662969
879.161707	6217.744030
879.472087	6977.982798
879.782425	8208.278915
880.092722	10386.717767
880.402977	13697.470350
880.713191	17448.325746
881.023363	21156.845532
881.333494	23359.905380
881.643583	24577.497789
881.953631	24560.304933
882.263637	23712.765984
882.573602	22234.656827
882.883526	20673.797129
883.193408	19013.977060
883.503248	17314.021846
883.813048	15756.874958
884.122806	14329.066433
884.432522	12871.683980
884.742197	11606.220774
885.051831	10522.108036
885.361424	9523.132825
885.670975	8708.822642
885.980485	8023.442488
886.289954	7450.192720
886.599382	6983.538149
886.908768	6604.939934
887.218113	6241.288739
887.527417	5956.496315
887.836680	5688.634605
888.145901	5470.337520
888.455082	5312.531761
888.764221	5158.219521
889.073319	5025.944685
889.382376	4955.797029
889.691392	4896.064397
890.000366	4873.837950
890.309300	4855.513356
890.618193	4857.214745
890.927044	4843.217982
891.235855	4864.937793
891.544625	4894.390734
891.853353	4961.806085
892.162041	5076.764557
892.470687	5258.412453
892.779293	5513.683881
893.087858	5884.848916
893.396381	6465.809129
893.704864	7262.676920
894.013306	8424.211698
894.321707	9600.491852
894.630068	10425.020454
894.938387	10635.188679
895.246665	10390.319672
895.554903	9786.013875
895.863100	9081.931041
896.171256	8515.635544
896.479371	8006.743666
896.787446	7514.298553
897.095480	7085.099755
897.403473	6763.753924
897.711425	6445.271468
898.019336	6175.471435
898.327207	5909.303553
898.635038	5677.775960
898.942827	5434.250420
899.250576	5237.179113
899.558284	5048.143406
899.865952	4921.161782
900.173579	4771.633597
900.481165	4666.817926
900.788711	4575.051282
901.096216	4503.033358
901.403681	4439.323256
901.711105	4413.194956
902.018489	4398.255496
902.325832	4472.239470
902.633135	4595.498202
902.940397	4938.899082
903.247619	5732.149845
903.554800	7175.396903
903.861941	9100.167415
904.169041	10616.848961
904.476101	11238.173693
904.783121	10867.580830
905.090100	10125.253282
905.397039	9284.792113
905.703938	8537.592290
906.010796	7848.282557
906.317614	7288.744727
906.624391	6759.768892
906.931129	6332.304252
907.237826	5936.671977
907.544483	5561.037960
907.851099	5186.104663
908.157675	4833.622145
908.464211	4513.702960
908.770707	4278.913741
909.077163	4081.199687
909.383578	3937.509158
909.689954	3818.910973
909.996289	3750.825149
910.302584	3688.529090
910.608839	3658.130933
910.915054	3623.215901
911.221229	3612.788274
911.527363	3626.031385
911.833458	3637.527737
912.139513	3667.303312
912.445527	3695.833722
912.751502	3776.739200
913.057436	3877.537071
913.363331	4013.146630
913.669186	4216.312692
913.975000	4473.025890
914.280775	4897.687649
914.586510	5476.434796
914.892205	6269.370487
915.197859	7310.797254
915.503475	8537.158750
915.809050	9587.538607
916.114585	10237.605478
916.420081	10494.505198
916.725536	10462.559406
917.030952	10018.665646
917.336328	9608.522410
917.641665	9189.511784
917.946961	8714.146100
918.252218	8293.819734
918.557435	7778.399562
918.862612	7349.644386
919.167750	6979.611091
919.472848	6552.718621
919.777906	6176.938411
920.082925	5820.785933
920.387904	5455.450993
920.692843	5191.765879
920.997743	4942.538795
921.302603	4710.882652
921.607423	4552.328281
921.912204	4388.581522
922.216946	4264.929580
922.521647	4146.485150
922.826310	4047.008061
923.130932	3948.773616
923.435516	3851.101261
923.740059	3781.472844
924.044564	3704.456616
924.349028	3645.606186
924.653454	3582.294335
924.957840	3513.558202
925.262186	3465.856284
925.566493	3406.874784
925.870761	3349.690455
926.174989	3309.935916
926.479178	3276.162706
926.783328	3233.108731
927.087438	3207.056048
927.391509	3169.852333
927.695541	3143.398878
927.999533	3118.039353
928.303486	3096.274172
928.607400	3079.111563
928.911275	3067.116138
929.215110	3049.903118
929.518906	3041.433980
929.822663	3040.516490
930.126381	3039.258722
930.430060	3046.356666
930.733699	3047.803477
931.037299	3060.023234
931.340861	3057.517781
931.644383	3069.639235
931.947866	3064.630849
932.251309	3057.790003
932.554714	3058.271433
932.858080	3050.601318
933.161407	3043.742828
933.464694	3036.226468
933.767943	3032.682537
934.071153	3025.652647
934.374323	3016.114784
934.677455	3009.583970
934.980548	3000.093998
935.283602	2998.299347
935.586617	2991.196361
935.889593	3004.278155
936.192530	3009.982221
936.495428	3018.776514
936.798287	3045.494629
937.101108	3073.987231
937.403890	3129.102166
937.706632	3191.635158
938.009336	3271.315636
938.312002	3344.641739
938.614628	3408.787902
938.917216	3460.358905
939.219765	3492.309738
939.522275	3524.870551
939.824747	3528.976571
940.127179	3529.503372
940.429573	3521.349305
940.731929	3517.069366
941.034246	3501.003208
941.336524	3488.932165
941.638763	3473.657469
941.940964	3458.649954
942.243126	3415.933737
942.545250	3392.530180
942.847335	3353.448635
943.149381	3319.730878
943.451389	3287.815333
943.753359	3252.040784
944.055290	3231.510685
944.357182	3204.497662
944.659036	3189.399407
944.960851	3182.440094
945.262628	3166.121879
945.564367	3166.999040
945.866067	3161.042916
946.167729	3155.016217
946.469352	3155.205260
946.770937	3151.830208
947.072484	3136.437044
947.373992	3145.700165
947.675462	3134.511324
947.976893	3115.551544
948.278286	3107.979731
948.579641	3099.162753
948.880958	3093.259562
949.182236	3101.398505
949.483476	3090.154211
949.784678	3091.379211
950.085841	3091.578337
950.386967	3100.728031
950.688054	3119.889457
950.989103	3142.874598
951.290114	3161.640293
951.591087	3188.852442
951.892021	3215.532748
952.192917	3246.616503
952.493776	3269.664658
952.794596	3278.358128
953.095378	3282.136473
953.396122	3276.429887
953.696828	3272.356634
953.997496	3257.888523
954.298126	3234.800038
954.598718	3213.876729
954.899272	3186.566278
955.199788	3159.785148
955.500266	3130.007053
955.800706	3093.995570
956.101108	3053.416802
956.401472	3023.074097
956.701798	2994.803307
957.002087	2953.039868
957.302337	2923.095414
957.602550	2894.537277
957.902724	2866.495859
958.202861	2841.930316
958.502960	2818.499033
958.803022	2797.006074
959.103045	2777.975718
959.403031	2764.253697
959.702979	2750.060328
960.002889	2738.526168
960.302762	2722.775083
960.602596	2711.364432
960.902393	2705.138607
961.202153	2696.626618
961.501875	2687.933148
961.801559	2680.494926
962.101205	2672.769358
962.400814	2670.279028
962.700385	2665.666372
962.999918	2657.570279
963.299414	2650.883188
963.598873	2648.801192
963.898293	2642.898001
964.197677	2641.728453
964.497022	2641.733494
964.796331	2636.525982
965.095601	2637.816517
965.394835	2633.516413
965.694030	2632.684623
965.993189	2628.369395
966.292309	2629.150774
966.591393	2628.571041
966.890439	2629.168418
967.189447	2624.641462
967.488419	2624.505351
967.787353	2629.410393
968.086249	2631.315950
968.385108	2633.466002
968.683930	2635.220323
968.982714	2637.602268
969.281462	2642.565284
969.580172	2645.340440
969.878844	2653.509629
970.177480	2662.855929
970.476078	2672.086281
970.774639	2678.057528
971.073162	2684.807633
971.371649	2687.660926
971.670098	2695.903213
971.968510	2697.879345
972.266885	2704.700026
972.565223	2708.052393
972.863524	2708.122970
973.161788	2714.268136
973.460014	2717.985987
973.758204	2723.611915
974.056356	2723.329610
974.354471	2725.434292
974.652550	2723.599312
974.950591	2725.215002
975.248595	2720.723334
975.546563	2720.952706
975.844493	2716.808878
976.142386	2709.789071
976.440243	2704.092567
976.738062	2700.515868
977.035845	2692.739889
977.333590	2688.404496
977.631299	2684.542972
977.928971	2677.167764
978.226606	2672.114008
978.524204	2669.089315
978.821765	2661.789725
979.119290	2666.805673
979.416777	2663.791063
979.714228	2667.022442
980.011642	2670.039573
980.309020	2678.508711
980.606360	2690.158818
980.903664	2718.177551
981.200931	2751.610483
981.498162	2800.335756
981.795356	2873.762682
982.092513	2965.231898
982.389633	3069.954307
982.686717	3165.456447
982.983764	3240.017632
983.280775	3282.925413
983.577749	3295.573668
983.874686	3277.954836
984.171587	3245.855289
984.468451	3204.394319
984.765279	3162.277999
985.062070	3116.479116
985.358824	3069.792991
985.655543	3012.941378
985.952224	2964.909264
986.248869	2902.262845
986.545478	2840.692713
986.842050	2784.680452
987.138586	2742.879205
987.435086	2704.261446
987.731549	2674.251457
988.027975	2649.108702
988.324366	2631.447020
988.620719	2617.314145
988.917037	2606.147989
989.213318	2597.830085
989.509563	2592.022676
989.805772	2588.624938
990.101944	2583.551017
990.398080	2580.367528
990.694180	2578.320820
990.990244	2580.712847
991.286271	2577.075655
991.582262	2581.458938
991.878217	2581.658064
992.174136	2586.149732
992.470019	2588.957654
992.765865	2590.964034
993.061676	2595.087698
993.357450	2606.077413
993.653188	2611.778958
993.948890	2631.878038
994.244556	2649.421254
994.540186	2671.196518
994.835780	2704.246322
995.131337	2739.244533
995.426859	2781.118877
995.722345	2829.405569
996.017795	2878.821480
996.313208	2915.783220
996.608586	2943.496963
996.903928	2957.781073
997.199234	2956.183027
997.494504	2953.077676
997.789738	2937.147630
998.084936	2914.596028
998.380099	2881.662170
998.675225	2852.390710
998.970316	2821.778304
999.265371	2786.830505
999.560390	2751.028230
999.855373	2721.648385
1000.150320	2692.384487
1000.445232	2667.289623
1000.740108	2644.937147
1001.034948	2626.826802
1001.329752	2613.034205
1001.624521	2601.190014
1001.919254	2589.207192
1002.213951	2580.725450
1002.508613	2572.110118
1002.803239	2567.404201
1003.097829	2561.213664
1003.392384	2556.031358
1003.686903	2551.988353
1003.981386	2551.597663
1004.275834	2546.342260
1004.570246	2542.488298
1004.864623	2541.913607
1005.158964	2539.254398
1005.453270	2536.552340
1005.747540	2534.785415
1006.041775	2533.981351
1006.335974	2532.148892
1006.630138	2533.794828
1006.924266	2530.316432
1007.218359	2530.356762
1007.512416	2525.101359
1007.806438	2523.543642
1008.100425	2521.146573
1008.394376	2522.217819
1008.688292	2528.355423
1008.982172	2525.171935
1009.276017	2526.338962
1009.569827	2522.479959
1009.863602	2528.126051
1010.157341	2524.861904
1010.451045	2522.868128
1010.744714	2519.815709
1011.038347	2522.469876
1011.331945	2519.735050
1011.625508	2520.677746
1011.919036	2519.117509
1012.212528	2516.518794
1012.505986	2514.119205
1012.799408	2516.294463
1013.092795	2514.817405
1013.386147	2514.008300
1013.679464	2514.509894
1013.972745	2516.531397
1014.265992	2513.098371
1014.559204	2513.615090
1014.852380	2512.470748
1015.145521	2514.388907
1015.438628	2512.992507
1015.731699	2514.499812
1016.024736	2512.518639
1016.317737	2516.589370
1016.610703	2514.577950
1016.903635	2516.191119
1017.196531	2520.720596
1017.489393	2522.762263
1017.782219	2524.698066
1018.075011	2524.624970
1018.367768	2520.783610
1018.660490	2523.636903
1018.953177	2523.636903
1019.245829	2523.636903
