Dividing Wavelength (nm)	Counts (n)	Blue Motor Position (mm): 26.400000	Red Motor Position (mm): 0.000000	
326.493990	2055.535522
326.888308	2055.535522
327.282561	2055.535522
327.676750	2029.765143
328.070874	2029.482839
328.464933	2039.315609
328.858929	2044.457586
329.252859	2056.969730
329.646726	2071.810887
330.040528	2086.999884
330.434265	2104.490167
330.827938	2125.542025
331.221547	2147.576909
331.615091	2163.587613
332.008571	2184.856242
332.401986	2205.406505
332.795338	2226.692777
333.188625	2246.436456
333.581847	2265.905393
333.975006	2280.123967
334.368100	2301.886628
334.761129	2318.227528
335.154095	2332.002481
335.546996	2385.289998
335.939833	2485.918990
336.332606	2496.071874
336.725315	2509.864471
337.117960	2519.256141
337.510540	2529.310722
337.903056	2538.324305
338.295508	2541.013761
338.687896	2552.558003
339.080220	2558.040258
339.472480	2561.206103
339.864676	2565.092832
340.256807	2570.020560
340.648875	2568.911506
341.040879	2570.648184
341.432818	2572.576425
341.824694	2573.209090
342.216506	2575.853175
342.608253	2572.163050
342.999937	2570.749007
343.391557	2566.506876
343.783113	2569.148440
344.174605	2566.489232
344.566033	2566.721125
344.957397	2564.994530
345.348697	2562.945301
345.739934	2560.296174
346.131106	2560.021431
346.522215	2557.853735
346.913260	2556.238045
347.304241	2555.842315
347.695159	2553.016748
348.086012	2554.566903
348.476802	2547.373176
348.867528	2545.528114
349.258191	2542.200953
349.648789	2544.396375
350.039324	2537.303472
350.429796	2542.306817
350.820203	2543.698175
351.210548	2543.851930
351.600828	2538.795653
351.991045	2540.771785
352.381198	2538.457896
352.771288	2541.064172
353.161314	2538.682227
353.551276	2540.887732
353.941175	2537.409336
354.331010	2539.554347
354.720782	2542.251364
355.110490	2544.865202
355.500135	2538.992258
355.889717	2540.373534
356.279235	2539.609799
356.668689	2540.466796
357.058080	2543.650284
357.447408	2542.508463
357.836672	2542.828576
358.225873	2543.879657
358.615010	2542.236241
359.004084	2539.198945
359.393095	2544.040974
359.782043	2546.548948
360.170927	2544.978628
360.559748	2545.477702
360.948505	2548.136911
361.337199	2550.440718
361.725830	2548.134391
362.114398	2549.558517
362.502903	2549.487940
362.891344	2551.181768
363.279722	2548.739329
363.668037	2550.934752
364.056289	2551.849721
364.444478	2550.826367
364.832603	2551.653116
365.220665	2552.338713
365.608665	2554.009855
365.996601	2552.668908
366.384474	2551.380894
366.772284	2551.945503
367.160031	2553.072201
367.547715	2554.866852
367.935336	2550.717982
368.322893	2548.920811
368.710388	2549.828218
369.097820	2550.702858
369.485189	2550.138249
369.872495	2555.801986
370.259738	2556.273333
370.646918	2554.866852
371.034035	2555.179403
371.421090	2555.711245
371.808081	2557.364743
372.195010	2557.145453
372.581875	2557.505896
372.968678	2557.634445
373.355418	2558.015052
373.742096	2559.383725
374.128710	2558.998077
374.515262	2559.749209
374.901751	2557.513457
375.288177	2559.880279
375.674540	2555.360885
376.060841	2563.373799
376.447079	2557.914229
376.833254	2562.476473
377.219367	2562.355486
377.605417	2561.990002
377.991404	2562.748696
378.377329	2560.775084
378.763191	2562.468912
379.148991	2563.083932
379.534727	2562.431103
379.920402	2566.393450
380.306013	2561.826164
380.691563	2564.308933
381.077049	2562.720969
381.462474	2562.552091
381.847835	2562.098387
382.233134	2566.186763
382.618371	2565.919581
383.003545	2567.656259
383.388657	2564.445044
383.773706	2567.116855
384.158693	2565.269273
384.543618	2569.302196
384.928480	2566.214489
385.313280	2566.514437
385.698017	2565.448233
386.082692	2565.475960
386.467305	2568.215827
386.851856	2569.125755
387.236344	2566.295147
387.620770	2562.693243
388.005133	2563.973696
388.389435	2568.293965
388.773674	2565.884293
389.157851	2569.367731
389.541965	2570.345714
389.926018	2572.324367
390.310008	2569.357648
390.693936	2571.071641
391.077802	2570.988462
391.461606	2570.617937
391.845348	2573.526682
392.229027	2574.640777
392.612645	2569.937381
392.996200	2572.402505
393.379694	2573.574573
393.763125	2572.631878
394.146494	2572.105077
394.529801	2573.072979
394.913047	2574.630695
395.296230	2575.492732
395.679351	2573.824111
396.062410	2577.115984
396.445408	2575.570870
396.828343	2576.168247
397.211217	2574.698751
397.594028	2575.036508
397.976778	2573.413257
398.359466	2577.257136
398.742092	2573.503997
399.124656	2574.582804
399.507158	2577.824266
399.889598	2577.607497
400.271977	2576.765624
400.654294	2576.889132
401.036549	2578.761921
401.418742	2579.069431
401.800874	2580.745615
402.182944	2577.085737
402.564952	2578.353587
402.946898	2580.327199
403.328783	2581.350553
403.710606	2579.155131
404.092367	2583.989597
404.474067	2581.126222
404.855705	2583.588826
405.237282	2581.655543
405.618797	2580.740574
406.000250	2584.100503
406.381642	2583.170410
406.762972	2582.142014
407.144240	2580.133115
407.525447	2582.426840
407.906593	2576.778227
408.287677	2586.192582
408.668700	2581.605132
409.049661	2587.848601
409.430560	2582.900708
409.811399	2584.256778
410.192176	2587.019331
410.572891	2583.896336
410.953545	2587.039495
411.334138	2588.012438
411.714669	2590.401945
412.095139	2589.600402
412.475547	2589.078642
412.855894	2590.071749
413.236180	2589.265165
413.616405	2591.500917
413.996568	2587.062181
414.376670	2591.195927
414.756711	2590.621235
415.136691	2590.119640
415.516609	2591.546287
415.896466	2590.338931
416.276262	2587.135277
416.655997	2592.529312
417.035670	2591.354723
417.415283	2592.373036
417.794834	2590.492686
418.174324	2591.909250
418.553753	2590.913622
418.933121	2589.391194
419.312428	2592.922522
419.691674	2591.218612
420.070859	2594.351689
420.449983	2595.352358
420.829045	2594.739858
421.208047	2592.158787
421.586988	2593.983685
421.965867	2594.946545
422.344686	2591.853797
422.723444	2592.388160
423.102141	2595.445619
423.480777	2594.840681
423.859352	2595.007039
424.237866	2597.308326
424.616319	2597.293202
424.994712	2599.178594
425.373044	2595.601895
425.751314	2597.071392
426.129524	2594.535691
426.507673	2592.499065
426.885762	2596.746237
427.263789	2597.522575
427.641756	2601.658842
428.019662	2602.634305
428.397508	2599.576845
428.775292	2599.239088
429.153016	2606.475664
429.530679	2602.868718
429.908282	2602.851074
430.285824	2601.744541
430.663305	2602.180601
431.040726	2603.440889
431.418086	2605.222937
431.795385	2606.843668
432.172624	2606.712598
432.549802	2608.744183
432.926920	2607.695623
433.303977	2607.993051
433.680974	2607.010026
434.057910	2607.380551
434.434786	2611.111005
434.811601	2610.387599
435.188355	2609.812908
435.565050	2614.002107
435.941683	2610.122939
436.318257	2614.498660
436.694770	2615.292642
437.071222	2617.009155
437.447614	2615.945472
437.823946	2616.978908
438.200218	2620.096862
438.576429	2619.315483
438.952580	2622.919908
439.328670	2622.589712
439.704700	2621.823457
440.080670	2625.372429
440.456580	2625.957203
440.832429	2626.761267
441.208218	2628.800414
441.583947	2632.238481
441.959616	2632.379633
442.335224	2632.805611
442.710773	2635.966414
443.086261	2641.736015
443.461689	2642.424132
443.837057	2647.989566
444.212365	2648.281953
444.587612	2648.534011
444.962800	2652.342602
445.337927	2658.069353
445.712995	2660.216885
446.088002	2671.809018
446.462949	2677.248423
446.837837	2684.789989
447.212664	2693.652337
447.587431	2712.218907
447.962139	2734.158009
448.336786	2755.381266
448.711374	2755.550145
449.085901	2748.041346
449.460369	2758.993253
449.834776	2772.664862
450.209124	2812.280770
450.583412	2824.097234
450.957640	2840.743124
451.331808	2849.890298
451.705917	2853.469517
452.079965	2872.394009
452.453954	2898.797052
452.827883	2918.848242
453.201752	2942.765996
453.575562	2970.331025
453.949311	3010.050276
454.323001	3043.458003
454.696632	3071.254925
455.070202	3134.460912
455.443713	3170.598423
455.817164	3218.565002
456.190556	3279.159672
456.563888	3309.416677
456.937160	3361.786704
457.310373	3369.396325
457.683526	3415.646391
458.056619	3462.778659
458.429653	3518.654808
458.802628	3583.668049
459.175542	3641.575783
459.548398	3757.224894
459.921194	3885.537382
460.293930	3991.618383
460.666607	4163.194054
461.039224	4330.996422
461.411782	4442.675623
461.784280	4451.298517
462.156719	4508.452599
462.529099	4573.622115
462.901419	4556.663673
463.273680	4574.670675
463.645882	4685.492881
464.018024	4759.557513
464.390106	4921.257564
464.762130	5248.597327
465.134094	5694.454617
465.505999	6268.558861
465.877845	6810.107334
466.249631	7119.881196
466.621358	7105.279494
466.993026	7036.790378
467.364634	7003.778382
467.736184	6961.079809
468.107674	6957.160312
468.479105	7036.558485
468.850477	7092.893379
469.221790	7098.617609
469.593043	7041.040071
469.964238	7059.160498
470.335373	7210.067439
470.706449	7602.017150
471.077467	8103.942153
471.448425	8992.145570
471.819324	9621.906673
472.190164	9599.569321
472.560945	9162.723093
472.931667	8810.890884
473.302330	8853.773459
473.672934	8826.669695
474.043479	9117.428326
474.413965	9177.647429
474.784393	9251.858255
475.154761	9627.986305
475.525070	9819.426643
475.895321	9895.842973
476.265513	10240.282330
476.635645	10640.607919
477.005719	10812.975051
477.375734	11124.714964
477.745691	11548.991075
478.115588	11996.834579
478.485427	12780.061008
478.855207	13865.010578
479.224928	14895.593823
479.594591	15652.112219
479.964194	15578.183698
480.333739	15964.444467
480.703226	16308.742672
481.072653	16785.166998
481.442022	17249.827793
481.811333	17626.948950
482.180584	17559.987303
482.549777	17623.778064
482.918912	17708.537504
483.287988	17892.038025
483.657005	17984.351634
484.025964	17960.953119
484.394864	18281.999001
484.763706	18435.466848
485.132489	18315.676430
485.501213	18543.559269
485.869879	18853.111321
486.238487	19015.086114
486.607036	19359.676706
486.975527	19353.133288
487.343959	19754.961141
487.712333	20153.297994
488.080648	20324.861062
488.448905	20783.779982
488.817104	20910.045763
489.185244	21722.468034
489.553326	22744.768664
489.921350	24321.061854
490.289315	26234.668731
490.657222	26921.846056
491.025070	27413.741683
491.392861	27326.960740
491.760593	26927.807220
492.128267	26379.692645
492.495883	25859.730393
492.863440	25419.375522
493.230939	24920.966724
493.598380	24683.808162
493.965763	24766.951912
494.333088	24582.496093
494.700354	24600.538382
495.067563	24732.077210
495.434713	24822.465098
495.801805	25209.416506
496.168839	25246.814305
496.535815	25298.022346
496.902733	25552.978702
497.269593	25549.437291
497.636395	25835.232906
498.003139	26213.879012
498.369825	26162.928070
498.736453	26643.292059
499.103023	26632.105738
499.469535	26856.429523
499.835989	27110.717926
500.202385	27117.669677
500.568723	27312.298544
500.935003	27724.448159
501.301226	27756.494774
501.667390	28491.863009
502.033497	28792.567836
502.399546	28709.610609
502.765537	28472.482293
503.131470	29016.377423
503.497345	29514.246818
503.863163	28696.155769
504.228923	29496.007923
504.594625	29961.739963
504.960269	29592.966956
505.325856	30311.865741
505.691385	30112.047006
506.056856	30486.181280
506.422270	31031.041790
506.787625	30697.564422
507.152924	31199.249971
507.518164	31472.472947
507.883347	31135.118932
508.248472	31370.681969
508.613540	32078.538107
508.978550	32372.782695
509.343503	32308.452531
509.708398	32723.289081
510.073236	33361.105948
510.438016	33532.540467
510.802738	33297.509271
511.167403	33892.894746
511.532010	34192.566137
511.896561	34723.097168
512.261053	35490.217110
512.625488	35325.573025
512.989866	35334.324468
513.354186	35424.931647
513.718449	35444.629956
514.082655	36334.260019
514.446803	36102.550944
514.810894	36734.467141
515.174927	36802.467265
515.538904	36830.410381
515.902822	37517.292798
516.266684	37241.808864
516.630488	37621.054867
516.994235	37661.109355
517.357925	38286.645972
517.721558	38575.355373
518.085133	38971.451433
518.448651	39189.819095
518.812112	39087.410575
519.175516	39279.947364
519.538863	39743.032797
519.902152	39830.252320
520.265385	40391.713351
520.628560	40420.876426
520.991678	40410.713459
521.354739	40660.074134
521.717743	41046.712990
522.080690	40967.014869
522.443580	41648.452840
522.806413	41685.283510
523.169189	41840.251100
523.531908	42073.512850
523.894569	41969.823877
524.257174	42172.266533
524.619722	42525.651418
524.982213	42680.472814
525.344647	42724.078795
525.707025	42859.900082
526.069345	43315.222139
526.431608	43227.173346
526.793815	43627.229233
527.155964	43200.382134
527.518057	43455.933346
527.880093	43332.319212
528.242072	43960.958658
528.603995	43712.238210
528.965860	43643.544927
529.327669	43879.972522
529.689421	43922.890385
530.051117	43888.184562
530.412755	44187.210684
530.774337	44253.262403
531.135862	44184.833780
531.497331	44341.681720
531.858743	44360.220564
532.220098	44763.676709
532.581396	44517.857444
532.942638	44282.123008
533.303824	44520.423392
533.664953	44593.331079
534.026025	44277.162513
534.387040	44845.648391
534.747999	44939.255056
535.108902	45245.033804
535.469748	44572.821145
535.830537	44841.781826
536.191270	45093.985712
536.551947	44828.286657
536.912567	45110.336694
537.273131	45273.483556
537.633638	44890.126491
537.994089	45112.012878
538.354483	44851.428074
538.714821	45508.391243
539.075103	45778.382840
539.435328	45651.297872
539.795497	45402.925263
540.155609	45535.232867
540.515665	46109.062368
540.875665	45439.544205
541.235609	45719.935702
541.595496	45833.386870
541.955328	46415.718277
542.315102	45858.862341
542.674821	45731.482465
543.034483	45627.871630
543.394090	45666.481828
543.753640	45640.870246
544.113134	46712.979996
544.472571	45802.794628
544.831953	46948.187631
545.191278	46202.510237
545.550548	45886.795374
545.909761	46529.615586
546.268918	46675.156218
546.628019	47099.079448
546.987064	46524.445883
547.346053	45827.062742
547.704986	46723.712612
548.063863	46372.646658
548.422684	46580.480829
548.781449	46181.818821
549.140158	46714.139461
549.498811	46488.880543
549.857408	45867.578496
550.215949	46717.504431
550.574434	46554.992755
550.932864	46476.806979
551.291237	47205.278916
551.649555	46969.168914
552.007817	47132.877864
552.366022	46817.699885
552.724173	46874.876652
553.082267	47277.425389
553.440305	47626.421949
553.798288	46883.028197
554.156215	47275.242569
554.514086	47470.335223
554.871902	47099.462576
555.229661	47266.730581
555.587365	46955.099053
555.945014	47078.665296
556.302606	47094.199611
556.660143	47215.865339
557.017625	47417.521575
557.375050	47133.419788
557.732421	47520.235085
558.089735	47590.506249
558.446994	47456.895507
558.804197	47949.181824
559.161345	47805.642530
559.518437	47144.860687
559.875474	47409.117972
560.232455	47626.462278
560.589381	47689.524592
560.946251	47477.231522
561.303065	48147.899068
561.659825	47835.443311
562.016528	47649.747368
562.373177	47213.034731
562.729770	47846.370012
563.086307	47376.610091
563.442789	47896.310203
563.799216	47766.538300
564.155587	47653.394643
564.511904	47603.678784
564.868164	47672.120009
565.224370	47968.318044
565.580520	47712.701297
565.936615	47917.223429
566.292654	47563.674707
566.648638	47931.497457
567.004567	47863.714102
567.360441	47964.272518
567.716260	47685.408490
568.072023	48042.617090
568.427732	47976.991349
568.783385	47517.243160
569.138982	47922.262063
569.494525	48067.258250
569.850013	47647.420876
570.205445	47772.895195
570.560823	47560.702947
570.916145	47429.290149
571.271412	47659.045776
571.626625	47334.428236
571.981782	47385.394302
572.336884	46967.409551
572.691931	47319.655135
573.046923	46971.054305
573.401860	46810.796024
573.756743	46819.728949
574.111570	46969.494068
574.466342	46882.761016
574.821059	47021.964918
575.175722	46520.405398
575.530330	46637.604663
575.884882	46266.018693
576.239380	46164.194947
576.593823	46262.293280
576.948211	46190.114039
577.302544	45750.154899
577.656823	45751.914262
578.011047	46005.315422
578.365216	45807.447613
578.719330	45538.179421
579.073389	45507.670358
579.427394	45574.821048
579.781344	45491.536145
580.135239	45257.558551
580.489080	45317.414691
580.842866	44801.029138
581.196597	45308.882538
581.550273	45297.529860
581.903895	45230.243059
582.257463	45666.726324
582.610975	45084.021871
582.964434	45428.123471
583.317837	44941.700016
583.671186	44884.240944
584.024481	45163.160425
584.377721	44696.001739
584.730906	44928.451863
585.084037	45041.615685
585.437113	44750.118526
585.790135	44866.657400
586.143103	44423.620635
586.496016	44594.808137
586.848874	44692.977047
587.201679	44709.476743
587.554428	44221.982043
587.907124	44500.573848
588.259765	44256.249286
588.612352	44410.836269
588.964884	43877.623344
589.317362	44176.727605
589.669786	44192.508937
590.022155	44039.068817
590.374470	44487.713865
590.726731	44052.662288
591.078937	43416.758539
591.431090	43741.058487
591.783188	43269.357721
592.135232	43055.065833
592.487222	43332.906507
592.839157	43478.850431
593.191038	43108.958288
593.542866	42923.711008
593.894639	42331.864423
594.246358	42632.410453
594.598022	42605.702420
594.949633	42215.350754
595.301190	42173.725947
595.652692	42112.082718
596.004141	42584.640479
596.355535	41502.385407
596.706876	41529.171578
597.058162	41237.886147
597.409395	41740.501788
597.760573	41953.961886
598.111698	41542.346634
598.462768	41472.261992
598.813785	41490.541216
599.164748	41103.068049
599.515657	41375.597867
599.866511	40868.356967
600.217312	41560.114180
600.568060	40503.848777
600.918753	41328.379900
601.269392	41249.372416
601.619978	40980.575572
601.970510	41175.179234
602.320988	41313.468167
602.671412	41567.774214
603.021783	41443.991202
603.372100	41005.879644
603.722363	41120.742335
604.072572	41149.310553
604.422728	41127.933541
604.772830	40927.131780
605.122878	41084.090626
605.472872	40947.021652
605.822813	41192.815711
606.172701	40946.822527
606.522534	41284.098404
606.872314	41485.416883
607.222041	41312.275934
607.571714	41651.152378
607.921333	41139.460139
608.270899	41360.567667
608.620411	41748.252562
608.969870	41477.550163
609.319276	41499.786692
609.668627	41534.575695
610.017926	41918.371340
610.367171	42074.705083
610.716362	42104.566358
611.065500	41997.416632
611.414585	42208.953530
611.763616	42396.315575
612.112594	42293.624750
612.461518	42416.928853
612.810389	42804.157524
613.159207	42608.527987
613.507971	42577.988677
613.856682	43068.455137
614.205340	42900.415836
614.553945	43584.598715
614.902496	42901.933223
615.250994	43333.261908
615.599439	43402.376127
615.947830	43490.939118
616.296169	43509.798074
616.644454	43550.094538
616.992686	43705.828383
617.340864	44164.820399
617.688990	43685.169734
618.037063	44360.848187
618.385082	44187.510633
618.733048	44526.520667
619.080961	44397.449485
619.428821	44412.341053
619.776628	44441.365497
620.124382	44238.033077
620.472083	44343.534344
620.819731	44451.707424
621.167326	43996.004760
621.514868	43990.792207
621.862357	43461.828975
622.209793	43550.666709
622.557176	43105.452166
622.904506	42865.442831
623.251783	42490.675892
623.599007	42198.533465
623.946179	42100.087292
624.293297	41840.304032
624.640363	41308.162352
624.987376	41147.263845
625.334336	40948.947373
625.681243	40537.024610
626.028097	40459.050563
626.374899	40272.646338
626.721647	40240.367830
627.068343	40017.712667
627.414987	39740.605482
627.761577	39481.777520
628.108115	39813.172891
628.454600	39066.928367
628.801032	39291.728540
629.147412	39189.957726
629.493739	39098.859035
629.840014	38655.786982
630.186236	39075.886497
630.532405	38537.370279
630.878521	38763.778580
631.224585	38542.736587
631.570597	38203.761841
631.916556	38371.904486
632.262462	38251.224304
632.608316	38192.336065
632.954117	38056.204747
633.299866	38012.278653
633.645562	37925.976620
633.991206	37383.014103
634.336797	36986.542477
634.682336	36876.862093
635.027823	36636.366287
635.373257	36510.040013
635.718639	36185.800559
636.063968	36082.288026
636.409245	35421.543992
636.754470	35386.689454
637.099642	35153.100029
637.444762	34601.375987
637.789829	34734.507819
638.134845	34362.334554
638.479808	34276.977737
638.824719	34231.952672
639.169577	33729.211002
639.514383	33815.288703
639.859137	33441.716518
640.203839	33599.907926
640.548489	33294.076246
640.893086	33303.621670
641.237632	33033.930022
641.582125	33138.019767
641.926566	32933.048972
642.270955	32962.935452
642.615292	32888.485172
642.959576	32777.388223
643.303809	32788.753505
643.647990	32876.504870
643.992118	32828.845801
644.336195	32676.842410
644.680219	32758.060439
645.024192	32964.783035
645.368112	33497.461597
645.711981	33510.913917
646.055797	34245.011781
646.399562	34062.055705
646.743274	34924.997900
647.086935	35328.975804
647.430544	35271.698214
647.774101	35314.565666
648.117606	35599.229541
648.461059	35735.708699
648.804460	35332.451680
649.147810	34821.550902
649.491108	34459.404492
649.834354	34317.674972
650.177548	33492.319621
650.520690	32992.133815
650.863781	32974.630929
651.206820	32802.462923
651.549807	32393.615263
651.892742	31821.499754
652.235626	31728.641701
652.578458	31599.194952
652.921238	30912.234397
653.263967	31223.966748
653.606644	30936.010999
653.949269	30836.405361
654.291843	30454.033842
654.634365	30807.035598
654.976836	30357.548678
655.319255	30431.693968
655.661622	30303.441973
656.003938	30170.032878
656.346203	29978.965585
656.688416	30218.601875
657.030577	29994.099129
657.372687	29815.261676
657.714746	29982.413735
658.056753	30178.204588
658.398708	29549.867611
658.740612	29626.649425
659.082465	29832.668780
659.424266	29720.755165
659.766016	29734.943492
660.107715	29592.243550
660.449362	29680.718321
660.790958	29667.870940
661.132503	29597.708161
661.473996	29688.121255
661.815438	29759.304868
662.156829	29873.103875
662.498168	29689.126966
662.839456	29670.409161
663.180693	29780.875966
663.521879	29868.045077
663.863013	29834.261785
664.204097	29813.562807
664.545129	30217.011391
664.886110	30160.852937
665.227040	30257.015467
665.567918	30248.528684
665.908746	30341.880771
666.249522	30419.713666
666.590248	30453.544850
666.930922	30549.263758
667.271545	30536.749094
667.612118	30594.225809
667.952639	30408.507181
668.293109	30437.312334
668.633528	30309.418261
668.973896	30256.750806
669.314213	30243.069115
669.654480	30046.075946
669.994695	30046.736337
670.334859	29957.873398
670.674973	29793.839293
671.015035	29976.387035
671.355047	29919.439641
671.695008	29851.691574
672.034918	29777.463104
672.374777	29860.695075
672.714585	29729.829242
673.054342	29864.395282
673.394049	29718.988240
673.733705	29931.256105
674.073310	29659.878191
674.412864	29706.087928
674.752368	29410.404090
675.091820	29632.857606
675.431223	29213.050479
675.770574	29021.589976
676.109875	28875.323418
676.449125	28649.419232
676.788324	28561.945130
677.127473	28072.378516
677.466571	27986.323499
677.805619	27697.362040
678.144616	27643.104101
678.483562	27596.017203
678.822458	27273.005271
679.161303	27208.710395
679.500098	27141.496690
679.838842	27060.767653
680.177535	27160.045616
680.516179	27406.774809
680.854771	27531.621504
681.193314	28305.426017
681.531805	29339.361629
681.870247	30075.453270
682.208638	30799.453703
682.546978	31069.336915
682.885268	31201.452955
683.223508	30754.905027
683.561697	30475.710803
683.899836	30319.475363
684.237925	29908.185265
684.575963	29763.622617
684.913951	29406.479552
685.251889	29561.769775
685.589776	29592.969477
685.927614	29596.483161
686.265401	29805.648196
686.603137	29912.666851
686.940824	30410.997511
687.278460	30746.929921
687.616046	30920.055747
687.953582	31588.910998
688.291068	31492.037665
688.628504	31829.240446
688.965889	31801.534265
689.303224	31548.276778
689.640510	31250.679822
689.977745	30604.751739
690.314930	29879.501099
690.652065	29430.271277
690.989150	28759.570964
691.326185	27920.377645
691.663170	27270.154498
692.000105	26546.519549
692.336990	25943.544617
692.673825	25526.253025
693.010610	25021.625963
693.347345	24529.823597
693.684030	23908.183792
694.020665	23702.025806
694.357251	23032.351367
694.693786	23035.015617
695.030272	22811.110248
695.366707	22324.016320
695.703093	22037.761960
696.039429	22112.418928
696.375716	21894.530177
696.711952	21894.648644
697.048139	21751.331161
697.384276	21592.902819
697.720363	21702.573121
698.056400	21589.106830
698.392388	21448.740942
698.728326	21443.984613
699.064214	21273.021443
699.400053	21277.913882
699.735842	20890.647403
700.071581	20687.267092
700.407270	20445.195925
700.742910	20269.042887
701.078501	20020.014928
701.414042	19812.271498
701.749533	19510.185395
702.084974	19196.920533
702.420366	19428.866543
702.755709	19028.356952
703.091002	18719.591320
703.426246	18780.206154
703.761440	18718.152070
704.096584	18485.291092
704.431679	18417.497655
704.766725	18356.731587
705.101721	18295.710940
705.436668	18420.512265
705.771565	18149.373805
706.106413	18476.048136
706.441212	18540.340492
706.775961	18648.632038
707.110661	18723.228512
707.445311	19095.726932
707.779913	18975.981884
708.114465	19269.034239
708.448967	19569.628161
708.783421	20208.012157
709.117825	20580.301369
709.452180	20811.506328
709.786485	21256.262127
710.120742	22021.751256
710.454949	22130.622535
710.789107	22639.645483
711.123216	23359.262633
711.457275	23582.379061
711.791286	24125.886021
712.125247	24288.581700
712.459159	23994.407688
712.793023	24751.289047
713.126837	23722.092119
713.460602	23968.554130
713.794318	23627.268015
714.127985	23344.703780
714.461602	22450.624899
714.795171	22428.675715
715.128691	21458.359464
715.462162	20923.732495
715.795584	20500.207517
716.128957	20242.065152
716.462281	19854.571820
716.795556	19580.249872
717.128782	19098.242467
717.461960	18501.662239
717.795088	18466.011199
718.128167	18131.512997
718.461198	17671.086772
718.794180	17537.816309
719.127113	17214.010394
719.459997	17021.004778
719.792833	16658.417267
720.125619	16697.937393
720.458357	16366.075715
720.791046	16217.984259
721.123686	16085.243116
721.456278	15858.509660
721.788821	15853.276943
722.121315	15584.744759
722.453761	15694.301635
722.786158	15577.314099
723.118506	15656.049360
723.450805	15539.281113
723.783056	15719.066304
724.115259	15613.675941
724.447412	15615.452948
724.779518	15834.354972
725.111574	15873.552463
725.443582	16148.058414
725.775542	16107.555263
726.107453	16620.001154
726.439315	16548.063889
726.771129	16970.016028
727.102895	17382.604223
727.434612	17649.765212
727.766281	17825.603179
728.097901	18146.276016
728.429473	18229.369355
728.760996	18233.971929
729.092471	18355.763685
729.423897	18255.230474
729.755276	18123.676524
730.086606	18230.959839
730.417887	18815.665630
730.749120	19385.565552
731.080305	19589.172714
731.411442	19984.169803
731.742530	20108.315778
732.073570	20265.869480
732.404562	20584.644323
732.735506	20425.190106
733.066401	20205.297496
733.397249	19711.798782
733.728048	19083.287885
734.058798	18221.250577
734.389501	17457.054504
734.720156	16946.577183
735.050762	16372.283896
735.381320	15989.735936
735.711831	15720.276181
736.042293	15348.992679
736.372707	15397.556635
736.703073	15190.302197
737.033391	15388.585902
737.363661	15389.770573
737.693883	15517.105078
738.024056	15710.143461
738.354182	15942.119717
738.684260	16302.531970
739.014290	16580.838951
739.344272	16808.510061
739.674207	17157.625089
740.004093	17330.052715
740.333931	17377.434520
740.663722	17460.096840
740.993464	17494.560688
741.323159	17340.001432
741.652806	17037.827109
741.982405	16865.681787
742.311956	16502.204512
742.641460	16396.277267
742.970915	16052.556275
743.300323	15718.632764
743.629683	15510.813718
743.958996	15191.307908
744.288260	14867.960738
744.617477	14563.669130
744.946647	14531.141085
745.275768	14222.766142
745.604842	14012.713865
745.933869	13843.689017
746.262847	13816.660871
746.591778	13737.494591
746.920662	13614.641672
747.249498	13633.803098
747.578286	13788.201037
747.907027	13959.441471
748.235720	14237.932454
748.564365	14300.682216
748.892963	14223.794538
749.221514	14332.292772
749.550017	14196.753789
749.878473	14166.743800
750.206881	13941.121918
750.535242	13859.669475
750.863555	13783.416982
751.191821	13683.438298
751.520039	13706.103326
751.848210	13631.655566
752.176334	13675.054859
752.504411	13606.545579
752.832440	13427.675358
753.160421	13542.404458
753.488356	13432.582921
753.816243	13332.493332
754.144082	13175.632789
754.471875	13126.751241
754.799620	13092.151281
755.127318	13065.309658
755.454969	13052.709294
755.782572	13023.843647
756.110129	13041.338971
756.437638	12947.674333
756.765100	12951.001494
757.092515	12975.541831
757.419882	13021.791897
757.747203	13035.423177
758.074477	13120.653965
758.401703	13109.132408
758.728882	13300.809680
759.056014	13344.324920
759.383099	13518.005273
759.710138	13646.080828
760.037129	13764.729425
760.364073	13820.179596
760.690970	13847.789996
761.017820	13871.853944
761.344623	14083.453856
761.671379	14474.554133
761.998088	15177.003633
762.324751	16964.175851
762.651366	20381.982377
762.977935	24870.003179
763.304456	27813.422004
763.630931	28848.242339
763.957359	27646.743814
764.283740	25364.782347
764.610074	23082.145364
764.936362	20443.464289
765.262602	18577.864321
765.588796	16659.538924
765.914943	15378.382606
766.241044	14271.975366
766.567097	13481.114109
766.893104	12769.729164
767.219064	12304.319758
767.544978	11830.920124
767.870845	11445.206320
768.196665	11223.529141
768.522438	10997.206539
768.848165	10789.165682
769.173846	10584.290669
769.499479	10456.815012
769.825066	10288.957191
770.150607	10058.674763
770.476101	9980.191559
770.801548	9850.344039
771.126949	9700.402480
771.452303	9585.658257
771.777611	9383.800374
772.102872	9377.801401
772.428087	9233.087518
772.753256	9074.419722
773.078378	8986.998552
773.403453	8805.239750
773.728482	8694.016773
774.053465	8621.777038
774.378401	8514.012292
774.703291	8402.204541
775.028135	8269.160930
775.352932	8241.704285
775.677683	8133.435424
776.002388	8030.210237
776.327046	8033.179477
776.651658	7938.229344
776.976224	7837.744025
777.300743	7841.292997
777.625216	7752.762774
777.949643	7709.313069
778.274024	7721.195068
778.598359	7640.788664
778.922647	7652.295098
779.246889	7602.526307
779.571086	7613.384952
779.895236	7622.627908
780.219339	7631.291131
780.543397	7636.924620
780.867409	7716.547124
781.191374	7723.818989
781.515294	7692.750358
781.839167	7788.915408
782.162995	7752.051971
782.486776	7698.315792
782.810511	7657.482445
783.134201	7562.920482
783.457844	7559.827734
783.781441	7508.937286
784.104993	7439.346677
784.428498	7418.425889
784.751958	7401.535503
785.075372	7379.626648
785.398739	7321.577762
785.722061	7364.036880
786.045337	7370.108950
786.368568	7528.060903
786.691752	7552.868421
787.014891	7895.787870
787.337983	8254.501254
787.661030	8852.777831
787.984031	9473.238005
788.306987	9881.878977
788.629897	10083.764586
788.952760	10039.319253
789.275579	9807.849633
789.598351	9408.859950
789.921078	9049.854179
790.243759	8638.659862
790.566395	8348.203701
790.888984	8106.419881
791.211529	7890.025831
791.534027	7668.187336
791.856480	7469.805329
792.178888	7395.239102
792.501249	7297.455841
792.823566	7140.917931
793.145836	7142.972202
793.468062	7110.610514
793.790241	7067.506128
794.112375	7135.428115
794.434464	7283.776670
794.756507	7333.283321
795.078505	7493.042528
795.400457	7806.234292
795.722364	8161.106317
796.044226	8445.717261
796.366042	8718.620124
796.687812	8674.081530
797.009538	8744.539217
797.331218	8643.133887
797.652852	8557.567862
797.974442	8397.042400
798.295986	8304.869943
798.617484	8121.077035
798.938938	7976.332906
799.260346	7875.464458
799.581709	7672.671442
799.903026	7596.124041
800.224299	7484.079356
800.545526	7316.312277
800.866708	7223.900365
801.187845	7155.411249
801.508936	7051.840743
801.829983	7009.167376
802.150984	6854.028387
802.471940	6815.587068
802.792851	6799.024357
803.113717	6770.292301
803.434538	6731.183029
803.755314	6678.452560
804.076045	6680.842067
804.396731	6623.405680
804.717372	6659.472616
805.037967	6657.781308
805.358518	6699.877464
805.679024	6786.630680
805.999485	6796.372710
806.319901	6839.802250
806.640272	6862.169850
806.960598	6940.700945
807.280879	6940.136335
807.601115	7022.518872
807.921306	6969.496015
808.241453	6976.790565
808.561554	7007.463466
808.881611	6969.163299
809.201623	6979.046481
809.521590	6921.398367
809.841513	6900.893473
810.161390	6939.186078
810.481223	6807.886705
810.801011	6788.511031
811.120755	6762.869202
811.440453	6687.874476
811.760107	6654.796945
812.079716	6625.117152
812.399281	6559.415794
812.718801	6547.632097
813.038276	6507.479307
813.357707	6438.347443
813.677093	6484.499207
813.996434	6389.289455
814.315731	6430.682369
814.634983	6429.689262
814.954191	6436.676301
815.273354	6540.408123
815.592473	6605.179389
815.911547	6738.288535
816.230577	6818.324414
816.549562	6961.200797
816.868502	7059.987247
817.187399	7162.945253
817.506250	7310.313303
817.825058	7344.870413
818.143821	7609.462934
818.462539	7887.951396
818.781213	8257.069722
819.099843	8810.754772
819.418429	9808.416763
819.736970	10787.691144
820.055466	11966.426339
820.373919	13506.662677
820.692327	15860.480751
821.010691	20004.341980
821.329011	29022.358752
821.647286	42048.307081
821.965517	55446.078314
822.283704	60820.054178
822.601847	62788.087872
822.919945	60071.200857
823.237999	55855.604008
823.556010	49659.116003
823.873976	42943.227835
824.191897	36414.530312
824.509775	31577.185274
824.827609	27069.667810
825.145398	24485.733665
825.463144	23127.011634
825.780845	23449.090953
826.098502	25231.196811
826.416116	29036.111020
826.733685	32699.285627
827.051210	33860.149932
827.368692	32064.253997
827.686129	28082.733046
828.003522	23957.677841
828.320872	20255.131823
828.638177	17401.957213
828.955439	15236.544702
829.272656	13431.355400
829.589830	11947.680809
829.906960	10684.523931
830.224046	9739.889838
830.541088	8996.672526
830.858086	8536.677320
831.175041	8158.124475
831.491952	8049.676653
831.808819	8090.502437
832.125642	8494.535795
832.442421	9385.867247
832.759157	11187.021105
833.075849	14129.141833
833.392497	17350.587855
833.709101	19537.097595
834.025662	19367.382110
834.342179	17654.899628
834.658653	15451.600325
834.975083	13522.191951
835.291469	11904.253789
835.607811	10585.815618
835.924110	9676.714098
836.240366	8804.239081
836.556578	8004.676793
836.872746	7363.890687
837.188871	6854.729107
837.504952	6445.082425
837.820990	6131.341174
838.136984	5909.656434
838.452935	5817.667979
838.768842	5848.880283
839.084706	6275.162773
839.400526	7491.615881
839.716303	9073.809742
840.032037	10174.240694
840.347727	10088.281460
840.663373	9109.702757
840.978977	8068.162564
841.294537	7251.682164
841.610054	6657.065465
841.925527	6220.362910
842.240957	5862.771182
842.556344	5529.417322
842.871687	5244.025000
843.186987	4967.903360
843.502244	4744.877673
843.817458	4576.805604
844.132629	4442.289975
844.447756	4351.839072
844.762840	4270.106845
845.077881	4193.693035
845.392879	4130.083756
845.707833	4084.156323
846.022745	4040.068912
846.337613	4012.539171
846.652438	3968.928149
846.967221	3953.068679
847.281960	3919.872681
847.596656	3904.650917
847.911309	3882.863050
848.225919	3861.067622
848.540485	3844.489787
848.855009	3827.244000
849.169490	3805.877069
849.483928	3797.912046
849.798323	3788.762352
850.112675	3769.001029
850.426984	3779.615178
850.741251	3760.541973
851.055474	3756.292280
851.369654	3762.545832
851.683792	3754.031323
851.997887	3766.702263
852.311938	3766.467849
852.625947	3772.202162
852.939914	3762.994494
853.253837	3769.306019
853.567718	3769.338786
853.881555	3758.482662
854.195350	3769.638735
854.509103	3766.596399
854.822812	3767.090432
855.136479	3757.464348
855.450103	3765.721758
855.763685	3755.498298
856.077224	3758.840583
856.390720	3773.492697
856.704173	3794.796613
857.017584	3804.901606
857.330953	3818.631189
857.644278	3841.344107
857.957561	3846.017257
858.270802	3847.842155
858.584000	3849.084799
858.897155	3840.255218
859.210268	3825.237621
859.523339	3802.796924
859.836367	3801.249290
860.149352	3792.142446
860.462295	3785.835962
860.775195	3776.630815
861.088054	3767.783590
861.400869	3769.815175
861.713642	3772.776853
862.026373	3782.362607
862.339062	3786.791261
862.651708	3807.127276
862.964312	3839.962831
863.276873	3852.895911
863.589392	3912.124428
863.901869	3955.768217
864.214303	4001.249507
864.526696	4032.537429
864.839045	4083.067434
865.151353	4107.383440
865.463619	4116.371817
865.775842	4123.280718
866.088023	4139.992143
866.400162	4130.161893
866.712258	4137.882421
867.024313	4141.544819
867.336325	4137.685816
867.648296	4145.555057
867.960224	4143.284017
868.272110	4152.161489
868.583954	4155.375224
868.895755	4169.417358
869.207515	4168.502389
869.519233	4210.074264
869.830909	4224.623034
870.142542	4252.122528
870.454134	4263.581071
870.765684	4289.048980
871.077191	4327.041636
871.388657	4352.466696
871.700081	4389.589753
872.011463	4432.840332
872.322803	4471.266527
872.634101	4502.713245
872.945357	4538.689439
873.256571	4593.123819
873.567744	4620.088951
873.878874	4637.438082
874.189963	4681.192776
874.501010	4687.431204
874.812015	4687.819373
875.122979	4733.393924
875.433900	4725.895208
875.744780	4741.795007
876.055618	4764.744860
876.366415	4768.077063
876.677169	4784.846461
876.987882	4831.303214
877.298554	4885.316657
877.609183	4963.605777
877.919771	5077.336728
878.230317	5219.051124
878.540822	5435.603970
878.851285	5755.429893
879.161707	6219.906685
879.472087	6980.717624
879.782425	8216.107827
880.092722	10393.631710
880.402977	13708.523080
880.713191	17459.726315
881.023363	21165.077736
881.333494	23379.618812
881.643583	24589.972124
881.953631	24588.595889
882.263637	23739.055602
882.573602	22259.940734
882.883526	20696.043741
883.193408	19021.379995
883.503248	17320.653483
883.813048	15778.902279
884.122806	14362.370816
884.432522	12881.297460
884.742197	11622.178546
885.051831	10531.096413
885.361424	9538.316781
885.670975	8718.965443
885.980485	8030.356431
886.289954	7459.990202
886.599382	6984.659806
886.908768	6610.759946
887.218113	6244.177321
887.527417	5963.228776
887.836680	5691.586201
888.145901	5474.244414
888.455082	5311.145443
888.764221	5161.874357
889.073319	5029.108009
889.382376	4956.669149
889.691392	4899.320983
890.000366	4876.507241
890.309300	4857.802040
890.618193	4861.582905
890.927044	4847.185370
891.235855	4865.842680
891.544625	4899.230242
891.853353	4961.032268
892.162041	5078.720525
892.470687	5268.119195
892.779293	5514.613974
893.087858	5886.877980
893.396381	6467.560930
893.704864	7269.240502
894.013306	8428.988192
894.321707	9605.608623
894.630068	10419.666749
894.938387	10629.098965
895.246665	10386.480833
895.554903	9779.059603
895.863100	9080.315351
896.171256	8522.098303
896.479371	8019.714555
896.787446	7517.222422
897.095480	7083.864673
897.403473	6768.666528
897.711425	6448.888496
898.019336	6182.672723
898.327207	5910.904119
898.635038	5680.677144
898.942827	5436.929793
899.250576	5237.932766
899.558284	5048.229106
899.865952	4924.718316
900.173579	4776.871356
900.481165	4667.042257
900.788711	4575.550356
901.096216	4502.783821
901.403681	4441.652269
901.711105	4414.669493
902.018489	4400.229108
902.325832	4471.556394
902.633135	4596.987863
902.940397	4942.637097
903.247619	5737.490947
903.554800	7179.301277
903.861941	9095.111138
904.169041	10613.846954
904.476101	11236.986501
904.783121	10872.811027
905.090100	10130.496082
905.397039	9289.651785
905.703938	8539.875932
906.010796	7852.310439
906.317614	7296.858464
906.624391	6764.280725
906.931129	6338.940931
907.237826	5943.606084
907.544483	5566.318569
907.851099	5192.459038
908.157675	4836.321683
908.464211	4516.417622
908.770707	4281.520017
909.077163	4081.585335
909.383578	3938.935805
909.689954	3824.662929
909.996289	3758.361674
910.302584	3694.492775
910.608839	3660.255779
910.915054	3627.465594
911.221229	3612.546299
911.527363	3626.790079
911.833458	3637.847850
912.139513	3665.521264
912.445527	3694.419678
912.751502	3777.001340
913.057436	3881.859861
913.363331	4014.800129
913.669186	4219.097930
913.975000	4476.937825
914.280775	4898.370725
914.586510	5476.787676
914.892205	6279.296519
915.197859	7310.308262
915.503475	8533.022484
915.809050	9585.043236
916.114585	10239.916847
916.420081	10497.449232
916.725536	10457.772831
917.030952	10012.948977
917.336328	9612.527607
917.641665	9191.629069
917.946961	8714.297335
918.252218	8289.625494
918.557435	7781.068852
918.862612	7357.188472
919.167750	6980.281564
919.472848	6554.016718
919.777906	6180.482342
920.082925	5826.011088
920.387904	5457.364111
920.692843	5196.093710
920.997743	4947.174136
921.302603	4713.889700
921.607423	4555.867171
921.912204	4388.458014
922.216946	4272.398049
922.521647	4146.540602
922.826310	4044.424469
923.130932	3948.362762
923.435516	3853.216025
923.740059	3781.939150
924.044564	3707.030125
924.349028	3649.566012
924.653454	3585.273657
924.957840	3514.024509
925.262186	3471.978765
925.566493	3407.063827
925.870761	3348.455372
926.174989	3313.303407
926.479178	3275.741769
926.783328	3237.028228
927.087438	3207.948332
927.391509	3174.235616
927.695541	3143.615647
927.999533	3118.230917
928.303486	3097.426075
928.607400	3082.826894
928.911275	3069.470357
929.215110	3050.523180
929.518906	3042.462375
929.822663	3041.958260
930.126381	3035.818134
930.430060	3049.008313
930.733699	3052.491751
931.037299	3062.684964
931.340861	3056.617935
931.644383	3067.088412
931.947866	3063.516754
932.251309	3055.670198
932.554714	3055.697924
932.858080	3052.141390
933.161407	3040.219062
933.464694	3036.370141
933.767943	3028.952083
934.071153	3024.044519
934.374323	3012.865761
934.677455	3008.323681
934.980548	2999.630211
935.283602	2994.432782
935.586617	2992.144098
935.889593	3002.470902
936.192530	3007.234792
936.495428	3024.523429
936.798287	3044.413302
937.101108	3076.215421
937.403890	3130.851446
937.706632	3187.791279
938.009336	3269.079884
938.312002	3343.225175
938.614628	3406.272366
938.917216	3455.892443
939.219765	3491.036847
939.522275	3521.485416
939.824747	3528.288453
940.127179	3526.473638
940.429573	3518.715302
940.731929	3515.178933
941.034246	3499.314422
941.336524	3490.086590
941.638763	3471.635967
941.940964	3458.581899
942.243126	3415.989190
942.545250	3393.666961
942.847335	3357.058101
943.149381	3321.283553
943.451389	3288.430353
943.753359	3254.137904
944.055290	3228.112948
944.357182	3201.331818
944.659036	3189.795137
944.960851	3178.145031
945.262628	3166.068947
945.564367	3167.561128
945.866067	3157.355312
946.167729	3158.729027
946.469352	3156.069818
946.770937	3154.464211
947.072484	3135.181797
947.373992	3139.547436
947.675462	3132.893113
947.976893	3118.714868
948.278286	3104.995368
948.579641	3100.385233
948.880958	3093.526743
949.182236	3099.561004
949.483476	3089.576999
949.784678	3090.411310
950.085841	3091.641351
950.386967	3102.794904
950.688054	3120.978346
950.989103	3139.068527
951.290114	3159.712052
951.591087	3187.682894
951.892021	3219.059035
952.192917	3243.460741
952.493776	3269.299175
952.794596	3274.128600
953.095378	3281.294600
953.396122	3276.460134
953.696828	3267.806993
953.997496	3259.184099
954.298126	3232.836509
954.598718	3214.756411
954.899272	3190.591640
955.199788	3159.470076
955.500266	3128.048564
955.800706	3091.507761
956.101108	3055.362688
956.401472	3022.842204
956.701798	2994.354644
957.002087	2953.677573
957.302337	2922.722368
957.602550	2894.786814
957.902724	2866.200951
958.202861	2840.735563
958.502960	2819.333344
958.803022	2801.616209
959.103045	2781.965791
959.403031	2766.403749
959.702979	2751.577716
960.002889	2738.770664
960.302762	2722.636452
960.602596	2714.167313
960.902393	2704.253884
961.202153	2695.003367
961.501875	2688.288550
961.801559	2682.380317
962.101205	2677.210614
962.400814	2670.410098
962.700385	2663.198727
962.999918	2656.675474
963.299414	2650.074083
963.598873	2650.391676
963.898293	2640.347177
964.197677	2643.026550
964.497022	2642.459420
964.796331	2638.159316
965.095601	2636.072278
965.394835	2633.375261
965.694030	2630.474077
965.993189	2629.538943
966.292309	2628.336628
966.591393	2627.512399
966.890439	2627.741772
967.189447	2630.554735
967.488419	2629.425517
967.787353	2630.471556
968.086249	2628.374436
968.385108	2633.811321
968.683930	2633.007257
968.982714	2639.066724
969.281462	2640.591673
969.580172	2647.097282
969.878844	2652.473672
970.177480	2663.234015
970.476078	2671.262053
970.774639	2676.938392
971.073162	2682.783610
971.371649	2690.998170
971.670098	2698.355734
971.968510	2702.980993
972.266885	2705.796477
972.565223	2706.555171
972.863524	2710.146993
973.161788	2714.164792
973.460014	2717.325596
973.758204	2719.843652
974.056356	2725.078891
974.354471	2724.746174
974.652550	2723.248952
974.950591	2723.019579
975.248595	2722.303735
975.546563	2719.863817
975.844493	2717.902808
976.142386	2712.110522
976.440243	2704.732794
976.738062	2701.723225
977.035845	2693.385156
977.333590	2687.141687
977.631299	2683.310410
977.928971	2676.530058
978.226606	2669.621157
978.524204	2668.214675
978.821765	2664.146464
979.119290	2666.213337
979.416777	2666.853564
979.714228	2666.472957
980.011642	2671.506549
980.309020	2680.081551
980.606360	2689.924404
980.903664	2716.103116
981.200931	2753.904208
981.498162	2800.272741
981.795356	2876.101778
982.092513	2965.168884
982.389633	3068.484811
982.686717	3164.624656
982.983764	3238.848085
983.280775	3283.179992
983.577749	3292.395221
983.874686	3277.987603
984.171587	3246.505597
984.468451	3206.136037
984.765279	3166.023576
985.062070	3119.206381
985.358824	3075.136614
985.655543	3016.339116
985.952224	2962.081177
986.248869	2902.976169
986.545478	2842.005933
986.842050	2788.080711
987.138586	2743.980697
987.435086	2702.973431
987.731549	2674.004440
988.027975	2650.142139
988.324366	2631.666310
988.620719	2619.625514
988.917037	2607.977928
989.213318	2598.616505
989.509563	2591.193406
989.805772	2586.996646
990.101944	2581.849627
990.398080	2581.857189
990.694180	2578.983732
990.990244	2579.568505
991.286271	2580.964905
991.582262	2583.334247
991.878217	2581.872313
992.174136	2586.381625
992.470019	2589.103848
992.765865	2593.915629
993.061676	2594.303798
993.357450	2601.880652
993.653188	2609.112187
993.948890	2630.768984
994.244556	2646.883033
994.540186	2670.972186
994.835780	2703.288503
995.131337	2739.146230
995.426859	2780.145935
995.722345	2828.349448
996.017795	2878.564381
996.313208	2915.213570
996.608586	2943.524690
996.903928	2954.433747
997.199234	2955.787296
997.494504	2951.658591
997.789738	2939.819442
998.084936	2913.943199
998.380099	2882.340205
998.675225	2854.581092
998.970316	2824.969354
999.265371	2788.322686
999.560390	2752.049064
999.855373	2722.281050
1000.150320	2695.734334
1000.445232	2666.147802
1000.740108	2647.961840
1001.034948	2630.317801
1001.329752	2614.067642
1001.624521	2602.853595
1001.919254	2588.292222
1002.213951	2583.586305
1002.508613	2571.674058
1002.803239	2566.290106
1003.097829	2561.304405
1003.392384	2557.881462
1003.686903	2551.506923
1003.981386	2552.051367
1004.275834	2545.812939
1004.570246	2541.197763
1004.864623	2541.238092
1005.158964	2536.373379
1005.453270	2538.793133
1005.747540	2536.779192
1006.041775	2532.398429
1006.335974	2529.524971
1006.630138	2533.288193
1006.924266	2529.535053
1007.218359	2527.556401
1007.512416	2524.148581
1007.806438	2525.905423
1008.100425	2524.246883
1008.394376	2525.096318
1008.688292	2526.704446
1008.982172	2526.107069
1009.276017	2525.297964
1009.569827	2523.606657
1009.863602	2526.107069
1010.157341	2522.742099
1010.451045	2520.302180
1010.744714	2521.509537
1011.038347	2520.496265
1011.331945	2522.250586
1011.625508	2518.658764
1011.919036	2515.460152
1012.212528	2517.852179
1012.505986	2516.859072
1012.799408	2515.659277
1013.092795	2513.985614
1013.386147	2514.910666
1013.679464	2516.057529
1013.972745	2513.846983
1014.265992	2514.083917
1014.559204	2513.955367
1014.852380	2514.290604
1015.145521	2513.642816
1015.438628	2516.569206
1015.731699	2514.426715
1016.024736	2516.899401
1016.317737	2517.113650
1016.610703	2517.960564
1016.903635	2520.811337
1017.196531	2521.882582
1017.489393	2523.422654
1017.782219	2522.963909
1018.075011	2524.647655
1018.367768	2522.265710
1018.660490	2522.943745
1018.953177	2522.943745
1019.245829	2522.943745
