Dividing Wavelength (nm)	Counts (n)	Blue Motor Position (mm): 7.400000	Red Motor Position (mm): 0.000000	
326.493990	2049.229038
326.888308	2049.229038
327.282561	2049.229038
327.676750	2069.393654
328.070874	2041.667308
328.464933	2046.708462
328.858929	2122.325769
329.252859	2122.325769
329.646726	2112.243462
330.040528	2104.681731
330.434265	2092.078846
330.827938	2175.257885
331.221547	2160.134423
331.615091	2175.257885
332.008571	2175.257885
332.401986	2200.463654
332.795338	2210.545962
333.188625	2243.313462
333.581847	2230.710577
333.975006	2230.710577
334.368100	2323.971923
334.761129	2313.889615
335.154095	2276.080962
335.546996	2308.848462
335.939833	2344.136538
336.332606	2356.739423
336.725315	2381.945192
337.117960	2346.657115
337.510540	2389.506923
337.903056	2397.068654
338.295508	2341.615962
338.687896	2374.383462
339.080220	2427.315577
339.472480	2424.795000
339.864676	2553.344423
340.256807	2515.535769
340.648875	2507.974038
341.040879	2467.644808
341.432818	2462.603654
341.824694	2455.041923
342.216506	2447.480192
342.608253	2437.397885
342.999937	2437.397885
343.391557	2520.576923
343.783113	2422.274423
344.174605	2472.685962
344.566033	2447.480192
344.957397	2497.891731
345.348697	2485.288846
345.739934	2404.630385
346.131106	2460.083077
346.522215	2452.521346
346.913260	2412.192115
347.304241	2432.356731
347.695159	2437.397885
348.086012	2500.412308
348.476802	2399.589231
348.867528	2465.124231
349.258191	2495.371154
349.648789	2472.685962
350.039324	2369.342308
350.429796	2414.712692
350.820203	2427.315577
351.210548	2482.768269
351.600828	2384.465769
351.991045	2439.918462
352.381198	2502.932885
352.771288	2432.356731
353.161314	2510.494615
353.551276	2482.768269
353.941175	2419.753846
354.331010	2404.630385
354.720782	2399.589231
355.110490	2379.424615
355.500135	2450.000769
355.889717	2394.548077
356.279235	2422.274423
356.668689	2424.795000
357.058080	2414.712692
357.447408	2404.630385
357.836672	2422.274423
358.225873	2455.041923
358.615010	2381.945192
359.004084	2497.891731
359.393095	2412.192115
359.782043	2485.288846
360.170927	2376.904038
360.559748	2490.330000
360.948505	2447.480192
361.337199	2480.247692
361.725830	2407.150962
362.114398	2487.809423
362.502903	2404.630385
362.891344	2452.521346
363.279722	2364.301154
363.668037	2427.315577
364.056289	2412.192115
364.444478	2482.768269
364.832603	2404.630385
365.220665	2492.850577
365.608665	2477.727115
365.996601	2470.165385
366.384474	2379.424615
366.772284	2487.809423
367.160031	2520.576923
367.547715	2502.932885
367.935336	2419.753846
368.322893	2470.165385
368.710388	2467.644808
369.097820	2475.206538
369.485189	2465.124231
369.872495	2439.918462
370.259738	2379.424615
370.646918	2306.327885
371.034035	2432.356731
371.421090	2472.685962
371.808081	2485.288846
372.195010	2475.206538
372.581875	2507.974038
372.968678	2439.918462
373.355418	2505.453462
373.742096	2477.727115
374.128710	2402.109808
374.515262	2442.439038
374.901751	2475.206538
375.288177	2437.397885
375.674540	2507.974038
376.060841	2455.041923
376.447079	2470.165385
376.833254	2487.809423
377.219367	2442.439038
377.605417	2472.685962
377.991404	2452.521346
378.377329	2419.753846
378.763191	2452.521346
379.148991	2485.288846
379.534727	2485.288846
379.920402	2455.041923
380.306013	2465.124231
380.691563	2500.412308
381.077049	2502.932885
381.462474	2472.685962
381.847835	2437.397885
382.233134	2447.480192
382.618371	2414.712692
383.003545	2409.671538
383.388657	2374.383462
383.773706	2442.439038
384.158693	2442.439038
384.543618	2467.644808
384.928480	2460.083077
385.313280	2467.644808
385.698017	2419.753846
386.082692	2404.630385
386.467305	2482.768269
386.851856	2404.630385
387.236344	2437.397885
387.620770	2550.823846
388.005133	2523.097500
388.389435	2439.918462
388.773674	2487.809423
389.157851	2513.015192
389.541965	2460.083077
389.926018	2480.247692
390.310008	2460.083077
390.693936	2432.356731
391.077802	2500.412308
391.461606	2439.918462
391.845348	2414.712692
392.229027	2450.000769
392.612645	2465.124231
392.996200	2455.041923
393.379694	2535.700385
393.763125	2381.945192
394.146494	2429.836154
394.529801	2402.109808
394.913047	2452.521346
395.296230	2422.274423
395.679351	2434.877308
396.062410	2475.206538
396.445408	2550.823846
396.828343	2540.741538
397.211217	2470.165385
397.594028	2487.809423
397.976778	2437.397885
398.359466	2480.247692
398.742092	2465.124231
399.124656	2505.453462
399.507158	2467.644808
399.889598	2507.974038
400.271977	2379.424615
400.654294	2447.480192
401.036549	2462.603654
401.418742	2467.644808
401.800874	2472.685962
402.182944	2490.330000
402.564952	2402.109808
402.946898	2530.659231
403.328783	2528.138654
403.710606	2505.453462
404.092367	2520.576923
404.474067	2419.753846
404.855705	2384.465769
405.237282	2442.439038
405.618797	2472.685962
406.000250	2510.494615
406.381642	2409.671538
406.762972	2487.809423
407.144240	2515.535769
407.525447	2444.959615
407.906593	2480.247692
408.287677	2465.124231
408.668700	2432.356731
409.049661	2477.727115
409.430560	2492.850577
409.811399	2581.070769
410.192176	2482.768269
410.572891	2424.795000
410.953545	2432.356731
411.334138	2495.371154
411.714669	2450.000769
412.095139	2500.412308
412.475547	2397.068654
412.855894	2480.247692
413.236180	2548.303269
413.616405	2465.124231
413.996568	2515.535769
414.376670	2492.850577
414.756711	2424.795000
415.136691	2452.521346
415.516609	2472.685962
415.896466	2533.179808
416.276262	2500.412308
416.655997	2467.644808
417.035670	2560.906154
417.415283	2460.083077
417.794834	2480.247692
418.174324	2434.877308
418.553753	2533.179808
418.933121	2439.918462
419.312428	2485.288846
419.691674	2450.000769
420.070859	2502.932885
420.449983	2475.206538
420.829045	2485.288846
421.208047	2407.150962
421.586988	2470.165385
421.965867	2495.371154
422.344686	2462.603654
422.723444	2432.356731
423.102141	2447.480192
423.480777	2480.247692
423.859352	2538.220962
424.237866	2480.247692
424.616319	2535.700385
424.994712	2442.439038
425.373044	2545.782692
425.751314	2417.233269
426.129524	2429.836154
426.507673	2563.426731
426.885762	2465.124231
427.263789	2417.233269
427.641756	2477.727115
428.019662	2525.618077
428.397508	2465.124231
428.775292	2518.056346
429.153016	2432.356731
429.530679	2472.685962
429.908282	2513.015192
430.285824	2467.644808
430.663305	2482.768269
431.040726	2505.453462
431.418086	2586.111923
431.795385	2485.288846
432.172624	2482.768269
432.549802	2389.506923
432.926920	2583.591346
433.303977	2442.439038
433.680974	2452.521346
434.057910	2444.959615
434.434786	2525.618077
434.811601	2490.330000
435.188355	2475.206538
435.565050	2480.247692
435.941683	2513.015192
436.318257	2437.397885
436.694770	2505.453462
437.071222	2397.068654
437.447614	2389.506923
437.823946	2379.424615
438.200218	2482.768269
438.576429	2432.356731
438.952580	2477.727115
439.328670	2480.247692
439.704700	2444.959615
440.080670	2470.165385
440.456580	2450.000769
440.832429	2472.685962
441.208218	2480.247692
441.583947	2568.467885
441.959616	2475.206538
442.335224	2500.412308
442.710773	2439.918462
443.086261	2465.124231
443.461689	2538.220962
443.837057	2482.768269
444.212365	2505.453462
444.587612	2434.877308
444.962800	2432.356731
445.337927	2492.850577
445.712995	2530.659231
446.088002	2492.850577
446.462949	2502.932885
446.837837	2515.535769
447.212664	2490.330000
447.587431	2515.535769
447.962139	2510.494615
448.336786	2490.330000
448.711374	2447.480192
449.085901	2480.247692
449.460369	2497.891731
449.834776	2581.070769
450.209124	2460.083077
450.583412	2467.644808
450.957640	2540.741538
451.331808	2507.974038
451.705917	2480.247692
452.079965	2465.124231
452.453954	2518.056346
452.827883	2485.288846
453.201752	2467.644808
453.575562	2500.412308
453.949311	2492.850577
454.323001	2568.467885
454.696632	2457.562500
455.070202	2533.179808
455.443713	2485.288846
455.817164	2480.247692
456.190556	2502.932885
456.563888	2487.809423
456.937160	2475.206538
457.310373	2528.138654
457.683526	2439.918462
458.056619	2500.412308
458.429653	2417.233269
458.802628	2487.809423
459.175542	2518.056346
459.548398	2500.412308
459.921194	2470.165385
460.293930	2492.850577
460.666607	2477.727115
461.039224	2513.015192
461.411782	2434.877308
461.784280	2460.083077
462.156719	2409.671538
462.529099	2528.138654
462.901419	2530.659231
463.273680	2447.480192
463.645882	2515.535769
464.018024	2470.165385
464.390106	2447.480192
464.762130	2545.782692
465.134094	2543.262115
465.505999	2573.509038
465.877845	2429.836154
466.249631	2442.439038
466.621358	2558.385577
466.993026	2439.918462
467.364634	2450.000769
467.736184	2480.247692
468.107674	2480.247692
468.479105	2492.850577
468.850477	2419.753846
469.221790	2505.453462
469.593043	2490.330000
469.964238	2500.412308
470.335373	2545.782692
470.706449	2475.206538
471.077467	2518.056346
471.448425	2540.741538
471.819324	2455.041923
472.190164	2487.809423
472.560945	2507.974038
472.931667	2507.974038
473.302330	2424.795000
473.672934	2553.344423
474.043479	2543.262115
474.413965	2507.974038
474.784393	2583.591346
475.154761	2548.303269
475.525070	2495.371154
475.895321	2550.823846
476.265513	2437.397885
476.635645	2455.041923
477.005719	2497.891731
477.375734	2462.603654
477.745691	2485.288846
478.115588	2467.644808
478.485427	2538.220962
478.855207	2462.603654
479.224928	2550.823846
479.594591	2502.932885
479.964194	2457.562500
480.333739	2497.891731
480.703226	2530.659231
481.072653	2424.795000
481.442022	2384.465769
481.811333	2523.097500
482.180584	2492.850577
482.549777	2515.535769
482.918912	2477.727115
483.287988	2452.521346
483.657005	2444.959615
484.025964	2495.371154
484.394864	2538.220962
484.763706	2518.056346
485.132489	2510.494615
485.501213	2422.274423
485.869879	2417.233269
486.238487	2477.727115
486.607036	2533.179808
486.975527	2550.823846
487.343959	2540.741538
487.712333	2412.192115
488.080648	2593.673654
488.448905	2520.576923
488.817104	2555.865000
489.185244	2455.041923
489.553326	2465.124231
489.921350	2434.877308
490.289315	2470.165385
490.657222	2558.385577
491.025070	2502.932885
491.392861	2558.385577
491.760593	2528.138654
492.128267	2525.618077
492.495883	2523.097500
492.863440	2455.041923
493.230939	2472.685962
493.598380	2492.850577
493.965763	2518.056346
494.333088	2560.906154
494.700354	2467.644808
495.067563	2480.247692
495.434713	2450.000769
495.801805	2518.056346
496.168839	2485.288846
496.535815	2497.891731
496.902733	2439.918462
497.269593	2530.659231
497.636395	2452.521346
498.003139	2427.315577
498.369825	2462.603654
498.736453	2455.041923
499.103023	2520.576923
499.469535	2560.906154
499.835989	2507.974038
500.202385	2530.659231
500.568723	2462.603654
500.935003	2414.712692
501.301226	2480.247692
501.667390	2477.727115
502.033497	2545.782692
502.399546	2475.206538
502.765537	2533.179808
503.131470	2530.659231
503.497345	2507.974038
503.863163	2578.550192
504.228923	2553.344423
504.594625	2520.576923
504.960269	2510.494615
505.325856	2462.603654
505.691385	2523.097500
506.056856	2560.906154
506.422270	2475.206538
506.787625	2560.906154
507.152924	2530.659231
507.518164	2394.548077
507.883347	2495.371154
508.248472	2457.562500
508.613540	2475.206538
508.978550	2505.453462
509.343503	2518.056346
509.708398	2583.591346
510.073236	2538.220962
510.438016	2452.521346
510.802738	2502.932885
511.167403	2462.603654
511.532010	2515.535769
511.896561	2513.015192
512.261053	2424.795000
512.625488	2399.589231
512.989866	2500.412308
513.354186	2548.303269
513.718449	2525.618077
514.082655	2427.315577
514.446803	2490.330000
514.810894	2444.959615
515.174927	2407.150962
515.538904	2487.809423
515.902822	2533.179808
516.266684	2460.083077
516.630488	2528.138654
516.994235	2528.138654
517.357925	2518.056346
517.721558	2510.494615
518.085133	2485.288846
518.448651	2432.356731
518.812112	2457.562500
519.175516	2533.179808
519.538863	2470.165385
519.902152	2548.303269
520.265385	2550.823846
520.628560	2492.850577
520.991678	2485.288846
521.354739	2515.535769
521.717743	2513.015192
522.080690	2419.753846
522.443580	2520.576923
522.806413	2457.562500
523.169189	2528.138654
523.531908	2439.918462
523.894569	2530.659231
524.257174	2470.165385
524.619722	2518.056346
524.982213	2452.521346
525.344647	2490.330000
525.707025	2460.083077
526.069345	2424.795000
526.431608	2482.768269
526.793815	2490.330000
527.155964	2510.494615
527.518057	2505.453462
527.880093	2427.315577
528.242072	2465.124231
528.603995	2505.453462
528.965860	2455.041923
529.327669	2502.932885
529.689421	2558.385577
530.051117	2563.426731
530.412755	2502.932885
530.774337	2513.015192
531.135862	2450.000769
531.497331	2528.138654
531.858743	2439.918462
532.220098	2530.659231
532.581396	2631.482308
532.942638	2535.700385
533.303824	2507.974038
533.664953	2470.165385
534.026025	2530.659231
534.387040	2555.865000
534.747999	2457.562500
535.108902	2462.603654
535.469748	2480.247692
535.830537	2450.000769
536.191270	2402.109808
536.551947	2578.550192
536.912567	2475.206538
537.273131	2540.741538
537.633638	2586.111923
537.994089	2490.330000
538.354483	2477.727115
538.714821	2523.097500
539.075103	2555.865000
539.435328	2573.509038
539.795497	2555.865000
540.155609	2528.138654
540.515665	2429.836154
540.875665	2482.768269
541.235609	2540.741538
541.595496	2518.056346
541.955328	2573.509038
542.315102	2535.700385
542.674821	2490.330000
543.034483	2525.618077
543.394090	2543.262115
543.753640	2460.083077
544.113134	2477.727115
544.472571	2450.000769
544.831953	2482.768269
545.191278	2485.288846
545.550548	2525.618077
545.909761	2442.439038
546.268918	2480.247692
546.628019	2520.576923
546.987064	2462.603654
547.346053	2492.850577
547.704986	2480.247692
548.063863	2465.124231
548.422684	2555.865000
548.781449	2560.906154
549.140158	2500.412308
549.498811	2490.330000
549.857408	2477.727115
550.215949	2502.932885
550.574434	2470.165385
550.932864	2439.918462
551.291237	2490.330000
551.649555	2397.068654
552.007817	2455.041923
552.366022	2555.865000
552.724173	2565.947308
553.082267	2505.453462
553.440305	2513.015192
553.798288	2447.480192
554.156215	2543.262115
554.514086	2533.179808
554.871902	2578.550192
555.229661	2515.535769
555.587365	2487.809423
555.945014	2500.412308
556.302606	2429.836154
556.660143	2497.891731
557.017625	2523.097500
557.375050	2533.179808
557.732421	2540.741538
558.089735	2444.959615
558.446994	2507.974038
558.804197	2490.330000
559.161345	2535.700385
559.518437	2520.576923
559.875474	2412.192115
560.232455	2452.521346
560.589381	2545.782692
560.946251	2417.233269
561.303065	2560.906154
561.659825	2465.124231
562.016528	2460.083077
562.373177	2427.315577
562.729770	2578.550192
563.086307	2429.836154
563.442789	2523.097500
563.799216	2460.083077
564.155587	2543.262115
564.511904	2528.138654
564.868164	2455.041923
565.224370	2535.700385
565.580520	2490.330000
565.936615	2560.906154
566.292654	2462.603654
566.648638	2548.303269
567.004567	2447.480192
567.360441	2460.083077
567.716260	2555.865000
568.072023	2480.247692
568.427732	2553.344423
568.783385	2523.097500
569.138982	2384.465769
569.494525	2538.220962
569.850013	2510.494615
570.205445	2550.823846
570.560823	2535.700385
570.916145	2487.809423
571.271412	2533.179808
571.626625	2439.918462
571.981782	2545.782692
572.336884	2482.768269
572.691931	2452.521346
573.046923	2520.576923
573.401860	2570.988462
573.756743	2502.932885
574.111570	2480.247692
574.466342	2510.494615
574.821059	2510.494615
575.175722	2485.288846
575.530330	2475.206538
575.884882	2470.165385
576.239380	2525.618077
576.593823	2611.317692
576.948211	2482.768269
577.302544	2513.015192
577.656823	2495.371154
578.011047	2452.521346
578.365216	2535.700385
578.719330	2530.659231
579.073389	2455.041923
579.427394	2361.780577
579.781344	2505.453462
580.135239	2497.891731
580.489080	2586.111923
580.842866	2432.356731
581.196597	2465.124231
581.550273	2528.138654
581.903895	2578.550192
582.257463	2477.727115
582.610975	2424.795000
582.964434	2472.685962
583.317837	2563.426731
583.671186	2507.974038
584.024481	2538.220962
584.377721	2432.356731
584.730906	2475.206538
585.084037	2550.823846
585.437113	2462.603654
585.790135	2487.809423
586.143103	2530.659231
586.496016	2523.097500
586.848874	2429.836154
587.201679	2460.083077
587.554428	2533.179808
587.907124	2505.453462
588.259765	2500.412308
588.612352	2450.000769
588.964884	2505.453462
589.317362	2485.288846
589.669786	2472.685962
590.022155	2545.782692
590.374470	2434.877308
590.726731	2543.262115
591.078937	2502.932885
591.431090	2555.865000
591.783188	2472.685962
592.135232	2507.974038
592.487222	2495.371154
592.839157	2550.823846
593.191038	2507.974038
593.542866	2465.124231
593.894639	2407.150962
594.246358	2518.056346
594.598022	2540.741538
594.949633	2427.315577
595.301190	2528.138654
595.652692	2533.179808
596.004141	2467.644808
596.355535	2475.206538
596.706876	2507.974038
597.058162	2563.426731
597.409395	2444.959615
597.760573	2487.809423
598.111698	2467.644808
598.462768	2497.891731
598.813785	2460.083077
599.164748	2487.809423
599.515657	2437.397885
599.866511	2513.015192
600.217312	2507.974038
600.568060	2505.453462
600.918753	2477.727115
601.269392	2528.138654
601.619978	2570.988462
601.970510	2427.315577
602.320988	2523.097500
602.671412	2447.480192
603.021783	2457.562500
603.372100	2434.877308
603.722363	2477.727115
604.072572	2455.041923
604.422728	2492.850577
604.772830	2482.768269
605.122878	2528.138654
605.472872	2518.056346
605.822813	2573.509038
606.172701	2535.700385
606.522534	2520.576923
606.872314	2548.303269
607.222041	2548.303269
607.571714	2525.618077
607.921333	2507.974038
608.270899	2505.453462
608.620411	2543.262115
608.969870	2538.220962
609.319276	2462.603654
609.668627	2477.727115
610.017926	2533.179808
610.367171	2470.165385
610.716362	2467.644808
611.065500	2490.330000
611.414585	2417.233269
611.763616	2424.795000
612.112594	2530.659231
612.461518	2553.344423
612.810389	2515.535769
613.159207	2472.685962
613.507971	2497.891731
613.856682	2565.947308
614.205340	2520.576923
614.553945	2513.015192
614.902496	2444.959615
615.250994	2553.344423
615.599439	2457.562500
615.947830	2455.041923
616.296169	2550.823846
616.644454	2528.138654
616.992686	2510.494615
617.340864	2442.439038
617.688990	2553.344423
618.037063	2525.618077
618.385082	2437.397885
618.733048	2465.124231
619.080961	2460.083077
619.428821	2495.371154
619.776628	2477.727115
620.124382	2472.685962
620.472083	2477.727115
620.819731	2515.535769
621.167326	2452.521346
621.514868	2497.891731
621.862357	2485.288846
622.209793	2583.591346
622.557176	2487.809423
622.904506	2555.865000
623.251783	2543.262115
623.599007	2507.974038
623.946179	2475.206538
624.293297	2538.220962
624.640363	2513.015192
624.987376	2404.630385
625.334336	2462.603654
625.681243	2412.192115
626.028097	2553.344423
626.374899	2490.330000
626.721647	2422.274423
627.068343	2565.947308
627.414987	2495.371154
627.761577	2525.618077
628.108115	2565.947308
628.454600	2414.712692
628.801032	2518.056346
629.147412	2457.562500
629.493739	2578.550192
629.840014	2497.891731
630.186236	2538.220962
630.532405	2437.397885
630.878521	2578.550192
631.224585	2518.056346
631.570597	2477.727115
631.916556	2472.685962
632.262462	2533.179808
632.608316	2487.809423
632.954117	2502.932885
633.299866	2487.809423
633.645562	2530.659231
633.991206	2525.618077
634.336797	2518.056346
634.682336	2480.247692
635.027823	2492.850577
635.373257	2470.165385
635.718639	2507.974038
636.063968	2497.891731
636.409245	2495.371154
636.754470	2465.124231
637.099642	2414.712692
637.444762	2568.467885
637.789829	2548.303269
638.134845	2618.879423
638.479808	2437.397885
638.824719	2568.467885
639.169577	2417.233269
639.514383	2553.344423
639.859137	2553.344423
640.203839	2447.480192
640.548489	2477.727115
640.893086	2543.262115
641.237632	2550.823846
641.582125	2510.494615
641.926566	2477.727115
642.270955	2497.891731
642.615292	2540.741538
642.959576	2490.330000
643.303809	2530.659231
643.647990	2482.768269
643.992118	2533.179808
644.336195	2424.795000
644.680219	2505.453462
645.024192	2444.959615
645.368112	2525.618077
645.711981	2535.700385
646.055797	2558.385577
646.399562	2497.891731
646.743274	2528.138654
647.086935	2462.603654
647.430544	2513.015192
647.774101	2427.315577
648.117606	2573.509038
648.461059	2467.644808
648.804460	2460.083077
649.147810	2480.247692
649.491108	2492.850577
649.834354	2480.247692
650.177548	2538.220962
650.520690	2540.741538
650.863781	2490.330000
651.206820	2475.206538
651.549807	2475.206538
651.892742	2573.509038
652.235626	2601.235385
652.578458	2470.165385
652.921238	2528.138654
653.263967	2518.056346
653.606644	2525.618077
653.949269	2535.700385
654.291843	2455.041923
654.634365	2513.015192
654.976836	2412.192115
655.319255	2417.233269
655.661622	2528.138654
656.003938	2502.932885
656.346203	2490.330000
656.688416	2565.947308
657.030577	2492.850577
657.372687	2518.056346
657.714746	2530.659231
658.056753	2515.535769
658.398708	2477.727115
658.740612	2576.029615
659.082465	2462.603654
659.424266	2374.383462
659.766016	2472.685962
660.107715	2432.356731
660.449362	2422.274423
660.790958	2389.506923
661.132503	2492.850577
661.473996	2485.288846
661.815438	2505.453462
662.156829	2550.823846
662.498168	2550.823846
662.839456	2475.206538
663.180693	2543.262115
663.521879	2518.056346
663.863013	2480.247692
664.204097	2465.124231
664.545129	2437.397885
664.886110	2500.412308
665.227040	2462.603654
665.567918	2470.165385
665.908746	2588.632500
666.249522	2412.192115
666.590248	2490.330000
666.930922	2576.029615
667.271545	2490.330000
667.612118	2467.644808
667.952639	2560.906154
668.293109	2465.124231
668.633528	2507.974038
668.973896	2540.741538
669.314213	2523.097500
669.654480	2555.865000
669.994695	2472.685962
670.334859	2558.385577
670.674973	2515.535769
671.015035	2500.412308
671.355047	2442.439038
671.695008	2510.494615
672.034918	2598.714808
672.374777	2427.315577
672.714585	2581.070769
673.054342	2611.317692
673.394049	2520.576923
673.733705	2397.068654
674.073310	2487.809423
674.412864	2545.782692
674.752368	2434.877308
675.091820	2500.412308
675.431223	2543.262115
675.770574	2573.509038
676.109875	2497.891731
676.449125	2528.138654
676.788324	2419.753846
677.127473	2444.959615
677.466571	2485.288846
677.805619	2482.768269
678.144616	2538.220962
678.483562	2515.535769
678.822458	2472.685962
679.161303	2502.932885
679.500098	2470.165385
679.838842	2543.262115
680.177535	2427.315577
680.516179	2510.494615
680.854771	2470.165385
681.193314	2500.412308
681.531805	2570.988462
681.870247	2492.850577
682.208638	2545.782692
682.546978	2409.671538
682.885268	2520.576923
683.223508	2450.000769
683.561697	2581.070769
683.899836	2432.356731
684.237925	2515.535769
684.575963	2465.124231
684.913951	2545.782692
685.251889	2596.194231
685.589776	2465.124231
685.927614	2528.138654
686.265401	2558.385577
686.603137	2533.179808
686.940824	2462.603654
687.278460	2518.056346
687.616046	2462.603654
687.953582	2487.809423
688.291068	2455.041923
688.628504	2450.000769
688.965889	2477.727115
689.303224	2465.124231
689.640510	2502.932885
689.977745	2477.727115
690.314930	2515.535769
690.652065	2482.768269
690.989150	2598.714808
691.326185	2475.206538
691.663170	2523.097500
692.000105	2523.097500
692.336990	2540.741538
692.673825	2528.138654
693.010610	2447.480192
693.347345	2535.700385
693.684030	2505.453462
694.020665	2510.494615
694.357251	2523.097500
694.693786	2578.550192
695.030272	2487.809423
695.366707	2452.521346
695.703093	2394.548077
696.039429	2505.453462
696.375716	2497.891731
696.711952	2497.891731
697.048139	2505.453462
697.384276	2487.809423
697.720363	2417.233269
698.056400	2588.632500
698.392388	2467.644808
698.728326	2386.986346
699.064214	2538.220962
699.400053	2452.521346
699.735842	2502.932885
700.071581	2543.262115
700.407270	2462.603654
700.742910	2492.850577
701.078501	2495.371154
701.414042	2530.659231
701.749533	2409.671538
702.084974	2505.453462
702.420366	2460.083077
702.755709	2548.303269
703.091002	2475.206538
703.426246	2515.535769
703.761440	2492.850577
704.096584	2565.947308
704.431679	2457.562500
704.766725	2548.303269
705.101721	2507.974038
705.436668	2495.371154
705.771565	2538.220962
706.106413	2477.727115
706.441212	2477.727115
706.775961	2502.932885
707.110661	2492.850577
707.445311	2523.097500
707.779913	2477.727115
708.114465	2548.303269
708.448967	2450.000769
708.783421	2505.453462
709.117825	2414.712692
709.452180	2568.467885
709.786485	2447.480192
710.120742	2550.823846
710.454949	2528.138654
710.789107	2513.015192
711.123216	2482.768269
711.457275	2538.220962
711.791286	2455.041923
712.125247	2513.015192
712.459159	2414.712692
712.793023	2515.535769
713.126837	2487.809423
713.460602	2447.480192
713.794318	2535.700385
714.127985	2452.521346
714.461602	2502.932885
714.795171	2553.344423
715.128691	2523.097500
715.462162	2543.262115
715.795584	2555.865000
716.128957	2525.618077
716.462281	2485.288846
716.795556	2510.494615
717.128782	2495.371154
717.461960	2563.426731
717.795088	2447.480192
718.128167	2442.439038
718.461198	2444.959615
718.794180	2477.727115
719.127113	2540.741538
719.459997	2477.727115
719.792833	2515.535769
720.125619	2467.644808
720.458357	2533.179808
720.791046	2525.618077
721.123686	2487.809423
721.456278	2462.603654
721.788821	2523.097500
722.121315	2490.330000
722.453761	2467.644808
722.786158	2558.385577
723.118506	2439.918462
723.450805	2490.330000
723.783056	2429.836154
724.115259	2462.603654
724.447412	2467.644808
724.779518	2500.412308
725.111574	2389.506923
725.443582	2520.576923
725.775542	2480.247692
726.107453	2447.480192
726.439315	2545.782692
726.771129	2505.453462
727.102895	2434.877308
727.434612	2450.000769
727.766281	2573.509038
728.097901	2558.385577
728.429473	2578.550192
728.760996	2437.397885
729.092471	2480.247692
729.423897	2470.165385
729.755276	2533.179808
730.086606	2472.685962
730.417887	2507.974038
730.749120	2429.836154
731.080305	2490.330000
731.411442	2535.700385
731.742530	2460.083077
732.073570	2487.809423
732.404562	2485.288846
732.735506	2550.823846
733.066401	2437.397885
733.397249	2540.741538
733.728048	2593.673654
734.058798	2462.603654
734.389501	2505.453462
734.720156	2523.097500
735.050762	2480.247692
735.381320	2444.959615
735.711831	2520.576923
736.042293	2422.274423
736.372707	2419.753846
736.703073	2500.412308
737.033391	2513.015192
737.363661	2424.795000
737.693883	2570.988462
738.024056	2475.206538
738.354182	2505.453462
738.684260	2586.111923
739.014290	2447.480192
739.344272	2570.988462
739.674207	2467.644808
740.004093	2497.891731
740.333931	2528.138654
740.663722	2472.685962
740.993464	2576.029615
741.323159	2482.768269
741.652806	2543.262115
741.982405	2497.891731
742.311956	2475.206538
742.641460	2518.056346
742.970915	2424.795000
743.300323	2505.453462
743.629683	2472.685962
743.958996	2538.220962
744.288260	2558.385577
744.617477	2553.344423
744.946647	2407.150962
745.275768	2540.741538
745.604842	2467.644808
745.933869	2462.603654
746.262847	2455.041923
746.591778	2472.685962
746.920662	2565.947308
747.249498	2487.809423
747.578286	2490.330000
747.907027	2432.356731
748.235720	2505.453462
748.564365	2523.097500
748.892963	2558.385577
749.221514	2555.865000
749.550017	2490.330000
749.878473	2523.097500
750.206881	2455.041923
750.535242	2457.562500
750.863555	2553.344423
751.191821	2535.700385
751.520039	2545.782692
751.848210	2578.550192
752.176334	2487.809423
752.504411	2500.412308
752.832440	2502.932885
753.160421	2492.850577
753.488356	2513.015192
753.816243	2523.097500
754.144082	2510.494615
754.471875	2465.124231
754.799620	2485.288846
755.127318	2470.165385
755.454969	2535.700385
755.782572	2515.535769
756.110129	2442.439038
756.437638	2518.056346
756.765100	2586.111923
757.092515	2482.768269
757.419882	2467.644808
757.747203	2460.083077
758.074477	2528.138654
758.401703	2487.809423
758.728882	2515.535769
759.056014	2603.755962
759.383099	2424.795000
759.710138	2492.850577
760.037129	2462.603654
760.364073	2482.768269
760.690970	2525.618077
761.017820	2497.891731
761.344623	2525.618077
761.671379	2419.753846
761.998088	2581.070769
762.324751	2487.809423
762.651366	2477.727115
762.977935	2507.974038
763.304456	2414.712692
763.630931	2475.206538
763.957359	2467.644808
764.283740	2497.891731
764.610074	2497.891731
764.936362	2462.603654
765.262602	2452.521346
765.588796	2518.056346
765.914943	2603.755962
766.241044	2482.768269
766.567097	2555.865000
766.893104	2500.412308
767.219064	2548.303269
767.544978	2369.342308
767.870845	2460.083077
768.196665	2502.932885
768.522438	2419.753846
768.848165	2492.850577
769.173846	2470.165385
769.499479	2525.618077
769.825066	2470.165385
770.150607	2490.330000
770.476101	2424.795000
770.801548	2465.124231
771.126949	2558.385577
771.452303	2455.041923
771.777611	2465.124231
772.102872	2462.603654
772.428087	2513.015192
772.753256	2437.397885
773.078378	2528.138654
773.403453	2497.891731
773.728482	2465.124231
774.053465	2545.782692
774.378401	2513.015192
774.703291	2482.768269
775.028135	2447.480192
775.352932	2482.768269
775.677683	2558.385577
776.002388	2515.535769
776.327046	2495.371154
776.651658	2432.356731
776.976224	2434.877308
777.300743	2548.303269
777.625216	2477.727115
777.949643	2482.768269
778.274024	2520.576923
778.598359	2477.727115
778.922647	2467.644808
779.246889	2583.591346
779.571086	2470.165385
779.895236	2515.535769
780.219339	2502.932885
780.543397	2412.192115
780.867409	2515.535769
781.191374	2485.288846
781.515294	2563.426731
781.839167	2520.576923
782.162995	2475.206538
782.486776	2457.562500
782.810511	2533.179808
783.134201	2475.206538
783.457844	2520.576923
783.781441	2593.673654
784.104993	2477.727115
784.428498	2465.124231
784.751958	2502.932885
785.075372	2480.247692
785.398739	2560.906154
785.722061	2507.974038
786.045337	2432.356731
786.368568	2545.782692
786.691752	2450.000769
787.014891	2535.700385
787.337983	2457.562500
787.661030	2545.782692
787.984031	2457.562500
788.306987	2490.330000
788.629897	2487.809423
788.952760	2432.356731
789.275579	2538.220962
789.598351	2482.768269
789.921078	2495.371154
790.243759	2467.644808
790.566395	2530.659231
790.888984	2558.385577
791.211529	2555.865000
791.534027	2502.932885
791.856480	2467.644808
792.178888	2480.247692
792.501249	2462.603654
792.823566	2472.685962
793.145836	2515.535769
793.468062	2573.509038
793.790241	2419.753846
794.112375	2480.247692
794.434464	2495.371154
794.756507	2472.685962
795.078505	2465.124231
795.400457	2439.918462
795.722364	2495.371154
796.044226	2523.097500
796.366042	2500.412308
796.687812	2523.097500
797.009538	2450.000769
797.331218	2568.467885
797.652852	2565.947308
797.974442	2475.206538
798.295986	2525.618077
798.617484	2455.041923
798.938938	2497.891731
799.260346	2452.521346
799.581709	2467.644808
799.903026	2523.097500
800.224299	2563.426731
800.545526	2568.467885
800.866708	2455.041923
801.187845	2492.850577
801.508936	2510.494615
801.829983	2505.453462
802.150984	2533.179808
802.471940	2472.685962
802.792851	2409.671538
803.113717	2530.659231
803.434538	2477.727115
803.755314	2520.576923
804.076045	2505.453462
804.396731	2550.823846
804.717372	2520.576923
805.037967	2553.344423
805.358518	2465.124231
805.679024	2548.303269
805.999485	2475.206538
806.319901	2419.753846
806.640272	2545.782692
806.960598	2523.097500
807.280879	2528.138654
807.601115	2548.303269
807.921306	2500.412308
808.241453	2528.138654
808.561554	2550.823846
808.881611	2497.891731
809.201623	2598.714808
809.521590	2374.383462
809.841513	2502.932885
810.161390	2515.535769
810.481223	2502.932885
810.801011	2538.220962
811.120755	2593.673654
811.440453	2490.330000
811.760107	2568.467885
812.079716	2490.330000
812.399281	2492.850577
812.718801	2540.741538
813.038276	2470.165385
813.357707	2371.862885
813.677093	2515.535769
813.996434	2530.659231
814.315731	2560.906154
814.634983	2404.630385
814.954191	2485.288846
815.273354	2437.397885
815.592473	2530.659231
815.911547	2530.659231
816.230577	2467.644808
816.549562	2553.344423
816.868502	2452.521346
817.187399	2535.700385
817.506250	2450.000769
817.825058	2513.015192
818.143821	2550.823846
818.462539	2424.795000
818.781213	2518.056346
819.099843	2565.947308
819.418429	2525.618077
819.736970	2450.000769
820.055466	2528.138654
820.373919	2437.397885
820.692327	2543.262115
821.010691	2477.727115
821.329011	2495.371154
821.647286	2507.974038
821.965517	2502.932885
822.283704	2429.836154
822.601847	2472.685962
822.919945	2472.685962
823.237999	2518.056346
823.556010	2414.712692
823.873976	2555.865000
824.191897	2606.276538
824.509775	2465.124231
824.827609	2366.821731
825.145398	2502.932885
825.463144	2482.768269
825.780845	2482.768269
826.098502	2472.685962
826.416116	2437.397885
826.733685	2500.412308
827.051210	2485.288846
827.368692	2495.371154
827.686129	2444.959615
828.003522	2507.974038
828.320872	2525.618077
828.638177	2462.603654
828.955439	2452.521346
829.272656	2513.015192
829.589830	2462.603654
829.906960	2457.562500
830.224046	2581.070769
830.541088	2550.823846
830.858086	2500.412308
831.175041	2545.782692
831.491952	2518.056346
831.808819	2505.453462
832.125642	2470.165385
832.442421	2470.165385
832.759157	2513.015192
833.075849	2507.974038
833.392497	2523.097500
833.709101	2495.371154
834.025662	2429.836154
834.342179	2576.029615
834.658653	2412.192115
834.975083	2495.371154
835.291469	2548.303269
835.607811	2470.165385
835.924110	2513.015192
836.240366	2480.247692
836.556578	2507.974038
836.872746	2502.932885
837.188871	2565.947308
837.504952	2555.865000
837.820990	2460.083077
838.136984	2472.685962
838.452935	2510.494615
838.768842	2442.439038
839.084706	2533.179808
839.400526	2510.494615
839.716303	2510.494615
840.032037	2470.165385
840.347727	2495.371154
840.663373	2510.494615
840.978977	2570.988462
841.294537	2460.083077
841.610054	2581.070769
841.925527	2452.521346
842.240957	2545.782692
842.556344	2424.795000
842.871687	2480.247692
843.186987	2490.330000
843.502244	2500.412308
843.817458	2558.385577
844.132629	2462.603654
844.447756	2545.782692
844.762840	2515.535769
845.077881	2490.330000
845.392879	2523.097500
845.707833	2545.782692
846.022745	2467.644808
846.337613	2497.891731
846.652438	2565.947308
846.967221	2586.111923
847.281960	2533.179808
847.596656	2497.891731
847.911309	2407.150962
848.225919	2412.192115
848.540485	2346.657115
848.855009	2515.535769
849.169490	2452.521346
849.483928	2533.179808
849.798323	2545.782692
850.112675	2492.850577
850.426984	2442.439038
850.741251	2500.412308
851.055474	2475.206538
851.369654	2482.768269
851.683792	2485.288846
851.997887	2434.877308
852.311938	2439.918462
852.625947	2427.315577
852.939914	2530.659231
853.253837	2523.097500
853.567718	2487.809423
853.881555	2434.877308
854.195350	2573.509038
854.509103	2485.288846
854.822812	2525.618077
855.136479	2376.904038
855.450103	2487.809423
855.763685	2495.371154
856.077224	2447.480192
856.390720	2482.768269
856.704173	2497.891731
857.017584	2477.727115
857.330953	2487.809423
857.644278	2513.015192
857.957561	2399.589231
858.270802	2528.138654
858.584000	2543.262115
858.897155	2447.480192
859.210268	2485.288846
859.523339	2565.947308
859.836367	2462.603654
860.149352	2444.959615
860.462295	2497.891731
860.775195	2603.755962
861.088054	2558.385577
861.400869	2495.371154
861.713642	2487.809423
862.026373	2412.192115
862.339062	2545.782692
862.651708	2487.809423
862.964312	2487.809423
863.276873	2452.521346
863.589392	2485.288846
863.901869	2457.562500
864.214303	2452.521346
864.526696	2472.685962
864.839045	2500.412308
865.151353	2518.056346
865.463619	2507.974038
865.775842	2500.412308
866.088023	2525.618077
866.400162	2419.753846
866.712258	2462.603654
867.024313	2437.397885
867.336325	2475.206538
867.648296	2427.315577
867.960224	2525.618077
868.272110	2525.618077
868.583954	2482.768269
868.895755	2472.685962
869.207515	2477.727115
869.519233	2507.974038
869.830909	2452.521346
870.142542	2429.836154
870.454134	2535.700385
870.765684	2507.974038
871.077191	2507.974038
871.388657	2460.083077
871.700081	2500.412308
872.011463	2502.932885
872.322803	2462.603654
872.634101	2477.727115
872.945357	2444.959615
873.256571	2460.083077
873.567744	2495.371154
873.878874	2576.029615
874.189963	2533.179808
874.501010	2563.426731
874.812015	2505.453462
875.122979	2538.220962
875.433900	2482.768269
875.744780	2460.083077
876.055618	2515.535769
876.366415	2513.015192
876.677169	2497.891731
876.987882	2470.165385
877.298554	2414.712692
877.609183	2482.768269
877.919771	2510.494615
878.230317	2513.015192
878.540822	2520.576923
878.851285	2492.850577
879.161707	2485.288846
879.472087	2439.918462
879.782425	2460.083077
880.092722	2444.959615
880.402977	2525.618077
880.713191	2497.891731
881.023363	2465.124231
881.333494	2450.000769
881.643583	2507.974038
881.953631	2492.850577
882.263637	2487.809423
882.573602	2563.426731
882.883526	2505.453462
883.193408	2457.562500
883.503248	2470.165385
883.813048	2432.356731
884.122806	2490.330000
884.432522	2523.097500
884.742197	2528.138654
885.051831	2460.083077
885.361424	2535.700385
885.670975	2444.959615
885.980485	2581.070769
886.289954	2437.397885
886.599382	2455.041923
886.908768	2507.974038
887.218113	2563.426731
887.527417	2450.000769
887.836680	2568.467885
888.145901	2482.768269
888.455082	2528.138654
888.764221	2470.165385
889.073319	2510.494615
889.382376	2502.932885
889.691392	2530.659231
890.000366	2497.891731
890.309300	2495.371154
890.618193	2439.918462
890.927044	2520.576923
891.235855	2394.548077
891.544625	2472.685962
891.853353	2538.220962
892.162041	2560.906154
892.470687	2505.453462
892.779293	2528.138654
893.087858	2444.959615
893.396381	2518.056346
893.704864	2439.918462
894.013306	2502.932885
894.321707	2492.850577
894.630068	2487.809423
894.938387	2487.809423
895.246665	2520.576923
895.554903	2409.671538
895.863100	2475.206538
896.171256	2492.850577
896.479371	2538.220962
896.787446	2409.671538
897.095480	2450.000769
897.403473	2507.974038
897.711425	2470.165385
898.019336	2477.727115
898.327207	2586.111923
898.635038	2500.412308
898.942827	2513.015192
899.250576	2450.000769
899.558284	2417.233269
899.865952	2462.603654
900.173579	2515.535769
900.481165	2570.988462
900.788711	2460.083077
901.096216	2452.521346
901.403681	2480.247692
901.711105	2502.932885
902.018489	2495.371154
902.325832	2490.330000
902.633135	2525.618077
902.940397	2465.124231
903.247619	2480.247692
903.554800	2482.768269
903.861941	2515.535769
904.169041	2487.809423
904.476101	2477.727115
904.783121	2540.741538
905.090100	2475.206538
905.397039	2558.385577
905.703938	2523.097500
906.010796	2543.262115
906.317614	2560.906154
906.624391	2518.056346
906.931129	2422.274423
907.237826	2439.918462
907.544483	2485.288846
907.851099	2550.823846
908.157675	2477.727115
908.464211	2515.535769
908.770707	2520.576923
909.077163	2467.644808
909.383578	2540.741538
909.689954	2548.303269
909.996289	2417.233269
910.302584	2480.247692
910.608839	2427.315577
910.915054	2500.412308
911.221229	2482.768269
911.527363	2402.109808
911.833458	2495.371154
912.139513	2487.809423
912.445527	2505.453462
912.751502	2530.659231
913.057436	2490.330000
913.363331	2533.179808
913.669186	2538.220962
913.975000	2558.385577
914.280775	2495.371154
914.586510	2495.371154
914.892205	2500.412308
915.197859	2437.397885
915.503475	2518.056346
915.809050	2447.480192
916.114585	2492.850577
916.420081	2520.576923
916.725536	2558.385577
917.030952	2487.809423
917.336328	2548.303269
917.641665	2560.906154
917.946961	2465.124231
918.252218	2523.097500
918.557435	2432.356731
918.862612	2402.109808
919.167750	2510.494615
919.472848	2523.097500
919.777906	2439.918462
920.082925	2540.741538
920.387904	2429.836154
920.692843	2490.330000
920.997743	2540.741538
921.302603	2465.124231
921.607423	2520.576923
921.912204	2515.535769
922.216946	2495.371154
922.521647	2540.741538
922.826310	2563.426731
923.130932	2480.247692
923.435516	2538.220962
923.740059	2492.850577
924.044564	2500.412308
924.349028	2550.823846
924.653454	2475.206538
924.957840	2543.262115
925.262186	2485.288846
925.566493	2490.330000
925.870761	2525.618077
926.174989	2538.220962
926.479178	2374.383462
926.783328	2528.138654
927.087438	2525.618077
927.391509	2528.138654
927.695541	2417.233269
927.999533	2543.262115
928.303486	2497.891731
928.607400	2502.932885
928.911275	2487.809423
929.215110	2487.809423
929.518906	2490.330000
929.822663	2412.192115
930.126381	2540.741538
930.430060	2487.809423
930.733699	2538.220962
931.037299	2450.000769
931.340861	2500.412308
931.644383	2495.371154
931.947866	2452.521346
932.251309	2573.509038
932.554714	2550.823846
932.858080	2485.288846
933.161407	2543.262115
933.464694	2404.630385
933.767943	2475.206538
934.071153	2455.041923
934.374323	2507.974038
934.677455	2470.165385
934.980548	2467.644808
935.283602	2482.768269
935.586617	2553.344423
935.889593	2487.809423
936.192530	2455.041923
936.495428	2513.015192
936.798287	2510.494615
937.101108	2490.330000
937.403890	2523.097500
937.706632	2538.220962
938.009336	2520.576923
938.312002	2545.782692
938.614628	2515.535769
938.917216	2495.371154
939.219765	2563.426731
939.522275	2550.823846
939.824747	2447.480192
940.127179	2492.850577
940.429573	2477.727115
940.731929	2429.836154
941.034246	2465.124231
941.336524	2452.521346
941.638763	2485.288846
941.940964	2482.768269
942.243126	2455.041923
942.545250	2457.562500
942.847335	2520.576923
943.149381	2548.303269
943.451389	2570.988462
943.753359	2482.768269
944.055290	2487.809423
944.357182	2480.247692
944.659036	2427.315577
944.960851	2510.494615
945.262628	2444.959615
945.564367	2563.426731
945.866067	2500.412308
946.167729	2472.685962
946.469352	2485.288846
946.770937	2487.809423
947.072484	2470.165385
947.373992	2500.412308
947.675462	2480.247692
947.976893	2523.097500
948.278286	2492.850577
948.579641	2490.330000
948.880958	2500.412308
949.182236	2515.535769
949.483476	2525.618077
949.784678	2455.041923
950.085841	2540.741538
950.386967	2525.618077
950.688054	2538.220962
950.989103	2518.056346
951.290114	2452.521346
951.591087	2379.424615
951.892021	2523.097500
952.192917	2482.768269
952.493776	2558.385577
952.794596	2520.576923
953.095378	2500.412308
953.396122	2520.576923
953.696828	2505.453462
953.997496	2533.179808
954.298126	2520.576923
954.598718	2444.959615
954.899272	2485.288846
955.199788	2538.220962
955.500266	2444.959615
955.800706	2570.988462
956.101108	2492.850577
956.401472	2543.262115
956.701798	2422.274423
957.002087	2417.233269
957.302337	2525.618077
957.602550	2520.576923
957.902724	2490.330000
958.202861	2530.659231
958.502960	2553.344423
958.803022	2467.644808
959.103045	2470.165385
959.403031	2364.301154
959.702979	2424.795000
960.002889	2510.494615
960.302762	2502.932885
960.602596	2505.453462
960.902393	2457.562500
961.202153	2467.644808
961.501875	2500.412308
961.801559	2450.000769
962.101205	2477.727115
962.400814	2492.850577
962.700385	2502.932885
962.999918	2450.000769
963.299414	2535.700385
963.598873	2462.603654
963.898293	2520.576923
964.197677	2455.041923
964.497022	2460.083077
964.796331	2492.850577
965.095601	2495.371154
965.394835	2581.070769
965.694030	2447.480192
965.993189	2470.165385
966.292309	2475.206538
966.591393	2507.974038
966.890439	2490.330000
967.189447	2497.891731
967.488419	2460.083077
967.787353	2502.932885
968.086249	2432.356731
968.385108	2560.906154
968.683930	2457.562500
968.982714	2495.371154
969.281462	2515.535769
969.580172	2480.247692
969.878844	2540.741538
970.177480	2528.138654
970.476078	2558.385577
970.774639	2467.644808
971.073162	2535.700385
971.371649	2515.535769
971.670098	2538.220962
971.968510	2518.056346
972.266885	2513.015192
972.565223	2502.932885
972.863524	2553.344423
973.161788	2518.056346
973.460014	2518.056346
973.758204	2525.618077
974.056356	2480.247692
974.354471	2515.535769
974.652550	2543.262115
974.950591	2497.891731
975.248595	2543.262115
975.546563	2450.000769
975.844493	2543.262115
976.142386	2510.494615
976.440243	2563.426731
976.738062	2465.124231
977.035845	2490.330000
977.333590	2450.000769
977.631299	2545.782692
977.928971	2495.371154
978.226606	2518.056346
978.524204	2515.535769
978.821765	2470.165385
979.119290	2482.768269
979.416777	2513.015192
979.714228	2472.685962
980.011642	2412.192115
980.309020	2510.494615
980.606360	2530.659231
980.903664	2565.947308
981.200931	2490.330000
981.498162	2470.165385
981.795356	2439.918462
982.092513	2515.535769
982.389633	2482.768269
982.686717	2465.124231
982.983764	2475.206538
983.280775	2450.000769
983.577749	2518.056346
983.874686	2495.371154
984.171587	2487.809423
984.468451	2482.768269
984.765279	2460.083077
985.062070	2507.974038
985.358824	2472.685962
985.655543	2452.521346
985.952224	2500.412308
986.248869	2495.371154
986.545478	2487.809423
986.842050	2485.288846
987.138586	2495.371154
987.435086	2500.412308
987.731549	2518.056346
988.027975	2487.809423
988.324366	2513.015192
988.620719	2513.015192
988.917037	2434.877308
989.213318	2442.439038
989.509563	2507.974038
989.805772	2505.453462
990.101944	2465.124231
990.398080	2457.562500
990.694180	2460.083077
990.990244	2533.179808
991.286271	2513.015192
991.582262	2457.562500
991.878217	2487.809423
992.174136	2414.712692
992.470019	2460.083077
992.765865	2419.753846
993.061676	2553.344423
993.357450	2452.521346
993.653188	2497.891731
993.948890	2439.918462
994.244556	2475.206538
994.540186	2455.041923
994.835780	2485.288846
995.131337	2482.768269
995.426859	2495.371154
995.722345	2467.644808
996.017795	2523.097500
996.313208	2417.233269
996.608586	2520.576923
996.903928	2427.315577
997.199234	2452.521346
997.494504	2540.741538
997.789738	2422.274423
998.084936	2480.247692
998.380099	2502.932885
998.675225	2439.918462
998.970316	2530.659231
999.265371	2419.753846
999.560390	2450.000769
999.855373	2444.959615
1000.150320	2460.083077
1000.445232	2374.383462
1000.740108	2510.494615
1001.034948	2434.877308
1001.329752	2462.603654
1001.624521	2490.330000
1001.919254	2447.480192
1002.213951	2465.124231
1002.508613	2487.809423
1002.803239	2475.206538
1003.097829	2470.165385
1003.392384	2513.015192
1003.686903	2482.768269
1003.981386	2477.727115
1004.275834	2412.192115
1004.570246	2535.700385
1004.864623	2444.959615
1005.158964	2455.041923
1005.453270	2507.974038
1005.747540	2475.206538
1006.041775	2548.303269
1006.335974	2513.015192
1006.630138	2507.974038
1006.924266	2482.768269
1007.218359	2492.850577
1007.512416	2563.426731
1007.806438	2399.589231
1008.100425	2457.562500
1008.394376	2505.453462
1008.688292	2510.494615
1008.982172	2470.165385
1009.276017	2444.959615
1009.569827	2513.015192
1009.863602	2482.768269
1010.157341	2490.330000
1010.451045	2429.836154
1010.744714	2477.727115
1011.038347	2460.083077
1011.331945	2455.041923
1011.625508	2530.659231
1011.919036	2455.041923
1012.212528	2437.397885
1012.505986	2565.947308
1012.799408	2482.768269
1013.092795	2434.877308
1013.386147	2553.344423
1013.679464	2487.809423
1013.972745	2472.685962
1014.265992	2455.041923
1014.559204	2513.015192
1014.852380	2550.823846
1015.145521	2487.809423
1015.438628	2490.330000
1015.731699	2477.727115
1016.024736	2596.194231
1016.317737	2465.124231
1016.610703	2583.591346
1016.903635	2475.206538
1017.196531	2452.521346
1017.489393	2457.562500
1017.782219	2482.768269
1018.075011	2480.247692
1018.367768	2472.685962
1018.660490	2475.206538
1018.953177	2475.206538
1019.245829	2475.206538
