Dividing Wavelength (nm)	Counts (n)	Blue Motor Position (mm): 32.500000	Red Motor Position (mm): 0.000000	
326.493990	2155.680564
326.888308	2155.680564
327.282561	2155.680564
327.676750	2131.881276
328.070874	2132.496297
328.464933	2140.559623
328.858929	2145.759573
329.252859	2159.705925
329.646726	2173.143121
330.040528	2185.418330
330.434265	2206.197966
330.827938	2225.843343
331.221547	2244.926631
331.615091	2263.258787
332.008571	2285.790224
332.401986	2304.581125
332.795338	2323.407314
333.188625	2343.846672
333.581847	2364.354086
333.975006	2380.899153
334.368100	2401.467061
334.761129	2419.728640
335.154095	2434.927719
335.546996	2458.411934
335.939833	2491.875114
336.332606	2505.408091
336.725315	2517.990811
337.117960	2524.554393
337.510540	2533.159643
337.903056	2541.293545
338.295508	2546.823691
338.687896	2553.072201
339.080220	2561.800959
339.472480	2569.471074
339.864676	2569.952504
340.256807	2572.929306
340.648875	2579.465162
341.040879	2577.413412
341.432818	2581.985739
341.824694	2581.038002
342.216506	2582.235276
342.608253	2581.194277
342.999937	2579.029102
343.391557	2581.683269
343.783113	2575.094481
344.174605	2576.780747
344.566033	2574.867629
344.957397	2574.305541
345.348697	2570.839748
345.739934	2572.503328
346.131106	2568.795560
346.522215	2568.692216
346.913260	2564.311453
347.304241	2566.416135
347.695159	2559.862635
348.086012	2558.640155
348.476802	2558.267110
348.867528	2557.147974
349.258191	2557.188303
349.648789	2555.870041
350.039324	2551.229659
350.429796	2555.083621
350.820203	2555.338199
351.210548	2550.788558
351.600828	2549.828218
351.991045	2550.120605
352.381198	2550.869217
352.771288	2547.789072
353.161314	2549.266130
353.551276	2548.149514
353.941175	2551.476676
354.331010	2550.249155
354.720782	2549.674463
355.110490	2552.633620
355.500135	2550.223949
355.889717	2551.549772
356.279235	2549.238403
356.668689	2552.552962
357.058080	2552.419371
357.447408	2548.109185
357.836672	2547.829401
358.225873	2548.754452
358.615010	2548.217570
359.004084	2554.133364
359.393095	2550.876778
359.782043	2552.847869
360.170927	2554.854249
360.559748	2555.562531
360.948505	2554.019938
361.337199	2557.289126
361.725830	2557.732747
362.114398	2557.647048
362.502903	2558.892213
362.891344	2557.715103
363.279722	2558.529250
363.668037	2557.783159
364.056289	2559.469425
364.444478	2560.679302
364.832603	2557.379867
365.220665	2561.304405
365.608665	2559.991184
365.996601	2560.709549
366.384474	2561.778273
366.772284	2561.531257
367.160031	2560.444888
367.547715	2561.836247
367.935336	2563.709035
368.322893	2564.240877
368.710388	2562.720969
369.097820	2565.370096
369.485189	2565.304561
369.872495	2566.133830
370.259738	2563.635939
370.646918	2566.453944
371.034035	2564.742472
371.421090	2565.072667
371.808081	2566.612740
372.195010	2565.382698
372.581875	2564.288768
372.968678	2568.435117
373.355418	2565.402863
373.742096	2567.142061
374.128710	2566.786660
374.515262	2568.843451
374.901751	2567.620971
375.288177	2567.840261
375.674540	2566.821948
376.060841	2570.028122
376.447079	2568.735066
376.833254	2567.197514
377.219367	2565.274314
377.605417	2567.573080
377.991404	2566.713563
378.377329	2564.737431
378.763191	2565.967472
379.148991	2573.236816
379.534727	2569.173646
379.920402	2572.294120
380.306013	2568.540981
380.691563	2573.524162
381.077049	2570.648184
381.462474	2572.382341
381.847835	2573.710685
382.233134	2578.182188
382.618371	2573.861919
383.003545	2575.533062
383.388657	2573.256981
383.773706	2574.723957
384.158693	2574.875191
384.543618	2575.981724
384.928480	2574.141703
385.313280	2572.583987
385.698017	2576.281673
386.082692	2575.028946
386.467305	2577.708320
386.851856	2576.793350
387.236344	2576.536251
387.620770	2577.123546
388.005133	2574.527352
388.389435	2577.168916
388.773674	2578.361149
389.157851	2576.569019
389.541965	2578.381314
389.926018	2578.383834
390.310008	2578.409040
390.693936	2577.846951
391.077802	2581.012796
391.461606	2577.831828
391.845348	2579.220666
392.229027	2581.151428
392.612645	2580.720409
392.996200	2580.523804
393.379694	2580.367528
393.763125	2581.174113
394.146494	2580.065059
394.529801	2582.749473
394.913047	2580.584298
395.296230	2582.227714
395.679351	2581.015317
396.062410	2580.153279
396.445408	2583.024216
396.828343	2583.815677
397.211217	2579.747466
397.594028	2582.003383
397.976778	2580.387693
398.359466	2580.402816
398.742092	2578.847620
399.124656	2584.120667
399.507158	2585.953127
399.889598	2589.335741
400.271977	2587.273909
400.654294	2583.760225
401.036549	2586.747108
401.418742	2585.242324
401.800874	2584.385328
402.182944	2587.170565
402.564952	2587.180648
402.946898	2587.203333
403.328783	2585.290215
403.710606	2588.375401
404.092367	2590.880855
404.474067	2587.631831
404.855705	2588.637541
405.237282	2589.834815
405.618797	2587.470514
406.000250	2588.317428
406.381642	2589.872624
406.762972	2590.805237
407.144240	2591.974785
407.525447	2591.795824
407.906593	2592.882193
408.287677	2593.277923
408.668700	2591.916812
409.049661	2593.487131
409.430560	2590.288519
409.811399	2591.586616
410.192176	2591.379929
410.572891	2593.547625
410.953545	2595.364961
411.334138	2591.944538
411.714669	2592.746082
412.095139	2595.458222
412.475547	2594.240784
412.855894	2593.383787
413.236180	2593.819847
413.616405	2595.692636
413.996568	2594.868407
414.376670	2596.963007
414.756711	2598.697164
415.136691	2597.845209
415.516609	2599.614654
415.896466	2600.703543
416.276262	2601.895776
416.655997	2597.194900
417.035670	2602.183122
417.415283	2603.080447
417.794834	2606.755448
418.174324	2609.268463
418.553753	2611.862137
418.933121	2613.634102
419.312428	2616.235338
419.691674	2618.345061
420.070859	2621.778087
420.449983	2622.955196
420.829045	2627.860239
421.208047	2633.289561
421.586988	2639.371713
421.965867	2644.881695
422.344686	2648.241624
422.723444	2656.171359
423.102141	2655.896616
423.480777	2667.665189
423.859352	2674.483350
424.237866	2687.030782
424.616319	2693.581761
424.994712	2702.749100
425.373044	2711.911397
425.751314	2726.029148
426.129524	2731.536609
426.507673	2750.052767
426.885762	2760.556011
427.263789	2772.506066
427.641756	2784.667850
428.019662	2800.804583
428.397508	2811.963177
428.775292	2831.999243
429.153016	2846.308558
429.530679	2865.858153
429.908282	2878.455996
430.285824	2887.640979
430.663305	2920.148859
431.040726	2928.499531
431.418086	2941.840944
431.795385	2975.788074
432.172624	3001.334121
432.549802	3014.030267
432.926920	3031.497865
433.303977	3054.757749
433.680974	3081.927048
434.057910	3107.364710
434.434786	3131.708442
434.811601	3152.324241
435.188355	3206.819114
435.565050	3218.862430
435.941683	3241.424114
436.318257	3296.652475
436.694770	3321.253306
437.071222	3367.102600
437.447614	3363.868700
437.823946	3389.863410
438.200218	3425.612753
438.576429	3439.397788
438.952580	3477.551761
439.328670	3505.320957
439.704700	3549.816701
440.080670	3559.972105
440.456580	3614.038480
440.832429	3659.600429
441.208218	3631.097745
441.583947	3685.741332
441.959616	3718.962536
442.335224	3766.414917
442.710773	3799.293323
443.086261	3857.942106
443.461689	3854.287270
443.837057	3886.268350
444.212365	3962.006645
444.587612	3991.212570
444.962800	3995.497551
445.337927	4047.983524
445.712995	3995.212726
446.088002	4148.173936
446.462949	4193.849311
446.837837	4230.095207
447.212664	4250.138834
447.587431	4444.676961
447.962139	4701.866548
448.336786	4981.917768
448.711374	4993.938399
449.085901	4741.742075
449.460369	4718.903128
449.834776	4698.609963
450.209124	4916.347480
450.583412	4947.078354
450.957640	5069.747271
451.331808	4975.669258
451.705917	4871.483731
452.079965	4891.048449
452.453954	4943.547025
452.827883	4933.810037
453.201752	4952.411894
453.575562	4998.934183
453.949311	5138.309484
454.323001	5159.857896
454.696632	5167.419627
455.070202	5327.652702
455.443713	5370.953693
455.817164	5471.532273
456.190556	5550.426331
456.563888	5536.275812
456.937160	5623.873422
457.310373	5492.135469
457.683526	5560.934616
458.056619	5564.760852
458.429653	5559.787754
458.802628	5617.203976
459.175542	5653.989275
459.548398	5797.626872
459.921194	5988.353886
460.293930	6047.968051
460.666607	6302.969777
461.039224	6519.389033
461.411782	6655.041441
461.784280	6575.827270
462.156719	6591.021308
462.529099	6553.971348
462.901419	6422.777840
463.273680	6305.951620
463.645882	6302.589170
464.018024	6305.994470
464.390106	6382.161263
464.762130	6644.323948
465.134094	7030.229316
465.505999	7664.938312
465.877845	8361.063685
466.249631	8710.569402
466.621358	8635.773802
466.993026	8444.910676
467.364634	8241.122032
467.736184	7963.780432
468.107674	7809.836197
468.479105	7732.280566
468.850477	7668.872933
469.221790	7501.196594
469.593043	7281.435054
469.964238	7183.992070
470.335373	7159.449213
470.706449	7315.843449
471.077467	7507.588777
471.448425	8167.372472
471.819324	8746.472499
472.190164	8778.025081
472.560945	8298.628994
472.931667	7829.042993
473.302330	7638.656256
473.672934	7521.850201
474.043479	7595.824093
474.413965	7500.745411
474.784393	7452.211702
475.154761	7601.891121
475.525070	7612.424612
475.895321	7573.942964
476.265513	7675.464241
476.635645	7834.016091
477.005719	7826.088877
477.375734	7909.600632
477.745691	8021.937704
478.115588	8221.973209
478.485427	8461.579251
478.855207	8932.024769
479.224928	9365.445533
479.594591	9746.909645
479.964194	9755.272919
480.333739	9838.754427
480.703226	9849.955870
481.072653	9939.849726
481.442022	10061.490248
481.811333	10209.392660
482.180584	10048.627743
482.549777	9988.527107
482.918912	9928.371018
483.287988	9911.465509
483.657005	9823.820008
484.025964	9739.531916
484.394864	9802.521133
484.763706	9760.669474
485.132489	9669.490124
485.501213	9656.516715
485.869879	9720.249503
486.238487	9657.603084
486.607036	9745.571218
486.975527	9684.371611
487.343959	9747.325540
487.712333	9791.909504
488.080648	9830.595319
488.448905	9932.434188
488.817104	9939.955590
489.185244	10110.633936
489.553326	10321.084465
489.921350	10791.207349
490.289315	11419.095663
490.657222	11708.944366
491.025070	11883.459029
491.392861	11796.161368
491.760593	11637.269240
492.128267	11385.534182
492.495883	11156.466672
492.863440	10925.425550
493.230939	10688.350167
493.598380	10514.876501
493.965763	10483.986831
494.333088	10350.134114
494.700354	10289.486512
495.067563	10264.878120
495.434713	10269.944480
495.801805	10309.658690
496.168839	10265.775445
496.535815	10234.018697
496.902733	10279.242888
497.269593	10240.138658
497.636395	10252.126521
498.003139	10356.841369
498.369825	10280.788002
498.736453	10370.006342
499.103023	10320.285442
499.469535	10323.509260
499.835989	10379.166119
500.202385	10351.364155
500.568723	10369.736641
500.935003	10437.580489
501.301226	10398.617411
501.667390	10567.959851
502.033497	10664.722278
502.399546	10589.110012
502.765537	10504.862249
503.131470	10605.952507
503.497345	10685.411174
503.863163	10459.292739
504.228923	10605.886972
504.594625	10718.695392
504.960269	10628.161310
505.325856	10784.905907
505.691385	10660.381845
506.056856	10729.627134
506.422270	10822.674231
506.787625	10760.783986
507.152924	10810.328446
507.518164	10881.534744
507.883347	10737.037630
508.248472	10817.948150
508.613540	10919.058572
508.978550	10997.592188
509.343503	10984.696916
509.708398	11031.703155
510.073236	11157.986579
510.438016	11172.227839
510.802738	11088.927813
511.167403	11223.554347
511.532010	11278.830599
511.896561	11379.131916
512.261053	11565.062273
512.625488	11483.312402
512.989866	11475.238994
513.354186	11451.916096
513.718449	11465.300359
514.082655	11602.460073
514.446803	11564.346429
514.810894	11663.382417
515.174927	11661.476861
515.538904	11649.360448
515.902822	11803.128243
516.266684	11679.272134
516.630488	11778.582865
516.994235	11768.586257
517.357925	11878.942156
517.721558	11946.944800
518.085133	12005.679284
518.448651	12033.435877
518.812112	12002.889005
519.175516	12004.981084
519.538863	12100.909201
519.902152	12103.195364
520.265385	12217.266593
520.628560	12241.562434
520.991678	12187.319619
521.354739	12236.299469
521.717743	12310.719503
522.080690	12286.630349
522.443580	12413.536356
522.806413	12437.343205
523.169189	12433.093513
523.531908	12493.688182
523.894569	12445.267899
524.257174	12458.349693
524.619722	12571.899163
524.982213	12543.721634
525.344647	12533.921631
525.707025	12542.932693
526.069345	12649.411945
526.431608	12625.814304
526.793815	12707.909494
527.155964	12603.769338
527.518057	12636.098258
527.880093	12590.732914
528.242072	12714.815875
528.603995	12638.646561
528.965860	12654.609374
529.327669	12678.111234
529.689421	12621.453706
530.051117	12634.462403
530.412755	12677.312211
530.774337	12683.149867
531.135862	12638.891057
531.497331	12698.437166
531.858743	12649.081749
532.220098	12741.133218
532.581396	12676.815657
532.942638	12600.858072
533.303824	12660.293275
533.664953	12647.639979
534.026025	12594.160899
534.387040	12700.468751
534.747999	12671.030933
535.108902	12723.282493
535.469748	12595.453955
535.830537	12629.380920
536.191270	12668.142352
536.551947	12593.253491
536.912567	12650.180721
537.273131	12683.754805
537.633638	12564.781054
537.994089	12633.567598
538.354483	12536.782486
538.714821	12666.652691
539.075103	12751.308787
539.435328	12681.382943
539.795497	12668.908607
540.155609	12656.862770
540.515665	12757.088470
540.875665	12613.723096
541.235609	12719.612533
541.595496	12677.178620
541.955328	12851.915095
542.315102	12705.116695
542.674821	12643.622180
543.034483	12661.772854
543.394090	12656.277996
543.753640	12633.625572
544.113134	12869.828835
544.472571	12629.484264
544.831953	12914.705187
545.191278	12720.943397
545.550548	12663.685972
545.909761	12769.552723
546.268918	12814.933190
546.628019	12880.420299
546.987064	12760.602155
547.346053	12614.912808
547.704986	12815.558293
548.063863	12696.105632
548.422684	12751.147471
548.781449	12706.203063
549.140158	12803.973722
549.498811	12749.080598
549.857408	12627.104839
550.215949	12834.487826
550.574434	12800.485243
550.932864	12737.059966
551.291237	12936.871140
551.649555	12818.434272
552.007817	12883.598747
552.366022	12795.935602
552.724173	12842.833456
553.082267	12939.502622
553.440305	13028.496632
553.798288	12843.183816
554.156215	12919.557297
554.514086	12970.077220
554.871902	12909.953899
555.229661	12928.001230
555.587365	12890.873132
555.945014	12900.358063
556.302606	12883.674364
556.660143	12940.089917
557.017625	12978.190958
557.375050	12936.553547
557.732421	13038.044577
558.089735	13032.340512
558.446994	13000.787930
558.804197	13125.100263
559.161345	13117.130199
559.518437	12925.006784
559.875474	13030.961756
560.232455	13053.886403
560.589381	13104.055966
560.946251	13040.600442
561.303065	13206.086399
561.659825	13157.560252
562.016528	13076.322058
562.373177	13025.446734
562.729770	13154.286023
563.086307	13026.568390
563.442789	13142.290597
563.799216	13181.747709
564.155587	13121.881486
564.511904	13154.346517
564.868164	13156.743586
565.224370	13216.496382
565.580520	13160.395902
565.936615	13227.622209
566.292654	13169.389320
566.648638	13228.632960
567.004567	13229.200090
567.360441	13234.236203
567.716260	13201.980380
568.072023	13292.471612
568.427732	13275.961833
568.783385	13166.359587
569.138982	13284.955251
569.494525	13275.170372
569.850013	13229.454668
570.205445	13213.050753
570.560823	13229.512641
570.916145	13190.741127
571.271412	13193.702805
571.626625	13155.720231
571.981782	13149.557421
572.336884	13099.652518
572.691931	13188.354141
573.046923	13077.315166
573.401860	13054.249366
573.756743	13046.354919
574.111570	13083.243562
574.466342	13055.696177
574.821059	13102.432715
575.175722	12975.559475
575.530330	13002.305317
575.884882	12935.857868
576.239380	12932.450048
576.593823	12912.658478
576.948211	12905.726892
577.302544	12782.909260
577.656823	12804.626551
578.011047	12853.089684
578.365216	12802.438690
578.719330	12736.326478
579.073389	12709.580637
579.427394	12715.998025
579.781344	12713.842932
580.135239	12653.212975
580.489080	12662.029953
580.842866	12545.841439
581.196597	12638.891057
581.550273	12637.794606
581.903895	12599.552413
582.257463	12705.739277
582.610975	12548.102397
582.964434	12607.033485
583.317837	12535.055890
583.671186	12482.038075
584.024481	12539.711396
584.377721	12422.744024
584.730906	12497.751352
585.084037	12508.917508
585.437113	12427.765013
585.790135	12460.025877
586.143103	12363.218079
586.496016	12386.208261
586.848874	12390.987275
587.201679	12389.270762
587.554428	12269.124943
587.907124	12316.060606
588.259765	12246.790111
588.612352	12318.553456
588.964884	12177.426354
589.317362	12237.952968
589.669786	12227.865619
590.022155	12186.931450
590.374470	12288.992130
590.726731	12177.688494
591.078937	12058.823128
591.431090	12086.025194
591.783188	12013.072136
592.135232	11941.086980
592.487222	11997.658808
592.839157	12011.806806
593.191038	11941.344078
593.542866	11886.125800
593.894639	11739.143398
594.246358	11795.858899
594.598022	11803.660085
594.949633	11709.602236
595.301190	11698.342819
595.652692	11654.583083
596.004141	11747.115982
596.355535	11526.815039
596.706876	11500.790082
597.058162	11473.051133
597.409395	11567.408930
597.760573	11592.665111
598.111698	11489.145017
598.462768	11477.363840
598.813785	11494.236582
599.164748	11363.305214
599.515657	11446.426279
599.866511	11315.131948
600.217312	11454.696292
600.568060	11216.663090
600.918753	11377.112934
601.269392	11375.608150
601.619978	11283.581886
601.970510	11322.630664
602.320988	11366.377797
602.671412	11438.766246
603.021783	11359.761283
603.372100	11287.511466
603.722363	11308.389404
604.072572	11306.403190
604.422728	11317.362658
604.772830	11267.218301
605.122878	11271.558734
605.472872	11240.099414
605.822813	11299.854731
606.172701	11258.676066
606.522534	11299.539659
606.872314	11343.763181
607.222041	11279.289344
607.571714	11356.517300
607.921333	11223.609800
608.270899	11283.244129
608.620411	11341.749240
608.969870	11287.962649
609.319276	11271.306677
609.668627	11286.803184
610.017926	11367.529701
610.367171	11397.179247
610.716362	11392.758155
611.065500	11363.499298
611.414585	11379.469674
611.763616	11441.848911
612.112594	11402.563199
612.461518	11424.580439
612.810389	11475.042389
613.159207	11416.970817
613.507971	11411.392780
613.856682	11516.740293
614.205340	11475.183541
614.553945	11604.040475
614.902496	11480.028090
615.250994	11545.414376
615.599439	11545.096783
615.947830	11572.339179
616.296169	11540.932790
616.644454	11555.607589
616.992686	11565.868858
617.340864	11658.432004
617.688990	11543.997812
618.037063	11681.754902
618.385082	11659.604072
618.733048	11696.820391
619.080961	11679.441013
619.428821	11664.509115
619.776628	11670.462718
620.124382	11614.261414
620.472083	11626.450924
620.819731	11653.136272
621.167326	11573.546535
621.514868	11561.828373
621.862357	11463.727519
622.209793	11452.992382
622.557176	11371.308046
622.904506	11316.329222
623.251783	11241.745351
623.599007	11172.399238
623.946179	11131.351643
624.293297	11104.593198
624.640363	10975.189300
624.987376	10955.722884
625.334336	10889.245188
625.681243	10813.975720
626.028097	10789.372369
626.374899	10743.132385
626.721647	10711.035359
627.068343	10673.357775
627.414987	10620.458427
627.761577	10557.237317
628.108115	10601.100396
628.454600	10470.481580
628.801032	10488.430608
629.147412	10467.083842
629.493739	10439.319687
629.840014	10356.304486
630.186236	10412.861191
630.532405	10305.892948
630.878521	10341.480973
631.224585	10292.004569
631.570597	10229.148942
631.916556	10225.478982
632.262462	10207.303102
632.608316	10186.780565
632.954117	10157.688066
633.299866	10145.032249
633.645562	10121.933682
633.991206	10013.979893
634.336797	9925.079145
634.682336	9914.616230
635.027823	9850.638947
635.373257	9822.731119
635.718639	9760.356922
636.063968	9730.856090
636.409245	9608.408984
636.754470	9594.639072
637.099642	9543.264673
637.444762	9441.614847
637.789829	9450.283111
638.134845	9369.959886
638.479808	9350.576650
638.824719	9327.485645
639.169577	9242.937933
639.514383	9241.044980
639.859137	9175.837655
640.203839	9213.926093
640.548489	9124.480900
640.893086	9131.891396
641.237632	9062.232732
641.582125	9066.953773
641.926566	9052.619252
642.270955	9036.853043
642.615292	9036.850523
642.959576	9011.911934
643.303809	9003.445317
643.647990	9017.842852
643.992118	8999.677054
644.336195	8974.942633
644.680219	8966.972568
645.024192	8998.447013
645.368112	9083.561854
645.711981	9057.617556
646.055797	9196.108134
646.399562	9161.067074
646.743274	9319.379469
647.086935	9386.877999
647.430544	9364.800265
647.774101	9386.194922
648.117606	9408.312985
648.461059	9474.508376
648.804460	9401.701512
649.147810	9285.802864
649.491108	9255.654243
649.834354	9189.093369
650.177548	9039.915544
650.520690	8958.185837
650.863781	8948.874826
651.206820	8919.684025
651.549807	8826.994850
651.892742	8735.886076
652.235626	8693.041310
652.578458	8659.512595
652.921238	8556.075680
653.263967	8593.569262
653.606644	8523.832460
653.949269	8507.327722
654.291843	8429.136906
654.634365	8490.313828
654.976836	8416.886902
655.319255	8409.809122
655.661622	8397.291937
656.003938	8354.888271
656.346203	8314.677508
656.688416	8349.466510
657.030577	8311.005027
657.372687	8278.776931
657.714746	8307.589645
658.056753	8324.180083
658.398708	8225.653251
658.740612	8222.363898
659.082465	8264.593644
659.424266	8221.133857
659.766016	8231.526196
660.107715	8207.936116
660.449362	8223.803148
660.790958	8219.515647
661.132503	8216.523722
661.473996	8216.400213
661.815438	8235.727997
662.156829	8266.312678
662.498168	8210.822177
662.839456	8207.169861
663.180693	8234.011484
663.521879	8247.214266
663.863013	8226.689208
664.204097	8222.409269
664.545129	8297.900548
664.886110	8291.828478
665.227040	8287.394783
665.567918	8298.180332
665.908746	8311.945202
666.249522	8333.380188
666.590248	8333.440682
666.930922	8347.997014
667.271545	8340.334460
667.612118	8357.199640
667.952639	8315.037950
668.293109	8322.362747
668.633528	8292.871997
668.973896	8281.327754
669.314213	8284.440667
669.654480	8242.697393
669.994695	8232.100887
670.334859	8222.439516
670.674973	8201.778347
671.015035	8225.181903
671.355047	8215.412147
671.695008	8200.336577
672.034918	8179.632558
672.374777	8186.629679
672.714585	8156.349989
673.054342	8184.174638
673.394049	8149.007548
673.733705	8188.961213
674.073310	8138.390878
674.412864	8151.034092
674.752368	8089.194258
675.091820	8137.793502
675.431223	8070.378151
675.770574	8021.292436
676.109875	7992.656162
676.449125	7959.422355
676.788324	7943.953574
677.127473	7855.690532
677.466571	7842.412133
677.805619	7784.196888
678.144616	7777.608100
678.483562	7758.786953
678.822458	7711.664767
679.161303	7694.852519
679.500098	7675.154210
679.838842	7659.057806
680.177535	7672.280753
680.516179	7703.881225
680.854771	7724.338228
681.193314	7843.319541
681.531805	7999.544898
681.870247	8121.581151
682.208638	8267.111701
682.546978	8339.482505
682.885268	8367.254222
683.223508	8298.311402
683.561697	8245.701920
683.899836	8219.868527
684.237925	8134.403326
684.575963	8107.397864
684.913951	8017.935028
685.251889	8035.233747
685.589776	8037.005713
685.927614	8013.753391
686.265401	8041.678862
686.603137	8043.957464
686.940824	8115.476313
687.278460	8158.797469
687.616046	8180.580295
687.953582	8292.519116
688.291068	8272.873739
688.628504	8327.408942
688.965889	8331.313315
689.303224	8290.253117
689.640510	8245.550686
689.977745	8142.201991
690.314930	8013.491251
690.652065	7946.068338
690.989150	7831.079619
691.326185	7675.799478
691.663170	7567.800318
692.000105	7451.364788
692.336990	7333.452200
692.673825	7261.187259
693.010610	7171.724422
693.347345	7074.878816
693.684030	6963.131559
694.020665	6913.151039
694.357251	6807.254041
694.693786	6792.523789
695.030272	6755.113386
695.366707	6651.300905
695.703093	6605.433967
696.039429	6601.774089
696.375716	6554.873714
696.711952	6535.858482
697.048139	6513.609350
697.384276	6478.651468
697.720363	6498.800960
698.056400	6469.779037
698.392388	6437.787875
698.728326	6443.557476
699.064214	6414.313742
699.400053	6407.674543
699.735842	6344.571899
700.071581	6300.071114
700.407270	6260.586276
700.742910	6227.279373
701.078501	6184.530388
701.414042	6143.802906
701.749533	6089.628147
702.084974	6030.606317
702.420366	6068.452780
702.755709	6000.142625
703.091002	5945.257062
703.426246	5952.334842
703.761440	5941.166166
704.096584	5890.631119
704.431679	5883.087032
704.766725	5865.574064
705.101721	5851.579821
705.436668	5865.440473
705.771565	5810.761598
706.106413	5870.063211
706.441212	5870.678232
706.775961	5886.149533
707.110661	5897.350977
707.445311	5953.597651
707.779913	5916.986271
708.114465	5957.000430
708.448967	5998.753787
708.783421	6116.512620
709.117825	6163.266801
709.452180	6197.193767
709.786485	6257.438076
710.120742	6391.961266
710.454949	6388.994547
710.789107	6466.595549
711.123216	6587.870587
711.457275	6616.227077
711.791286	6722.860084
712.125247	6746.848415
712.459159	6712.354319
712.793023	6851.994281
713.126837	6677.542632
713.460602	6734.938689
713.794318	6686.183169
714.127985	6638.778679
714.461602	6496.146793
714.795171	6489.011039
715.128691	6325.317212
715.462162	6240.945941
715.795584	6167.269478
716.128957	6126.809177
716.462281	6060.790226
716.795556	6019.853536
717.128782	5934.663077
717.461960	5833.953426
717.795088	5826.096788
718.128167	5757.496767
718.461198	5673.889230
718.794180	5650.026928
719.127113	5591.882260
719.459997	5560.619544
719.792833	5493.615048
720.125619	5491.948947
720.458357	5433.547179
720.791046	5402.246655
721.123686	5373.585175
721.456278	5326.888967
721.788821	5316.589889
722.121315	5280.157471
722.453761	5285.788439
722.786158	5267.791520
723.118506	5271.902581
723.450805	5245.494497
723.783056	5271.781593
724.115259	5255.077730
724.447412	5245.302933
724.779518	5290.827073
725.111574	5292.142814
725.443582	5326.901570
725.775542	5314.119724
726.107453	5402.652468
726.439315	5377.219847
726.771129	5449.164674
727.102895	5512.839488
727.434612	5555.061672
727.766281	5581.318522
728.097901	5637.509743
728.429473	5653.979193
728.760996	5664.918497
729.092471	5684.780643
729.423897	5669.962171
729.755276	5642.911340
730.086606	5655.403319
730.417887	5745.667699
730.749120	5839.687739
731.080305	5879.611157
731.411442	5956.357683
731.742530	5982.841385
732.073570	6003.550445
732.404562	6065.256688
732.735506	6061.405247
733.066401	6042.984871
733.397249	5972.454087
733.728048	5876.974633
734.058798	5731.738991
734.389501	5605.957161
734.720156	5522.412639
735.050762	5414.577317
735.381320	5340.258107
735.711831	5281.758037
736.042293	5201.303742
736.372707	5196.512125
736.703073	5157.551568
737.033391	5183.982338
737.363661	5167.069266
737.693883	5180.428324
738.024056	5205.898754
738.354182	5238.830091
738.684260	5279.872645
739.014290	5318.911341
739.344272	5355.442062
739.674207	5412.913737
740.004093	5438.626142
740.333931	5452.151557
740.663722	5471.441533
740.993464	5480.707173
741.323159	5464.303259
741.652806	5422.658287
741.982405	5391.793822
742.311956	5333.124874
742.641460	5324.945602
742.970915	5269.881078
743.300323	5210.675247
743.629683	5175.503117
743.958996	5124.385817
744.288260	5073.749947
744.617477	5009.255945
744.946647	4997.023585
745.275768	4941.875883
745.604842	4912.962345
745.933869	4873.593454
746.262847	4868.227146
746.591778	4856.945043
746.920662	4831.255323
747.249498	4826.176361
747.578286	4847.876008
747.907027	4866.951734
748.235720	4918.570629
748.564365	4920.370321
748.892963	4910.270369
749.221514	4924.751083
749.550017	4900.185541
749.878473	4898.111106
750.206881	4859.881516
750.535242	4849.060679
750.863555	4831.585519
751.191821	4807.327487
751.520039	4807.554339
751.848210	4795.140497
752.176334	4803.899502
752.504411	4783.775216
752.832440	4753.034260
753.160421	4765.788379
753.488356	4745.699381
753.816243	4726.404365
754.144082	4693.659550
754.471875	4684.963559
754.799620	4669.116692
755.127318	4663.505888
755.454969	4660.723171
755.782572	4650.744207
756.110129	4654.401564
756.437638	4638.471518
756.765100	4637.034789
757.092515	4637.538905
757.419882	4643.764730
757.747203	4640.450171
758.074477	4655.588756
758.401703	4643.517713
758.728882	4670.182896
759.056014	4685.472716
759.383099	4708.568762
759.710138	4735.770828
760.037129	4759.043315
760.364073	4765.241414
760.690970	4768.387094
761.017820	4767.139408
761.344623	4802.682063
761.671379	4862.192885
761.998088	4950.317295
762.324751	5177.151574
762.651366	5639.248941
762.977935	6336.264078
763.304456	6892.401650
763.630931	7197.714091
763.957359	7137.530276
764.283740	6842.564803
764.610074	6522.204517
764.936362	6117.205779
765.262602	5798.161234
765.588796	5454.624243
765.914943	5201.926325
766.241044	4974.494669
766.567097	4806.709945
766.893104	4655.598838
767.219064	4556.744332
767.544978	4461.653047
767.870845	4380.813104
768.196665	4329.917615
768.522438	4280.877270
768.848165	4238.975199
769.173846	4197.978016
769.499479	4170.302081
769.825066	4135.019045
770.150607	4096.978498
770.476101	4075.876228
770.801548	4055.091551
771.126949	4027.115668
771.452303	4006.194879
771.777611	3967.816575
772.102872	3964.212150
772.428087	3941.872277
772.753256	3912.343718
773.078378	3895.039957
773.403453	3865.967623
773.728482	3837.301102
774.053465	3824.529339
774.378401	3806.000578
774.703291	3783.970735
775.028135	3758.737240
775.352932	3747.397164
775.677683	3726.330182
776.002388	3708.877708
776.327046	3711.955332
776.651658	3692.809030
776.976224	3670.935463
777.300743	3672.238602
777.625216	3654.196312
777.949643	3648.187257
778.274024	3650.286897
778.598359	3632.148826
778.922647	3633.278044
779.246889	3620.415540
779.571086	3618.946044
779.895236	3618.610807
780.219339	3621.547279
780.543397	3621.050725
780.867409	3633.940956
781.191374	3631.979947
781.515294	3624.420737
781.839167	3644.401350
782.162995	3644.487050
782.486776	3637.656286
782.810511	3626.439719
783.134201	3613.032770
783.457844	3610.602934
783.781441	3604.185545
784.104993	3598.635235
784.428498	3596.477621
784.751958	3590.050150
785.075372	3582.896753
785.398739	3569.704053
785.722061	3575.450968
786.045337	3578.137903
786.368568	3600.686984
786.691752	3598.118517
787.014891	3645.744817
787.337983	3689.239893
787.661030	3777.858336
787.984031	3873.909961
788.306987	3951.032053
788.629897	3996.568796
788.952760	4009.254860
789.275579	3993.249196
789.598351	3941.322791
789.921078	3888.519225
790.243759	3829.424299
790.566395	3780.746918
790.888984	3732.472828
791.211529	3698.840770
791.534027	3651.781599
791.856480	3611.583438
792.178888	3592.926128
792.501249	3574.596493
792.823566	3542.267573
793.145836	3537.599465
793.468062	3526.831560
793.790241	3513.374200
794.112375	3518.659850
794.434464	3541.395453
794.756507	3540.460319
795.078505	3556.622259
795.400457	3598.118517
795.722364	3649.961743
796.044226	3694.268444
796.366042	3740.947008
796.687812	3736.987182
797.009538	3760.544493
797.331218	3747.818101
797.652852	3742.688727
797.974442	3722.158627
798.295986	3708.935681
798.617484	3680.821166
798.938938	3659.824760
799.260346	3641.054024
799.581709	3607.600927
799.903026	3595.920573
800.224299	3572.811924
800.545526	3546.305537
800.866708	3525.135212
801.187845	3511.496370
801.508936	3491.966940
801.829983	3484.148110
802.150984	3451.620065
802.471940	3443.097995
802.792851	3437.857715
803.113717	3433.708846
803.434538	3424.397834
803.755314	3415.790064
804.076045	3410.063313
804.396731	3397.883886
804.717372	3395.963206
805.037967	3396.439595
805.358518	3400.091911
805.679024	3412.944333
805.999485	3407.053745
806.319901	3416.901639
806.640272	3416.810898
806.960598	3428.163576
807.280879	3427.420006
807.601115	3436.932663
807.921306	3430.316149
808.241453	3433.202210
808.561554	3439.453240
808.881611	3435.110286
809.201623	3432.075512
809.521590	3426.366405
809.841513	3426.515119
810.161390	3431.967127
810.481223	3415.782503
810.801011	3414.255033
811.120755	3406.526944
811.440453	3400.906058
811.760107	3388.144377
812.079716	3382.117677
812.399281	3372.496635
812.718801	3371.465719
813.038276	3365.572610
813.357707	3360.864173
813.677093	3369.729042
813.996434	3350.393696
814.315731	3356.881661
814.634983	3359.866024
814.954191	3355.684387
815.273354	3374.679455
815.592473	3387.332751
815.911547	3406.337901
816.230577	3416.795774
816.549562	3445.295938
816.868502	3460.016107
817.187399	3485.335302
817.506250	3511.282121
817.825058	3519.995755
818.143821	3565.832447
818.462539	3607.979013
818.781213	3664.089576
819.099843	3749.126280
819.418429	3899.703025
819.736970	4054.526942
820.055466	4240.684150
820.373919	4478.901355
820.692327	4814.768230
821.010691	5328.398792
821.329011	6405.789151
821.647286	8140.351887
821.965517	10303.208533
822.283704	11923.979824
822.601847	13003.719361
822.919945	12598.448400
823.237999	11930.442583
823.556010	11028.365911
823.873976	10076.424666
824.191897	9108.674362
824.509775	8333.458326
824.827609	7537.155144
825.145398	6990.366392
825.463144	6608.446056
825.780845	6484.791594
826.098502	6547.468259
826.416116	6928.206445
826.733685	7429.813855
827.051210	7720.653144
827.368692	7619.336034
827.686129	7183.876124
828.003522	6625.931298
828.320872	6059.333333
828.638177	5599.547334
828.955439	5226.096137
829.272656	4893.148090
829.589830	4613.537971
829.906960	4345.099049
830.224046	4138.217657
830.541088	3973.616422
830.858086	3852.384234
831.175041	3759.145573
831.491952	3711.783933
831.808819	3696.889844
832.125642	3731.759505
832.442421	3831.503775
832.759157	4052.455027
833.075849	4431.534673
833.392497	4893.599273
833.709101	5281.226195
834.025662	5387.402978
834.342179	5262.286580
834.658653	4990.676773
834.975083	4723.722471
835.291469	4476.945387
835.607811	4251.623454
835.924110	4092.849793
836.240366	3933.350206
836.556578	3771.287192
836.872746	3637.484887
837.188871	3524.358874
837.504952	3429.691046
837.820990	3351.543079
838.136984	3297.638021
838.452935	3269.248763
838.768842	3252.688573
839.084706	3288.463121
839.400526	3424.216353
839.716303	3651.521980
840.032037	3861.314638
840.347727	3928.359464
840.663373	3836.489476
840.978977	3687.019265
841.294537	3555.427505
841.610054	3448.403809
841.925527	3370.160060
842.240957	3304.204124
842.556344	3243.196080
842.871687	3182.619055
843.186987	3123.445991
843.502244	3070.244174
843.817458	3029.882176
844.132629	2995.289778
844.447756	2976.793784
844.762840	2955.958696
845.077881	2938.387754
845.392879	2920.191709
845.707833	2913.950761
846.022745	2898.829820
846.337613	2896.745303
846.652438	2887.293139
846.967221	2883.524877
847.281960	2875.698485
847.596656	2871.625233
847.911309	2866.205993
848.225919	2862.994777
848.540485	2857.333562
848.855009	2854.616380
849.169490	2851.768128
849.483928	2849.323168
849.798323	2846.749659
850.112675	2839.518124
850.426984	2840.564163
850.741251	2841.617765
851.055474	2836.798422
851.369654	2837.496621
851.683792	2837.776405
851.997887	2837.088288
852.311938	2837.625171
852.625947	2835.916220
852.939914	2834.968483
853.253837	2837.524348
853.567718	2835.442351
853.881555	2835.523010
854.195350	2835.664162
854.509103	2836.818586
854.822812	2837.204234
855.136479	2833.546877
855.450103	2838.280521
855.763685	2830.935560
856.077224	2832.584017
856.390720	2836.087619
856.704173	2836.397650
857.017584	2838.925788
857.330953	2839.709688
857.644278	2843.669514
857.957561	2845.002899
858.270802	2846.958867
858.584000	2847.929289
858.897155	2845.239834
859.210268	2843.097343
859.523339	2839.419822
859.836367	2839.639112
860.149352	2840.327229
860.462295	2837.862105
860.775195	2831.848008
861.088054	2832.397494
861.400869	2830.597802
861.713642	2828.054540
862.026373	2833.335149
862.339062	2835.074347
862.651708	2836.306909
862.964312	2840.649863
863.276873	2841.239678
863.589392	2849.701255
863.901869	2858.334231
864.214303	2861.865559
864.526696	2872.280583
864.839045	2880.185112
865.151353	2883.998745
865.463619	2887.754405
865.775842	2889.876730
866.088023	2895.739592
866.400162	2895.255642
866.712258	2895.432082
867.024313	2898.388719
867.336325	2898.507186
867.648296	2899.129768
867.960224	2901.582290
868.272110	2901.047927
868.583954	2902.835016
868.895755	2905.726118
869.207515	2905.423649
869.519233	2912.052766
869.830909	2914.916142
870.142542	2919.639703
870.454134	2919.105340
870.765684	2922.366967
871.077191	2930.309305
871.388657	2938.372630
871.700081	2941.853547
872.011463	2948.855710
872.322803	2954.849642
872.634101	2959.800055
872.945357	2963.870787
873.256571	2976.599700
873.567744	2980.723364
873.878874	2985.015906
874.189963	2993.391783
874.501010	2995.345231
874.812015	2997.901096
875.122979	3004.315964
875.433900	3005.203207
875.744780	3007.985924
876.055618	3016.873478
876.366415	3016.291225
876.677169	3023.033768
876.987882	3029.622556
877.298554	3037.396015
877.609183	3051.733057
877.919771	3070.065213
878.230317	3094.003132
878.540822	3128.028400
878.851285	3180.423632
879.161707	3247.962491
879.472087	3356.546424
879.782425	3513.883356
880.092722	3790.919966
880.402977	4211.931929
880.713191	4756.749590
881.023363	5349.490980
881.333494	5783.677999
881.643583	6068.898922
881.953631	6147.056971
882.263637	6097.116781
882.573602	5956.216531
882.883526	5783.191528
883.193408	5583.569397
883.503248	5364.377507
883.813048	5148.212830
884.122806	4933.104275
884.432522	4689.614024
884.742197	4467.649499
885.051831	4265.254734
885.361424	4065.294846
885.670975	3898.714959
885.980485	3750.867999
886.289954	3624.738329
886.599382	3521.061959
886.908768	3438.233281
887.218113	3357.567258
887.527417	3298.411838
887.836680	3238.606109
888.145901	3192.739171
888.455082	3156.742812
888.764221	3121.280815
889.073319	3090.902822
889.382376	3073.105029
889.691392	3052.650547
890.000366	3048.516801
890.309300	3041.224772
890.618193	3038.494987
890.927044	3033.337887
891.235855	3033.075747
891.544625	3035.387116
891.853353	3042.394319
892.162041	3055.486196
892.470687	3083.552820
892.779293	3116.080865
893.087858	3164.024759
893.396381	3239.944536
893.704864	3344.082171
894.013306	3504.837006
894.321707	3693.121581
894.630068	3843.237061
894.938387	3921.127929
895.246665	3931.820216
895.554903	3870.635732
895.863100	3782.241620
896.171256	3709.573387
896.479371	3634.949187
896.787446	3561.328176
897.095480	3487.445025
897.403473	3433.292950
897.711425	3376.756410
898.019336	3326.715396
898.327207	3271.383692
898.635038	3226.668657
898.942827	3174.467509
899.250576	3132.212558
899.558284	3093.675457
899.865952	3065.518092
900.173579	3033.297557
900.481165	3012.190246
900.788711	2993.119561
901.096216	2980.161275
901.403681	2965.559573
901.711105	2959.603450
902.018489	2951.489713
902.325832	2963.754840
902.633135	2971.077116
902.940397	3008.139679
903.247619	3096.581682
903.554800	3277.254115
903.861941	3551.376938
904.169041	3815.099860
904.476101	3976.578100
904.783121	4000.778159
905.090100	3934.371040
905.397039	3826.656706
905.703938	3724.248186
906.010796	3622.588277
906.317614	3535.530071
906.624391	3453.669294
906.931129	3382.883933
907.237826	3312.532110
907.544483	3248.728746
907.851099	3178.127387
908.157675	3102.784822
908.464211	3032.246477
908.770707	2973.733804
909.077163	2925.154725
909.383578	2889.160887
909.689954	2862.707432
909.996289	2841.101046
910.302584	2826.567400
910.608839	2819.560196
910.915054	2810.370172
911.221229	2805.865902
911.527363	2806.977476
911.833458	2806.861529
912.139513	2809.956798
912.445527	2812.653815
912.751502	2822.403407
913.057436	2839.601303
913.363331	2857.971268
913.669186	2886.214332
913.975000	2925.484921
914.280775	2985.071359
914.586510	3065.485325
914.892205	3174.535565
915.197859	3321.333965
915.503475	3502.916326
915.809050	3677.249508
916.114585	3811.850837
916.420081	3886.633833
916.725536	3920.775048
917.030952	3879.659397
917.336328	3839.599868
917.641665	3794.289977
917.946961	3732.770256
918.252218	3671.774815
918.557435	3600.508023
918.862612	3534.294988
919.167750	3474.272490
919.472848	3399.300450
919.777906	3335.885255
920.082925	3263.282557
920.387904	3189.835467
920.692843	3136.437044
920.997743	3082.531986
921.302603	3036.536499
921.607423	3001.828154
921.912204	2966.746765
922.216946	2941.205759
922.521647	2915.989907
922.826310	2893.634911
923.130932	2874.672610
923.435516	2855.987574
923.740059	2841.194308
924.044564	2828.041937
924.349028	2815.849907
924.653454	2801.021353
924.957840	2784.612397
925.262186	2776.879267
925.566493	2766.433996
925.870761	2755.983684
926.174989	2750.025040
926.479178	2742.614544
926.783328	2734.490725
927.087438	2728.227091
927.391509	2720.922459
927.695541	2714.958774
927.999533	2710.691437
928.303486	2706.343442
928.607400	2703.222968
928.911275	2699.036290
929.215110	2694.826926
929.518906	2691.225022
929.822663	2691.240145
930.126381	2688.429702
930.430060	2691.600588
930.733699	2689.475742
931.037299	2692.601257
931.340861	2691.179652
931.644383	2688.386852
931.947866	2691.227542
932.251309	2689.495906
932.554714	2689.616894
932.858080	2689.122861
933.161407	2689.364836
933.464694	2688.631348
933.767943	2687.434074
934.071153	2686.824095
934.374323	2682.531552
934.677455	2681.810667
934.980548	2683.738908
935.283602	2679.877385
935.586617	2679.690862
935.889593	2680.026099
936.192530	2681.873682
936.495428	2681.150276
936.798287	2686.572037
937.101108	2690.184024
937.403890	2697.642411
937.706632	2704.757999
938.009336	2716.080431
938.312002	2730.777915
938.614628	2736.910479
938.917216	2750.897160
939.219765	2756.407141
939.522275	2768.145468
939.824747	2767.442227
940.127179	2763.401742
940.429573	2765.082967
940.731929	2767.301075
941.034246	2765.849222
941.336524	2765.045158
941.638763	2764.271341
941.940964	2768.518513
942.243126	2759.777152
942.545250	2756.777666
942.847335	2749.888929
943.149381	2742.460789
943.451389	2736.174470
943.753359	2729.837740
944.055290	2729.862946
944.357182	2723.228787
944.659036	2718.164948
944.960851	2717.499516
945.262628	2712.140769
945.564367	2710.288145
945.866067	2709.690768
946.167729	2709.791592
946.469352	2709.257229
946.770937	2707.817980
947.072484	2705.065510
947.373992	2705.975438
947.675462	2705.126004
947.976893	2701.395550
948.278286	2698.519572
948.579641	2700.346990
948.880958	2700.803214
949.182236	2700.004191
949.483476	2696.329190
949.784678	2695.242822
950.085841	2693.049920
950.386967	2696.803059
950.688054	2698.675847
950.989103	2703.046528
951.290114	2705.705736
951.591087	2706.950901
951.892021	2712.919627
952.192917	2720.521687
952.493776	2722.938921
952.794596	2724.995712
953.095378	2726.334138
953.396122	2727.599467
953.696828	2726.112327
953.997496	2723.871534
954.298126	2722.616287
954.598718	2717.146635
954.899272	2714.600852
955.199788	2709.458875
955.500266	2705.821683
955.800706	2696.062009
956.101108	2689.576565
956.401472	2684.142201
956.701798	2677.999555
957.002087	2673.339008
957.302337	2669.361538
957.602550	2663.191165
957.902724	2658.386946
958.202861	2654.149856
958.502960	2650.847900
958.803022	2644.276756
959.103045	2643.124852
959.403031	2636.193266
959.702979	2632.470374
960.002889	2631.414252
960.302762	2627.588016
960.602596	2625.097686
960.902393	2626.186576
961.202153	2622.622480
961.501875	2617.815740
961.801559	2617.745163
962.101205	2619.149125
962.400814	2615.942951
962.700385	2617.392283
962.999918	2614.561675
963.299414	2613.550923
963.598873	2611.448762
963.898293	2611.569750
964.197677	2611.627723
964.497022	2610.863988
964.796331	2608.845006
965.095601	2607.539347
965.394835	2609.644029
965.694030	2606.352156
965.993189	2606.967177
966.292309	2604.345777
966.591393	2606.246292
966.890439	2605.157402
967.189447	2607.589759
967.488419	2606.589090
967.787353	2608.177053
968.086249	2608.477002
968.385108	2607.357866
968.683930	2607.879625
968.982714	2608.794595
969.281462	2606.856271
969.580172	2608.953391
969.878844	2609.213011
970.177480	2613.445059
970.476078	2610.085130
970.774639	2615.832046
971.073162	2615.254833
971.371649	2615.827004
971.670098	2615.043105
971.968510	2615.632920
972.266885	2616.008486
972.565223	2621.669702
972.863524	2622.125926
973.161788	2617.669546
973.460014	2620.820267
973.758204	2622.889661
974.056356	2623.204733
974.354471	2626.027779
974.652550	2622.539301
974.950591	2624.901081
975.248595	2622.937552
975.546563	2623.522326
975.844493	2626.715897
976.142386	2622.700618
976.440243	2621.132819
976.738062	2623.038375
977.035845	2623.393776
977.333590	2619.907818
977.631299	2619.469238
977.928971	2616.273147
978.226606	2615.413630
978.524204	2616.116871
978.821765	2616.943620
979.119290	2614.516304
979.416777	2614.377673
979.714228	2615.307766
980.011642	2614.077724
980.309020	2618.791203
980.606360	2619.605349
980.903664	2622.327572
981.200931	2625.702625
981.498162	2635.215282
981.795356	2645.678197
982.092513	2659.359888
982.389633	2676.822445
982.686717	2696.230888
982.983764	2711.974411
983.280775	2727.342369
983.577749	2729.948645
983.874686	2731.135837
984.171587	2729.285733
984.468451	2723.934549
984.765279	2718.525391
985.062070	2707.654142
985.358824	2703.107022
985.655543	2692.651668
985.952224	2683.542303
986.248869	2672.262722
986.545478	2656.138591
986.842050	2644.647281
987.138586	2634.791825
987.435086	2622.299846
987.731549	2615.491768
988.027975	2614.123094
988.324366	2609.397013
988.620719	2606.813421
988.917037	2602.785539
989.213318	2599.108018
989.509563	2595.160794
989.805772	2600.199427
990.101944	2598.621546
990.398080	2596.965527
990.694180	2596.106011
990.990244	2599.188676
991.286271	2595.501072
991.582262	2594.833119
991.878217	2594.069384
992.174136	2595.838829
992.470019	2597.847729
992.765865	2597.935949
993.061676	2599.657503
993.357450	2602.886362
993.653188	2603.105653
993.948890	2604.963318
994.244556	2608.376179
994.540186	2613.187960
994.835780	2616.946141
995.131337	2624.341513
995.426859	2634.154119
995.722345	2638.812145
996.017795	2650.484937
996.313208	2654.948879
996.608586	2663.294509
996.903928	2664.980775
997.199234	2670.384892
997.494504	2669.560663
997.789738	2667.196362
998.084936	2664.580003
998.380099	2661.313336
998.675225	2653.880154
998.970316	2651.052067
999.265371	2643.323978
999.560390	2633.647483
999.855373	2631.666310
1000.150320	2623.131636
1000.445232	2619.118878
1000.740108	2612.482199
1001.034948	2609.452465
1001.329752	2607.345263
1001.624521	2602.853595
1001.919254	2596.179107
1002.213951	2593.474528
1002.508613	2592.055443
1002.803239	2590.003694
1003.097829	2588.448498
1003.392384	2590.046544
1003.686903	2591.339600
1003.981386	2591.420258
1004.275834	2587.319279
1004.570246	2591.624425
1004.864623	2586.822726
1005.158964	2589.764239
1005.453270	2587.662078
1005.747540	2586.779876
1006.041775	2586.658888
1006.335974	2583.256109
1006.630138	2584.536562
1006.924266	2584.967581
1007.218359	2581.910121
1007.512416	2584.561768
1007.806438	2584.854155
1008.100425	2584.776017
1008.394376	2584.781058
1008.688292	2584.087900
1008.982172	2582.628486
1009.276017	2582.704103
1009.569827	2582.522622
1009.863602	2583.311562
1010.157341	2582.472210
1010.451045	2582.706624
1010.744714	2580.848958
1011.038347	2583.321644
1011.331945	2581.716037
1011.625508	2584.196285
1011.919036	2582.593198
1012.212528	2582.832652
1012.505986	2582.255440
1012.799408	2581.892477
1013.092795	2583.682087
1013.386147	2582.429360
1013.679464	2581.821901
1013.972745	2582.003383
1014.265992	2582.303331
1014.559204	2582.545307
1014.852380	2580.130594
1015.145521	2585.723754
1015.438628	2581.111098
1015.731699	2581.176633
1016.024736	2578.633371
1016.317737	2584.138311
1016.610703	2581.973136
1016.903635	2576.621951
1017.196531	2581.632858
1017.489393	2579.122363
1017.782219	2581.889957
1018.075011	2577.385686
1018.367768	2583.452714
1018.660490	2586.084197
1018.953177	2586.084197
1019.245829	2586.084197
