Dividing Wavelength (nm)	Counts (n)	Blue Motor Position (mm): 4.300000	Red Motor Position (mm): 0.000000	
326.493990	2205.504808
326.888308	2205.504808
327.282561	2205.504808
327.676750	2059.311346
328.070874	2102.161154
328.464933	2044.187885
328.858929	2049.229038
329.252859	2119.805192
329.646726	2117.284615
330.040528	2089.558269
330.434265	2064.352500
330.827938	2172.737308
331.221547	2167.696154
331.615091	2157.613846
332.008571	2122.325769
332.401986	2190.381346
332.795338	2220.628269
333.188625	2192.901923
333.581847	2313.889615
333.975006	2200.463654
334.368100	2354.218846
334.761129	2308.848462
335.154095	2336.574808
335.546996	2306.327885
335.939833	2359.260000
336.332606	2422.274423
336.725315	2404.630385
337.117960	2437.397885
337.510540	2437.397885
337.903056	2379.424615
338.295508	2379.424615
338.687896	2477.727115
339.080220	2442.439038
339.472480	2432.356731
339.864676	2374.383462
340.256807	2500.412308
340.648875	2487.809423
341.040879	2475.206538
341.432818	2475.206538
341.824694	2548.303269
342.216506	2530.659231
342.608253	2487.809423
342.999937	2497.891731
343.391557	2492.850577
343.783113	2492.850577
344.174605	2475.206538
344.566033	2437.397885
344.957397	2482.768269
345.348697	2414.712692
345.739934	2480.247692
346.131106	2452.521346
346.522215	2472.685962
346.913260	2510.494615
347.304241	2528.138654
347.695159	2535.700385
348.086012	2565.947308
348.476802	2475.206538
348.867528	2525.618077
349.258191	2452.521346
349.648789	2437.397885
350.039324	2462.603654
350.429796	2457.562500
350.820203	2402.109808
351.210548	2475.206538
351.600828	2477.727115
351.991045	2424.795000
352.381198	2462.603654
352.771288	2455.041923
353.161314	2412.192115
353.551276	2376.904038
353.941175	2487.809423
354.331010	2450.000769
354.720782	2376.904038
355.110490	2429.836154
355.500135	2437.397885
355.889717	2482.768269
356.279235	2510.494615
356.668689	2533.179808
357.058080	2414.712692
357.447408	2386.986346
357.836672	2540.741538
358.225873	2394.548077
358.615010	2470.165385
359.004084	2452.521346
359.393095	2381.945192
359.782043	2470.165385
360.170927	2427.315577
360.559748	2318.930769
360.948505	2349.177692
361.337199	2495.371154
361.725830	2419.753846
362.114398	2472.685962
362.502903	2364.301154
362.891344	2384.465769
363.279722	2417.233269
363.668037	2480.247692
364.056289	2439.918462
364.444478	2381.945192
364.832603	2417.233269
365.220665	2442.439038
365.608665	2429.836154
365.996601	2369.342308
366.384474	2485.288846
366.772284	2447.480192
367.160031	2409.671538
367.547715	2404.630385
367.935336	2439.918462
368.322893	2518.056346
368.710388	2462.603654
369.097820	2515.535769
369.485189	2386.986346
369.872495	2545.782692
370.259738	2447.480192
370.646918	2485.288846
371.034035	2487.809423
371.421090	2513.015192
371.808081	2492.850577
372.195010	2422.274423
372.581875	2513.015192
372.968678	2472.685962
373.355418	2439.918462
373.742096	2505.453462
374.128710	2515.535769
374.515262	2460.083077
374.901751	2510.494615
375.288177	2419.753846
375.674540	2407.150962
376.060841	2487.809423
376.447079	2480.247692
376.833254	2450.000769
377.219367	2510.494615
377.605417	2513.015192
377.991404	2447.480192
378.377329	2530.659231
378.763191	2455.041923
379.148991	2404.630385
379.534727	2404.630385
379.920402	2462.603654
380.306013	2429.836154
380.691563	2502.932885
381.077049	2457.562500
381.462474	2407.150962
381.847835	2525.618077
382.233134	2450.000769
382.618371	2500.412308
383.003545	2467.644808
383.388657	2462.603654
383.773706	2462.603654
384.158693	2470.165385
384.543618	2540.741538
384.928480	2427.315577
385.313280	2570.988462
385.698017	2490.330000
386.082692	2576.029615
386.467305	2460.083077
386.851856	2518.056346
387.236344	2490.330000
387.620770	2475.206538
388.005133	2422.274423
388.389435	2510.494615
388.773674	2492.850577
389.157851	2450.000769
389.541965	2412.192115
389.926018	2530.659231
390.310008	2439.918462
390.693936	2450.000769
391.077802	2389.506923
391.461606	2455.041923
391.845348	2485.288846
392.229027	2475.206538
392.612645	2510.494615
392.996200	2424.795000
393.379694	2492.850577
393.763125	2447.480192
394.146494	2457.562500
394.529801	2455.041923
394.913047	2467.644808
395.296230	2439.918462
395.679351	2452.521346
396.062410	2482.768269
396.445408	2462.603654
396.828343	2457.562500
397.211217	2530.659231
397.594028	2434.877308
397.976778	2505.453462
398.359466	2455.041923
398.742092	2477.727115
399.124656	2545.782692
399.507158	2457.562500
399.889598	2492.850577
400.271977	2523.097500
400.654294	2402.109808
401.036549	2502.932885
401.418742	2518.056346
401.800874	2520.576923
402.182944	2450.000769
402.564952	2444.959615
402.946898	2480.247692
403.328783	2427.315577
403.710606	2530.659231
404.092367	2439.918462
404.474067	2452.521346
404.855705	2465.124231
405.237282	2482.768269
405.618797	2475.206538
406.000250	2409.671538
406.381642	2515.535769
406.762972	2442.439038
407.144240	2465.124231
407.525447	2497.891731
407.906593	2515.535769
408.287677	2472.685962
408.668700	2480.247692
409.049661	2462.603654
409.430560	2528.138654
409.811399	2563.426731
410.192176	2475.206538
410.572891	2505.453462
410.953545	2545.782692
411.334138	2447.480192
411.714669	2450.000769
412.095139	2533.179808
412.475547	2457.562500
412.855894	2442.439038
413.236180	2432.356731
413.616405	2495.371154
413.996568	2460.083077
414.376670	2533.179808
414.756711	2409.671538
415.136691	2460.083077
415.516609	2472.685962
415.896466	2475.206538
416.276262	2439.918462
416.655997	2439.918462
417.035670	2470.165385
417.415283	2480.247692
417.794834	2533.179808
418.174324	2424.795000
418.553753	2419.753846
418.933121	2505.453462
419.312428	2500.412308
419.691674	2444.959615
420.070859	2492.850577
420.449983	2490.330000
420.829045	2518.056346
421.208047	2455.041923
421.586988	2507.974038
421.965867	2394.548077
422.344686	2455.041923
422.723444	2528.138654
423.102141	2502.932885
423.480777	2457.562500
423.859352	2417.233269
424.237866	2553.344423
424.616319	2407.150962
424.994712	2525.618077
425.373044	2492.850577
425.751314	2437.397885
426.129524	2505.453462
426.507673	2543.262115
426.885762	2568.467885
427.263789	2450.000769
427.641756	2482.768269
428.019662	2472.685962
428.397508	2490.330000
428.775292	2528.138654
429.153016	2455.041923
429.530679	2540.741538
429.908282	2439.918462
430.285824	2555.865000
430.663305	2568.467885
431.040726	2528.138654
431.418086	2460.083077
431.795385	2444.959615
432.172624	2457.562500
432.549802	2528.138654
432.926920	2518.056346
433.303977	2475.206538
433.680974	2538.220962
434.057910	2558.385577
434.434786	2487.809423
434.811601	2507.974038
435.188355	2568.467885
435.565050	2553.344423
435.941683	2507.974038
436.318257	2472.685962
436.694770	2507.974038
437.071222	2472.685962
437.447614	2470.165385
437.823946	2578.550192
438.200218	2460.083077
438.576429	2548.303269
438.952580	2429.836154
439.328670	2470.165385
439.704700	2442.439038
440.080670	2535.700385
440.456580	2457.562500
440.832429	2480.247692
441.208218	2485.288846
441.583947	2485.288846
441.959616	2487.809423
442.335224	2538.220962
442.710773	2455.041923
443.086261	2507.974038
443.461689	2487.809423
443.837057	2482.768269
444.212365	2528.138654
444.587612	2442.439038
444.962800	2442.439038
445.337927	2492.850577
445.712995	2525.618077
446.088002	2477.727115
446.462949	2545.782692
446.837837	2540.741538
447.212664	2470.165385
447.587431	2427.315577
447.962139	2402.109808
448.336786	2462.603654
448.711374	2460.083077
449.085901	2444.959615
449.460369	2518.056346
449.834776	2424.795000
450.209124	2460.083077
450.583412	2424.795000
450.957640	2457.562500
451.331808	2467.644808
451.705917	2417.233269
452.079965	2500.412308
452.453954	2427.315577
452.827883	2492.850577
453.201752	2417.233269
453.575562	2432.356731
453.949311	2530.659231
454.323001	2452.521346
454.696632	2470.165385
455.070202	2402.109808
455.443713	2530.659231
455.817164	2475.206538
456.190556	2515.535769
456.563888	2515.535769
456.937160	2470.165385
457.310373	2510.494615
457.683526	2452.521346
458.056619	2482.768269
458.429653	2452.521346
458.802628	2515.535769
459.175542	2424.795000
459.548398	2510.494615
459.921194	2465.124231
460.293930	2490.330000
460.666607	2427.315577
461.039224	2533.179808
461.411782	2500.412308
461.784280	2482.768269
462.156719	2424.795000
462.529099	2513.015192
462.901419	2525.618077
463.273680	2576.029615
463.645882	2515.535769
464.018024	2553.344423
464.390106	2570.988462
464.762130	2412.192115
465.134094	2513.015192
465.505999	2432.356731
465.877845	2530.659231
466.249631	2525.618077
466.621358	2525.618077
466.993026	2439.918462
467.364634	2530.659231
467.736184	2465.124231
468.107674	2639.044038
468.479105	2523.097500
468.850477	2510.494615
469.221790	2399.589231
469.593043	2487.809423
469.964238	2533.179808
470.335373	2470.165385
470.706449	2495.371154
471.077467	2530.659231
471.448425	2487.809423
471.819324	2550.823846
472.190164	2520.576923
472.560945	2523.097500
472.931667	2530.659231
473.302330	2507.974038
473.672934	2545.782692
474.043479	2505.453462
474.413965	2510.494615
474.784393	2460.083077
475.154761	2477.727115
475.525070	2442.439038
475.895321	2447.480192
476.265513	2429.836154
476.635645	2495.371154
477.005719	2492.850577
477.375734	2480.247692
477.745691	2392.027500
478.115588	2444.959615
478.485427	2538.220962
478.855207	2505.453462
479.224928	2495.371154
479.594591	2409.671538
479.964194	2482.768269
480.333739	2477.727115
480.703226	2472.685962
481.072653	2386.986346
481.442022	2490.330000
481.811333	2480.247692
482.180584	2472.685962
482.549777	2450.000769
482.918912	2513.015192
483.287988	2565.947308
483.657005	2485.288846
484.025964	2460.083077
484.394864	2439.918462
484.763706	2369.342308
485.132489	2543.262115
485.501213	2447.480192
485.869879	2490.330000
486.238487	2450.000769
486.607036	2460.083077
486.975527	2540.741538
487.343959	2497.891731
487.712333	2460.083077
488.080648	2490.330000
488.448905	2485.288846
488.817104	2475.206538
489.185244	2543.262115
489.553326	2460.083077
489.921350	2505.453462
490.289315	2472.685962
490.657222	2487.809423
491.025070	2505.453462
491.392861	2520.576923
491.760593	2422.274423
492.128267	2485.288846
492.495883	2472.685962
492.863440	2502.932885
493.230939	2515.535769
493.598380	2520.576923
493.965763	2538.220962
494.333088	2424.795000
494.700354	2550.823846
495.067563	2487.809423
495.434713	2550.823846
495.801805	2447.480192
496.168839	2538.220962
496.535815	2495.371154
496.902733	2412.192115
497.269593	2545.782692
497.636395	2472.685962
498.003139	2568.467885
498.369825	2437.397885
498.736453	2520.576923
499.103023	2507.974038
499.469535	2475.206538
499.835989	2593.673654
500.202385	2457.562500
500.568723	2495.371154
500.935003	2477.727115
501.301226	2528.138654
501.667390	2465.124231
502.033497	2573.509038
502.399546	2467.644808
502.765537	2518.056346
503.131470	2467.644808
503.497345	2523.097500
503.863163	2439.918462
504.228923	2497.891731
504.594625	2563.426731
504.960269	2502.932885
505.325856	2525.618077
505.691385	2470.165385
506.056856	2492.850577
506.422270	2525.618077
506.787625	2525.618077
507.152924	2487.809423
507.518164	2485.288846
507.883347	2495.371154
508.248472	2437.397885
508.613540	2447.480192
508.978550	2492.850577
509.343503	2467.644808
509.708398	2538.220962
510.073236	2472.685962
510.438016	2538.220962
510.802738	2565.947308
511.167403	2583.591346
511.532010	2563.426731
511.896561	2460.083077
512.261053	2467.644808
512.625488	2548.303269
512.989866	2465.124231
513.354186	2515.535769
513.718449	2505.453462
514.082655	2528.138654
514.446803	2457.562500
514.810894	2432.356731
515.174927	2492.850577
515.538904	2538.220962
515.902822	2477.727115
516.266684	2568.467885
516.630488	2555.865000
516.994235	2450.000769
517.357925	2457.562500
517.721558	2558.385577
518.085133	2487.809423
518.448651	2467.644808
518.812112	2465.124231
519.175516	2477.727115
519.538863	2462.603654
519.902152	2492.850577
520.265385	2472.685962
520.628560	2432.356731
520.991678	2472.685962
521.354739	2525.618077
521.717743	2535.700385
522.080690	2545.782692
522.443580	2495.371154
522.806413	2460.083077
523.169189	2442.439038
523.531908	2386.986346
523.894569	2523.097500
524.257174	2593.673654
524.619722	2505.453462
524.982213	2591.153077
525.344647	2518.056346
525.707025	2434.877308
526.069345	2470.165385
526.431608	2518.056346
526.793815	2525.618077
527.155964	2477.727115
527.518057	2472.685962
527.880093	2419.753846
528.242072	2502.932885
528.603995	2588.632500
528.965860	2497.891731
529.327669	2480.247692
529.689421	2530.659231
530.051117	2470.165385
530.412755	2457.562500
530.774337	2492.850577
531.135862	2520.576923
531.497331	2475.206538
531.858743	2475.206538
532.220098	2487.809423
532.581396	2465.124231
532.942638	2525.618077
533.303824	2513.015192
533.664953	2518.056346
534.026025	2397.068654
534.387040	2487.809423
534.747999	2417.233269
535.108902	2550.823846
535.469748	2603.755962
535.830537	2452.521346
536.191270	2482.768269
536.551947	2563.426731
536.912567	2520.576923
537.273131	2424.795000
537.633638	2540.741538
537.994089	2480.247692
538.354483	2570.988462
538.714821	2434.877308
539.075103	2528.138654
539.435328	2455.041923
539.795497	2550.823846
540.155609	2470.165385
540.515665	2497.891731
540.875665	2477.727115
541.235609	2543.262115
541.595496	2485.288846
541.955328	2475.206538
542.315102	2523.097500
542.674821	2558.385577
543.034483	2439.918462
543.394090	2523.097500
543.753640	2462.603654
544.113134	2475.206538
544.472571	2538.220962
544.831953	2586.111923
545.191278	2530.659231
545.550548	2505.453462
545.909761	2507.974038
546.268918	2533.179808
546.628019	2482.768269
546.987064	2510.494615
547.346053	2513.015192
547.704986	2523.097500
548.063863	2530.659231
548.422684	2434.877308
548.781449	2560.906154
549.140158	2555.865000
549.498811	2404.630385
549.857408	2444.959615
550.215949	2507.974038
550.574434	2475.206538
550.932864	2462.603654
551.291237	2497.891731
551.649555	2502.932885
552.007817	2452.521346
552.366022	2583.591346
552.724173	2520.576923
553.082267	2492.850577
553.440305	2485.288846
553.798288	2465.124231
554.156215	2525.618077
554.514086	2429.836154
554.871902	2480.247692
555.229661	2447.480192
555.587365	2568.467885
555.945014	2477.727115
556.302606	2490.330000
556.660143	2465.124231
557.017625	2543.262115
557.375050	2447.480192
557.732421	2523.097500
558.089735	2414.712692
558.446994	2538.220962
558.804197	2500.412308
559.161345	2497.891731
559.518437	2500.412308
559.875474	2447.480192
560.232455	2583.591346
560.589381	2444.959615
560.946251	2507.974038
561.303065	2510.494615
561.659825	2543.262115
562.016528	2530.659231
562.373177	2462.603654
562.729770	2553.344423
563.086307	2495.371154
563.442789	2570.988462
563.799216	2510.494615
564.155587	2510.494615
564.511904	2555.865000
564.868164	2442.439038
565.224370	2510.494615
565.580520	2520.576923
565.936615	2419.753846
566.292654	2447.480192
566.648638	2475.206538
567.004567	2485.288846
567.360441	2510.494615
567.716260	2480.247692
568.072023	2553.344423
568.427732	2492.850577
568.783385	2528.138654
569.138982	2535.700385
569.494525	2500.412308
569.850013	2570.988462
570.205445	2525.618077
570.560823	2437.397885
570.916145	2482.768269
571.271412	2555.865000
571.626625	2545.782692
571.981782	2563.426731
572.336884	2523.097500
572.691931	2576.029615
573.046923	2477.727115
573.401860	2513.015192
573.756743	2525.618077
574.111570	2460.083077
574.466342	2513.015192
574.821059	2573.509038
575.175722	2520.576923
575.530330	2442.439038
575.884882	2550.823846
576.239380	2465.124231
576.593823	2490.330000
576.948211	2460.083077
577.302544	2505.453462
577.656823	2480.247692
578.011047	2518.056346
578.365216	2460.083077
578.719330	2465.124231
579.073389	2497.891731
579.427394	2505.453462
579.781344	2497.891731
580.135239	2450.000769
580.489080	2528.138654
580.842866	2523.097500
581.196597	2518.056346
581.550273	2568.467885
581.903895	2480.247692
582.257463	2497.891731
582.610975	2520.576923
582.964434	2477.727115
583.317837	2477.727115
583.671186	2485.288846
584.024481	2523.097500
584.377721	2576.029615
584.730906	2507.974038
585.084037	2507.974038
585.437113	2457.562500
585.790135	2419.753846
586.143103	2502.932885
586.496016	2553.344423
586.848874	2437.397885
587.201679	2543.262115
587.554428	2535.700385
587.907124	2439.918462
588.259765	2525.618077
588.612352	2482.768269
588.964884	2480.247692
589.317362	2457.562500
589.669786	2515.535769
590.022155	2487.809423
590.374470	2550.823846
590.726731	2450.000769
591.078937	2417.233269
591.431090	2583.591346
591.783188	2523.097500
592.135232	2465.124231
592.487222	2525.618077
592.839157	2482.768269
593.191038	2485.288846
593.542866	2480.247692
593.894639	2563.426731
594.246358	2513.015192
594.598022	2550.823846
594.949633	2447.480192
595.301190	2510.494615
595.652692	2550.823846
596.004141	2470.165385
596.355535	2530.659231
596.706876	2558.385577
597.058162	2545.782692
597.409395	2460.083077
597.760573	2500.412308
598.111698	2460.083077
598.462768	2553.344423
598.813785	2497.891731
599.164748	2596.194231
599.515657	2515.535769
599.866511	2475.206538
600.217312	2560.906154
600.568060	2538.220962
600.918753	2507.974038
601.269392	2462.603654
601.619978	2497.891731
601.970510	2460.083077
602.320988	2548.303269
602.671412	2482.768269
603.021783	2576.029615
603.372100	2437.397885
603.722363	2500.412308
604.072572	2548.303269
604.422728	2530.659231
604.772830	2472.685962
605.122878	2487.809423
605.472872	2520.576923
605.822813	2472.685962
606.172701	2576.029615
606.522534	2570.988462
606.872314	2452.521346
607.222041	2500.412308
607.571714	2465.124231
607.921333	2513.015192
608.270899	2495.371154
608.620411	2545.782692
608.969870	2495.371154
609.319276	2518.056346
609.668627	2480.247692
610.017926	2462.603654
610.367171	2523.097500
610.716362	2543.262115
611.065500	2528.138654
611.414585	2495.371154
611.763616	2475.206538
612.112594	2520.576923
612.461518	2475.206538
612.810389	2507.974038
613.159207	2437.397885
613.507971	2507.974038
613.856682	2555.865000
614.205340	2568.467885
614.553945	2528.138654
614.902496	2442.439038
615.250994	2523.097500
615.599439	2417.233269
615.947830	2502.932885
616.296169	2447.480192
616.644454	2450.000769
616.992686	2465.124231
617.340864	2533.179808
617.688990	2460.083077
618.037063	2543.262115
618.385082	2485.288846
618.733048	2492.850577
619.080961	2550.823846
619.428821	2439.918462
619.776628	2500.412308
620.124382	2497.891731
620.472083	2485.288846
620.819731	2480.247692
621.167326	2485.288846
621.514868	2545.782692
621.862357	2477.727115
622.209793	2518.056346
622.557176	2490.330000
622.904506	2553.344423
623.251783	2528.138654
623.599007	2548.303269
623.946179	2563.426731
624.293297	2540.741538
624.640363	2480.247692
624.987376	2533.179808
625.334336	2487.809423
625.681243	2570.988462
626.028097	2490.330000
626.374899	2485.288846
626.721647	2515.535769
627.068343	2432.356731
627.414987	2485.288846
627.761577	2520.576923
628.108115	2573.509038
628.454600	2507.974038
628.801032	2565.947308
629.147412	2437.397885
629.493739	2490.330000
629.840014	2444.959615
630.186236	2462.603654
630.532405	2492.850577
630.878521	2467.644808
631.224585	2419.753846
631.570597	2437.397885
631.916556	2450.000769
632.262462	2470.165385
632.608316	2487.809423
632.954117	2460.083077
633.299866	2538.220962
633.645562	2455.041923
633.991206	2586.111923
634.336797	2452.521346
634.682336	2495.371154
635.027823	2507.974038
635.373257	2543.262115
635.718639	2507.974038
636.063968	2576.029615
636.409245	2583.591346
636.754470	2502.932885
637.099642	2480.247692
637.444762	2558.385577
637.789829	2482.768269
638.134845	2495.371154
638.479808	2525.618077
638.824719	2434.877308
639.169577	2502.932885
639.514383	2500.412308
639.859137	2497.891731
640.203839	2588.632500
640.548489	2578.550192
640.893086	2550.823846
641.237632	2525.618077
641.582125	2492.850577
641.926566	2442.439038
642.270955	2437.397885
642.615292	2505.453462
642.959576	2558.385577
643.303809	2455.041923
643.647990	2495.371154
643.992118	2558.385577
644.336195	2492.850577
644.680219	2533.179808
645.024192	2573.509038
645.368112	2487.809423
645.711981	2523.097500
646.055797	2455.041923
646.399562	2470.165385
646.743274	2460.083077
647.086935	2533.179808
647.430544	2545.782692
647.774101	2482.768269
648.117606	2520.576923
648.461059	2500.412308
648.804460	2565.947308
649.147810	2462.603654
649.491108	2495.371154
649.834354	2424.795000
650.177548	2560.906154
650.520690	2492.850577
650.863781	2616.358846
651.206820	2598.714808
651.549807	2497.891731
651.892742	2510.494615
652.235626	2399.589231
652.578458	2563.426731
652.921238	2543.262115
653.263967	2518.056346
653.606644	2510.494615
653.949269	2480.247692
654.291843	2485.288846
654.634365	2470.165385
654.976836	2492.850577
655.319255	2495.371154
655.661622	2576.029615
656.003938	2402.109808
656.346203	2530.659231
656.688416	2576.029615
657.030577	2462.603654
657.372687	2558.385577
657.714746	2535.700385
658.056753	2480.247692
658.398708	2457.562500
658.740612	2490.330000
659.082465	2452.521346
659.424266	2492.850577
659.766016	2470.165385
660.107715	2513.015192
660.449362	2535.700385
660.790958	2450.000769
661.132503	2555.865000
661.473996	2485.288846
661.815438	2485.288846
662.156829	2528.138654
662.498168	2525.618077
662.839456	2518.056346
663.180693	2472.685962
663.521879	2467.644808
663.863013	2563.426731
664.204097	2497.891731
664.545129	2447.480192
664.886110	2389.506923
665.227040	2477.727115
665.567918	2495.371154
665.908746	2417.233269
666.249522	2482.768269
666.590248	2434.877308
666.930922	2472.685962
667.271545	2518.056346
667.612118	2477.727115
667.952639	2429.836154
668.293109	2528.138654
668.633528	2510.494615
668.973896	2457.562500
669.314213	2513.015192
669.654480	2434.877308
669.994695	2417.233269
670.334859	2495.371154
670.674973	2533.179808
671.015035	2475.206538
671.355047	2553.344423
671.695008	2573.509038
672.034918	2427.315577
672.374777	2465.124231
672.714585	2477.727115
673.054342	2465.124231
673.394049	2490.330000
673.733705	2533.179808
674.073310	2477.727115
674.412864	2533.179808
674.752368	2442.439038
675.091820	2525.618077
675.431223	2505.453462
675.770574	2427.315577
676.109875	2480.247692
676.449125	2520.576923
676.788324	2502.932885
677.127473	2492.850577
677.466571	2497.891731
677.805619	2520.576923
678.144616	2480.247692
678.483562	2495.371154
678.822458	2550.823846
679.161303	2507.974038
679.500098	2586.111923
679.838842	2520.576923
680.177535	2492.850577
680.516179	2485.288846
680.854771	2583.591346
681.193314	2442.439038
681.531805	2596.194231
681.870247	2475.206538
682.208638	2467.644808
682.546978	2515.535769
682.885268	2500.412308
683.223508	2472.685962
683.561697	2472.685962
683.899836	2513.015192
684.237925	2472.685962
684.575963	2545.782692
684.913951	2510.494615
685.251889	2525.618077
685.589776	2434.877308
685.927614	2545.782692
686.265401	2386.986346
686.603137	2490.330000
686.940824	2477.727115
687.278460	2397.068654
687.616046	2533.179808
687.953582	2447.480192
688.291068	2475.206538
688.628504	2457.562500
688.965889	2538.220962
689.303224	2339.095385
689.640510	2452.521346
689.977745	2528.138654
690.314930	2523.097500
690.652065	2482.768269
690.989150	2520.576923
691.326185	2515.535769
691.663170	2507.974038
692.000105	2470.165385
692.336990	2505.453462
692.673825	2540.741538
693.010610	2518.056346
693.347345	2442.439038
693.684030	2334.054231
694.020665	2533.179808
694.357251	2545.782692
694.693786	2467.644808
695.030272	2535.700385
695.366707	2518.056346
695.703093	2576.029615
696.039429	2513.015192
696.375716	2497.891731
696.711952	2502.932885
697.048139	2462.603654
697.384276	2548.303269
697.720363	2485.288846
698.056400	2558.385577
698.392388	2530.659231
698.728326	2490.330000
699.064214	2543.262115
699.400053	2558.385577
699.735842	2497.891731
700.071581	2500.412308
700.407270	2450.000769
700.742910	2530.659231
701.078501	2533.179808
701.414042	2462.603654
701.749533	2530.659231
702.084974	2455.041923
702.420366	2439.918462
702.755709	2475.206538
703.091002	2495.371154
703.426246	2560.906154
703.761440	2447.480192
704.096584	2520.576923
704.431679	2497.891731
704.766725	2538.220962
705.101721	2550.823846
705.436668	2472.685962
705.771565	2470.165385
706.106413	2472.685962
706.441212	2381.945192
706.775961	2510.494615
707.110661	2460.083077
707.445311	2636.523462
707.779913	2500.412308
708.114465	2490.330000
708.448967	2505.453462
708.783421	2485.288846
709.117825	2528.138654
709.452180	2550.823846
709.786485	2545.782692
710.120742	2543.262115
710.454949	2578.550192
710.789107	2538.220962
711.123216	2485.288846
711.457275	2472.685962
711.791286	2560.906154
712.125247	2558.385577
712.459159	2417.233269
712.793023	2502.932885
713.126837	2480.247692
713.460602	2535.700385
713.794318	2477.727115
714.127985	2548.303269
714.461602	2505.453462
714.795171	2540.741538
715.128691	2457.562500
715.462162	2518.056346
715.795584	2457.562500
716.128957	2543.262115
716.462281	2540.741538
716.795556	2513.015192
717.128782	2507.974038
717.461960	2422.274423
717.795088	2520.576923
718.128167	2465.124231
718.461198	2470.165385
718.794180	2543.262115
719.127113	2429.836154
719.459997	2465.124231
719.792833	2442.439038
720.125619	2515.535769
720.458357	2439.918462
720.791046	2434.877308
721.123686	2573.509038
721.456278	2520.576923
721.788821	2487.809423
722.121315	2550.823846
722.453761	2497.891731
722.786158	2414.712692
723.118506	2510.494615
723.450805	2513.015192
723.783056	2581.070769
724.115259	2553.344423
724.447412	2513.015192
724.779518	2495.371154
725.111574	2545.782692
725.443582	2444.959615
725.775542	2485.288846
726.107453	2505.453462
726.439315	2513.015192
726.771129	2553.344423
727.102895	2548.303269
727.434612	2462.603654
727.766281	2422.274423
728.097901	2510.494615
728.429473	2409.671538
728.760996	2507.974038
729.092471	2586.111923
729.423897	2535.700385
729.755276	2500.412308
730.086606	2525.618077
730.417887	2548.303269
730.749120	2432.356731
731.080305	2472.685962
731.411442	2495.371154
731.742530	2487.809423
732.073570	2462.603654
732.404562	2460.083077
732.735506	2510.494615
733.066401	2538.220962
733.397249	2558.385577
733.728048	2460.083077
734.058798	2480.247692
734.389501	2576.029615
734.720156	2548.303269
735.050762	2477.727115
735.381320	2480.247692
735.711831	2485.288846
736.042293	2533.179808
736.372707	2392.027500
736.703073	2502.932885
737.033391	2470.165385
737.363661	2487.809423
737.693883	2465.124231
738.024056	2545.782692
738.354182	2490.330000
738.684260	2485.288846
739.014290	2472.685962
739.344272	2447.480192
739.674207	2553.344423
740.004093	2540.741538
740.333931	2472.685962
740.663722	2530.659231
740.993464	2487.809423
741.323159	2419.753846
741.652806	2545.782692
741.982405	2480.247692
742.311956	2490.330000
742.641460	2452.521346
742.970915	2485.288846
743.300323	2412.192115
743.629683	2495.371154
743.958996	2429.836154
744.288260	2515.535769
744.617477	2563.426731
744.946647	2439.918462
745.275768	2553.344423
745.604842	2419.753846
745.933869	2518.056346
746.262847	2530.659231
746.591778	2439.918462
746.920662	2570.988462
747.249498	2505.453462
747.578286	2502.932885
747.907027	2444.959615
748.235720	2581.070769
748.564365	2525.618077
748.892963	2452.521346
749.221514	2510.494615
749.550017	2507.974038
749.878473	2490.330000
750.206881	2422.274423
750.535242	2374.383462
750.863555	2460.083077
751.191821	2392.027500
751.520039	2439.918462
751.848210	2490.330000
752.176334	2437.397885
752.504411	2460.083077
752.832440	2475.206538
753.160421	2450.000769
753.488356	2555.865000
753.816243	2558.385577
754.144082	2540.741538
754.471875	2513.015192
754.799620	2465.124231
755.127318	2472.685962
755.454969	2482.768269
755.782572	2530.659231
756.110129	2490.330000
756.437638	2548.303269
756.765100	2515.535769
757.092515	2495.371154
757.419882	2485.288846
757.747203	2434.877308
758.074477	2467.644808
758.401703	2427.315577
758.728882	2563.426731
759.056014	2548.303269
759.383099	2533.179808
759.710138	2497.891731
760.037129	2533.179808
760.364073	2470.165385
760.690970	2482.768269
761.017820	2465.124231
761.344623	2548.303269
761.671379	2480.247692
761.998088	2545.782692
762.324751	2545.782692
762.651366	2507.974038
762.977935	2553.344423
763.304456	2455.041923
763.630931	2462.603654
763.957359	2452.521346
764.283740	2452.521346
764.610074	2535.700385
764.936362	2497.891731
765.262602	2465.124231
765.588796	2565.947308
765.914943	2520.576923
766.241044	2548.303269
766.567097	2472.685962
766.893104	2371.862885
767.219064	2523.097500
767.544978	2485.288846
767.870845	2502.932885
768.196665	2470.165385
768.522438	2530.659231
768.848165	2434.877308
769.173846	2427.315577
769.499479	2515.535769
769.825066	2500.412308
770.150607	2550.823846
770.476101	2528.138654
770.801548	2513.015192
771.126949	2507.974038
771.452303	2460.083077
771.777611	2490.330000
772.102872	2563.426731
772.428087	2450.000769
772.753256	2538.220962
773.078378	2450.000769
773.403453	2535.700385
773.728482	2480.247692
774.053465	2555.865000
774.378401	2492.850577
774.703291	2490.330000
775.028135	2497.891731
775.352932	2424.795000
775.677683	2523.097500
776.002388	2450.000769
776.327046	2611.317692
776.651658	2563.426731
776.976224	2513.015192
777.300743	2550.823846
777.625216	2465.124231
777.949643	2475.206538
778.274024	2500.412308
778.598359	2490.330000
778.922647	2384.465769
779.246889	2533.179808
779.571086	2467.644808
779.895236	2530.659231
780.219339	2535.700385
780.543397	2452.521346
780.867409	2500.412308
781.191374	2482.768269
781.515294	2510.494615
781.839167	2608.797115
782.162995	2565.947308
782.486776	2560.906154
782.810511	2515.535769
783.134201	2429.836154
783.457844	2452.521346
783.781441	2528.138654
784.104993	2505.453462
784.428498	2548.303269
784.751958	2389.506923
785.075372	2530.659231
785.398739	2477.727115
785.722061	2492.850577
786.045337	2518.056346
786.368568	2505.453462
786.691752	2560.906154
787.014891	2442.439038
787.337983	2540.741538
787.661030	2583.591346
787.984031	2417.233269
788.306987	2460.083077
788.629897	2505.453462
788.952760	2429.836154
789.275579	2419.753846
789.598351	2407.150962
789.921078	2505.453462
790.243759	2452.521346
790.566395	2596.194231
790.888984	2444.959615
791.211529	2533.179808
791.534027	2432.356731
791.856480	2530.659231
792.178888	2563.426731
792.501249	2447.480192
792.823566	2535.700385
793.145836	2500.412308
793.468062	2535.700385
793.790241	2576.029615
794.112375	2472.685962
794.434464	2543.262115
794.756507	2515.535769
795.078505	2452.521346
795.400457	2487.809423
795.722364	2389.506923
796.044226	2490.330000
796.366042	2507.974038
796.687812	2485.288846
797.009538	2452.521346
797.331218	2495.371154
797.652852	2475.206538
797.974442	2487.809423
798.295986	2548.303269
798.617484	2419.753846
798.938938	2482.768269
799.260346	2447.480192
799.581709	2462.603654
799.903026	2502.932885
800.224299	2465.124231
800.545526	2545.782692
800.866708	2487.809423
801.187845	2545.782692
801.508936	2490.330000
801.829983	2457.562500
802.150984	2467.644808
802.471940	2482.768269
802.792851	2492.850577
803.113717	2586.111923
803.434538	2457.562500
803.755314	2402.109808
804.076045	2475.206538
804.396731	2545.782692
804.717372	2437.397885
805.037967	2482.768269
805.358518	2475.206538
805.679024	2523.097500
805.999485	2412.192115
806.319901	2437.397885
806.640272	2485.288846
806.960598	2487.809423
807.280879	2576.029615
807.601115	2450.000769
807.921306	2573.509038
808.241453	2447.480192
808.561554	2502.932885
808.881611	2548.303269
809.201623	2525.618077
809.521590	2434.877308
809.841513	2502.932885
810.161390	2495.371154
810.481223	2472.685962
810.801011	2538.220962
811.120755	2467.644808
811.440453	2525.618077
811.760107	2452.521346
812.079716	2560.906154
812.399281	2497.891731
812.718801	2452.521346
813.038276	2477.727115
813.357707	2475.206538
813.677093	2470.165385
813.996434	2523.097500
814.315731	2404.630385
814.634983	2523.097500
814.954191	2472.685962
815.273354	2565.947308
815.592473	2414.712692
815.911547	2412.192115
816.230577	2475.206538
816.549562	2429.836154
816.868502	2513.015192
817.187399	2487.809423
817.506250	2520.576923
817.825058	2462.603654
818.143821	2424.795000
818.462539	2439.918462
818.781213	2502.932885
819.099843	2570.988462
819.418429	2485.288846
819.736970	2477.727115
820.055466	2550.823846
820.373919	2505.453462
820.692327	2475.206538
821.010691	2593.673654
821.329011	2487.809423
821.647286	2414.712692
821.965517	2528.138654
822.283704	2497.891731
822.601847	2389.506923
822.919945	2598.714808
823.237999	2437.397885
823.556010	2472.685962
823.873976	2538.220962
824.191897	2515.535769
824.509775	2497.891731
824.827609	2447.480192
825.145398	2545.782692
825.463144	2417.233269
825.780845	2447.480192
826.098502	2492.850577
826.416116	2513.015192
826.733685	2472.685962
827.051210	2487.809423
827.368692	2477.727115
827.686129	2515.535769
828.003522	2444.959615
828.320872	2495.371154
828.638177	2427.315577
828.955439	2392.027500
829.272656	2518.056346
829.589830	2482.768269
829.906960	2588.632500
830.224046	2417.233269
830.541088	2394.548077
830.858086	2497.891731
831.175041	2485.288846
831.491952	2492.850577
831.808819	2588.632500
832.125642	2538.220962
832.442421	2467.644808
832.759157	2477.727115
833.075849	2500.412308
833.392497	2402.109808
833.709101	2492.850577
834.025662	2472.685962
834.342179	2523.097500
834.658653	2429.836154
834.975083	2535.700385
835.291469	2606.276538
835.607811	2535.700385
835.924110	2470.165385
836.240366	2455.041923
836.556578	2442.439038
836.872746	2513.015192
837.188871	2477.727115
837.504952	2591.153077
837.820990	2457.562500
838.136984	2515.535769
838.452935	2540.741538
838.768842	2447.480192
839.084706	2444.959615
839.400526	2442.439038
839.716303	2518.056346
840.032037	2500.412308
840.347727	2482.768269
840.663373	2593.673654
840.978977	2535.700385
841.294537	2477.727115
841.610054	2515.535769
841.925527	2490.330000
842.240957	2500.412308
842.556344	2452.521346
842.871687	2533.179808
843.186987	2507.974038
843.502244	2490.330000
843.817458	2586.111923
844.132629	2505.453462
844.447756	2545.782692
844.762840	2523.097500
845.077881	2505.453462
845.392879	2538.220962
845.707833	2477.727115
846.022745	2558.385577
846.337613	2565.947308
846.652438	2457.562500
846.967221	2472.685962
847.281960	2518.056346
847.596656	2432.356731
847.911309	2513.015192
848.225919	2523.097500
848.540485	2460.083077
848.855009	2422.274423
849.169490	2409.671538
849.483928	2510.494615
849.798323	2465.124231
850.112675	2490.330000
850.426984	2434.877308
850.741251	2480.247692
851.055474	2485.288846
851.369654	2452.521346
851.683792	2409.671538
851.997887	2558.385577
852.311938	2495.371154
852.625947	2513.015192
852.939914	2535.700385
853.253837	2465.124231
853.567718	2497.891731
853.881555	2482.768269
854.195350	2505.453462
854.509103	2533.179808
854.822812	2467.644808
855.136479	2523.097500
855.450103	2465.124231
855.763685	2467.644808
856.077224	2455.041923
856.390720	2507.974038
856.704173	2429.836154
857.017584	2427.315577
857.330953	2492.850577
857.644278	2553.344423
857.957561	2553.344423
858.270802	2460.083077
858.584000	2568.467885
858.897155	2515.535769
859.210268	2530.659231
859.523339	2525.618077
859.836367	2535.700385
860.149352	2528.138654
860.462295	2482.768269
860.775195	2429.836154
861.088054	2518.056346
861.400869	2472.685962
861.713642	2432.356731
862.026373	2480.247692
862.339062	2429.836154
862.651708	2548.303269
862.964312	2480.247692
863.276873	2515.535769
863.589392	2470.165385
863.901869	2485.288846
864.214303	2442.439038
864.526696	2495.371154
864.839045	2553.344423
865.151353	2485.288846
865.463619	2482.768269
865.775842	2439.918462
866.088023	2548.303269
866.400162	2455.041923
866.712258	2487.809423
867.024313	2520.576923
867.336325	2500.412308
867.648296	2513.015192
867.960224	2518.056346
868.272110	2507.974038
868.583954	2465.124231
868.895755	2560.906154
869.207515	2465.124231
869.519233	2482.768269
869.830909	2457.562500
870.142542	2583.591346
870.454134	2550.823846
870.765684	2432.356731
871.077191	2500.412308
871.388657	2442.439038
871.700081	2560.906154
872.011463	2560.906154
872.322803	2510.494615
872.634101	2465.124231
872.945357	2434.877308
873.256571	2520.576923
873.567744	2520.576923
873.878874	2450.000769
874.189963	2492.850577
874.501010	2432.356731
874.812015	2490.330000
875.122979	2409.671538
875.433900	2409.671538
875.744780	2480.247692
876.055618	2535.700385
876.366415	2480.247692
876.677169	2540.741538
876.987882	2470.165385
877.298554	2434.877308
877.609183	2462.603654
877.919771	2576.029615
878.230317	2475.206538
878.540822	2535.700385
878.851285	2497.891731
879.161707	2485.288846
879.472087	2513.015192
879.782425	2412.192115
880.092722	2528.138654
880.402977	2553.344423
880.713191	2422.274423
881.023363	2465.124231
881.333494	2515.535769
881.643583	2487.809423
881.953631	2404.630385
882.263637	2444.959615
882.573602	2497.891731
882.883526	2472.685962
883.193408	2447.480192
883.503248	2457.562500
883.813048	2513.015192
884.122806	2472.685962
884.432522	2465.124231
884.742197	2442.439038
885.051831	2507.974038
885.361424	2450.000769
885.670975	2505.453462
885.980485	2407.150962
886.289954	2480.247692
886.599382	2472.685962
886.908768	2485.288846
887.218113	2477.727115
887.527417	2437.397885
887.836680	2525.618077
888.145901	2439.918462
888.455082	2492.850577
888.764221	2467.644808
889.073319	2487.809423
889.382376	2528.138654
889.691392	2470.165385
890.000366	2525.618077
890.309300	2447.480192
890.618193	2457.562500
890.927044	2452.521346
891.235855	2444.959615
891.544625	2437.397885
891.853353	2462.603654
892.162041	2553.344423
892.470687	2520.576923
892.779293	2487.809423
893.087858	2497.891731
893.396381	2460.083077
893.704864	2505.453462
894.013306	2581.070769
894.321707	2472.685962
894.630068	2518.056346
894.938387	2439.918462
895.246665	2573.509038
895.554903	2555.865000
895.863100	2591.153077
896.171256	2573.509038
896.479371	2480.247692
896.787446	2545.782692
897.095480	2487.809423
897.403473	2540.741538
897.711425	2530.659231
898.019336	2515.535769
898.327207	2538.220962
898.635038	2477.727115
898.942827	2530.659231
899.250576	2520.576923
899.558284	2533.179808
899.865952	2462.603654
900.173579	2417.233269
900.481165	2495.371154
900.788711	2510.494615
901.096216	2545.782692
901.403681	2535.700385
901.711105	2457.562500
902.018489	2386.986346
902.325832	2485.288846
902.633135	2548.303269
902.940397	2407.150962
903.247619	2482.768269
903.554800	2502.932885
903.861941	2442.439038
904.169041	2548.303269
904.476101	2452.521346
904.783121	2455.041923
905.090100	2520.576923
905.397039	2530.659231
905.703938	2523.097500
906.010796	2480.247692
906.317614	2482.768269
906.624391	2475.206538
906.931129	2450.000769
907.237826	2500.412308
907.544483	2424.795000
907.851099	2495.371154
908.157675	2518.056346
908.464211	2439.918462
908.770707	2465.124231
909.077163	2467.644808
909.383578	2507.974038
909.689954	2467.644808
909.996289	2500.412308
910.302584	2523.097500
910.608839	2543.262115
910.915054	2412.192115
911.221229	2427.315577
911.527363	2490.330000
911.833458	2480.247692
912.139513	2535.700385
912.445527	2480.247692
912.751502	2457.562500
913.057436	2525.618077
913.363331	2560.906154
913.669186	2457.562500
913.975000	2434.877308
914.280775	2457.562500
914.586510	2462.603654
914.892205	2510.494615
915.197859	2412.192115
915.503475	2558.385577
915.809050	2427.315577
916.114585	2540.741538
916.420081	2475.206538
916.725536	2520.576923
917.030952	2492.850577
917.336328	2583.591346
917.641665	2475.206538
917.946961	2563.426731
918.252218	2465.124231
918.557435	2525.618077
918.862612	2424.795000
919.167750	2497.891731
919.472848	2409.671538
919.777906	2497.891731
920.082925	2397.068654
920.387904	2487.809423
920.692843	2518.056346
920.997743	2530.659231
921.302603	2462.603654
921.607423	2492.850577
921.912204	2583.591346
922.216946	2432.356731
922.521647	2510.494615
922.826310	2485.288846
923.130932	2525.618077
923.435516	2550.823846
923.740059	2495.371154
924.044564	2480.247692
924.349028	2472.685962
924.653454	2427.315577
924.957840	2470.165385
925.262186	2467.644808
925.566493	2460.083077
925.870761	2444.959615
926.174989	2482.768269
926.479178	2525.618077
926.783328	2477.727115
927.087438	2530.659231
927.391509	2477.727115
927.695541	2530.659231
927.999533	2502.932885
928.303486	2502.932885
928.607400	2535.700385
928.911275	2507.974038
929.215110	2475.206538
929.518906	2570.988462
929.822663	2439.918462
930.126381	2497.891731
930.430060	2376.904038
930.733699	2452.521346
931.037299	2525.618077
931.340861	2525.618077
931.644383	2477.727115
931.947866	2573.509038
932.251309	2470.165385
932.554714	2513.015192
932.858080	2523.097500
933.161407	2523.097500
933.464694	2465.124231
933.767943	2485.288846
934.071153	2505.453462
934.374323	2550.823846
934.677455	2505.453462
934.980548	2513.015192
935.283602	2502.932885
935.586617	2502.932885
935.889593	2520.576923
936.192530	2462.603654
936.495428	2510.494615
936.798287	2414.712692
937.101108	2530.659231
937.403890	2455.041923
937.706632	2455.041923
938.009336	2495.371154
938.312002	2442.439038
938.614628	2460.083077
938.917216	2533.179808
939.219765	2513.015192
939.522275	2507.974038
939.824747	2475.206538
940.127179	2540.741538
940.429573	2419.753846
940.731929	2490.330000
941.034246	2492.850577
941.336524	2538.220962
941.638763	2480.247692
941.940964	2434.877308
942.243126	2540.741538
942.545250	2485.288846
942.847335	2397.068654
943.149381	2384.465769
943.451389	2452.521346
943.753359	2515.535769
944.055290	2523.097500
944.357182	2477.727115
944.659036	2472.685962
944.960851	2439.918462
945.262628	2563.426731
945.564367	2439.918462
945.866067	2497.891731
946.167729	2510.494615
946.469352	2560.906154
946.770937	2455.041923
947.072484	2490.330000
947.373992	2523.097500
947.675462	2535.700385
947.976893	2500.412308
948.278286	2457.562500
948.579641	2570.988462
948.880958	2450.000769
949.182236	2533.179808
949.483476	2515.535769
949.784678	2472.685962
950.085841	2500.412308
950.386967	2485.288846
950.688054	2450.000769
950.989103	2462.603654
951.290114	2500.412308
951.591087	2475.206538
951.892021	2563.426731
952.192917	2424.795000
952.493776	2450.000769
952.794596	2565.947308
953.095378	2548.303269
953.396122	2465.124231
953.696828	2568.467885
953.997496	2505.453462
954.298126	2518.056346
954.598718	2487.809423
954.899272	2492.850577
955.199788	2462.603654
955.500266	2447.480192
955.800706	2452.521346
956.101108	2593.673654
956.401472	2444.959615
956.701798	2485.288846
957.002087	2518.056346
957.302337	2495.371154
957.602550	2465.124231
957.902724	2523.097500
958.202861	2442.439038
958.502960	2386.986346
958.803022	2452.521346
959.103045	2553.344423
959.403031	2450.000769
959.702979	2495.371154
960.002889	2502.932885
960.302762	2515.535769
960.602596	2475.206538
960.902393	2384.465769
961.202153	2477.727115
961.501875	2500.412308
961.801559	2523.097500
962.101205	2518.056346
962.400814	2507.974038
962.700385	2497.891731
962.999918	2545.782692
963.299414	2439.918462
963.598873	2452.521346
963.898293	2437.397885
964.197677	2487.809423
964.497022	2482.768269
964.796331	2460.083077
965.095601	2434.877308
965.394835	2548.303269
965.694030	2548.303269
965.993189	2530.659231
966.292309	2510.494615
966.591393	2528.138654
966.890439	2402.109808
967.189447	2497.891731
967.488419	2460.083077
967.787353	2495.371154
968.086249	2472.685962
968.385108	2550.823846
968.683930	2578.550192
968.982714	2490.330000
969.281462	2543.262115
969.580172	2455.041923
969.878844	2570.988462
970.177480	2412.192115
970.476078	2485.288846
970.774639	2399.589231
971.073162	2538.220962
971.371649	2510.494615
971.670098	2444.959615
971.968510	2412.192115
972.266885	2460.083077
972.565223	2462.603654
972.863524	2530.659231
973.161788	2447.480192
973.460014	2434.877308
973.758204	2490.330000
974.056356	2470.165385
974.354471	2520.576923
974.652550	2462.603654
974.950591	2447.480192
975.248595	2485.288846
975.546563	2475.206538
975.844493	2434.877308
976.142386	2465.124231
976.440243	2497.891731
976.738062	2417.233269
977.035845	2507.974038
977.333590	2507.974038
977.631299	2543.262115
977.928971	2452.521346
978.226606	2472.685962
978.524204	2543.262115
978.821765	2538.220962
979.119290	2560.906154
979.416777	2434.877308
979.714228	2520.576923
980.011642	2450.000769
980.309020	2477.727115
980.606360	2429.836154
980.903664	2513.015192
981.200931	2495.371154
981.498162	2520.576923
981.795356	2533.179808
982.092513	2429.836154
982.389633	2495.371154
982.686717	2528.138654
982.983764	2444.959615
983.280775	2384.465769
983.577749	2485.288846
983.874686	2467.644808
984.171587	2402.109808
984.468451	2502.932885
984.765279	2482.768269
985.062070	2538.220962
985.358824	2432.356731
985.655543	2444.959615
985.952224	2439.918462
986.248869	2480.247692
986.545478	2528.138654
986.842050	2535.700385
987.138586	2487.809423
987.435086	2434.877308
987.731549	2485.288846
988.027975	2427.315577
988.324366	2467.644808
988.620719	2482.768269
988.917037	2523.097500
989.213318	2502.932885
989.509563	2513.015192
989.805772	2477.727115
990.101944	2455.041923
990.398080	2475.206538
990.694180	2490.330000
990.990244	2540.741538
991.286271	2462.603654
991.582262	2452.521346
991.878217	2386.986346
992.174136	2490.330000
992.470019	2429.836154
992.765865	2455.041923
993.061676	2465.124231
993.357450	2472.685962
993.653188	2510.494615
993.948890	2485.288846
994.244556	2528.138654
994.540186	2558.385577
994.835780	2576.029615
995.131337	2500.412308
995.426859	2452.521346
995.722345	2533.179808
996.017795	2507.974038
996.313208	2472.685962
996.608586	2409.671538
996.903928	2540.741538
997.199234	2460.083077
997.494504	2502.932885
997.789738	2490.330000
998.084936	2424.795000
998.380099	2500.412308
998.675225	2465.124231
998.970316	2535.700385
999.265371	2535.700385
999.560390	2482.768269
999.855373	2515.535769
1000.150320	2442.439038
1000.445232	2417.233269
1000.740108	2482.768269
1001.034948	2480.247692
1001.329752	2518.056346
1001.624521	2520.576923
1001.919254	2513.015192
1002.213951	2530.659231
1002.508613	2510.494615
1002.803239	2518.056346
1003.097829	2455.041923
1003.392384	2570.988462
1003.686903	2515.535769
1003.981386	2455.041923
1004.275834	2457.562500
1004.570246	2492.850577
1004.864623	2414.712692
1005.158964	2523.097500
1005.453270	2497.891731
1005.747540	2523.097500
1006.041775	2429.836154
1006.335974	2497.891731
1006.630138	2510.494615
1006.924266	2533.179808
1007.218359	2520.576923
1007.512416	2495.371154
1007.806438	2507.974038
1008.100425	2525.618077
1008.394376	2424.795000
1008.688292	2520.576923
1008.982172	2457.562500
1009.276017	2523.097500
1009.569827	2412.192115
1009.863602	2497.891731
1010.157341	2515.535769
1010.451045	2588.632500
1010.744714	2490.330000
1011.038347	2570.988462
1011.331945	2497.891731
1011.625508	2492.850577
1011.919036	2492.850577
1012.212528	2500.412308
1012.505986	2475.206538
1012.799408	2507.974038
1013.092795	2384.465769
1013.386147	2384.465769
1013.679464	2500.412308
1013.972745	2492.850577
1014.265992	2543.262115
1014.559204	2452.521346
1014.852380	2487.809423
1015.145521	2540.741538
1015.438628	2525.618077
1015.731699	2369.342308
1016.024736	2444.959615
1016.317737	2407.150962
1016.610703	2530.659231
1016.903635	2492.850577
1017.196531	2540.741538
1017.489393	2482.768269
1017.782219	2548.303269
1018.075011	2475.206538
1018.367768	2505.453462
1018.660490	2530.659231
1018.953177	2530.659231
1019.245829	2530.659231
