Dividing Wavelength (nm)	Counts (n)	Blue Motor Position (mm): 14.000000	Red Motor Position (mm): 0.000000	
326.493990	2157.971768
326.888308	2157.971768
327.282561	2157.971768
327.676750	2132.597120
328.070874	2133.549898
328.464933	2142.639099
328.858929	2150.284008
329.252859	2161.288847
329.646726	2174.814263
330.040528	2189.370595
330.434265	2207.087730
330.827938	2226.362582
331.221547	2244.230952
331.615091	2266.245670
332.008571	2289.097221
332.401986	2306.582463
332.795338	2327.324290
333.188625	2345.671570
333.581847	2368.457585
333.975006	2385.045502
334.368100	2402.840775
334.761129	2422.140833
335.154095	2437.493667
335.546996	2460.148612
335.939833	2484.020996
336.332606	2498.776453
336.725315	2509.637619
337.117960	2517.781603
337.510540	2524.456091
337.903056	2534.669469
338.295508	2544.650953
338.687896	2548.320913
339.080220	2557.221070
339.472480	2563.570404
339.864676	2565.158367
340.256807	2567.731876
340.648875	2571.641291
341.040879	2571.560632
341.432818	2574.572722
341.824694	2575.069276
342.216506	2576.211097
342.608253	2572.707495
342.999937	2573.637588
343.391557	2572.299162
343.783113	2574.633216
344.174605	2570.827145
344.566033	2572.445355
344.957397	2567.784808
345.348697	2565.453275
345.739934	2564.550908
346.131106	2561.884138
346.522215	2561.629559
346.913260	2558.320042
347.304241	2555.602860
347.695159	2554.647561
348.086012	2554.796275
348.476802	2552.230328
348.867528	2551.186809
349.258191	2549.306459
349.648789	2549.049360
350.039324	2544.653474
350.429796	2550.526418
350.820203	2544.933258
351.210548	2544.688762
351.600828	2541.185160
351.991045	2541.099460
352.381198	2543.277239
352.771288	2542.463093
353.161314	2542.904193
353.551276	2540.698689
353.941175	2543.126004
354.331010	2541.477547
354.720782	2540.658359
355.110490	2544.469472
355.500135	2543.791437
355.889717	2545.142466
356.279235	2544.366128
356.668689	2544.497198
357.058080	2543.670449
357.447408	2539.992927
357.836672	2541.396888
358.225873	2542.289173
358.615010	2542.324461
359.004084	2547.647919
359.393095	2545.376879
359.782043	2549.150183
360.170927	2545.339071
360.559748	2545.674307
360.948505	2550.783517
361.337199	2548.759494
361.725830	2546.856458
362.114398	2549.732436
362.502903	2550.725544
362.891344	2551.101110
363.279722	2550.334854
363.668037	2550.710420
364.056289	2549.245965
364.444478	2551.703527
364.832603	2550.226469
365.220665	2553.344423
365.608665	2554.513971
365.996601	2554.904660
366.384474	2553.036913
366.772284	2554.332489
367.160031	2553.215874
367.547715	2556.525391
367.935336	2554.753426
368.322893	2557.498334
368.710388	2557.074877
369.097820	2558.899775
369.485189	2556.248128
369.872495	2552.646223
370.259738	2557.067315
370.646918	2558.246945
371.034035	2554.655123
371.421090	2556.822819
371.808081	2555.050854
372.195010	2558.007490
372.581875	2557.684857
372.968678	2558.529250
373.355418	2557.694939
373.742096	2559.368602
374.128710	2559.527398
374.515262	2559.504713
374.901751	2559.454302
375.288177	2558.642676
375.674540	2562.116031
376.060841	2563.608212
376.447079	2562.718449
376.833254	2562.819272
377.219367	2555.839794
377.605417	2557.268961
377.991404	2557.750392
378.377329	2559.779456
378.763191	2559.381205
379.148991	2561.080074
379.534727	2560.460012
379.920402	2562.093346
380.306013	2559.877758
380.691563	2564.717266
381.077049	2564.243398
381.462474	2565.070147
381.847835	2563.830023
382.233134	2563.199879
382.618371	2565.665003
383.003545	2566.990827
383.388657	2565.155847
383.773706	2562.143757
384.158693	2565.231464
384.543618	2567.288255
384.928480	2564.533264
385.313280	2564.624005
385.698017	2566.280024
386.082692	2567.903275
386.467305	2567.789849
386.851856	2565.924623
387.236344	2564.071998
387.620770	2570.007957
388.005133	2566.027966
388.389435	2567.323543
388.773674	2566.151474
389.157851	2568.157854
389.541965	2569.660117
389.926018	2569.823955
390.310008	2568.800601
390.693936	2568.583831
391.077802	2568.135168
391.461606	2567.323543
391.845348	2570.010478
392.229027	2565.939746
392.612645	2568.694737
392.996200	2571.255643
393.379694	2569.597103
393.763125	2571.353945
394.146494	2571.154820
394.529801	2572.412587
394.913047	2569.072823
395.296230	2573.662794
395.679351	2570.791857
396.062410	2571.653894
396.445408	2570.365879
396.828343	2572.425190
397.211217	2568.548543
397.594028	2572.745304
397.976778	2566.524520
398.359466	2570.275138
398.742092	2568.525858
399.124656	2573.516600
399.507158	2572.490725
399.889598	2575.112125
400.271977	2573.327557
400.654294	2575.830490
401.036549	2571.835375
401.418742	2571.195149
401.800874	2574.272773
402.182944	2573.067938
402.564952	2574.849985
402.946898	2575.361662
403.328783	2573.415777
403.710606	2573.965263
404.092367	2574.958370
404.474067	2576.044739
404.855705	2575.424677
405.237282	2576.558937
405.618797	2573.877043
406.000250	2575.359142
406.381642	2575.875860
406.762972	2574.580284
407.144240	2577.819225
407.525447	2575.071796
407.906593	2578.769482
408.287677	2579.021540
408.668700	2578.008268
409.049661	2577.408371
409.430560	2575.333936
409.811399	2579.402147
410.192176	2578.298135
410.572891	2579.016499
410.953545	2576.296797
411.334138	2578.782085
411.714669	2579.719740
412.095139	2578.184709
412.475547	2578.121694
412.855894	2579.414750
413.236180	2578.275449
413.616405	2579.641602
413.996568	2580.536407
414.376670	2583.616552
414.756711	2579.500450
415.136691	2581.158989
415.516609	2580.874164
415.896466	2580.922055
416.276262	2584.191243
416.655997	2576.319482
417.035670	2575.739749
417.415283	2576.226220
417.794834	2576.006930
418.174324	2577.700758
418.553753	2580.518763
418.933121	2582.010944
419.312428	2581.186716
419.691674	2580.304514
420.070859	2582.550348
420.449983	2578.633371
420.829045	2579.881057
421.208047	2581.506829
421.586988	2583.540935
421.965867	2581.254771
422.344686	2582.323496
422.723444	2582.313414
423.102141	2582.966243
423.480777	2580.901891
423.859352	2582.038671
424.237866	2583.283836
424.616319	2582.232755
424.994712	2584.203846
425.373044	2581.862230
425.751314	2582.925914
426.129524	2582.658733
426.507673	2582.598239
426.885762	2583.467838
427.263789	2585.174268
427.641756	2584.662591
428.019662	2584.899526
428.397508	2583.767787
428.775292	2584.874320
429.153016	2585.053281
429.530679	2587.694845
429.908282	2583.402303
430.285824	2584.904567
430.663305	2582.517580
431.040726	2583.830801
431.418086	2584.531521
431.795385	2587.417582
432.172624	2586.931111
432.549802	2589.665937
432.926920	2586.545462
433.303977	2587.606625
433.680974	2586.671491
434.057910	2586.674012
434.434786	2587.974629
434.811601	2586.731985
435.188355	2585.151583
435.565050	2586.454722
435.941683	2588.065370
436.318257	2581.665625
436.694770	2583.732498
437.071222	2583.016655
437.447614	2583.210739
437.823946	2584.508836
438.200218	2586.898343
438.576429	2584.934814
438.952580	2586.404310
439.328670	2586.202664
439.704700	2587.412541
440.080670	2587.160483
440.456580	2588.995463
440.832429	2587.959506
441.208218	2586.984043
441.583947	2587.684763
441.959616	2586.646285
442.335224	2589.567634
442.710773	2586.968919
443.086261	2584.685277
443.461689	2586.989084
443.837057	2589.638210
444.212365	2586.779876
444.587612	2588.151070
444.962800	2588.244331
445.337927	2588.105699
445.712995	2588.035123
446.088002	2587.977150
446.462949	2588.819023
446.837837	2590.805237
447.212664	2588.456060
447.587431	2588.748447
447.962139	2589.451688
448.336786	2590.820361
448.711374	2590.205340
449.085901	2592.920001
449.460369	2587.704928
449.834776	2590.205340
450.209124	2588.761049
450.583412	2587.717531
450.957640	2589.368508
451.331808	2592.846905
451.705917	2589.824733
452.079965	2592.370516
452.453954	2590.182655
452.827883	2590.026379
453.201752	2588.493868
453.575562	2589.323138
453.949311	2592.892275
454.323001	2592.347830
454.696632	2589.849939
455.070202	2593.202306
455.443713	2593.164497
455.817164	2587.997315
456.190556	2588.085535
456.563888	2588.718200
456.937160	2586.323652
457.310373	2590.089393
457.683526	2591.934456
458.056619	2591.566452
458.429653	2593.078798
458.802628	2590.470001
459.175542	2591.410176
459.548398	2591.382449
459.921194	2593.466967
460.293930	2591.765577
460.666607	2594.679364
461.039224	2596.582400
461.411782	2593.386308
461.784280	2592.693149
462.156719	2592.541915
462.529099	2595.526278
462.901419	2593.963520
463.273680	2591.730289
463.645882	2591.067377
464.018024	2594.497883
464.390106	2592.509147
464.762130	2592.524271
465.134094	2592.720876
465.505999	2592.582244
465.877845	2594.021493
466.249631	2596.315218
466.621358	2595.473346
466.993026	2597.578027
467.364634	2596.577358
467.736184	2598.273707
468.107674	2594.709611
468.479105	2592.854466
468.850477	2595.806062
469.221790	2594.702049
469.593043	2593.630804
469.964238	2595.186000
470.335373	2594.805393
470.706449	2594.644076
471.077467	2594.313880
471.448425	2594.833119
471.819324	2595.788418
472.190164	2597.368820
472.560945	2595.823706
472.931667	2593.915629
473.302330	2598.561052
473.672934	2595.163315
474.043479	2594.429827
474.413965	2596.567276
474.784393	2591.170721
475.154761	2594.553335
475.525070	2592.357913
475.895321	2592.052923
476.265513	2592.257090
476.635645	2597.966196
477.005719	2597.507451
477.375734	2596.559714
477.745691	2597.691453
478.115588	2598.336721
478.485427	2597.734303
478.855207	2599.667586
479.224928	2598.009046
479.594591	2601.006012
479.964194	2598.538367
480.333739	2598.402256
480.703226	2598.924016
481.072653	2600.058275
481.442022	2601.812597
481.811333	2598.326639
482.180584	2597.726742
482.549777	2598.924016
482.918912	2598.825713
483.287988	2599.962493
483.657005	2597.358737
484.025964	2600.403594
484.394864	2602.483070
484.763706	2603.571959
485.132489	2598.124993
485.501213	2601.363934
485.869879	2599.957452
486.238487	2596.453850
486.607036	2602.233533
486.975527	2599.178594
487.343959	2602.515838
487.712333	2603.362752
488.080648	2600.015425
488.448905	2602.480550
488.817104	2600.791763
489.185244	2601.777309
489.553326	2600.612802
489.921350	2605.094388
490.289315	2604.928030
490.657222	2605.792588
491.025070	2606.004316
491.392861	2604.433997
491.760593	2604.484408
492.128267	2606.654625
492.495883	2604.345777
492.863440	2605.648915
493.230939	2605.207814
493.598380	2606.331991
493.965763	2600.892586
494.333088	2602.140272
494.700354	2602.190683
495.067563	2605.764861
495.434713	2601.318564
495.801805	2609.250819
496.168839	2605.827876
496.535815	2605.535489
496.902733	2604.663369
497.269593	2606.934409
497.636395	2607.136055
498.003139	2606.526076
498.369825	2608.877774
498.736453	2607.766199
499.103023	2607.740994
499.469535	2607.622527
499.835989	2608.340891
500.202385	2611.292487
500.568723	2608.189656
500.935003	2611.020264
501.301226	2611.806684
501.667390	2607.350304
502.033497	2614.647374
502.399546	2609.454986
502.765537	2612.862806
503.131470	2612.968670
503.497345	2613.571088
503.863163	2613.019082
504.228923	2610.029678
504.594625	2610.866509
504.960269	2613.182919
505.325856	2613.019082
505.691385	2614.193671
506.056856	2616.129474
506.422270	2615.726181
506.787625	2614.291973
507.152924	2615.320368
507.518164	2619.312962
507.883347	2615.194340
508.248472	2617.389762
508.613540	2616.618466
508.978550	2615.131325
509.343503	2618.501337
509.708398	2617.994701
510.073236	2620.777417
510.438016	2620.182561
510.802738	2620.631224
511.167403	2618.808847
511.532010	2622.259517
511.896561	2619.232304
512.261053	2622.831688
512.625488	2617.374639
512.989866	2617.414968
513.354186	2617.588888
513.718449	2620.265740
514.082655	2621.296656
514.446803	2623.466873
514.810894	2625.112810
515.174927	2624.351596
515.538904	2625.989971
515.902822	2628.739920
516.266684	2625.213633
516.630488	2627.789662
516.994235	2627.688839
517.357925	2629.266721
517.721558	2628.724797
518.085133	2630.166567
518.448651	2629.594396
518.812112	2628.513068
519.175516	2630.269910
519.538863	2629.854015
519.902152	2632.331742
520.265385	2634.154119
520.628560	2632.772843
520.991678	2631.157153
521.354739	2632.959366
521.717743	2632.230919
522.080690	2633.322329
522.443580	2636.624285
522.806413	2635.608492
523.169189	2633.549181
523.531908	2634.247381
523.894569	2634.403656
524.257174	2636.024387
524.619722	2636.951960
524.982213	2635.991620
525.344647	2635.520272
525.707025	2639.701909
526.069345	2640.145531
526.431608	2636.881383
526.793815	2640.808442
527.155964	2640.619399
527.518057	2638.406332
527.880093	2641.052938
528.242072	2638.643267
528.603995	2640.082516
528.965860	2643.727270
529.327669	2640.737866
529.689421	2639.923720
530.051117	2642.741725
530.412755	2642.209883
530.774337	2641.826755
531.135862	2643.737353
531.497331	2644.309524
531.858743	2642.124183
532.220098	2641.186529
532.581396	2642.156951
532.942638	2644.458238
533.303824	2644.947230
533.664953	2646.784730
534.026025	2648.869247
534.387040	2647.830770
534.747999	2647.974442
535.108902	2648.153403
535.469748	2648.029895
535.830537	2652.143477
536.191270	2649.151552
536.551947	2648.806233
536.912567	2652.415699
537.273131	2651.629279
537.633638	2651.533497
537.994089	2652.602222
538.354483	2652.130874
538.714821	2652.032571
539.075103	2658.994405
539.435328	2656.413334
539.795497	2656.269661
540.155609	2659.117913
540.515665	2659.415341
540.875665	2659.995074
541.235609	2658.270999
541.595496	2664.128820
541.955328	2662.258552
542.315102	2664.950528
542.674821	2664.224602
543.034483	2667.440858
543.394090	2666.818276
543.753640	2670.929337
544.113134	2675.239523
544.472571	2672.552588
544.831953	2672.512259
545.191278	2673.467557
545.550548	2675.783968
545.909761	2679.141376
546.268918	2680.147086
546.628019	2681.984587
546.987064	2685.836028
547.346053	2686.317459
547.704986	2687.209743
548.063863	2689.498427
548.422684	2692.326514
548.781449	2692.964220
549.140158	2696.316587
549.498811	2698.716177
549.857408	2700.909078
550.215949	2699.855477
550.574434	2702.224820
550.932864	2703.122145
551.291237	2708.730429
551.649555	2713.411140
552.007817	2714.011037
552.366022	2718.268292
552.724173	2721.950855
553.082267	2724.463870
553.440305	2731.755899
553.798288	2732.058368
554.156215	2735.884604
554.514086	2742.196128
554.871902	2743.058166
555.229661	2749.097468
555.587365	2749.780544
555.945014	2756.470156
556.302606	2759.572986
556.660143	2765.448451
557.017625	2767.661517
557.375050	2771.391971
557.732421	2778.658794
558.089735	2784.607356
558.446994	2789.421658
558.804197	2796.328038
559.161345	2802.344656
559.518437	2801.802732
559.875474	2809.682055
560.232455	2816.477530
560.589381	2823.499858
560.946251	2829.632421
561.303065	2838.182218
561.659825	2840.488546
562.016528	2844.332426
562.373177	2849.865092
562.729770	2859.614684
563.086307	2865.321270
563.442789	2871.968031
563.799216	2882.100751
564.155587	2891.535270
564.511904	2899.858215
564.868164	2906.048752
565.224370	2914.974115
565.580520	2923.433171
565.936615	2936.212496
566.292654	2941.661983
566.648638	2952.376956
567.004567	2960.334417
567.360441	2971.861015
567.716260	2980.189002
568.072023	2995.032679
568.427732	2999.915037
568.783385	3009.631861
569.138982	3024.972092
569.494525	3035.475336
569.850013	3042.981614
570.205445	3058.384859
570.560823	3072.265677
570.916145	3081.695155
571.271412	3095.286106
571.626625	3104.087960
571.981782	3116.426184
572.336884	3131.073257
572.691931	3146.529434
573.046923	3157.130981
573.401860	3167.944256
573.756743	3182.719878
574.111570	3199.549770
574.466342	3207.855071
574.821059	3229.705952
575.175722	3233.580079
575.530330	3251.453490
575.884882	3261.747526
576.239380	3278.232099
576.593823	3295.984523
576.948211	3310.278714
577.302544	3319.246927
577.656823	3335.643280
578.011047	3360.105479
578.365216	3374.760113
578.719330	3383.362842
579.073389	3402.133578
579.427394	3421.116043
579.781344	3443.453396
580.135239	3455.095941
580.489080	3475.920947
580.842866	3489.025427
581.196597	3515.947709
581.550273	3534.252138
581.903895	3553.642937
582.257463	3584.598142
582.610975	3597.269082
582.964434	3626.260758
583.317837	3638.919095
583.671186	3658.319976
584.024481	3683.669418
584.377721	3698.676933
584.730906	3726.773804
585.084037	3753.970829
585.437113	3769.648817
585.790135	3798.191830
586.143103	3808.828665
586.496016	3834.735155
586.848874	3857.143083
587.201679	3886.364132
587.554428	3896.322931
587.907124	3930.587654
588.259765	3947.352011
588.612352	3988.061849
588.964884	3991.792303
589.317362	4024.806819
589.669786	4054.600038
590.022155	4079.710026
590.374470	4117.808546
590.726731	4126.451604
591.078937	4138.164725
591.431090	4168.749406
591.783188	4182.569729
592.135232	4195.691852
592.487222	4233.858428
592.839157	4268.055095
593.191038	4281.086478
593.542866	4297.755053
593.894639	4303.012977
594.246358	4342.888503
594.598022	4372.727093
594.949633	4384.465420
595.301190	4410.238319
595.652692	4430.155918
596.004141	4473.146878
596.355535	4461.854693
596.706876	4486.642047
597.058162	4509.254142
597.409395	4556.194846
597.760573	4596.836628
598.111698	4601.396352
598.462768	4630.355260
598.813785	4663.457997
599.164748	4663.349612
599.515657	4714.320719
599.866511	4716.304413
600.217312	4779.948980
600.568060	4751.652984
600.918753	4826.100744
601.269392	4853.451524
601.619978	4864.751270
601.970510	4903.689142
602.320988	4950.569353
602.671412	4996.017875
603.021783	5009.313918
603.372100	5024.835631
603.722363	5059.102874
604.072572	5095.386579
604.422728	5130.573833
604.772830	5143.648066
605.122878	5183.798335
605.472872	5205.878589
605.822813	5255.392802
606.172701	5281.168222
606.522534	5329.157486
606.872314	5383.400301
607.222041	5395.562085
607.571714	5450.848419
607.921333	5442.089414
608.270899	5494.275439
608.620411	5549.402977
608.969870	5567.004166
609.319276	5597.122539
609.668627	5638.535618
610.017926	5702.875865
610.367171	5746.713738
610.716362	5780.280261
611.065500	5808.427544
611.414585	5843.151012
611.763616	5913.333955
612.112594	5931.537562
612.461518	5975.753522
612.810389	6034.765269
613.159207	6046.753133
613.507971	6082.799904
613.856682	6155.137941
614.205340	6178.914543
614.553945	6265.456031
614.902496	6253.516058
615.250994	6320.434855
615.599439	6355.538930
615.947830	6400.634571
616.296169	6423.075268
616.644454	6470.643595
616.992686	6512.442322
617.340864	6586.685916
617.688990	6572.941210
618.037063	6670.570716
618.385082	6696.298244
618.733048	6746.072077
619.080961	6772.528052
619.428821	6812.713610
619.776628	6856.034766
620.124382	6866.863164
620.472083	6907.404123
620.819731	6954.745599
621.167326	6946.581451
621.514868	6973.831408
621.862357	6970.012734
622.209793	7004.123701
622.557176	6994.595920
622.904506	7002.384503
623.251783	6993.136506
623.599007	6995.722618
623.946179	7008.219639
624.293297	7026.652618
624.640363	6995.180694
624.987376	7023.083481
625.334336	7022.128182
625.681243	7009.701738
626.028097	7022.027359
626.374899	7036.303907
626.721647	7053.869807
627.068343	7061.310550
627.414987	7057.161681
627.761577	7060.322484
628.108115	7119.941690
628.454600	7076.262613
628.801032	7111.936338
629.147412	7131.281766
629.493739	7149.366905
629.840014	7133.094061
630.186236	7187.954417
630.532405	7160.381826
630.878521	7212.330917
631.224585	7214.851494
631.570597	7199.344904
631.916556	7229.642239
632.262462	7245.355516
632.608316	7257.827330
632.954117	7269.200173
633.299866	7291.209851
633.645562	7297.314688
633.991206	7271.904752
634.336797	7233.407981
634.682336	7257.963441
635.027823	7249.731237
635.373257	7250.807523
635.718639	7240.480720
636.063968	7243.699497
636.409245	7188.945004
636.754470	7214.049950
637.099642	7197.938422
637.444762	7156.553070
637.789829	7188.418203
638.134845	7161.437948
638.479808	7165.480953
638.824719	7179.956627
639.169577	7139.796275
639.514383	7162.471385
639.859137	7135.022302
640.203839	7192.446085
640.548489	7154.239180
640.893086	7180.014600
641.237632	7159.038359
641.582125	7181.504261
641.926566	7190.535488
642.270955	7200.965635
642.615292	7223.774336
642.959576	7219.196968
643.303809	7233.924699
643.647990	7268.655729
643.992118	7271.826614
644.336195	7277.349198
644.680219	7292.611292
645.024192	7335.577046
645.368112	7408.900629
645.711981	7410.060094
646.055797	7527.985285
646.399562	7512.829056
646.743274	7647.374932
647.086935	7718.445119
647.430544	7707.684776
647.774101	7751.298318
648.117606	7783.712938
648.461059	7864.668827
648.804460	7827.691964
649.147810	7757.430882
649.491108	7747.688852
649.834354	7722.982157
650.177548	7632.553940
650.520690	7577.416319
650.863781	7589.809996
651.206820	7589.290757
651.549807	7533.359155
651.892742	7480.079200
652.235626	7461.598330
652.578458	7446.963861
652.921238	7379.636731
653.263967	7423.396467
653.606644	7388.196610
653.949269	7386.197792
654.291843	7336.363466
654.634365	7410.985146
654.976836	7356.490273
655.319255	7359.767023
655.661622	7366.481840
656.003938	7345.195567
656.346203	7332.953125
656.688416	7371.626337
657.030577	7355.008173
657.372687	7334.127714
657.714746	7379.495578
658.056753	7408.320896
658.398708	7338.926893
658.740612	7345.848397
659.082465	7391.443113
659.424266	7363.613423
659.766016	7384.821557
660.107715	7377.920218
660.449362	7401.399392
660.790958	7408.928355
661.132503	7414.758449
661.473996	7415.171824
661.815438	7438.935823
662.156829	7475.635423
662.498168	7444.811288
662.839456	7451.513502
663.180693	7486.657906
663.521879	7511.357039
663.863013	7508.531473
664.204097	7508.811257
664.545129	7584.922598
664.886110	7588.791683
665.227040	7604.540248
665.567918	7627.837940
665.908746	7641.996021
666.249522	7671.590114
666.590248	7677.712596
666.930922	7698.179680
667.271545	7692.946963
667.612118	7716.360602
667.952639	7696.937036
668.293109	7712.461269
668.633528	7704.997841
668.973896	7698.194804
669.314213	7713.633338
669.654480	7684.906322
669.994695	7686.017897
670.334859	7677.087493
670.674973	7664.683734
671.015035	7697.365534
671.355047	7695.883435
671.695008	7691.341355
672.034918	7676.154879
672.374777	7690.007970
672.714585	7668.867891
673.054342	7704.294600
673.394049	7678.176382
673.733705	7722.898978
674.073310	7685.085283
674.412864	7702.348715
674.752368	7652.655541
675.091820	7712.776341
675.431223	7646.122205
675.770574	7614.108358
676.109875	7588.297650
676.449125	7554.917650
676.788324	7549.972278
677.127473	7482.834191
677.466571	7478.841597
677.805619	7423.772033
678.144616	7432.886439
678.483562	7428.805625
678.822458	7384.531691
679.161303	7375.147583
679.500098	7359.628391
679.838842	7348.961309
680.177535	7359.399018
680.516179	7397.636170
680.854771	7418.370436
681.193314	7530.989813
681.531805	7684.278699
681.870247	7803.444014
682.208638	7948.195705
682.546978	8021.337807
682.885268	8050.836118
683.223508	7989.959144
683.561697	7952.140408
683.899836	7922.687467
684.237925	7841.119077
684.575963	7821.211561
684.913951	7746.645333
685.251889	7771.140300
685.589776	7763.019001
685.927614	7744.691886
686.265401	7770.605938
686.603137	7781.643544
686.940824	7852.638114
687.278460	7899.503200
687.616046	7908.758759
687.953582	8020.276644
688.291068	7990.750606
688.628504	8057.407262
688.965889	8057.949186
689.303224	8023.772684
689.640510	7986.599215
689.977745	7889.564566
690.314930	7783.539018
690.652065	7711.687452
690.989150	7611.040816
691.326185	7472.817418
691.663170	7371.270936
692.000105	7265.714215
692.336990	7155.101218
692.673825	7088.061433
693.010610	7003.319637
693.347345	6913.622387
693.684030	6806.696993
694.020665	6766.990345
694.357251	6661.597462
694.693786	6647.250338
695.030272	6608.486386
695.366707	6515.464494
695.703093	6468.372556
696.039429	6469.106043
696.375716	6428.015598
696.711952	6419.417911
697.048139	6388.250977
697.384276	6354.762592
697.720363	6372.479727
698.056400	6354.502972
698.392388	6321.430483
698.728326	6325.236554
699.064214	6303.052956
699.400053	6305.654192
699.735842	6245.397280
700.071581	6204.871444
700.407270	6163.901987
700.742910	6137.844262
701.078501	6095.614517
701.414042	6054.279576
701.749533	6005.403069
702.084974	5949.998267
702.420366	5988.074102
702.755709	5918.324698
703.091002	5870.113623
703.426246	5875.452205
703.761440	5861.868816
704.096584	5824.266849
704.431679	5812.450385
704.766725	5796.732067
705.101721	5782.909223
705.436668	5803.489734
705.771565	5751.245736
706.106413	5807.235311
706.441212	5801.783303
706.775961	5819.152599
707.110661	5829.623075
707.445311	5884.130551
707.779913	5850.601837
708.114465	5890.633640
708.448967	5937.062667
708.783421	6052.079112
709.117825	6093.842551
709.452180	6127.222551
709.786485	6186.660276
710.120742	6320.576007
710.454949	6323.842675
710.789107	6396.823459
711.123216	6515.887951
711.457275	6550.850874
711.791286	6649.168497
712.125247	6668.947464
712.459159	6634.264326
712.793023	6763.516990
713.126837	6595.906186
713.460602	6654.255021
713.794318	6610.865810
714.127985	6565.505508
714.461602	6420.085863
714.795171	6423.730618
715.128691	6264.150372
715.462162	6182.266910
715.795584	6106.904181
716.128957	6065.690228
716.462281	6001.372666
716.795556	5966.061904
717.128782	5878.905395
717.461960	5783.864522
717.795088	5779.461074
718.128167	5708.932811
718.461198	5624.876612
718.794180	5607.159477
719.127113	5546.191762
719.459997	5520.633112
719.792833	5454.168019
720.125619	5451.140806
720.458357	5393.192743
720.791046	5358.733936
721.123686	5334.740564
721.456278	5290.249861
721.788821	5280.827944
722.121315	5241.960648
722.453761	5250.326443
722.786158	5238.557869
723.118506	5237.718517
723.450805	5219.711515
723.783056	5240.256738
724.115259	5223.232761
724.447412	5214.342687
724.779518	5256.005302
725.111574	5259.513946
725.443582	5294.759173
725.775542	5286.133758
726.107453	5372.897057
726.439315	5343.998643
726.771129	5415.567904
727.102895	5478.375640
727.434612	5516.953070
727.766281	5546.922729
728.097901	5599.396100
728.429473	5620.402588
728.760996	5625.995748
729.092471	5651.405684
729.423897	5642.460156
729.755276	5608.583602
730.086606	5623.386951
730.417887	5707.722934
730.749120	5799.061080
731.080305	5841.573130
731.411442	5916.300674
731.742530	5944.810920
732.073570	5966.991997
732.404562	6027.642119
732.735506	6018.613412
733.066401	6000.271174
733.397249	5931.474548
733.728048	5838.334189
734.058798	5698.522828
734.389501	5569.181944
734.720156	5489.360314
735.050762	5380.844436
735.381320	5306.023631
735.711831	5254.934057
736.042293	5173.078322
736.372707	5172.299463
736.703073	5124.642916
737.033391	5155.824973
737.363661	5142.667561
737.693883	5152.563346
738.024056	5177.186862
738.354182	5204.169638
738.684260	5252.983131
739.014290	5291.971415
739.344272	5323.700437
739.674207	5377.088777
740.004093	5411.814765
740.333931	5419.086629
740.663722	5435.243527
740.993464	5444.292399
741.323159	5429.922590
741.652806	5381.673706
741.982405	5351.250343
742.311956	5302.421727
742.641460	5290.731291
742.970915	5241.920319
743.300323	5181.771792
743.629683	5146.692923
743.958996	5095.898256
744.288260	5050.311102
744.617477	4988.751052
744.946647	4978.595648
745.275768	4921.781844
745.604842	4888.129621
745.933869	4855.715002
746.262847	4844.415256
746.591778	4834.945448
746.920662	4816.351152
747.249498	4807.642559
747.578286	4824.064117
747.907027	4845.738558
748.235720	4886.483684
748.564365	4902.171755
748.892963	4885.374631
749.221514	4903.915994
749.550017	4878.097725
749.878473	4875.199062
750.206881	4835.709183
750.535242	4827.373635
750.863555	4811.839319
751.191821	4791.520949
751.520039	4794.729643
751.848210	4779.061737
752.176334	4778.630718
752.504411	4766.375673
752.832440	4735.801075
753.160421	4750.906893
753.488356	4729.751691
753.816243	4709.773598
754.144082	4674.603988
754.471875	4670.722300
754.799620	4657.963139
755.127318	4647.724556
755.454969	4643.283299
755.782572	4638.108555
756.110129	4643.500069
756.437638	4627.648161
756.765100	4620.275473
757.092515	4619.801605
757.419882	4624.245382
757.747203	4620.429228
758.074477	4635.373729
758.401703	4625.573726
758.728882	4650.976100
759.056014	4668.738606
759.383099	4684.366183
759.710138	4712.755441
760.037129	4736.791662
760.364073	4752.560391
760.690970	4751.685751
761.017820	4746.195935
761.344623	4781.332777
761.671379	4845.519268
761.998088	4929.938431
762.324751	5160.170447
762.651366	5620.231188
762.977935	6304.938348
763.304456	6860.062648
763.630931	7156.288409
763.957359	7094.554439
764.283740	6801.726415
764.610074	6486.558518
764.936362	6094.833138
765.262602	5770.760042
765.588796	5434.089103
765.914943	5179.742727
766.241044	4956.661587
766.567097	4787.319147
766.893104	4637.745592
767.219064	4538.583575
767.544978	4442.579841
767.870845	4362.107902
768.196665	4315.981345
768.522438	4267.329169
768.848165	4225.119588
769.173846	4184.916386
769.499479	4157.006038
769.825066	4121.458341
770.150607	4084.247064
770.476101	4062.822160
770.801548	4038.884241
771.126949	4010.459695
771.452303	3992.336747
771.777611	3955.276705
772.102872	3951.155562
772.428087	3930.627983
772.753256	3901.270824
773.078378	3887.163155
773.403453	3850.224100
773.728482	3825.877847
774.053465	3812.838903
774.378401	3794.804175
774.703291	3768.852315
775.028135	3746.028491
775.352932	3740.379878
775.677683	3718.980180
776.002388	3700.090977
776.327046	3701.774722
776.651658	3680.130528
776.976224	3662.554545
777.300743	3662.068074
777.625216	3646.261536
777.949643	3635.065133
778.274024	3640.141575
778.598359	3617.688276
778.922647	3620.400417
779.246889	3610.318109
779.571086	3614.109057
779.895236	3613.655353
780.219339	3614.915641
780.543397	3613.279787
780.867409	3627.702528
781.191374	3623.861169
781.515294	3619.293883
781.839167	3634.132520
782.162995	3633.945997
782.486776	3623.460397
782.810511	3616.407823
783.134201	3602.108590
783.457844	3605.024897
783.781441	3595.313114
784.104993	3586.861620
784.428498	3582.992534
784.751958	3575.748396
785.075372	3573.114393
785.398739	3562.626273
785.722061	3569.782191
786.045337	3567.120462
786.368568	3594.322528
786.691752	3588.736929
787.014891	3637.177377
787.337983	3682.946012
787.661030	3766.354423
787.984031	3861.390256
788.306987	3938.494704
788.629897	3984.775017
788.952760	3990.867251
789.275579	3978.944922
789.598351	3931.134619
789.921078	3878.885580
790.243759	3813.932833
790.566395	3774.957152
790.888984	3726.211715
791.211529	3688.362732
791.534027	3641.626195
791.856480	3605.594548
792.178888	3587.345571
792.501249	3564.867066
792.823566	3535.449413
793.145836	3529.135367
793.468062	3519.025333
793.790241	3506.056965
794.112375	3508.612830
794.434464	3531.071170
794.756507	3530.877086
795.078505	3550.991290
795.400457	3587.988318
795.722364	3638.903972
796.044226	3682.522555
796.366042	3730.781521
796.687812	3724.512846
797.009538	3749.007813
797.331218	3737.032552
797.652852	3728.515522
797.974442	3708.875187
798.295986	3696.103424
798.617484	3672.175587
798.938938	3644.776916
799.260346	3631.473311
799.581709	3596.442333
799.903026	3583.410950
800.224299	3567.019638
800.545526	3534.174001
800.866708	3518.828728
801.187845	3507.060155
801.508936	3484.755569
801.829983	3478.670897
802.150984	3447.859364
802.471940	3436.854526
802.792851	3430.873197
803.113717	3425.365736
803.434538	3415.701844
803.755314	3408.051893
804.076045	3400.885893
804.396731	3387.105899
804.717372	3391.148904
805.037967	3386.823594
805.358518	3388.779562
805.679024	3400.611150
805.999485	3399.456726
806.319901	3403.280441
806.640272	3408.137593
806.960598	3419.913728
807.280879	3421.141249
807.601115	3428.629883
807.921306	3420.216197
808.241453	3421.668050
808.561554	3427.067125
808.881611	3428.463525
809.201623	3426.525201
809.521590	3418.119077
809.841513	3417.592277
810.161390	3423.538318
810.481223	3403.333373
810.801011	3401.130389
811.120755	3398.730800
811.440453	3388.479613
811.760107	3381.298490
812.079716	3374.480329
812.399281	3360.735623
812.718801	3363.528422
813.038276	3354.766897
813.357707	3350.897811
813.677093	3361.133874
813.996434	3342.133765
814.315731	3346.333047
814.634983	3347.931092
814.954191	3348.722553
815.273354	3365.733927
815.592473	3378.374620
815.911547	3395.141498
816.230577	3407.620874
816.549562	3432.995522
816.868502	3454.286836
817.187399	3475.096719
817.506250	3502.875997
817.825058	3509.568129
818.143821	3553.393400
818.462539	3597.001901
818.781213	3654.997855
819.099843	3737.231678
819.418429	3890.386972
819.736970	4038.700239
820.055466	4225.890884
820.373919	4461.015341
820.692327	4797.736692
821.010691	5308.385412
821.329011	6380.999277
821.647286	8096.037624
821.965517	10248.645605
822.283704	11838.219715
822.601847	12891.006722
822.919945	12488.339518
823.237999	11837.249293
823.556010	10942.504979
823.873976	10001.056895
824.191897	9044.631543
824.509775	8281.168958
824.827609	7490.458936
825.145398	6947.514064
825.463144	6570.904584
825.780845	6441.775428
826.098502	6504.971332
826.416116	6883.625001
826.733685	7378.928448
827.051210	7656.317939
827.368692	7567.639002
827.686129	7131.306972
828.003522	6590.121462
828.320872	6028.060535
828.638177	5570.268313
828.955439	5205.369433
829.272656	4872.935583
829.589830	4592.249178
829.906960	4334.036237
830.224046	4125.602170
830.541088	3954.381900
830.858086	3839.955269
831.175041	3745.279880
831.491952	3700.509392
831.808819	3680.185981
832.125642	3718.317268
832.442421	3822.033968
832.759157	4032.577758
833.075849	4406.921240
833.392497	4864.806723
833.709101	5246.180094
834.025662	5351.630950
834.342179	5229.768617
834.658653	4966.055777
834.975083	4691.023026
835.291469	4454.877736
835.607811	4230.213674
835.924110	4076.627360
836.240366	3917.268925
836.556578	3756.536776
836.872746	3623.536014
837.188871	3514.931916
837.504952	3415.936258
837.820990	3344.777851
838.136984	3288.266516
838.452935	3261.566045
838.768842	3246.891246
839.084706	3280.977008
839.400526	3412.359559
839.716303	3635.528919
840.032037	3845.651773
840.347727	3914.708019
840.663373	3821.154286
840.978977	3676.752955
841.294537	3544.498284
841.610054	3437.293106
841.925527	3360.423072
842.240957	3294.207516
842.556344	3233.633011
842.871687	3177.514887
843.186987	3113.562809
843.502244	3063.337793
843.817458	3022.380939
844.132629	2990.964468
844.447756	2969.481591
844.762840	2945.437808
845.077881	2930.432813
845.392879	2917.618200
845.707833	2905.693351
846.022745	2894.716238
846.337613	2891.043758
846.652438	2882.299876
846.967221	2878.861809
847.281960	2870.778319
847.596656	2865.260776
847.911309	2862.039479
848.225919	2855.498582
848.540485	2853.255268
848.855009	2850.059177
849.169490	2843.853516
849.483928	2841.045594
849.798323	2840.186077
850.112675	2837.357990
850.426984	2835.885973
850.741251	2833.166270
851.055474	2831.885817
851.369654	2831.515292
851.683792	2832.397494
851.997887	2831.664006
852.311938	2833.083091
852.625947	2831.031342
852.939914	2828.238542
853.253837	2832.662155
853.567718	2829.708039
853.881555	2829.266938
854.195350	2832.074860
854.509103	2828.566217
854.822812	2827.830209
855.136479	2829.060250
855.450103	2828.427586
855.763685	2827.066474
856.077224	2826.222081
856.390720	2828.046978
856.704173	2831.139726
857.017584	2833.478822
857.330953	2833.337669
857.644278	2837.209276
857.957561	2840.985100
858.270802	2839.031653
858.584000	2839.911334
858.897155	2839.177846
859.210268	2835.533092
859.523339	2834.847495
859.836367	2837.244564
860.149352	2833.035200
860.462295	2829.521516
860.775195	2825.284426
861.088054	2825.312152
861.400869	2826.396001
861.713642	2824.891216
862.026373	2826.373315
862.339062	2829.072853
862.651708	2832.450426
862.964312	2834.691219
863.276873	2838.741786
863.589392	2847.122705
863.901869	2848.844259
864.214303	2857.212574
864.526696	2864.096270
864.839045	2870.463247
865.151353	2878.153527
865.463619	2880.273332
865.775842	2882.670401
866.088023	2887.446894
866.400162	2883.749208
866.712258	2887.222563
867.024313	2891.008469
867.336325	2888.750033
867.648296	2892.611556
867.960224	2891.666340
868.272110	2895.457288
868.583954	2893.299674
868.895755	2901.463823
869.207515	2897.080539
869.519233	2905.300141
869.830909	2906.502456
870.142542	2909.098650
870.454134	2910.699216
870.765684	2918.089548
871.077191	2924.484252
871.388657	2928.512133
871.700081	2933.752413
872.011463	2941.326747
872.322803	2946.262036
872.634101	2951.562809
872.945357	2954.214456
873.256571	2966.318267
873.567744	2974.038794
873.878874	2977.343270
874.189963	2985.225114
874.501010	2988.275012
874.812015	2985.383911
875.122979	2994.664675
875.433900	3000.366220
875.744780	3003.098525
876.055618	3007.275121
876.366415	3009.934330
876.677169	3015.933303
876.987882	3018.037985
877.298554	3029.224305
877.609183	3042.752241
877.919771	3059.844273
878.230317	3082.753797
878.540822	3122.036988
878.851285	3171.717560
879.161707	3237.857498
879.472087	3339.028415
879.782425	3505.378930
880.092722	3775.786422
880.402977	4190.330585
880.713191	4728.698090
881.023363	5313.650897
881.333494	5744.515795
881.643583	6025.338312
881.953631	6098.931596
882.263637	6048.479728
882.573602	5910.757926
882.883526	5744.624180
883.193408	5548.818203
883.503248	5329.633875
883.813048	5119.518583
884.122806	4901.687804
884.432522	4659.069673
884.742197	4441.806024
885.051831	4239.633070
885.361424	4041.757699
885.670975	3879.656877
885.980485	3734.358220
886.289954	3609.713170
886.599382	3508.363293
886.908768	3427.906478
887.218113	3347.575691
887.527417	3285.367852
887.836680	3227.447515
888.145901	3179.962367
888.455082	3142.529279
888.764221	3110.482664
889.073319	3081.448138
889.382376	3062.914336
889.691392	3047.896739
890.000366	3037.650594
890.309300	3029.496527
890.618193	3025.647606
890.927044	3023.994108
891.235855	3024.041999
891.544625	3025.025024
891.853353	3032.601878
892.162041	3049.260371
892.470687	3074.700554
892.779293	3105.315481
893.087858	3153.461021
893.396381	3229.789131
893.704864	3333.115141
894.013306	3491.213288
894.321707	3670.862367
894.630068	3821.313083
894.938387	3901.127151
895.246665	3908.146957
895.554903	3850.750900
895.863100	3763.488527
896.171256	3687.377187
896.479371	3617.214407
896.787446	3544.334446
897.095480	3474.030515
897.403473	3420.707710
897.711425	3362.212681
898.019336	3312.441369
898.327207	3259.557145
898.635038	3213.601986
898.942827	3162.242711
899.250576	3119.773510
899.558284	3082.796647
899.865952	3057.726989
900.173579	3026.877648
900.481165	3005.692199
900.788711	2985.497337
901.096216	2970.688947
901.403681	2958.237297
901.711105	2949.354784
902.018489	2941.964453
902.325832	2951.280505
902.633135	2962.691157
902.940397	2997.775067
903.247619	3084.243458
903.554800	3262.891868
903.861941	3532.124772
904.169041	3792.719658
904.476101	3960.118733
904.783121	3980.469871
905.090100	3915.156682
905.397039	3810.499807
905.703938	3710.311916
906.010796	3603.152109
906.317614	3522.019779
906.624391	3438.180349
906.931129	3365.295347
907.237826	3301.643218
907.544483	3235.478073
907.851099	3163.646672
908.157675	3094.292998
908.464211	3020.389683
908.770707	2963.780046
909.077163	2916.408323
909.383578	2881.168137
909.689954	2853.146883
909.996289	2834.794563
910.302584	2824.629076
910.608839	2812.048877
910.915054	2802.621919
911.221229	2798.712504
911.527363	2798.047072
911.833458	2797.212761
912.139513	2803.085705
912.445527	2804.789615
912.751502	2819.741677
913.057436	2830.471773
913.363331	2852.178982
913.669186	2879.073538
913.975000	2917.071235
914.280775	2978.144814
914.586510	3055.148439
914.892205	3162.893020
915.197859	3309.560350
915.503475	3489.486692
915.809050	3664.507992
916.114585	3788.779996
916.420081	3860.697097
916.725536	3893.971233
917.030952	3859.368753
917.336328	3822.351560
917.641665	3774.967235
917.946961	3712.688820
918.252218	3656.583298
918.557435	3585.707196
918.862612	3518.092720
919.167750	3459.675829
919.472848	3383.597256
919.777906	3319.118378
920.082925	3251.254364
920.387904	3179.659897
920.692843	3124.156794
920.997743	3073.644432
921.302603	3025.768594
921.607423	2988.900115
921.912204	2958.209571
922.216946	2930.621856
922.521647	2906.628485
922.826310	2885.942110
923.130932	2869.076930
923.435516	2849.003055
923.740059	2833.947649
924.044564	2821.833756
924.349028	2807.174081
924.653454	2791.707821
924.957840	2776.763320
925.262186	2770.713936
925.566493	2758.733634
925.870761	2747.075965
926.174989	2739.796539
926.479178	2735.687999
926.783328	2726.003942
927.087438	2721.373642
927.391509	2714.479865
927.695541	2709.393340
927.999533	2704.594162
928.303486	2699.177442
928.607400	2693.410362
928.911275	2693.780887
929.215110	2688.966585
929.518906	2685.722602
929.822663	2686.604804
930.126381	2685.079855
930.430060	2687.761749
930.733699	2684.810154
931.037299	2686.322500
931.340861	2685.084897
931.644383	2688.419620
931.947866	2687.189578
932.251309	2686.531708
932.554714	2686.521625
932.858080	2686.788807
933.161407	2684.674042
933.464694	2682.932324
933.767943	2681.286387
934.071153	2684.767304
934.374323	2677.124915
934.677455	2678.186077
934.980548	2678.100378
935.283602	2676.991324
935.586617	2675.093330
935.889593	2676.109122
936.192530	2675.375634
936.495428	2679.632889
936.798287	2676.832528
937.101108	2685.838549
937.403890	2690.786442
937.706632	2698.930426
938.009336	2710.724205
938.312002	2721.154352
938.614628	2733.792525
938.917216	2745.674525
939.219765	2750.103178
939.522275	2758.169024
939.824747	2759.177255
940.127179	2757.385125
940.429573	2757.755650
940.731929	2760.155239
941.034246	2759.411669
941.336524	2759.618356
941.638763	2759.328490
941.940964	2758.632811
942.243126	2753.163159
942.545250	2749.651995
942.847335	2742.808629
943.149381	2737.278483
943.451389	2732.010477
943.753359	2724.937738
944.055290	2720.965309
944.357182	2714.749566
944.659036	2714.376521
944.960851	2711.314020
945.262628	2705.191539
945.564367	2707.623895
945.866067	2703.895962
946.167729	2704.889069
946.469352	2704.793287
946.770937	2701.778677
947.072484	2699.628625
947.373992	2699.815148
947.675462	2699.406815
947.976893	2695.593182
948.278286	2694.390867
948.579641	2694.504292
948.880958	2693.344827
949.182236	2691.514888
949.483476	2692.969261
949.784678	2692.439940
950.085841	2692.447502
950.386967	2691.063705
950.688054	2691.819878
950.989103	2694.617718
951.290114	2698.706094
951.591087	2702.892772
951.892021	2707.346632
952.192917	2710.575491
952.493776	2714.154710
952.794596	2720.015052
953.095378	2719.568909
953.396122	2720.705690
953.696828	2721.071173
953.997496	2718.868189
954.298126	2714.517673
954.598718	2713.267467
954.899272	2708.995089
955.199788	2706.164481
955.500266	2699.598378
955.800706	2692.190403
956.101108	2687.260154
956.401472	2680.187416
956.701798	2673.449913
957.002087	2666.805673
957.302337	2667.183759
957.602550	2658.868376
957.902724	2653.340751
958.202861	2648.347488
958.502960	2643.641571
958.803022	2643.069400
959.103045	2637.032618
959.403031	2631.129427
959.702979	2628.573562
960.002889	2626.005094
960.302762	2626.070629
960.602596	2623.723972
960.902393	2619.522170
961.202153	2616.747015
961.501875	2616.628548
961.801559	2615.254833
962.101205	2614.783486
962.400814	2613.250975
962.700385	2610.647219
962.999918	2609.530603
963.299414	2609.762496
963.598873	2608.361056
963.898293	2604.877618
964.197677	2608.814759
964.497022	2606.901642
964.796331	2605.386775
965.095601	2603.571959
965.394835	2605.250664
965.694030	2606.581528
965.993189	2607.002465
966.292309	2601.560539
966.591393	2601.711774
966.890439	2602.266301
967.189447	2605.056579
967.488419	2603.997937
967.787353	2604.459202
968.086249	2603.763523
968.385108	2604.575149
968.683930	2605.714450
968.982714	2604.607917
969.281462	2606.251333
969.580172	2605.938781
969.878844	2605.575818
970.177480	2610.599328
970.476078	2609.432301
970.774639	2611.448762
971.073162	2614.314658
971.371649	2612.033536
971.670098	2612.779627
971.968510	2608.668566
972.266885	2612.416664
972.565223	2617.782972
972.863524	2616.827673
973.161788	2617.634258
973.460014	2617.858589
973.758204	2621.820936
974.056356	2621.195833
974.354471	2623.113992
974.652550	2622.829167
974.950591	2623.595422
975.248595	2619.691049
975.546563	2620.016203
975.844493	2618.997890
976.142386	2620.263220
976.440243	2617.356995
976.738062	2619.728857
977.035845	2616.792385
977.333590	2615.159052
977.631299	2614.266767
977.928971	2612.850203
978.226606	2613.722323
978.524204	2613.868516
978.821765	2611.937754
979.119290	2610.180912
979.416777	2611.778958
979.714228	2612.295676
980.011642	2609.356683
980.309020	2615.101078
980.606360	2615.650564
980.903664	2617.309104
981.200931	2627.247738
981.498162	2631.855353
981.795356	2641.080665
982.092513	2657.756802
982.389633	2674.745490
982.686717	2691.650999
982.983764	2707.444934
983.280775	2719.919270
983.577749	2725.527553
983.874686	2724.698283
984.171587	2722.155021
984.468451	2718.588405
984.765279	2709.524410
985.062070	2704.362269
985.358824	2697.793645
985.655543	2686.680422
985.952224	2678.014678
986.248869	2667.975220
986.545478	2650.258085
986.842050	2641.509163
987.138586	2630.022894
987.435086	2620.631224
987.731549	2612.278032
988.027975	2611.526900
988.324366	2605.406939
988.620719	2605.101950
988.917037	2600.116248
989.213318	2600.693461
989.509563	2599.171032
989.805772	2595.942173
990.101944	2593.154415
990.398080	2594.392018
990.694180	2593.580393
990.990244	2595.833788
991.286271	2594.550815
991.582262	2594.558376
991.878217	2594.686926
992.174136	2598.046855
992.470019	2597.139447
992.765865	2597.908223
993.061676	2597.015939
993.357450	2597.794797
993.653188	2601.202617
993.948890	2600.242277
994.244556	2603.506424
994.540186	2608.817280
994.835780	2614.100409
995.131337	2623.918056
995.426859	2630.794190
995.722345	2636.347021
996.017795	2648.544093
996.313208	2653.275216
996.608586	2657.003149
996.903928	2663.690240
997.199234	2663.944818
997.494504	2664.736279
997.789738	2666.359531
998.084936	2661.376350
998.380099	2656.982984
998.675225	2650.227838
998.970316	2646.993938
999.265371	2639.870788
999.560390	2634.171763
999.855373	2627.807307
1000.150320	2619.496964
1000.445232	2615.864813
1000.740108	2612.361211
1001.034948	2608.209821
1001.329752	2602.737648
1001.624521	2602.425097
1001.919254	2593.484611
1002.213951	2595.906885
1002.508613	2591.314394
1002.803239	2588.922366
1003.097829	2587.883889
1003.392384	2590.152408
1003.686903	2587.208374
1003.981386	2586.953796
1004.275834	2587.117633
1004.570246	2590.545618
1004.864623	2585.461614
1005.158964	2587.709969
1005.453270	2584.897005
1005.747540	2586.522777
1006.041775	2583.581264
1006.335974	2583.530852
1006.630138	2585.302818
1006.924266	2583.966912
1007.218359	2585.270050
1007.512416	2585.910277
1007.806438	2584.584453
1008.100425	2583.223342
1008.394376	2585.506985
1008.688292	2582.361305
1008.982172	2583.571182
1009.276017	2585.335585
1009.569827	2585.373394
1009.863602	2583.835842
1010.157341	2582.744432
1010.451045	2581.174113
1010.744714	2582.235276
1011.038347	2583.193095
1011.331945	2580.158320
1011.625508	2584.491192
1011.919036	2580.533886
1012.212528	2580.387693
1012.505986	2583.843404
1012.799408	2583.974474
1013.092795	2579.886098
1013.386147	2583.029257
1013.679464	2580.218814
1013.972745	2581.511870
1014.265992	2581.184195
1014.559204	2580.440625
1014.852380	2581.428691
1015.145521	2583.561099
1015.438628	2578.429205
1015.731699	2581.035481
1016.024736	2579.384503
1016.317737	2582.807447
1016.610703	2582.628486
1016.903635	2580.032292
1017.196531	2578.517425
1017.489393	2580.047415
1017.782219	2578.194791
1018.075011	2581.189236
1018.367768	2584.546645
1018.660490	2586.885740
1018.953177	2586.885740
1019.245829	2586.885740
