Dividing Wavelength (nm)	Counts (n)	Blue Motor Position (mm): 28.300000	Red Motor Position (mm): 0.000000	
326.493990	2206.843234
326.888308	2206.843234
327.282561	2206.843234
327.676750	2164.928560
328.070874	2163.559887
328.464933	2164.646256
328.858929	2166.007367
329.252859	2170.922492
329.646726	2180.863648
330.040528	2192.047448
330.434265	2207.211238
330.827938	2223.811758
331.221547	2241.629716
331.615091	2258.164701
332.008571	2278.203287
332.401986	2296.280865
332.795338	2313.060346
333.188625	2332.763695
333.581847	2355.017869
333.975006	2371.459592
334.368100	2390.384084
334.761129	2409.416960
335.154095	2424.444640
335.546996	2451.671912
335.939833	2488.250524
336.332606	2503.525220
336.725315	2517.249762
337.117960	2528.728469
337.510540	2540.973432
337.903056	2550.841490
338.295508	2556.827860
338.687896	2569.796229
339.080220	2576.027095
339.472480	2584.531521
339.864676	2590.843046
340.256807	2598.046855
340.648875	2598.535847
341.040879	2598.815631
341.432818	2607.307454
341.824694	2605.812752
342.216506	2609.812908
342.608253	2606.158071
342.999937	2607.773761
343.391557	2609.452465
343.783113	2608.900459
344.174605	2607.196549
344.566033	2607.320057
344.957397	2603.992896
345.348697	2602.462906
345.739934	2604.222268
346.131106	2600.915271
346.522215	2600.169181
346.913260	2595.841350
347.304241	2594.119796
347.695159	2593.083839
348.086012	2591.780701
348.476802	2591.737851
348.867528	2585.300297
349.258191	2583.183013
349.648789	2582.666294
350.039324	2580.385172
350.429796	2581.995821
350.820203	2579.823084
351.210548	2581.216963
351.600828	2577.662949
351.991045	2577.468865
352.381198	2576.145562
352.771288	2577.363001
353.161314	2576.160685
353.551276	2574.832341
353.941175	2573.715726
354.331010	2575.371745
354.720782	2572.901579
355.110490	2576.896694
355.500135	2573.612382
355.889717	2574.396282
356.279235	2575.129769
356.668689	2573.304872
357.058080	2574.797053
357.447408	2575.127249
357.836672	2572.926785
358.225873	2573.370407
358.615010	2574.098853
359.004084	2575.921231
359.393095	2578.519945
359.782043	2575.833010
360.170927	2576.697568
360.559748	2577.980542
360.948505	2581.141345
361.337199	2581.804257
361.725830	2578.411561
362.114398	2578.764441
362.502903	2581.859710
362.891344	2583.029257
363.279722	2582.043712
363.668037	2580.707806
364.056289	2581.947930
364.444478	2584.123188
364.832603	2585.035637
365.220665	2583.293918
365.608665	2584.798702
365.996601	2582.953640
366.384474	2585.925400
366.772284	2583.798033
367.160031	2586.641244
367.547715	2588.808940
367.935336	2589.129054
368.322893	2585.698548
368.710388	2583.838363
369.097820	2585.017993
369.485189	2582.532704
369.872495	2588.309866
370.259738	2590.575865
370.646918	2588.947572
371.034035	2588.415730
371.421090	2586.011100
371.808081	2590.364136
372.195010	2592.365474
372.581875	2590.495206
372.968678	2588.882037
373.355418	2586.981522
373.742096	2587.835998
374.128710	2592.297419
374.515262	2592.771287
374.901751	2591.158118
375.288177	2593.575351
375.674540	2593.484611
376.060841	2592.191555
376.447079	2590.953951
376.833254	2594.238263
377.219367	2593.391349
377.605417	2595.405290
377.991404	2594.323963
378.377329	2593.149374
378.763191	2593.711462
379.148991	2595.662389
379.534727	2596.063161
379.920402	2597.482246
380.306013	2595.972420
380.691563	2599.150867
381.077049	2598.893769
381.462474	2598.271186
381.847835	2597.202462
382.233134	2598.011567
382.618371	2596.383274
383.003545	2601.389140
383.388657	2599.007195
383.773706	2596.504262
384.158693	2598.041814
384.543618	2597.651124
384.928480	2598.472832
385.313280	2600.819489
385.698017	2599.163470
386.082692	2600.514500
386.467305	2600.569952
386.851856	2602.087340
387.236344	2601.618512
387.620770	2600.446444
388.005133	2598.281268
388.389435	2598.513162
388.773674	2598.389653
389.157851	2604.565067
389.541965	2604.698657
389.926018	2602.898965
390.310008	2603.229161
390.693936	2603.574480
391.077802	2605.381734
391.461606	2606.042125
391.845348	2604.146651
392.229027	2604.955756
392.612645	2609.104626
392.996200	2604.411312
393.379694	2608.366097
393.763125	2608.413988
394.146494	2606.594131
394.529801	2608.313165
394.913047	2607.463730
395.296230	2607.471292
395.679351	2605.777464
396.062410	2608.618154
396.445408	2609.447424
396.828343	2608.746704
397.211217	2612.235182
397.594028	2611.526900
397.976778	2610.001951
398.359466	2612.136880
398.742092	2609.366766
399.124656	2611.569750
399.507158	2612.656119
399.889598	2612.094030
400.271977	2608.290479
400.654294	2609.273504
401.036549	2612.283073
401.418742	2613.941613
401.800874	2612.136880
402.182944	2612.174688
402.564952	2614.039915
402.946898	2613.871037
403.328783	2617.203239
403.710606	2615.360698
404.092367	2614.796088
404.474067	2613.208125
404.855705	2618.496295
405.237282	2614.165944
405.618797	2613.230810
406.000250	2617.505709
406.381642	2618.526542
406.762972	2616.951182
407.144240	2616.880606
407.525447	2613.697117
407.906593	2612.562857
408.287677	2618.289608
408.668700	2620.651389
409.049661	2621.601646
409.430560	2619.935545
409.811399	2619.686008
410.192176	2619.600308
410.572891	2621.261368
410.953545	2620.696759
411.334138	2619.812037
411.714669	2621.730196
412.095139	2620.961420
412.475547	2622.456122
412.855894	2625.576596
413.236180	2623.426544
413.616405	2622.206585
413.996568	2624.573406
414.376670	2624.724641
414.756711	2628.432410
415.136691	2627.136833
415.516609	2627.908130
415.896466	2627.126751
416.276262	2627.961062
416.655997	2626.751185
417.035670	2629.352420
417.415283	2627.993829
417.794834	2629.528861
418.174324	2626.468880
418.553753	2626.965434
418.933121	2630.272431
419.312428	2630.658079
419.691674	2634.330560
420.070859	2634.199490
420.449983	2633.097997
420.829045	2634.070940
421.208047	2634.592700
421.586988	2634.507000
421.965867	2637.604789
422.344686	2635.464819
422.723444	2639.041518
423.102141	2634.068420
423.480777	2637.887094
423.859352	2635.875673
424.237866	2637.824079
424.616319	2641.688124
424.994712	2644.526293
425.373044	2642.857671
425.751314	2639.999337
426.129524	2638.378606
426.507673	2640.909265
426.885762	2638.887763
427.263789	2647.102323
427.641756	2644.816160
428.019662	2649.111223
428.397508	2646.237765
428.775292	2650.507622
429.153016	2649.789258
429.530679	2651.495688
429.908282	2652.259423
430.285824	2655.452994
430.663305	2657.676143
431.040726	2661.222595
431.418086	2661.953562
431.795385	2668.794408
432.172624	2672.875222
432.549802	2678.047446
432.926920	2685.170596
433.303977	2690.630166
433.680974	2700.462936
434.057910	2707.936447
434.434786	2719.301728
434.811601	2727.231463
435.188355	2748.006058
435.565050	2758.174066
435.941683	2774.489760
436.318257	2801.651497
436.694770	2829.183759
437.071222	2850.449866
437.447614	2879.106305
437.823946	2901.955335
438.200218	2944.182560
438.576429	2966.444296
438.952580	3022.131402
439.328670	3066.695202
439.704700	3102.454626
440.080670	3150.148983
440.456580	3244.529465
440.832429	3286.013120
441.208218	3306.908703
441.583947	3397.082342
441.959616	3482.330774
442.335224	3527.189482
442.710773	3620.513842
443.086261	3723.965881
443.461689	3707.045248
443.837057	3870.522306
444.212365	3996.034434
444.587612	4033.434754
444.962800	4162.586595
445.337927	4212.993092
445.712995	4227.604877
446.088002	4542.384605
446.462949	4570.771343
446.837837	4668.965458
447.212664	4782.527530
447.587431	5013.455226
447.962139	5322.001568
448.336786	6064.641668
448.711374	6429.374189
449.085901	5915.783956
449.460369	5904.819447
449.834776	5865.768148
450.209124	6290.266070
450.583412	6573.067239
450.957640	7082.969868
451.331808	6933.106446
451.705917	6669.827146
452.079965	6524.536051
452.453954	7051.094652
452.827883	7026.183790
453.201752	7291.373688
453.575562	7206.820936
453.949311	7537.281173
454.323001	7657.071591
454.696632	7911.584326
455.070202	8206.118780
455.443713	8471.288514
455.817164	8883.914518
456.190556	9024.008183
456.563888	9390.492506
456.937160	9649.166713
457.310373	9399.422910
457.683526	9584.516435
458.056619	9456.549265
458.429653	9667.985340
458.802628	9472.446544
459.175542	9824.477879
459.548398	10577.986706
459.921194	10950.601072
460.293930	11099.849473
460.666607	11865.429343
461.039224	12732.641395
461.411782	13409.073500
461.784280	13516.820602
462.156719	13738.712030
462.529099	13657.027693
462.901419	12969.951192
463.273680	12948.140639
463.645882	12952.281947
464.018024	12856.134541
464.390106	13162.460254
464.762130	13884.270306
465.134094	14570.114245
465.505999	16216.716408
465.877845	19054.296209
466.249631	21664.232625
466.621358	21692.286646
466.993026	20662.898154
467.364634	20350.008858
467.736184	19214.819150
468.107674	18574.809381
468.479105	18775.999311
468.850477	18387.177635
469.221790	18081.633301
469.593043	17534.779014
469.964238	17120.302906
470.335373	16884.505456
470.706449	17304.667985
471.077467	16932.318279
471.448425	18703.061376
471.819324	22518.272142
472.190164	24656.306147
472.560945	21414.635016
472.931667	19126.067116
473.302330	18535.392599
473.672934	18040.663843
474.043479	18471.034709
474.413965	18320.450402
474.784393	18001.794027
475.154761	18669.777158
475.525070	18727.977279
475.895321	18391.755003
476.265513	18987.740375
476.635645	19566.744621
477.005719	19386.533453
477.375734	19605.687534
477.745691	20085.103786
478.115588	20609.746749
478.485427	21123.135336
478.855207	22168.002691
479.224928	23906.910901
479.594591	26106.013443
479.964194	26236.365079
480.333739	26446.908869
480.703226	26032.097525
481.072653	25686.460894
481.442022	26254.031803
481.811333	27155.826170
482.180584	27109.359335
482.549777	26182.132346
482.918912	25820.454763
483.287988	25928.504334
483.657005	25642.620500
484.025964	25346.999676
484.394864	25312.719830
484.763706	25024.796849
485.132489	24429.877681
485.501213	24596.870943
485.869879	24537.450862
486.238487	24321.800383
486.607036	24479.591019
486.975527	24149.279496
487.343959	24497.958463
487.712333	24461.795746
488.080648	24140.144925
488.448905	24590.776188
488.817104	24341.259237
489.185244	25008.771021
489.553326	24995.036397
489.921350	25936.751662
490.289315	28183.651904
490.657222	30003.357208
491.025070	30502.065955
491.392861	30306.943055
491.760593	29467.966505
492.128267	28575.629342
492.495883	27554.536069
492.863440	26682.948295
493.230939	25792.267152
493.598380	25648.463197
493.965763	25233.155299
494.333088	24812.176103
494.700354	24723.298040
495.067563	24620.398008
495.434713	24370.485327
495.801805	24498.591128
496.168839	24329.959491
496.535815	24144.646675
496.902733	24361.413770
497.269593	24028.231310
497.636395	24222.724066
498.003139	24216.727614
498.369825	23958.771771
498.736453	24142.715913
499.103023	24037.295304
499.469535	24055.566966
499.835989	24251.171297
500.202385	24273.417909
500.568723	23782.210399
500.935003	24063.829417
501.301226	23642.683863
501.667390	24466.824297
502.033497	24719.028183
502.399546	24442.261275
502.765537	24035.472927
503.131470	24405.667539
503.497345	24547.349168
503.863163	23754.226954
504.228923	24385.112234
504.594625	24568.915224
504.960269	24090.905455
505.325856	24583.232101
505.691385	23995.720908
506.056856	24605.211532
506.422270	24563.039759
506.787625	24158.746783
507.152924	24548.561566
507.518164	24586.100518
507.883347	24391.557350
508.248472	24082.131327
508.613540	24865.768610
508.978550	24634.679597
509.343503	24624.206600
509.708398	24906.717902
510.073236	25059.323712
510.438016	25251.835295
510.802738	24935.270998
511.167403	25187.210223
511.532010	24877.842173
511.896561	25682.188516
512.261053	25648.435471
512.625488	25477.235365
512.989866	25375.449428
513.354186	25237.490691
513.718449	25315.091693
514.082655	25708.324378
514.446803	25442.065756
514.810894	25890.670475
515.174927	25380.654419
515.538904	25405.078810
515.902822	25895.615847
516.266684	25653.960575
516.630488	25562.773664
516.994235	25557.044392
517.357925	25855.014393
517.721558	26035.528030
518.085133	26118.760001
518.448651	26036.374944
518.812112	25765.160867
519.175516	25940.393896
519.538863	26123.234025
519.902152	25895.782205
520.265385	26192.166763
520.628560	25982.893343
520.991678	25983.866286
521.354739	26077.788023
521.717743	26126.954397
522.080690	25919.165597
522.443580	26253.124395
522.806413	26256.839725
523.169189	26333.450140
523.531908	26401.218372
523.894569	25994.195610
524.257174	26062.246146
524.619722	26272.096778
524.982213	25946.468486
525.344647	26019.892892
525.707025	26136.996375
526.069345	26136.880428
526.431608	26076.870533
526.793815	26285.609590
527.155964	25726.787604
527.518057	25899.462247
527.880093	25826.557080
528.242072	26050.795165
528.603995	25755.229794
528.965860	25560.041358
529.327669	25616.769463
529.689421	25584.864000
530.051117	25426.564207
530.412755	25611.642609
530.774337	25417.497692
531.135862	25282.553566
531.497331	25476.519522
531.858743	25034.218765
532.220098	25517.514185
532.581396	25187.179976
532.942638	25141.597863
533.303824	25230.917027
533.664953	25250.547280
534.026025	24913.767956
534.387040	25153.928525
534.747999	25221.911005
535.108902	25376.074531
535.469748	24857.843916
535.830537	25067.434928
536.191270	25171.532234
536.551947	25059.222888
536.912567	24721.536157
537.273131	25034.518714
537.633638	24753.199644
537.994089	24951.395128
538.354483	24508.623024
538.714821	25003.533262
539.075103	25049.054881
539.435328	24836.252654
539.795497	24395.565067
540.155609	24795.119359
540.515665	25085.958648
540.875665	24311.425689
541.235609	24605.818991
541.595496	24574.168107
541.955328	24940.312152
542.315102	24845.654406
542.674821	24402.741149
543.034483	24280.568786
543.394090	24446.427789
543.753640	24237.192178
544.113134	24867.056624
544.472571	24462.304903
544.831953	24748.425672
545.191278	24368.282342
545.550548	24294.247957
545.909761	24503.846531
546.268918	24727.860284
546.628019	24702.888929
546.987064	24403.083948
547.346053	24167.997300
547.704986	24288.032214
548.063863	24440.655668
548.422684	24441.537869
548.781449	23997.467668
549.140158	24402.093361
549.498811	23972.755932
549.857408	23704.889181
550.215949	24148.011646
550.574434	23814.766171
550.932864	24040.125912
551.291237	24196.668863
551.649555	24053.313571
552.007817	24107.296767
552.366022	23984.763961
552.724173	24023.507748
553.082267	23960.445434
553.440305	24440.149032
553.798288	23701.526732
554.156215	24218.023190
554.514086	24306.840759
554.871902	23691.764537
555.229661	23962.819818
555.587365	23827.865609
555.945014	23674.659902
556.302606	23944.112096
556.660143	23872.799934
557.017625	24131.048163
557.375050	23662.087265
557.732421	24055.292223
558.089735	23862.279046
558.446994	23940.389204
558.804197	23952.190545
559.161345	23911.901643
559.518437	23654.318847
559.875474	23853.986347
560.232455	24031.699623
560.589381	23858.432645
560.946251	23826.940557
561.303065	24167.319265
561.659825	24246.278857
562.016528	23856.045659
562.373177	23592.398354
562.729770	23950.973106
563.086307	23804.313338
563.442789	23988.512058
563.799216	23799.670435
564.155587	23819.950997
564.511904	23796.950733
564.868164	23734.652154
565.224370	23717.204720
565.580520	23621.498414
565.936615	23755.081430
566.292654	23435.089148
566.648638	23748.124637
567.004567	23569.367842
567.360441	23513.554708
567.716260	23240.785435
568.072023	23571.865734
568.427732	23331.712727
568.783385	23115.520323
569.138982	23342.062216
569.494525	23394.966605
569.850013	23128.297128
570.205445	23233.863931
570.560823	23023.443648
570.916145	22794.287918
571.271412	22967.849804
571.626625	22720.019119
571.981782	22832.308300
572.336884	22646.977841
572.691931	22773.833436
573.046923	22504.666068
573.401860	22390.884705
573.756743	22388.946381
574.111570	22308.247591
574.466342	22246.947160
574.821059	22326.199139
575.175722	22035.337165
575.530330	22019.465092
575.884882	22037.633411
576.239380	21946.690996
576.593823	21838.875838
576.948211	21815.696613
577.302544	21663.993170
577.656823	21530.231194
578.011047	21625.869444
578.365216	21496.548725
578.719330	21378.326105
579.073389	21285.437804
579.427394	21438.235177
579.781344	21196.095955
580.135239	21086.891960
580.489080	21049.257226
580.842866	20828.190027
581.196597	21009.283397
581.550273	20995.306798
581.903895	20882.228676
582.257463	21208.323274
582.610975	20725.559697
582.964434	21032.664268
583.317837	20744.363200
583.671186	20837.407777
584.024481	20801.300512
584.377721	20577.894218
584.730906	20631.411107
585.084037	20653.435908
585.437113	20557.412010
585.790135	20776.382089
586.143103	20237.044163
586.496016	20245.324258
586.848874	20487.055146
587.201679	20412.128477
587.554428	20091.309446
587.907124	20429.185221
588.259765	20208.365038
588.612352	20269.297465
588.964884	19842.193267
589.317362	20017.564927
589.669786	20064.772812
590.022155	20111.945409
590.374470	20297.051537
590.726731	20092.262224
591.078937	19856.900833
591.431090	19968.348142
591.783188	19705.784685
592.135232	19674.322844
592.487222	19777.232958
592.839157	19805.844027
593.191038	19682.101344
593.542866	19567.825948
593.894639	19287.522671
594.246358	19510.606332
594.598022	19409.233769
594.949633	19162.121448
595.301190	19136.439290
595.652692	19303.407347
596.004141	19532.394198
596.355535	18864.355614
596.706876	18875.945227
597.058162	18776.516029
597.409395	18993.202465
597.760573	19077.288912
598.111698	18842.875258
598.462768	18784.281927
598.813785	18754.264376
599.164748	18576.651923
599.515657	18611.992932
599.866511	18390.983706
600.217312	18768.805584
600.568060	18291.032749
600.918753	18593.620447
601.269392	18487.935177
601.619978	18271.853679
601.970510	18487.625146
602.320988	18428.752031
602.671412	18638.479154
603.021783	18549.669147
603.372100	18278.571017
603.722363	18411.962468
604.072572	18350.019290
604.422728	18493.051948
604.772830	18251.928519
605.122878	18202.245427
605.472872	18195.802832
605.822813	18188.898972
606.172701	18155.045103
606.522534	18355.075568
606.872314	18368.270788
607.222041	18206.714410
607.571714	18418.450433
607.921333	18246.189165
608.270899	18323.137337
608.620411	18509.838991
608.969870	18263.674407
609.319276	18277.058671
609.668627	18304.974060
610.017926	18447.492520
610.367171	18550.526143
610.716362	18606.780379
611.065500	18418.959590
611.414585	18543.826450
611.763616	18524.828862
612.112594	18473.363722
612.461518	18449.839177
612.810389	18642.471748
613.159207	18499.912959
613.507971	18407.793434
613.856682	18684.285599
614.205340	18616.802193
614.553945	18757.808307
614.902496	18507.252879
615.250994	18736.217045
615.599439	18675.040123
615.947830	18660.347680
616.296169	18718.063850
616.644454	18680.350978
616.992686	18650.547677
617.340864	18862.442496
617.688990	18618.233881
618.037063	18794.979255
618.385082	18637.546541
618.733048	18925.409028
619.080961	18787.110014
619.428821	18831.913269
619.776628	18717.894972
620.124382	18638.395975
620.472083	18676.953241
620.819731	18704.518270
621.167326	18401.086179
621.514868	18434.100695
621.862357	18199.351805
622.209793	18210.530563
622.557176	18046.309936
622.904506	17875.886168
623.251783	17789.695040
623.599007	17542.373512
623.946179	17491.704875
624.293297	17436.073221
624.640363	17190.808484
624.987376	17204.646451
625.334336	17000.741860
625.681243	16841.801841
626.028097	16856.211980
626.374899	16778.086698
626.721647	16645.048127
627.068343	16477.248280
627.414987	16419.355670
627.761577	16383.316461
628.108115	16433.470900
628.454600	16151.506563
628.801032	16246.033239
629.147412	16170.610015
629.493739	16210.488063
629.840014	16004.478790
630.186236	16105.579131
630.532405	15865.373191
630.878521	16067.629325
631.224585	15960.935824
631.570597	15789.009793
631.916556	15819.080275
632.262462	15805.519572
632.608316	15708.184973
632.954117	15655.033568
633.299866	15651.887888
633.645562	15570.672378
633.991206	15316.767103
634.336797	15189.644327
634.682336	15160.937476
635.027823	15048.623089
635.373257	14933.248722
635.718639	14829.753833
636.063968	14780.816832
636.409245	14535.126117
636.754470	14561.508996
637.099642	14407.108536
637.444762	14180.213763
637.789829	14221.790679
638.134845	14066.818048
638.479808	14094.662862
638.824719	14030.819169
639.169577	13886.851377
639.514383	13933.361062
639.859137	13758.818672
640.203839	13835.008150
640.548489	13674.888501
640.893086	13660.616995
641.237632	13539.415053
641.582125	13685.346375
641.926566	13520.591385
642.270955	13521.508875
642.615292	13486.089728
642.959576	13502.455834
643.303809	13536.904559
643.647990	13475.750322
643.992118	13529.063044
644.336195	13295.897076
644.680219	13497.192869
645.024192	13428.640739
645.368112	13668.211493
645.711981	13726.509917
646.055797	13903.661104
646.399562	13867.737842
646.743274	14135.307164
647.086935	14420.316359
647.430544	14379.649371
647.774101	14413.828394
648.117606	14563.911106
648.461059	14527.980282
648.804460	14517.353529
649.147810	14253.522222
649.491108	14143.090706
649.834354	14179.505481
650.177548	13858.565462
650.520690	13669.877594
650.863781	13590.734000
651.206820	13630.065082
651.549807	13467.039208
651.892742	13264.117642
652.235626	13213.975805
652.578458	13211.062018
652.921238	12898.981828
653.263967	13094.306375
653.606644	12922.148450
653.949269	12891.004202
654.291843	12705.638454
654.634365	12862.950181
654.976836	12707.874206
655.319255	12723.310219
655.661622	12669.223679
656.003938	12590.301895
656.346203	12524.489632
656.688416	12606.398300
657.030577	12553.866956
657.372687	12468.028709
657.714746	12446.324021
658.056753	12632.188843
658.398708	12449.830143
658.740612	12457.744755
659.082465	12559.039180
659.424266	12518.530988
659.766016	12544.273640
660.107715	12455.544291
660.449362	12524.101463
660.790958	12486.824651
661.132503	12433.511928
661.473996	12495.278666
661.815438	12514.619053
662.156829	12535.993545
662.498168	12506.371725
662.839456	12506.424657
663.180693	12523.098273
663.521879	12614.421296
663.863013	12592.487236
664.204097	12566.590828
664.545129	12690.542719
664.886110	12662.748317
665.227040	12741.604566
665.567918	12756.546546
665.908746	12788.005867
666.249522	12766.936364
666.590248	12814.832367
666.930922	12934.330398
667.271545	12907.655133
667.612118	12998.388340
667.952639	12899.198597
668.293109	12908.938107
668.633528	12866.751211
668.973896	12844.464269
669.314213	12925.263883
669.654480	12650.589054
669.994695	12735.590470
670.334859	12757.544695
670.674973	12704.988145
671.015035	12735.146848
671.355047	12679.419413
671.695008	12653.802790
672.034918	12662.183708
672.374777	12706.477806
672.714585	12618.456740
673.054342	12648.365905
673.394049	12600.081734
673.733705	12688.145650
674.073310	12598.917227
674.412864	12614.196965
674.752368	12493.179025
675.091820	12502.800068
675.431223	12492.221206
675.770574	12359.762368
676.109875	12286.322839
676.449125	12245.252559
676.788324	12184.360461
677.127473	12016.323680
677.466571	12010.952331
677.805619	11906.323183
678.144616	11825.296717
678.483562	11798.412243
678.822458	11668.232007
679.161303	11645.723255
679.500098	11636.039199
679.838842	11589.726118
680.177535	11605.489806
680.516179	11672.272492
680.854771	11617.432300
681.193314	11830.680669
681.531805	11987.662200
681.870247	12403.406158
682.208638	12811.860607
682.546978	13135.374134
682.885268	13173.568437
683.223508	12874.595246
683.561697	12714.087428
683.899836	12614.940535
684.237925	12417.289495
684.575963	12332.300683
684.913951	12264.434149
685.251889	12200.668594
685.589776	12297.241978
685.927614	12225.166081
686.265401	12193.676514
686.603137	12237.232083
686.940824	12386.525854
687.278460	12511.896830
687.616046	12562.187380
687.953582	12724.681413
688.291068	12653.618788
688.628504	12892.138461
688.965889	12892.483780
689.303224	12867.981252
689.640510	12747.258220
689.977745	12451.602109
690.314930	12221.284393
690.652065	12131.599745
690.989150	11845.816734
691.326185	11619.615119
691.663170	11408.259703
692.000105	11173.127685
692.336990	11063.628782
692.673825	10803.406941
693.010610	10688.655156
693.347345	10471.699018
693.684030	10278.151478
694.020665	10218.701151
694.357251	10025.768631
694.693786	9971.606474
695.030272	9796.365884
695.366707	9678.748203
695.703093	9620.260737
696.039429	9611.405950
696.375716	9537.820227
696.711952	9396.713290
697.048139	9446.661042
697.384276	9399.062467
697.720363	9413.399509
698.056400	9350.248975
698.392388	9309.801277
698.728326	9264.503989
699.064214	9204.103404
699.400053	9247.046473
699.735842	9059.853307
700.071581	9020.534828
700.407270	8948.781565
700.742910	8868.859112
701.078501	8774.241695
701.414042	8649.730236
701.749533	8588.523067
702.084974	8443.410933
702.420366	8562.125065
702.755709	8445.961757
703.091002	8310.233731
703.426246	8338.955705
703.761440	8290.532901
704.096584	8243.861899
704.431679	8179.095675
704.766725	8161.537336
705.101721	8113.253165
705.436668	8157.196903
705.771565	8050.195892
706.106413	8133.448027
706.441212	8173.734408
706.775961	8125.530895
707.110661	8168.090836
707.445311	8310.629461
707.779913	8208.480561
708.114465	8340.800767
708.448967	8375.249492
708.783421	8514.962550
709.117825	8698.563894
709.452180	8736.828772
709.786485	8821.449580
710.120742	9111.036143
710.454949	9106.637736
710.789107	9206.006440
711.123216	9418.014685
711.457275	9589.318134
711.791286	9748.265715
712.125247	9740.278007
712.459159	9731.345082
712.793023	9982.477723
713.126837	9555.176920
713.460602	9709.635353
713.794318	9529.376294
714.127985	9562.660513
714.461602	9237.798477
714.795171	9188.977422
715.128691	8949.547820
715.462162	8694.861166
715.795584	8641.573649
716.128957	8495.407914
716.462281	8320.058939
716.795556	8373.343936
717.128782	8167.324581
717.461960	7896.423055
717.795088	7970.160013
718.128167	7874.068059
718.461198	7711.914304
718.794180	7651.125550
719.127113	7644.952658
719.459997	7497.009916
719.792833	7258.528051
720.125619	7325.477094
720.458357	7182.197420
720.791046	7174.744074
721.123686	7169.803743
721.456278	7010.175606
721.788821	7021.924015
722.121315	6922.668737
722.453761	6986.189796
722.786158	6936.400840
723.118506	6941.683970
723.450805	6912.377222
723.783056	6980.861297
724.115259	6881.598457
724.447412	6879.375308
724.779518	6927.868687
725.111574	6922.177225
725.443582	7010.180647
725.775542	6988.004612
726.107453	7180.306987
726.439315	7091.935560
726.771129	7149.747512
727.102895	7320.816547
727.434612	7435.094464
727.766281	7462.543547
728.097901	7544.913480
728.429473	7539.259826
728.760996	7516.882144
729.092471	7485.642114
729.423897	7436.747963
729.755276	7446.016124
730.086606	7372.495936
730.417887	7472.900597
730.749120	7666.107860
731.080305	7859.610029
731.411442	7984.653330
731.742530	7978.495561
732.073570	8086.978671
732.404562	8169.121752
732.735506	8017.534256
733.066401	8160.297212
733.397249	8093.998477
733.728048	7857.583486
734.058798	7520.557145
734.389501	7291.139275
734.720156	7117.743747
735.050762	6884.313118
735.381320	6785.889631
735.711831	6737.401292
736.042293	6629.329036
736.372707	6647.635986
736.703073	6513.967272
737.033391	6546.298712
737.363661	6557.595938
737.693883	6590.141627
738.024056	6676.131108
738.354182	6719.739610
738.684260	6749.595843
739.014290	6862.812597
739.344272	6981.103272
739.674207	7003.420460
740.004093	7073.474855
740.333931	7085.876093
740.663722	7095.358503
740.993464	7172.034453
741.323159	7160.991806
741.652806	6911.159783
741.982405	6926.903307
742.311956	6983.696946
742.641460	6823.751217
742.970915	6623.130938
743.300323	6619.430731
743.629683	6566.551547
743.958996	6433.848213
744.288260	6343.840932
744.617477	6290.820597
744.946647	6298.531041
745.275768	6130.161544
745.604842	6086.603454
745.933869	6065.589404
746.262847	6025.366038
746.591778	6015.538308
746.920662	5970.785465
747.249498	5961.030833
747.578286	6009.365416
747.907027	6088.713177
748.235720	6144.339789
748.564365	6120.492611
748.892963	6145.458925
749.221514	6301.855682
749.550017	6133.266895
749.878473	6006.403738
750.206881	6062.897428
750.535242	6010.071177
750.863555	5936.477893
751.191821	5952.849040
751.520039	5954.464730
751.848210	5865.931986
752.176334	5881.733483
752.504411	5935.232728
752.832440	5857.573753
753.160421	5788.222599
753.488356	5836.446277
753.816243	5869.632193
754.144082	5714.359613
754.471875	5685.262073
754.799620	5731.209670
755.127318	5747.903451
755.454969	5698.593404
755.782572	5666.438405
756.110129	5711.821392
756.437638	5696.045101
756.765100	5635.188292
757.092515	5628.780985
757.419882	5680.551115
757.747203	5663.620400
758.074477	5723.968052
758.401703	5714.450354
758.728882	5661.858516
759.056014	5719.965376
759.383099	5850.037228
759.710138	5856.651222
760.037129	5846.941959
760.364073	5850.649728
760.690970	5933.624600
761.017820	5912.295478
761.344623	5866.521801
761.671379	5969.512574
761.998088	6082.688998
762.324751	6326.789229
762.651366	6924.869201
762.977935	8231.536278
763.304456	9864.189568
763.630931	10773.865780
763.957359	10379.766016
764.283740	9439.663921
764.610074	8608.755738
764.936362	7610.493850
765.262602	7011.009917
765.588796	6477.875131
765.914943	6137.476258
766.241044	5970.727492
766.567097	5775.080311
766.893104	5512.544581
767.219064	5335.118650
767.544978	5273.482983
767.870845	5197.152352
768.196665	5094.338019
768.522438	5019.670969
768.848165	4984.410618
769.173846	4921.580198
769.499479	4876.933218
769.825066	4824.764838
770.150607	4764.772587
770.476101	4737.578082
770.801548	4737.691508
771.126949	4658.623531
771.452303	4606.228298
771.777611	4566.488882
772.102872	4583.230554
772.428087	4542.828227
772.753256	4504.951517
773.078378	4457.990649
773.403453	4388.097571
773.728482	4376.727249
774.053465	4328.899302
774.378401	4318.721212
774.703291	4313.314574
775.028135	4245.979883
775.352932	4197.980536
775.677683	4184.152651
776.002388	4207.740210
776.327046	4212.027711
776.651658	4141.718739
776.976224	4077.912854
777.300743	4082.843103
777.625216	4103.703398
777.949643	4104.661217
778.274024	4056.755132
778.598359	4009.917771
778.922647	4033.336452
779.246889	4026.921583
779.571086	4017.479502
779.895236	4002.681195
780.219339	3990.035461
780.543397	3984.530521
780.867409	4037.523130
781.191374	4051.431673
781.515294	3986.857013
781.839167	3980.711847
782.162995	3997.990401
782.486776	3985.808453
782.810511	4000.344620
783.134201	3994.955627
783.457844	3949.106332
783.781441	3895.292015
784.104993	3904.693767
784.428498	3918.599790
784.751958	3914.773554
785.075372	3892.930235
785.398739	3854.854400
785.722061	3866.887634
786.045337	3909.402205
786.368568	3944.324798
786.691752	3854.924976
787.014891	3904.328283
787.337983	4031.657747
787.661030	4189.818908
787.984031	4353.059031
788.306987	4521.915000
788.629897	4609.578145
788.952760	4559.479158
789.275579	4491.577336
789.598351	4431.264972
789.921078	4290.160555
790.243759	4087.261674
790.566395	4071.268614
790.888984	4068.206113
791.211529	3959.569247
791.534027	3898.709917
791.856480	3886.318761
792.178888	3829.656192
792.501249	3778.722894
792.823566	3786.738329
793.145836	3817.612876
793.468062	3767.929784
793.790241	3722.826580
794.112375	3747.248450
794.434464	3814.031136
794.756507	3838.798325
795.078505	3818.222855
795.400457	3850.398020
795.722364	3989.067559
796.044226	4093.018672
796.366042	4165.772604
796.687812	4148.589831
797.009538	4153.573012
797.331218	4111.247484
797.652852	4084.839400
797.974442	4065.940114
798.295986	4064.369795
798.617484	3987.144359
798.938938	3895.634814
799.260346	3937.904889
799.581709	3933.453550
799.903026	3862.252293
800.224299	3820.715706
800.545526	3815.598935
800.866708	3779.166516
801.187845	3715.894994
801.508936	3751.399840
801.829983	3749.579984
802.150984	3673.019980
802.471940	3661.148063
802.792851	3673.904703
803.113717	3671.943694
803.434538	3674.118952
803.755314	3617.350518
804.076045	3591.635593
804.396731	3610.585290
804.717372	3636.259887
805.037967	3623.689769
805.358518	3610.721401
805.679024	3641.490084
805.999485	3651.625323
806.319901	3657.304183
806.640272	3668.924043
806.960598	3685.935417
807.280879	3658.952641
807.601115	3671.495031
807.921306	3685.277546
808.241453	3726.874627
808.561554	3704.325546
808.881611	3637.106800
809.201623	3675.641380
809.521590	3684.196218
809.841513	3657.909122
810.161390	3688.549255
810.481223	3666.224505
810.801011	3611.656535
811.120755	3606.035649
811.440453	3638.346924
811.760107	3641.543016
812.079716	3601.861573
812.399281	3568.758837
812.718801	3590.423195
813.038276	3564.617529
813.357707	3563.488310
813.677093	3580.529931
813.996434	3526.801313
814.315731	3535.497303
814.634983	3539.782284
814.954191	3553.602608
815.273354	3582.175867
815.592473	3583.047987
815.911547	3586.329778
816.230577	3624.408134
816.549562	3674.461750
816.868502	3715.655539
817.187399	3744.995054
817.506250	3738.852408
817.825058	3713.303841
818.143821	3801.685350
818.462539	3908.209972
818.781213	3952.040284
819.099843	4005.040455
819.418429	4251.477261
819.736970	4490.496009
820.055466	4739.208895
820.373919	5098.565027
820.692327	5512.045506
821.010691	5952.889369
821.329011	7320.317473
821.647286	10055.362725
821.965517	14596.068626
822.283704	18625.200755
822.601847	20812.254940
822.919945	18996.620368
823.237999	16421.717450
823.556010	13945.270788
823.873976	11855.659587
824.191897	9759.136963
824.509775	8411.543279
824.827609	7287.272710
825.145398	6730.799901
825.463144	6620.839733
825.780845	6729.327884
826.098502	6916.473159
826.416116	7790.573948
826.733685	9106.350390
827.051210	10227.306400
827.368692	10272.654100
827.686129	9027.597485
828.003522	7513.181937
828.320872	6492.910372
828.638177	5790.488598
828.955439	5234.144339
829.272656	4736.179162
829.589830	4452.470585
829.906960	4276.105818
830.224046	4093.406841
830.541088	3964.323055
830.858086	3917.319337
831.175041	3844.041125
831.491952	3829.217612
831.808819	3838.694981
832.125642	3912.147113
832.442421	4052.966705
832.759157	4330.441895
833.075849	4878.170822
833.392497	5743.931022
833.709101	6513.561459
834.025662	6860.339911
834.342179	6494.294169
834.658653	5834.702038
834.975083	5188.514335
835.291469	4611.740800
835.607811	4203.543449
835.924110	4060.591450
836.240366	3862.108620
836.556578	3656.994152
836.872746	3547.764951
837.188871	3510.120135
837.504952	3445.268211
837.820990	3360.349975
838.136984	3314.614107
838.452935	3336.308712
838.768842	3334.322498
839.084706	3359.389635
839.400526	3512.663397
839.716303	3850.834079
840.032037	4374.700705
840.347727	4640.961848
840.663373	4364.986401
840.978977	3980.608503
841.294537	3674.660876
841.610054	3447.501443
841.925527	3337.362313
842.240957	3271.774381
842.556344	3217.715568
842.871687	3160.324552
843.186987	3109.618106
843.502244	3071.688464
843.817458	3036.654966
844.132629	3004.825120
844.447756	3014.103364
844.762840	3002.148268
845.077881	2969.794142
845.392879	2950.587346
845.707833	2947.739094
846.022745	2944.406892
846.337613	2946.156172
846.652438	2933.603699
846.967221	2932.829882
847.281960	2918.417223
847.596656	2914.598549
847.911309	2912.753487
848.225919	2906.525141
848.540485	2901.854512
848.855009	2903.724780
849.169490	2893.821433
849.483928	2884.568395
849.798323	2882.403220
850.112675	2878.682848
850.426984	2891.016031
850.741251	2887.819940
851.055474	2877.740153
851.369654	2870.342259
851.683792	2878.145965
851.997887	2885.415309
852.311938	2887.353633
852.625947	2874.032384
852.939914	2878.851727
853.253837	2884.689383
853.567718	2870.206148
853.881555	2866.790766
854.195350	2883.623179
854.509103	2876.805018
854.822812	2874.438197
855.136479	2869.066847
855.450103	2870.906868
855.763685	2862.498224
856.077224	2861.530322
856.390720	2873.992055
856.704173	2883.860113
857.017584	2877.006665
857.330953	2873.619009
857.644278	2882.267109
857.957561	2886.237017
858.270802	2894.751526
858.584000	2889.453273
858.897155	2880.190153
859.210268	2879.121429
859.523339	2875.821993
859.836367	2875.791747
860.149352	2871.615151
860.462295	2865.220447
860.775195	2877.467930
861.088054	2877.120091
861.400869	2856.327852
861.713642	2854.442460
862.026373	2869.613812
862.339062	2873.024153
862.651708	2878.093033
862.964312	2882.516646
863.276873	2874.672610
863.589392	2883.310628
863.901869	2896.319325
864.214303	2917.688776
864.526696	2933.296188
864.839045	2928.789397
865.151353	2928.396187
865.463619	2925.222781
865.775842	2929.936259
866.088023	2946.269598
866.400162	2953.622121
866.712258	2923.513829
867.024313	2914.548137
867.336325	2922.508119
867.648296	2946.072993
867.960224	2938.231478
868.272110	2921.615835
868.583954	2928.146650
868.895755	2943.186932
869.207515	2929.379212
869.519233	2933.641508
869.830909	2944.318671
870.142542	2955.946093
870.454134	2955.073973
870.765684	2957.765949
871.077191	2955.265537
871.388657	2966.192238
871.700081	2976.201449
872.011463	2989.474807
872.322803	2986.583705
872.634101	2987.107985
872.945357	3006.949967
873.256571	3029.418389
873.567744	3024.485620
873.878874	3016.013961
874.189963	3039.478012
874.501010	3040.602189
874.812015	3031.558359
875.122979	3029.914943
875.433900	3027.701877
875.744780	3033.700850
876.055618	3040.934905
876.366415	3038.978938
876.677169	3045.827345
876.987882	3044.151162
877.298554	3040.740821
877.609183	3060.335786
877.919771	3084.273705
878.230317	3110.525514
878.540822	3161.105931
878.851285	3204.283413
879.161707	3244.335381
879.472087	3345.362624
879.782425	3571.367634
880.092722	4007.712267
880.402977	4534.742216
880.713191	5158.900077
881.023363	6312.863042
881.333494	7589.961231
881.643583	8150.499730
881.953631	7851.990325
882.263637	7221.901547
882.573602	6640.858155
882.883526	6064.084620
883.193408	5495.472713
883.503248	5030.998442
883.813048	4724.251792
884.122806	4424.018313
884.432522	4105.631639
884.742197	3871.318808
885.051831	3674.396215
885.361424	3544.841082
885.670975	3471.222592
885.980485	3384.517266
886.289954	3308.269814
886.599382	3263.645521
886.908768	3228.259141
887.218113	3180.786595
887.527417	3124.464304
887.836680	3075.126531
888.145901	3070.559246
888.455082	3057.200188
888.764221	3007.287724
889.073319	2980.536841
889.382376	2975.725060
889.691392	2980.254537
890.000366	2977.466778
890.309300	2967.568473
890.618193	2979.901656
890.927044	2995.536794
891.235855	2997.250787
891.544625	2982.518015
891.853353	2994.210971
892.162041	3010.211593
892.470687	3050.281205
892.779293	3099.162753
893.087858	3149.213849
893.396381	3220.745301
893.704864	3341.571677
894.013306	3580.441711
894.321707	3879.530848
894.630068	4088.801747
894.938387	4084.980552
895.246665	4038.312070
895.554903	3918.902259
895.863100	3719.895149
896.171256	3555.319120
896.479371	3415.928696
896.787446	3290.320786
897.095480	3186.649457
897.403473	3123.307359
897.711425	3087.164807
898.019336	3077.614341
898.327207	3049.212480
898.635038	3015.456914
898.942827	2999.294975
899.250576	2987.997749
899.558284	2955.694035
899.865952	2936.378854
900.173579	2916.294897
900.481165	2910.313568
900.788711	2894.280178
901.096216	2872.976262
901.403681	2860.769108
901.711105	2867.206662
902.018489	2863.582072
902.325832	2866.831096
902.633135	2875.000285
902.940397	2909.048238
903.247619	2988.348109
903.554800	3181.550330
903.861941	3525.198226
904.169041	3951.263946
904.476101	4247.865274
904.783121	4206.883214
905.090100	3966.828509
905.397039	3687.354501
905.703938	3439.196142
906.010796	3257.719644
906.317614	3146.486585
906.624391	3051.135680
906.931129	2978.411995
907.237826	2919.044847
907.544483	2868.431662
907.851099	2839.223217
908.157675	2820.591112
908.464211	2798.462967
908.770707	2784.922428
909.077163	2774.245264
909.383578	2755.776997
909.689954	2745.392220
909.996289	2745.432549
910.302584	2745.379617
910.608839	2749.329361
910.915054	2742.700244
911.221229	2734.261352
911.527363	2737.563308
911.833458	2742.591859
912.139513	2746.919690
912.445527	2754.199116
912.751502	2760.107348
913.057436	2769.133534
913.363331	2781.933024
913.669186	2803.831796
913.975000	2839.697085
914.280775	2896.498286
914.586510	2967.704584
914.892205	3047.206101
915.197859	3175.349711
915.503475	3369.000595
915.809050	3578.601689
916.114585	3725.450501
916.420081	3743.916248
916.725536	3688.055222
917.030952	3569.739341
917.336328	3444.993468
917.641665	3313.116884
917.946961	3211.162068
918.252218	3143.023312
918.557435	3061.979202
918.862612	3001.845798
919.167750	2954.998356
919.472848	2914.510329
919.777906	2886.778941
920.082925	2861.084180
920.387904	2831.290961
920.692843	2814.201449
920.997743	2803.778864
921.302603	2790.278654
921.607423	2780.009823
921.912204	2766.701177
922.216946	2756.427306
922.521647	2748.006058
922.826310	2740.426683
923.130932	2731.690364
923.435516	2722.454970
923.740059	2716.269474
924.044564	2707.812939
924.349028	2702.524768
924.653454	2698.771629
924.957840	2689.591688
925.262186	2689.700073
925.566493	2682.919721
925.870761	2677.497960
926.174989	2672.431600
926.479178	2671.052845
926.783328	2666.263749
927.087438	2663.165960
927.391509	2662.399704
927.695541	2659.014569
927.999533	2656.680515
928.303486	2652.456028
928.607400	2650.794968
928.911275	2650.648775
929.215110	2648.080307
929.518906	2649.706079
929.822663	2650.134577
930.126381	2648.367652
930.430060	2649.670791
930.733699	2650.963847
931.037299	2649.890081
931.340861	2652.100627
931.644383	2652.602222
931.947866	2652.171203
932.251309	2653.010555
932.554714	2648.465955
932.858080	2647.692138
933.161407	2643.374390
933.464694	2643.104688
933.767943	2640.652167
934.071153	2643.326499
934.374323	2643.202990
934.677455	2644.526293
934.980548	2640.221148
935.283602	2642.293062
935.586617	2641.234420
935.889593	2638.741569
936.192530	2641.292393
936.495428	2643.444966
936.798287	2643.228196
937.101108	2647.659370
937.403890	2653.307983
937.706632	2654.837973
938.009336	2660.080773
938.312002	2672.275325
938.614628	2676.910666
938.917216	2684.447191
939.219765	2686.388035
939.522275	2685.430216
939.824747	2681.588856
940.127179	2681.377128
940.429573	2676.683814
940.731929	2675.731036
941.034246	2671.042762
941.336524	2668.174346
941.638763	2668.444048
941.940964	2661.535146
942.243126	2661.764519
942.545250	2659.196051
942.847335	2658.737306
943.149381	2653.257572
943.451389	2649.746408
943.753359	2650.084165
944.055290	2645.836993
944.357182	2647.442601
944.659036	2645.078300
944.960851	2644.682569
945.262628	2644.107877
945.564367	2643.775161
945.866067	2645.095944
946.167729	2648.062663
946.469352	2645.637868
946.770937	2642.577887
947.072484	2641.045377
947.373992	2642.971097
947.675462	2640.894142
947.976893	2637.667803
948.278286	2636.626805
948.579641	2635.429531
948.880958	2631.590692
949.182236	2634.267545
949.483476	2635.600930
949.784678	2633.743265
950.085841	2636.294089
950.386967	2634.751496
950.688054	2635.616054
950.989103	2637.350211
951.290114	2636.997330
951.591087	2640.455562
951.892021	2644.102836
952.192917	2645.610141
952.493776	2648.047539
952.794596	2648.055101
953.095378	2645.443783
953.396122	2646.981335
953.696828	2646.812457
953.997496	2643.419760
954.298126	2642.799698
954.598718	2641.000006
954.899272	2633.224026
955.199788	2632.651855
955.500266	2628.187914
955.800706	2629.975003
956.101108	2626.451236
956.401472	2627.030969
956.701798	2622.403190
957.002087	2620.837911
957.302337	2621.543673
957.602550	2618.004783
957.902724	2616.946141
958.202861	2614.876747
958.502960	2612.933382
958.803022	2612.983794
959.103045	2614.065121
959.403031	2611.927672
959.702979	2609.084461
960.002889	2611.365583
960.302762	2610.962291
960.602596	2608.461879
960.902393	2612.701489
961.202153	2609.376848
961.501875	2610.659822
961.801559	2607.869543
962.101205	2608.713936
962.400814	2610.120418
962.700385	2611.237034
962.999918	2603.834099
963.299414	2604.234871
963.598873	2606.092536
963.898293	2605.376692
964.197677	2607.015067
964.497022	2605.293513
964.796331	2607.085644
965.095601	2606.513473
965.394835	2605.711929
965.694030	2607.965325
965.993189	2606.062289
966.292309	2603.934923
966.591393	2606.515993
966.890439	2604.630602
967.189447	2605.714450
967.488419	2604.139089
967.787353	2602.856116
968.086249	2605.893411
968.385108	2603.703029
968.683930	2606.415170
968.982714	2606.901642
969.281462	2605.701847
969.580172	2605.469954
969.878844	2605.643874
970.177480	2605.946343
970.476078	2606.090016
970.774639	2609.712085
971.073162	2605.583380
971.371649	2608.061107
971.670098	2607.584718
971.968510	2605.061620
972.266885	2605.482557
972.565223	2606.994903
972.863524	2608.945829
973.161788	2607.836776
973.460014	2607.748555
973.758204	2605.106991
974.056356	2606.077413
974.354471	2609.492795
974.652550	2607.947681
974.950591	2606.621857
975.248595	2608.615634
975.546563	2606.488267
975.844493	2605.588421
976.142386	2602.851074
976.440243	2605.785026
976.738062	2604.393667
977.035845	2603.322422
977.333590	2605.827876
977.631299	2603.423245
977.928971	2602.107504
978.226606	2602.465426
978.524204	2598.268666
978.821765	2600.264962
979.119290	2604.481888
979.416777	2605.578339
979.714228	2605.777464
980.011642	2604.817124
980.309020	2604.065993
980.606360	2601.704212
980.903664	2605.409460
981.200931	2606.304265
981.498162	2603.246805
981.795356	2609.472630
982.092513	2607.821652
982.389633	2610.012033
982.686717	2615.963116
982.983764	2617.344392
983.280775	2621.263889
983.577749	2623.066101
983.874686	2619.895216
984.171587	2618.871861
984.468451	2613.974380
984.765279	2615.496809
985.062070	2612.308279
985.358824	2611.421036
985.655543	2608.691251
985.952224	2607.042794
986.248869	2608.623196
986.545478	2604.731425
986.842050	2604.068513
987.138586	2603.171188
987.435086	2604.035746
987.731549	2603.725715
988.027975	2601.295878
988.324366	2600.519541
988.620719	2599.778491
988.917037	2600.181783
989.213318	2600.204469
989.509563	2603.519027
989.805772	2601.532813
990.101944	2603.292175
990.398080	2602.016763
990.694180	2600.542226
990.990244	2597.578027
991.286271	2599.579366
991.582262	2600.413677
991.878217	2599.221444
992.174136	2601.074068
992.470019	2599.468460
992.765865	2599.183635
993.061676	2596.514344
993.357450	2596.108531
993.653188	2596.237081
993.948890	2602.490632
994.244556	2599.788573
994.540186	2602.727566
994.835780	2601.883173
995.131337	2601.396702
995.426859	2602.485591
995.722345	2605.664038
996.017795	2604.718822
996.313208	2605.777464
996.608586	2603.738317
996.903928	2606.826024
997.199234	2606.788216
997.494504	2607.408277
997.789738	2605.054059
998.084936	2605.351487
998.380099	2603.660180
998.675225	2603.365272
998.970316	2602.795622
999.265371	2604.328132
999.560390	2600.476691
999.855373	2603.541712
1000.150320	2600.703543
1000.445232	2601.026177
1000.740108	2599.904520
1001.034948	2598.893769
1001.329752	2600.310333
1001.624521	2598.165322
1001.919254	2597.857812
1002.213951	2600.040631
1002.508613	2601.416866
1002.803239	2597.484766
1003.097829	2599.602051
1003.392384	2598.513162
1003.686903	2597.875456
1003.981386	2599.687750
1004.275834	2597.396546
1004.570246	2599.470981
1004.864623	2599.569283
1005.158964	2597.877976
1005.453270	2599.319746
1005.747540	2600.950559
1006.041775	2597.217585
1006.335974	2600.181783
1006.630138	2596.229519
1006.924266	2599.334870
1007.218359	2599.352514
1007.512416	2598.397215
1007.806438	2595.180959
1008.100425	2595.110383
1008.394376	2593.303129
1008.688292	2597.053747
1008.982172	2600.156578
1009.276017	2597.888058
1009.569827	2598.185487
1009.863602	2598.402256
1010.157341	2597.658686
1010.451045	2600.247318
1010.744714	2596.489138
1011.038347	2600.436362
1011.331945	2596.867225
1011.625508	2596.811772
1011.919036	2597.782194
1012.212528	2596.854622
1012.505986	2597.358737
1012.799408	2599.415528
1013.092795	2598.495517
1013.386147	2594.823037
1013.679464	2597.961155
1013.972745	2598.392174
1014.265992	2597.580548
1014.559204	2595.833788
1014.852380	2599.382761
1015.145521	2596.403439
1015.438628	2596.577358
1015.731699	2596.307657
1016.024736	2597.552822
1016.317737	2595.206165
1016.610703	2598.742534
1016.903635	2597.872935
1017.196531	2596.569797
1017.489393	2595.034765
1017.782219	2598.314036
1018.075011	2593.829930
1018.367768	2599.584407
1018.660490	2597.502410
1018.953177	2597.502410
1019.245829	2597.502410
