Dividing Wavelength (nm)	Counts (n)	Blue Motor Position (mm): 42.000000	Red Motor Position (mm): 0.000000	
326.493990	2131.548560
326.888308	2131.548560
327.282561	2131.548560
327.676750	2097.838364
328.070874	2097.291399
328.464933	2100.457244
328.858929	2105.473192
329.252859	2114.569954
329.646726	2126.212499
330.040528	2139.632050
330.434265	2159.710966
330.827938	2171.787050
331.221547	2192.221367
331.615091	2209.383976
332.008571	2230.602192
332.401986	2250.973495
332.795338	2268.615013
333.188625	2288.348609
333.581847	2308.828297
333.975006	2324.965030
334.368100	2346.092506
334.761129	2361.929291
335.154095	2378.398741
335.546996	2402.445044
335.939833	2423.832140
336.332606	2440.609100
336.725315	2450.333485
337.117960	2462.999384
337.510540	2467.647328
337.903056	2483.572333
338.295508	2486.876810
338.687896	2497.372492
339.080220	2504.916579
339.472480	2511.480161
339.864676	2518.010976
340.256807	2521.244876
340.648875	2522.164887
341.040879	2530.006401
341.432818	2529.008253
341.824694	2530.160157
342.216506	2528.917512
342.608253	2529.424148
342.999937	2533.630991
343.391557	2531.372554
343.783113	2530.520599
344.174605	2528.347862
344.566033	2525.852491
344.957397	2524.153622
345.348697	2522.631193
345.739934	2522.051461
346.131106	2520.408044
346.522215	2520.246728
346.913260	2514.278001
347.304241	2515.911335
347.695159	2511.986797
348.086012	2513.541993
348.476802	2510.252640
348.867528	2508.755417
349.258191	2507.628719
349.648789	2506.464213
350.039324	2502.514469
350.429796	2501.395333
350.820203	2503.074037
351.210548	2504.533451
351.600828	2502.733759
351.991045	2498.647904
352.381198	2498.882317
352.771288	2499.252842
353.161314	2498.673110
353.551276	2497.443068
353.941175	2497.644714
354.331010	2497.871566
354.720782	2496.298726
355.110490	2494.972903
355.500135	2496.918788
355.889717	2497.861484
356.279235	2497.627070
356.668689	2498.955414
357.058080	2500.026659
357.447408	2500.009015
357.836672	2497.402739
358.225873	2497.430465
358.615010	2497.942142
359.004084	2502.264932
359.393095	2499.673779
359.782043	2503.399191
360.170927	2501.659993
360.559748	2502.958090
360.948505	2501.526403
361.337199	2506.524707
361.725830	2504.561177
362.114398	2508.551251
362.502903	2506.774244
362.891344	2506.517145
363.279722	2507.923627
363.668037	2508.402537
364.056289	2509.456138
364.444478	2509.869512
364.832603	2509.524193
365.220665	2510.010665
365.608665	2510.713906
365.996601	2510.325737
366.384474	2509.748525
366.772284	2511.099554
367.160031	2510.403875
367.547715	2512.740449
367.935336	2512.253978
368.322893	2513.053001
368.710388	2514.134328
369.097820	2517.690863
369.485189	2513.789009
369.872495	2513.831859
370.259738	2515.026613
370.646918	2514.615759
371.034035	2517.090965
371.421090	2518.061387
371.808081	2517.302694
372.195010	2518.545338
372.581875	2513.146262
372.968678	2518.827643
373.355418	2519.591377
373.742096	2518.908301
374.128710	2518.048784
374.515262	2518.076511
374.901751	2522.295957
375.288177	2518.628517
375.674540	2519.868641
376.060841	2520.483662
376.447079	2525.492048
376.833254	2518.920904
377.219367	2514.625841
377.605417	2520.070287
377.991404	2520.718075
378.377329	2520.380318
378.763191	2518.961233
379.148991	2526.318797
379.534727	2521.108765
379.920402	2526.091945
380.306013	2522.220339
380.691563	2528.836854
381.077049	2527.538757
381.462474	2530.500434
381.847835	2531.609488
382.233134	2536.370858
382.618371	2537.764737
383.003545	2544.640871
383.388657	2550.430636
383.773706	2559.192162
384.158693	2565.067626
384.543618	2573.662794
384.928480	2584.284505
385.313280	2597.872935
385.698017	2612.598145
386.082692	2628.883593
386.467305	2638.925571
386.851856	2657.416524
387.236344	2676.030984
387.620770	2697.783563
388.005133	2717.950699
388.389435	2740.177146
388.773674	2759.144488
389.157851	2789.436781
389.541965	2812.812612
389.926018	2822.549600
390.310008	2867.685571
390.693936	2895.674057
391.077802	2932.590427
391.461606	2957.770990
391.845348	3006.881911
392.229027	3034.192362
392.612645	3066.841395
392.996200	3125.820374
393.379694	3172.728311
393.763125	3235.838516
394.146494	3253.482554
394.529801	3314.241061
394.913047	3374.384547
395.296230	3385.681773
395.679351	3449.517904
396.062410	3500.468846
396.445408	3521.538348
396.828343	3571.539033
397.211217	3622.381590
397.594028	3600.071964
397.976778	3676.536185
398.359466	3726.030234
398.742092	3777.533182
399.124656	3745.597472
399.507158	3832.378415
399.889598	3880.801218
400.271977	3954.598670
400.654294	3954.928865
401.036549	3988.041684
401.418742	3982.256960
401.800874	4094.173096
402.182944	4132.695073
402.564952	4207.261300
402.946898	4214.578535
403.328783	4230.052357
403.710606	4167.244621
404.092367	4357.898539
404.474067	4337.766691
404.855705	4358.836194
405.237282	4304.142195
405.618797	4417.263167
406.000250	4461.479127
406.381642	4545.613464
406.762972	4520.248899
407.144240	4537.489645
407.525447	4545.852919
407.906593	4613.089308
408.287677	4655.112367
408.668700	4589.355556
409.049661	4640.538391
409.430560	4687.481616
409.811399	4618.884115
410.192176	4782.736738
410.572891	4719.465216
410.953545	4829.352288
411.334138	4707.578176
411.714669	4778.608033
412.095139	4677.187580
412.475547	4815.446265
412.855894	4795.901712
413.236180	4808.829751
413.616405	4765.914408
413.996568	4848.811142
414.376670	4797.030930
414.756711	4750.995113
415.136691	4781.746152
415.516609	4860.035271
415.896466	4899.237804
416.276262	4937.802631
416.655997	4909.244494
417.035670	5095.933544
417.415283	5185.729097
417.794834	5131.093072
418.174324	5081.515844
418.553753	4994.152648
418.933121	5179.863715
419.312428	5246.595989
419.691674	5177.975803
420.070859	5308.763498
420.449983	5221.367534
420.829045	5343.222305
421.208047	5242.807562
421.586988	5316.473943
421.965867	5324.398637
422.344686	5462.964832
422.723444	5316.514272
423.102141	5134.644565
423.480777	5434.789824
423.859352	5201.996901
424.237866	5457.989214
424.616319	5453.215241
424.994712	5559.729781
425.373044	5439.994815
425.751314	5581.255507
426.129524	5379.881576
426.507673	5572.400721
426.885762	5662.710471
427.263789	5590.929482
427.641756	5472.946317
428.019662	5593.566005
428.397508	5603.058498
428.775292	5548.669489
429.153016	5649.593389
429.530679	5577.731741
429.908282	5657.223175
430.285824	5529.797930
430.663305	5804.097193
431.040726	5539.950813
431.418086	5537.047109
431.795385	5646.606505
432.172624	5661.041849
432.549802	5652.701260
432.926920	5664.921017
433.303977	5675.378891
433.680974	5711.019849
434.057910	5731.393672
434.434786	5731.076079
434.811601	5700.123395
435.188355	5936.014107
435.565050	5811.149767
435.941683	5794.955060
436.318257	6008.652092
436.694770	5995.746738
437.071222	6027.672366
437.447614	5955.583866
437.823946	5869.591863
438.200218	6025.784454
438.576429	5891.397374
438.952580	5989.341953
439.328670	6036.227204
439.704700	5940.364622
440.080670	5927.595380
440.456580	6196.462799
440.832429	6082.157157
441.208218	5929.153096
441.583947	6082.767136
441.959616	6087.392395
442.335224	6015.175345
442.710773	6150.689122
443.086261	6174.755591
443.461689	5970.440146
443.837057	6120.525378
444.212365	6274.262927
444.587612	6172.807185
444.962800	6320.281100
445.337927	6298.117667
445.712995	5912.991157
446.088002	6490.853581
446.462949	6322.209341
446.837837	6249.289051
447.212664	6421.661224
447.587431	6567.829480
447.962139	7112.274095
448.336786	8031.992285
448.711374	7775.997452
449.085901	6843.996490
449.460369	6772.003772
449.834776	6703.280243
450.209124	7097.639626
450.583412	7249.597647
450.957640	7398.641881
451.331808	7157.470560
451.705917	6718.118879
452.079965	6635.007896
452.453954	6839.731674
452.827883	6722.045938
453.201752	6810.553476
453.575562	6612.582323
453.949311	6817.595968
454.323001	6703.847372
454.696632	6783.764784
455.070202	6920.165804
455.443713	7077.843014
455.817164	7177.337747
456.190556	7261.081395
456.563888	7334.999834
456.937160	7370.499639
457.310373	7034.584873
457.683526	7057.643111
458.056619	6947.456091
458.429653	6930.696775
458.802628	6870.079420
459.175542	6976.629248
459.548398	7329.452044
459.921194	7496.951942
460.293930	7495.858012
460.666607	8027.513220
461.039224	8330.652924
461.411782	8458.332748
461.784280	8470.252557
462.156719	8365.542750
462.529099	8247.993125
462.901419	7833.509455
463.273680	7728.943322
463.645882	7741.067297
464.018024	7608.366483
464.390106	7771.833459
464.762130	8160.324939
465.134094	8628.111248
465.505999	9649.799377
465.877845	10875.117355
466.249631	11519.923782
466.621358	11136.564196
466.993026	10507.536581
467.364634	10255.698179
467.736184	9891.948682
468.107674	9553.334378
468.479105	9586.535417
468.850477	9351.317699
469.221790	9128.002146
469.593043	8800.047362
469.964238	8661.045106
470.335373	8669.297475
470.706449	8730.681085
471.077467	8709.425060
471.448425	10021.806284
471.819324	11090.505694
472.190164	11115.008222
472.560945	9866.863900
472.931667	9079.183612
473.302330	8950.276267
473.672934	8591.477183
474.043479	8948.244682
474.413965	8886.944251
474.784393	8774.907127
475.154761	8925.251979
475.525070	9014.238427
475.895321	8841.105039
476.265513	9021.268316
476.635645	9191.767701
477.005719	9188.518677
477.375734	9302.965472
477.745691	9540.834837
478.115588	9673.018932
478.485427	9919.110419
478.855207	10456.865423
479.224928	11266.933476
479.594591	11899.399158
479.964194	11712.682381
480.333739	11641.309725
480.703226	11565.906666
481.072653	11657.267498
481.442022	11895.605690
481.811333	12077.011611
482.180584	11882.836447
482.549777	11592.113105
482.918912	11415.327401
483.287988	11440.263468
483.657005	11454.222423
484.025964	11134.782148
484.394864	11262.640933
484.763706	11241.788200
485.132489	10993.715540
485.501213	10953.945878
485.869879	11033.404544
486.238487	10870.033351
486.607036	10987.774540
486.975527	10764.252299
487.343959	10954.732298
487.712333	11008.390339
488.080648	10934.267733
488.448905	10977.475463
488.817104	10911.340566
489.185244	11186.327946
489.553326	11347.198727
489.921350	11875.741023
490.289315	12938.859875
490.657222	13278.636165
491.025070	13184.863142
491.392861	13055.781877
491.760593	12678.885051
492.128267	12329.119715
492.495883	12005.056701
492.863440	11664.675473
493.230939	11326.403968
493.598380	11261.892322
493.965763	11128.964657
494.333088	11030.823474
494.700354	10951.637029
495.067563	11017.214879
495.434713	10844.951090
495.801805	10969.422220
496.168839	10889.398944
496.535815	10825.461989
496.902733	10826.802936
497.269593	10763.324727
497.636395	10870.597960
498.003139	10847.174239
498.369825	10720.411905
498.736453	10883.100022
499.103023	10806.126644
499.469535	10836.058495
499.835989	10819.682307
500.202385	10782.597058
500.568723	10634.119954
500.935003	10854.113387
501.301226	10665.145735
501.667390	10921.208624
502.033497	11022.077072
502.399546	10881.202028
502.765537	10781.442634
503.131470	10855.507266
503.497345	11030.730212
503.863163	10646.135544
504.228923	10952.277256
504.594625	11014.618685
504.960269	10765.429409
505.325856	10987.905610
505.691385	10783.605289
506.056856	10934.323186
506.422270	10958.876126
506.787625	10849.828407
507.152924	10966.095058
507.518164	10945.764085
507.883347	10876.264217
508.248472	10782.486153
508.613540	11015.158088
508.978550	10907.131202
509.343503	10882.502645
509.708398	10992.356949
510.073236	11111.945721
510.438016	11119.547781
510.802738	11066.774462
511.167403	11119.041145
511.532010	11018.991886
511.896561	11242.279713
512.261053	11319.195118
512.625488	11184.344252
512.989866	11167.915132
513.354186	11158.793164
513.718449	11064.367311
514.082655	11255.611044
514.446803	11148.383181
514.810894	11269.683425
515.174927	11128.021961
515.538904	11155.927268
515.902822	11313.135651
516.266684	11194.471930
516.630488	11142.096862
516.994235	11196.211128
517.357925	11253.705488
517.721558	11342.681853
518.085133	11357.137362
518.448651	11374.446164
518.812112	11250.978224
519.175516	11271.488158
519.538863	11394.797302
519.902152	11305.445371
520.265385	11464.667694
520.628560	11366.695390
520.991678	11349.878101
521.354739	11419.995509
521.717743	11363.559792
522.080690	11332.644916
522.443580	11476.176648
522.806413	11422.997517
523.169189	11454.819800
523.531908	11515.162412
523.894569	11333.524597
524.257174	11335.853611
524.619722	11455.081940
524.982213	11401.955740
525.344647	11451.621188
525.707025	11400.824001
526.069345	11495.960657
526.431608	11414.851012
526.793815	11522.741787
527.155964	11314.874849
527.518057	11368.764783
527.880093	11314.106073
528.242072	11381.960004
528.603995	11286.777978
528.965860	11205.491893
529.327669	11261.002558
529.689421	11205.542304
530.051117	11179.829899
530.412755	11280.153902
530.774337	11168.351192
531.135862	11157.840386
531.497331	11171.890082
531.858743	11032.794565
532.220098	11201.075842
532.581396	11063.815305
532.942638	11052.268542
533.303824	11016.047852
533.664953	11027.332475
534.026025	10939.981881
534.387040	11034.858917
534.747999	11049.692512
535.108902	11102.422982
535.469748	10860.848369
535.830537	10963.715634
536.191270	10935.817888
536.551947	10966.609256
536.912567	10957.383944
537.273131	10896.403627
537.633638	10864.752742
537.994089	10854.680517
538.354483	10812.513786
538.714821	10950.991761
539.075103	10960.426281
539.435328	10929.443349
539.795497	10752.786195
540.155609	10909.719835
540.515665	11000.188382
540.875665	10733.231559
541.235609	10808.216202
541.595496	10797.743205
541.955328	10953.897987
542.315102	10833.578247
542.674821	10785.737697
543.034483	10783.244847
543.394090	10784.495053
543.753640	10715.436286
544.113134	10934.202198
544.472571	10793.102823
544.831953	10937.373084
545.191278	10743.906203
545.550548	10772.628177
545.909761	10909.243446
546.268918	10883.190763
546.628019	10964.454163
546.987064	10833.492548
547.346053	10753.033212
547.704986	10854.110867
548.063863	10837.268372
548.422684	10833.316107
548.781449	10751.823335
549.140158	10854.032729
549.498811	10728.959181
549.857408	10588.353839
550.215949	10811.923971
550.574434	10667.320993
550.932864	10765.999059
551.291237	10817.975876
551.649555	10765.694069
552.007817	10783.159147
552.366022	10745.121121
552.724173	10739.044010
553.082267	10723.287883
553.440305	10860.175375
553.798288	10658.637606
554.156215	10818.061576
554.514086	10793.130549
554.871902	10636.282609
555.229661	10676.952118
555.587365	10651.012861
555.945014	10549.607530
556.302606	10674.192086
556.660143	10562.747298
557.017625	10716.235309
557.375050	10614.870308
557.732421	10752.040104
558.089735	10659.781948
558.446994	10661.385035
558.804197	10700.927845
559.161345	10700.199399
559.518437	10553.378313
559.875474	10638.321756
560.232455	10671.653865
560.589381	10617.443817
560.946251	10620.493715
561.303065	10728.240817
561.659825	10662.816722
562.016528	10588.994065
562.373177	10464.101999
562.729770	10587.277552
563.086307	10499.294294
563.442789	10594.103275
563.799216	10473.317229
564.155587	10525.483089
564.511904	10476.863680
564.868164	10468.583585
565.224370	10483.449948
565.580520	10409.496221
565.936615	10415.091902
566.292654	10286.439135
566.648638	10414.842365
567.004567	10365.703718
567.360441	10351.636378
567.716260	10259.897460
568.072023	10356.695176
568.427732	10310.866046
568.783385	10215.971366
569.138982	10288.773189
569.494525	10304.231887
569.850013	10176.564666
570.205445	10262.773438
570.560823	10154.716306
570.916145	10072.626156
571.271412	10144.777671
571.626625	10089.219114
571.981782	10066.861597
572.336884	10037.363285
572.691931	10046.575994
573.046923	9989.142128
573.401860	9946.083112
573.756743	9883.207321
574.111570	9924.174258
574.466342	9910.240509
574.821059	9943.459192
575.175722	9832.649589
575.530330	9842.832720
575.884882	9835.306277
576.239380	9757.816181
576.593823	9739.617616
576.948211	9753.899204
577.302544	9635.616091
577.656823	9654.197784
578.011047	9652.909769
578.365216	9626.758784
578.719330	9551.237258
579.073389	9558.060460
579.427394	9514.560343
579.781344	9490.483793
580.135239	9431.925749
580.489080	9441.839178
580.842866	9345.583387
581.196597	9347.035239
581.550273	9390.626097
581.903895	9357.271302
582.257463	9422.319831
582.610975	9305.244074
582.964434	9327.125202
583.317837	9252.385055
583.671186	9231.890244
584.024481	9230.400583
584.377721	9147.861771
584.730906	9125.872258
585.084037	9152.499633
585.437113	9090.649716
585.790135	9105.453065
586.143103	9012.937809
586.496016	8983.880598
586.848874	9039.948312
587.201679	9027.640334
587.554428	8919.547914
587.907124	8961.089542
588.259765	8932.750696
588.612352	8932.120551
588.964884	8817.721647
589.317362	8823.153490
589.669786	8823.897061
590.022155	8877.839927
590.374470	8894.364830
590.726731	8826.712545
591.078937	8684.856996
591.431090	8792.210888
591.783188	8666.746651
592.135232	8657.576792
592.487222	8655.492275
592.839157	8711.249957
593.191038	8644.157241
593.542866	8587.865196
593.894639	8490.097059
594.246358	8537.640181
594.598022	8556.567193
594.949633	8459.144374
595.301190	8428.262266
595.652692	8455.527346
596.004141	8566.589007
596.355535	8350.273095
596.706876	8326.229312
597.058162	8260.003674
597.409395	8336.747679
597.760573	8401.871825
598.111698	8305.991600
598.462768	8291.394939
598.813785	8257.775484
599.164748	8230.470074
599.515657	8220.100420
599.866511	8126.080381
600.217312	8254.947396
600.568060	8111.372814
600.918753	8215.538176
601.269392	8182.614400
601.619978	8092.037469
601.970510	8163.601689
602.320988	8154.078949
602.671412	8216.405255
603.021783	8147.749780
603.372100	8123.330431
603.722363	8127.653221
604.072572	8109.046322
604.422728	8117.419678
604.772830	8043.460910
605.122878	8050.959627
605.472872	8040.892442
605.822813	8072.775220
606.172701	8010.572422
606.522534	8093.320442
606.872314	8097.660876
607.222041	8064.003612
607.571714	8116.429092
607.921333	8079.207732
608.270899	8083.727127
608.620411	8172.761465
608.969870	8078.617917
609.319276	8067.214827
609.668627	8088.478414
610.017926	8118.528732
610.367171	8171.007144
610.716362	8143.467320
611.065500	8132.966597
611.414585	8162.069178
611.763616	8148.397569
612.112594	8132.961556
612.461518	8145.088051
612.810389	8210.227321
613.159207	8151.482755
613.507971	8098.719518
613.856682	8210.595325
614.205340	8169.144437
614.553945	8250.117971
614.902496	8150.492168
615.250994	8204.039304
615.599439	8182.969802
615.947830	8203.356228
616.296169	8175.161054
616.644454	8183.340327
616.992686	8181.507867
617.340864	8241.333760
617.688990	8141.337433
618.037063	8238.737566
618.385082	8185.795368
618.733048	8273.551775
619.080961	8206.791774
619.428821	8228.065443
619.776628	8227.929332
620.124382	8181.860748
620.472083	8165.444230
620.819731	8195.797018
621.167326	8087.971778
621.514868	8091.646779
621.862357	7981.333730
622.209793	7995.610278
622.557176	7924.313239
622.904506	7905.688696
623.251783	7837.381062
623.599007	7794.100235
623.946179	7790.878938
624.293297	7750.650530
624.640363	7668.673807
624.987376	7649.106568
625.334336	7600.194773
625.681243	7548.964047
626.028097	7530.964607
626.374899	7515.014397
626.721647	7507.170361
627.068343	7432.435255
627.414987	7409.729898
627.761577	7362.849688
628.108115	7400.207159
628.454600	7293.687578
628.801032	7343.829415
629.147412	7308.639640
629.493739	7295.691437
629.840014	7230.322795
630.186236	7288.689274
630.532405	7171.356418
630.878521	7219.590178
631.224585	7181.642893
631.570597	7106.501974
631.916556	7131.934595
632.262462	7137.868033
632.608316	7092.076712
632.954117	7073.311017
633.299866	7055.757719
633.645562	7055.183028
633.991206	6972.334185
634.336797	6912.115082
634.682336	6872.267281
635.027823	6840.422312
635.373257	6833.866292
635.718639	6759.441217
636.063968	6776.208095
636.409245	6671.523494
636.754470	6665.458986
637.099642	6627.753676
637.444762	6570.781075
637.789829	6583.905719
638.134845	6520.561101
638.479808	6506.556775
638.824719	6513.571541
639.169577	6438.405417
639.514383	6458.842254
639.859137	6384.805348
640.203839	6392.896400
640.548489	6378.506427
640.893086	6360.454055
641.237632	6327.225289
641.582125	6352.839392
641.926566	6326.184291
642.270955	6335.820456
642.615292	6330.746535
642.959576	6345.189441
643.303809	6330.358366
643.647990	6340.430592
643.992118	6333.057904
644.336195	6278.963803
644.680219	6301.207894
645.024192	6291.833868
645.368112	6388.934053
645.711981	6413.948259
646.055797	6487.249156
646.399562	6443.502023
646.743274	6568.920890
647.086935	6625.790146
647.430544	6617.371419
647.774101	6641.379914
648.117606	6645.254041
648.461059	6642.751108
648.804460	6597.549602
649.147810	6507.295304
649.491108	6479.193392
649.834354	6452.424865
650.177548	6371.738677
650.520690	6289.605678
650.863781	6263.605927
651.206820	6284.075533
651.549807	6199.270722
651.892742	6146.996477
652.235626	6151.248691
652.578458	6136.417616
652.921238	6045.213061
653.263967	6085.701088
653.606644	6024.309916
653.949269	6025.527355
654.291843	5969.308407
654.634365	6017.096025
654.976836	5971.539118
655.319255	5972.741433
655.661622	5950.678823
656.003938	5943.255724
656.346203	5907.196351
656.688416	5943.190189
657.030577	5890.011057
657.372687	5863.119022
657.714746	5847.526733
658.056753	5888.672631
658.398708	5830.661553
658.740612	5826.200132
659.082465	5863.272777
659.424266	5860.394278
659.766016	5862.652715
660.107715	5833.845042
660.449362	5855.675758
660.790958	5845.018759
661.132503	5832.007541
661.473996	5869.183530
661.815438	5853.301375
662.156829	5855.693402
662.498168	5843.012380
662.839456	5822.063865
663.180693	5856.812538
663.521879	5857.465368
663.863013	5843.070353
664.204097	5865.047263
664.545129	5908.675929
664.886110	5903.722996
665.227040	5935.739364
665.567918	5901.434312
665.908746	5929.800884
666.249522	5933.758190
666.590248	5917.732362
666.930922	5944.558862
667.271545	5961.713909
667.612118	5965.935875
667.952639	5936.220794
668.293109	5959.546213
668.633528	5917.021559
668.973896	5921.629174
669.314213	5903.942286
669.654480	5887.384616
669.994695	5881.763729
670.334859	5877.030086
670.674973	5869.687645
671.015035	5871.976329
671.355047	5868.876020
671.695008	5856.189956
672.034918	5829.945709
672.374777	5842.583882
672.714585	5825.370862
673.054342	5833.575340
673.394049	5825.350697
673.733705	5855.164081
674.073310	5841.784859
674.412864	5808.490558
674.752368	5795.393641
675.091820	5793.072189
675.431223	5734.680504
675.770574	5731.585236
676.109875	5686.476991
676.449125	5694.212642
676.788324	5656.305685
677.127473	5598.549186
677.466571	5588.497125
677.805619	5580.660651
678.144616	5564.927210
678.483562	5545.029776
678.822458	5515.453326
679.161303	5511.662379
679.500098	5505.804558
679.838842	5483.724304
680.177535	5487.903421
680.516179	5505.277757
680.854771	5514.203120
681.193314	5595.348053
681.531805	5705.318304
681.870247	5856.159709
682.208638	5957.350790
682.546978	5969.184899
682.885268	5945.826713
683.223508	5862.224217
683.561697	5810.978368
683.899836	5778.294047
684.237925	5733.803343
684.575963	5702.588519
684.913951	5660.850286
685.251889	5720.356066
685.589776	5685.748544
685.927614	5660.865409
686.265401	5732.653960
686.603137	5718.306837
686.940824	5792.593280
687.278460	5815.364172
687.616046	5821.373227
687.953582	5891.573815
688.291068	5871.507502
688.628504	5938.764056
688.965889	5897.169496
689.303224	5841.290826
689.640510	5791.844668
689.977745	5720.421601
690.314930	5620.765551
690.652065	5568.846707
690.989150	5476.850691
691.326185	5399.529473
691.663170	5339.673333
692.000105	5265.807826
692.336990	5188.300086
692.673825	5162.688504
693.010610	5095.857927
693.347345	5030.350653
693.684030	5011.912633
694.020665	4969.390501
694.357251	4885.551071
694.693786	4890.695568
695.030272	4859.773131
695.366707	4819.885001
695.703093	4787.871153
696.039429	4813.437365
696.375716	4791.888953
696.711952	4767.671250
697.048139	4755.678345
697.384276	4732.322679
697.720363	4745.107045
698.056400	4759.179426
698.392388	4706.232187
698.728326	4684.789640
699.064214	4662.091844
699.400053	4656.110515
699.735842	4621.664311
700.071581	4597.073563
700.407270	4573.473401
700.742910	4556.698962
701.078501	4503.071167
701.414042	4499.123943
701.749533	4470.119665
702.084974	4401.912853
702.420366	4463.399807
702.755709	4399.127616
703.091002	4347.879246
703.426246	4396.624683
703.761440	4353.502653
704.096584	4317.193742
704.431679	4334.018593
704.766725	4320.278928
705.101721	4309.924398
705.436668	4338.384233
705.771565	4284.499339
706.106413	4314.854647
706.441212	4344.783977
706.775961	4356.033312
707.110661	4336.415662
707.445311	4362.178479
707.779913	4384.011716
708.114465	4398.376484
708.448967	4426.223818
708.783421	4482.319257
709.117825	4522.693858
709.452180	4528.400444
709.786485	4574.340479
710.120742	4660.463552
710.454949	4644.170542
710.789107	4712.490780
711.123216	4783.845792
711.457275	4776.725162
711.791286	4849.917675
712.125247	4868.350654
712.459159	4772.530922
712.793023	4845.199155
713.126837	4808.920491
713.460602	4799.123009
713.794318	4719.903797
714.127985	4725.043253
714.461602	4640.790449
714.795171	4614.916727
715.128691	4545.915933
715.462162	4487.741018
715.795584	4438.113379
716.128957	4417.769803
716.462281	4368.142164
716.795556	4340.572093
717.128782	4302.362668
717.461960	4231.075711
717.795088	4243.955859
718.128167	4203.886248
718.461198	4142.810148
718.794180	4139.818224
719.127113	4120.079586
719.459997	4098.705093
719.792833	4057.322262
720.125619	4046.347670
720.458357	4008.614633
720.791046	4019.206097
721.123686	3989.576716
721.456278	3949.388637
721.788821	3965.764825
722.121315	3936.964713
722.453761	3912.011002
722.786158	3923.918207
723.118506	3950.006178
723.450805	3899.750916
723.783056	3921.989966
724.115259	3938.537553
724.447412	3945.529634
724.779518	3934.431534
725.111574	3941.247174
725.443582	3971.746154
725.775542	3959.367601
726.107453	4008.037421
726.439315	4005.436186
726.771129	4019.871530
727.102895	4058.312848
727.434612	4106.574335
727.766281	4116.117239
728.097901	4119.106643
728.429473	4124.215853
728.760996	4131.666678
729.092471	4129.516626
729.423897	4109.702371
729.755276	4117.228813
730.086606	4114.287300
730.417887	4148.909945
730.749120	4213.194738
731.080305	4282.039256
731.411442	4310.292403
731.742530	4281.381385
732.073570	4287.103095
732.404562	4337.335673
732.735506	4327.949044
733.066401	4291.854383
733.397249	4230.314497
733.728048	4148.274759
734.058798	4060.321748
734.389501	3995.426975
734.720156	3929.889454
735.050762	3886.890932
735.381320	3883.611662
735.711831	3831.904547
736.042293	3799.747026
736.372707	3825.494720
736.703073	3794.819298
737.033391	3787.560037
737.363661	3804.180721
737.693883	3832.176769
738.024056	3839.032738
738.354182	3831.138291
738.684260	3897.558014
739.014290	3922.632713
739.344272	3913.873708
739.674207	3951.455510
740.004093	3961.477324
740.333931	3954.954071
740.663722	3956.698310
740.993464	3952.957774
741.323159	3933.493879
741.652806	3902.563880
741.982405	3874.013305
742.311956	3842.972400
742.641460	3833.058971
742.970915	3807.089467
743.300323	3767.135802
743.629683	3732.457705
743.958996	3724.190213
744.288260	3695.934545
744.617477	3663.199813
744.946647	3646.349756
745.275768	3630.238228
745.604842	3622.253041
745.933869	3577.603541
746.262847	3567.173394
746.591778	3603.946090
746.920662	3576.575146
747.249498	3542.945608
747.578286	3591.701128
747.907027	3608.795680
748.235720	3604.969445
748.564365	3629.151860
748.892963	3633.449443
749.221514	3614.043522
749.550017	3592.933690
749.878473	3586.097885
750.206881	3558.759708
750.535242	3555.951785
750.863555	3557.572516
751.191821	3551.863409
751.520039	3532.044113
751.848210	3509.668952
752.176334	3542.282697
752.504411	3549.229407
752.832440	3510.878829
753.160421	3494.563134
753.488356	3500.763753
753.816243	3515.259591
754.144082	3470.239567
754.471875	3458.050057
754.799620	3475.552943
755.127318	3463.764205
755.454969	3465.614308
755.782572	3473.586893
756.110129	3446.730146
756.437638	3440.274948
756.765100	3453.802885
757.092515	3462.385449
757.419882	3469.102787
757.747203	3446.420115
758.074477	3446.064714
758.401703	3457.732464
758.728882	3483.167606
759.056014	3489.227073
759.383099	3492.513905
759.710138	3491.195643
760.037129	3508.305320
760.364073	3538.950494
760.690970	3522.370139
761.017820	3499.377436
761.344623	3518.009541
761.671379	3568.814289
761.998088	3612.684931
762.324751	3745.892380
762.651366	3986.577229
762.977935	4467.031958
763.304456	4912.453188
763.630931	5006.382488
763.957359	4643.888238
764.283740	4302.617246
764.610074	4107.479222
764.936362	3909.256011
765.262602	3751.397320
765.588796	3638.878766
765.914943	3551.888615
766.241044	3463.035758
766.567097	3430.835388
766.893104	3383.982904
767.219064	3354.371166
767.544978	3325.379491
767.870845	3270.806480
768.196665	3253.243100
768.522438	3258.087648
768.848165	3253.243100
769.173846	3216.576267
769.499479	3203.570090
769.825066	3182.503108
770.150607	3168.241684
770.476101	3182.946730
770.801548	3180.403468
771.126949	3133.613998
771.452303	3117.769652
771.777611	3120.207050
772.102872	3128.041003
772.428087	3100.808690
772.753256	3091.442226
773.078378	3084.056935
773.403453	3049.809857
773.728482	3041.655790
774.053465	3059.829150
774.378401	3049.517470
774.703291	3015.547655
775.028135	3017.627131
775.352932	3011.628158
775.677683	2999.574759
776.002388	2997.288595
776.327046	2999.967969
776.651658	2989.810044
776.976224	2977.575163
777.300743	2975.631798
777.625216	2967.646611
777.949643	2963.066723
778.274024	2965.569655
778.598359	2954.287553
778.922647	2959.681588
779.246889	2957.682770
779.571086	2944.666511
779.895236	2935.741148
780.219339	2946.211625
780.543397	2961.594706
780.867409	2962.207206
781.191374	2956.001545
781.515294	2956.505661
781.839167	2952.971812
782.162995	2948.124743
782.486776	2958.592698
782.810511	2952.263530
783.134201	2939.317847
783.457844	2946.151131
783.781441	2936.774585
784.104993	2915.261461
784.428498	2916.904877
784.751958	2928.630601
785.075372	2926.515837
785.398739	2907.984555
785.722061	2924.539704
786.045337	2936.388936
786.368568	2922.646751
786.691752	2914.464958
787.014891	2961.229222
787.337983	2990.757781
787.661030	3018.905063
787.984031	3089.531628
788.306987	3132.693988
788.629897	3124.832308
788.952760	3108.914865
789.275579	3092.644541
789.598351	3032.541384
789.921078	2988.680825
790.243759	2981.328302
790.566395	2962.746609
790.888984	2938.536468
791.211529	2922.891247
791.534027	2914.137283
791.856480	2904.977507
792.178888	2888.976884
792.501249	2880.926162
792.823566	2874.503732
793.145836	2876.389123
793.468062	2869.094574
793.790241	2868.197248
794.112375	2873.248484
794.434464	2886.867162
794.756507	2890.237173
795.078505	2900.120355
795.400457	2910.300965
795.722364	2950.690690
796.044226	2973.716160
796.366042	2977.610451
796.687812	2962.809624
797.009538	2983.705206
797.331218	2972.352528
797.652852	2956.414920
797.974442	2939.108639
798.295986	2936.351128
798.617484	2930.389963
798.938938	2913.111408
799.260346	2899.427196
799.581709	2895.784963
799.903026	2889.937224
800.224299	2880.822818
800.545526	2872.328474
800.866708	2854.129908
801.187845	2844.687827
801.508936	2845.330574
801.829983	2856.983202
802.150984	2842.079030
802.471940	2827.373984
802.792851	2827.563028
803.113717	2828.293995
803.434538	2834.298009
803.755314	2825.269303
804.076045	2820.533139
804.396731	2818.478868
804.717372	2821.753098
805.037967	2816.878302
805.358518	2821.828715
805.679024	2833.725838
805.999485	2828.450271
806.319901	2835.359172
806.640272	2826.597647
806.960598	2831.439675
807.280879	2840.975017
807.601115	2848.433405
807.921306	2837.499142
808.241453	2831.661486
808.561554	2835.853205
808.881611	2837.937722
809.201623	2834.119048
809.521590	2834.469408
809.841513	2830.381033
810.161390	2831.346414
810.481223	2826.315342
810.801011	2818.942655
811.120755	2813.672128
811.440453	2815.655822
811.760107	2813.546099
812.079716	2813.024340
812.399281	2804.335911
812.718801	2797.658903
813.038276	2793.900723
813.357707	2795.864252
813.677093	2806.531334
813.996434	2799.821558
814.315731	2794.926598
814.634983	2790.266051
814.954191	2792.839560
815.273354	2805.626447
815.592473	2814.292190
815.911547	2814.138435
816.230577	2824.540856
816.549562	2833.725838
816.868502	2831.525375
817.187399	2843.402333
817.506250	2858.452698
817.825058	2848.730833
818.143821	2865.306147
818.462539	2881.349619
818.781213	2908.148393
819.099843	2945.543672
819.418429	3003.300171
819.736970	3067.907599
820.055466	3139.537354
820.373919	3248.113726
820.692327	3386.692524
821.010691	3557.086045
821.329011	4003.926360
821.647286	4911.296244
821.965517	6304.754346
822.283704	7062.396919
822.601847	7041.972684
822.919945	6401.811681
823.237999	5893.819649
823.556010	5298.237569
823.873976	4740.539760
824.191897	4329.642872
824.509775	4029.989125
824.827609	3754.258175
825.145398	3633.300729
825.463144	3620.420581
825.780845	3710.690003
826.098502	3815.672031
826.416116	4101.518057
826.733685	4423.511677
827.051210	4490.765710
827.368692	4373.745406
827.686129	4102.614508
828.003522	3774.226185
828.320872	3514.306813
828.638177	3313.512614
828.955439	3179.685103
829.272656	3093.809047
829.589830	3025.440919
829.906960	2977.098774
830.224046	2926.397369
830.541088	2894.756567
830.858086	2881.110164
831.175041	2861.331197
831.491952	2860.965713
831.808819	2875.388454
832.125642	2897.698081
832.442421	2945.894032
832.759157	3027.785056
833.075849	3204.422045
833.392497	3491.367043
833.709101	3701.036193
834.025662	3646.909324
834.342179	3484.808502
834.658653	3307.352324
834.975083	3155.958913
835.291469	3060.426527
835.607811	2971.876139
835.924110	2912.151069
836.240366	2859.024869
836.556578	2816.361584
836.872746	2795.080353
837.188871	2774.635953
837.504952	2757.065012
837.820990	2750.871954
838.136984	2735.808987
838.452935	2725.444374
838.768842	2725.585527
839.084706	2743.960532
839.400526	2824.029179
839.716303	2959.225363
840.032037	3036.670089
840.347727	3025.453522
840.663373	2962.504634
840.978977	2886.342882
841.294537	2810.962508
841.610054	2763.938625
841.925527	2741.417270
842.240957	2720.874568
842.556344	2697.639890
842.871687	2682.718075
843.186987	2670.654594
843.502244	2666.387257
843.817458	2664.244767
844.132629	2651.601553
844.447756	2642.610655
844.762840	2634.040693
845.077881	2636.609161
845.392879	2638.411374
845.707833	2635.222844
846.022745	2624.686832
846.337613	2629.435599
846.652438	2626.317646
846.967221	2624.172635
847.281960	2623.456791
847.596656	2623.413941
847.911309	2620.295987
848.225919	2622.171297
848.540485	2614.508743
848.855009	2616.749536
849.169490	2617.067128
849.483928	2614.213835
849.798323	2615.264916
850.112675	2614.065121
850.426984	2613.180399
850.741251	2611.663011
851.055474	2612.933382
851.369654	2619.466717
851.683792	2616.169803
851.997887	2614.181068
852.311938	2612.280553
852.625947	2612.661160
852.939914	2617.069649
853.253837	2618.912191
853.567718	2610.906838
853.881555	2614.291973
854.195350	2615.043105
854.509103	2617.306583
854.822812	2610.717795
855.136479	2610.657301
855.450103	2614.536469
855.763685	2617.818260
856.077224	2612.182250
856.390720	2611.879781
856.704173	2612.761983
857.017584	2617.893877
857.330953	2618.607201
857.644278	2618.544186
857.957561	2620.767335
858.270802	2614.226438
858.584000	2614.967488
858.897155	2622.995525
859.210268	2623.545011
859.523339	2617.190637
859.836367	2611.902466
860.149352	2612.545213
860.462295	2614.997735
860.775195	2611.211828
861.088054	2609.656632
861.400869	2610.513628
861.713642	2607.183946
862.026373	2608.686210
862.339062	2614.385234
862.651708	2617.026799
862.964312	2616.033692
863.276873	2615.723661
863.589392	2617.508229
863.901869	2624.036523
864.214303	2628.742441
864.526696	2629.808645
864.839045	2631.825106
865.151353	2631.361320
865.463619	2634.827113
865.775842	2637.057824
866.088023	2633.944911
866.400162	2635.686630
866.712258	2634.801907
867.024313	2632.112452
867.336325	2630.842081
867.648296	2631.694036
867.960224	2636.704943
868.272110	2634.277627
868.583954	2629.687657
868.895755	2628.747482
869.207515	2632.051958
869.519233	2641.254584
869.830909	2636.319295
870.142542	2632.039355
870.454134	2637.141003
870.765684	2640.735346
871.077191	2645.443783
871.388657	2647.034267
871.700081	2644.932106
872.011463	2643.976807
872.322803	2644.002013
872.634101	2649.776655
872.945357	2653.066008
873.256571	2665.583193
873.567744	2658.449960
873.878874	2656.559528
874.189963	2660.751247
874.501010	2666.394819
874.812015	2668.665858
875.122979	2669.716939
875.433900	2659.858963
875.744780	2659.412821
876.055618	2665.810045
876.366415	2673.396981
876.677169	2667.894562
876.987882	2663.778460
877.298554	2662.898778
877.609183	2673.515448
877.919771	2679.993331
878.230317	2685.924249
878.540822	2699.278265
878.851285	2712.907025
879.161707	2736.003071
879.472087	2775.543361
879.782425	2826.761484
880.092722	2943.998558
880.402977	3133.694657
880.713191	3399.229874
881.023363	3702.377140
881.333494	3894.664392
881.643583	4069.630239
881.953631	4070.341041
882.263637	3887.624420
882.573602	3663.288033
882.883526	3530.148639
883.193408	3413.997934
883.503248	3307.644711
883.813048	3190.934438
884.122806	3076.855647
884.432522	2990.437667
884.742197	2923.624735
885.051831	2883.093858
885.361424	2847.004237
885.670975	2812.000986
885.980485	2778.426901
886.289954	2759.494848
886.599382	2747.852303
886.908768	2734.268914
887.218113	2714.462221
887.527417	2701.569470
887.836680	2694.484128
888.145901	2689.760567
888.455082	2680.348732
888.764221	2668.670900
889.073319	2661.061278
889.382376	2660.816782
889.691392	2660.491627
890.000366	2662.767708
890.309300	2658.704538
890.618193	2661.663696
890.927044	2663.604540
891.235855	2664.685867
891.544625	2663.596978
891.853353	2664.138902
892.162041	2669.989161
892.470687	2692.190403
892.779293	2702.998637
893.087858	2712.715461
893.396381	2735.889645
893.704864	2779.513270
894.013306	2850.520442
894.321707	2947.078703
894.630068	3000.101559
894.938387	3020.956813
895.246665	3013.513549
895.554903	2969.428659
895.863100	2921.605753
896.171256	2867.778832
896.479371	2801.028914
896.787446	2762.695981
897.095480	2745.246027
897.403473	2735.282186
897.711425	2721.224928
898.019336	2698.718697
898.327207	2686.337623
898.635038	2687.368539
898.942827	2685.735205
899.250576	2672.315654
899.558284	2664.428769
899.865952	2656.075577
900.173579	2655.173210
900.481165	2653.819660
900.788711	2645.416057
901.096216	2638.156795
901.403681	2632.266207
901.711105	2634.320477
902.018489	2630.143881
902.325832	2636.031949
902.633135	2636.377268
902.940397	2655.916780
903.247619	2690.448684
903.554800	2762.731269
903.861941	2894.980899
904.169041	3024.571320
904.476101	3090.960796
904.783121	3083.777151
905.090100	3025.700538
905.397039	2944.205245
905.703938	2869.160109
906.010796	2804.507311
906.317614	2752.714496
906.624391	2714.023640
906.931129	2686.665298
907.237826	2665.925991
907.544483	2643.195429
907.851099	2631.736886
908.157675	2619.602829
908.464211	2614.589401
908.770707	2604.050869
909.077163	2598.659355
909.383578	2592.574682
909.689954	2593.429158
909.996289	2589.613004
910.302584	2592.118458
910.608839	2586.497571
910.915054	2590.033941
911.221229	2589.040833
911.527363	2591.500917
911.833458	2591.551328
912.139513	2592.521750
912.445527	2594.646597
912.751502	2600.955601
913.057436	2606.813421
913.363331	2613.989504
913.669186	2620.694238
913.975000	2634.391053
914.280775	2655.251348
914.586510	2673.717095
914.892205	2712.896942
915.197859	2779.704834
915.503475	2866.793287
915.809050	2933.560849
916.114585	2953.259158
916.420081	2965.786425
916.725536	2976.203969
917.030952	2947.560133
917.336328	2900.805952
917.641665	2848.587160
917.946961	2796.259983
918.252218	2763.467277
918.557435	2735.808987
918.862612	2713.585060
919.167750	2692.233253
919.472848	2678.382682
919.777906	2658.734785
920.082925	2648.607107
920.387904	2637.408184
920.692843	2631.096659
920.997743	2625.856380
921.302603	2623.613067
921.607423	2615.113681
921.912204	2609.379369
922.216946	2606.579008
922.521647	2601.449634
922.826310	2597.840167
923.130932	2596.743717
923.435516	2588.002356
923.740059	2586.023703
924.044564	2585.779207
924.349028	2581.947930
924.653454	2576.453072
924.957840	2573.415777
925.262186	2569.609706
925.566493	2572.626837
925.870761	2567.719273
926.174989	2570.814542
926.479178	2566.307750
926.783328	2564.198027
927.087438	2562.116031
927.391509	2561.831206
927.695541	2560.492779
927.999533	2558.312480
928.303486	2556.543035
928.607400	2559.068653
928.911275	2555.355843
929.215110	2554.602191
929.518906	2555.113868
929.822663	2560.255845
930.126381	2556.013714
930.430060	2556.313663
930.733699	2555.244938
931.037299	2558.103272
931.340861	2555.958261
931.644383	2559.043447
931.947866	2555.312994
932.251309	2557.599157
932.554714	2552.442057
932.858080	2560.603685
933.161407	2556.492624
933.464694	2556.386759
933.767943	2555.822150
934.071153	2553.783003
934.374323	2554.362736
934.677455	2556.144784
934.980548	2552.169834
935.283602	2552.888199
935.586617	2552.268137
935.889593	2550.455842
936.192530	2550.660009
936.495428	2553.727551
936.798287	2556.464897
937.101108	2553.228477
937.403890	2560.008828
937.706632	2562.531926
938.009336	2566.741289
938.312002	2569.241702
938.614628	2573.476271
938.917216	2577.917527
939.219765	2577.242013
939.522275	2578.774524
939.824747	2577.786457
940.127179	2571.590879
940.429573	2569.019891
940.731929	2568.525858
941.034246	2566.847154
941.336524	2569.531568
941.638763	2568.009140
941.940964	2568.062072
942.243126	2565.680127
942.545250	2569.597103
942.847335	2565.186093
943.149381	2563.651062
943.451389	2561.450598
943.753359	2556.916081
944.055290	2559.474466
944.357182	2559.703839
944.659036	2559.214847
944.960851	2556.911039
945.262628	2555.391132
945.564367	2555.673436
945.866067	2559.247614
946.167729	2558.037737
946.469352	2556.303580
946.770937	2557.543704
947.072484	2557.251317
947.373992	2555.038251
947.675462	2556.878272
947.976893	2554.501368
948.278286	2554.193857
948.579641	2553.369629
948.880958	2551.998435
949.182236	2554.665205
949.483476	2553.583878
949.784678	2553.987170
950.085841	2554.256872
950.386967	2556.331307
950.688054	2553.649413
950.989103	2554.042623
951.290114	2558.239383
951.591087	2557.702501
951.892021	2559.955896
952.192917	2561.231308
952.493776	2559.245094
952.794596	2563.114179
953.095378	2560.452450
953.396122	2561.062430
953.696828	2561.465722
953.997496	2559.303067
954.298126	2557.755433
954.598718	2554.360216
954.899272	2554.380380
955.199788	2553.772921
955.500266	2552.172355
955.800706	2549.707231
956.101108	2546.400234
956.401472	2546.228834
956.701798	2542.349667
957.002087	2542.884029
957.302337	2545.142466
957.602550	2543.788916
957.902724	2541.812784
958.202861	2543.065510
958.502960	2540.252547
958.803022	2544.121632
959.103045	2539.637526
959.403031	2542.190870
959.702979	2540.653318
960.002889	2542.957126
960.302762	2537.363965
960.602596	2537.348842
960.902393	2538.709953
961.202153	2540.411343
961.501875	2538.964532
961.801559	2537.721887
962.101205	2538.246167
962.400814	2537.394212
962.700385	2537.840354
962.999918	2540.328164
963.299414	2538.803215
963.598873	2538.450334
963.898293	2537.361445
964.197677	2538.783050
964.497022	2537.502597
964.796331	2539.153575
965.095601	2539.261960
965.394835	2538.679707
965.694030	2536.869932
965.993189	2539.413194
966.292309	2537.051414
966.591393	2536.978317
966.890439	2535.793646
967.189447	2537.336239
967.488419	2538.687268
967.787353	2535.304654
968.086249	2538.178112
968.385108	2538.271373
968.683930	2535.561753
968.982714	2536.605272
969.281462	2536.086033
969.580172	2537.963863
969.878844	2540.083668
970.177480	2538.563760
970.476078	2537.910931
970.774639	2538.962011
971.073162	2537.984027
971.371649	2533.560415
971.670098	2533.220137
971.968510	2535.632329
972.266885	2535.493697
972.565223	2540.161806
972.863524	2538.861188
973.161788	2540.098791
973.460014	2539.990407
973.758204	2537.684079
974.056356	2539.556867
974.354471	2538.881353
974.652550	2539.849254
974.950591	2537.991589
975.248595	2539.894625
975.546563	2538.846065
975.844493	2536.338091
976.142386	2540.623071
976.440243	2534.525796
976.738062	2541.817825
977.035845	2537.240457
977.333590	2537.134593
977.631299	2535.902031
977.928971	2536.784233
978.226606	2535.009747
978.524204	2536.020498
978.821765	2536.968235
979.119290	2539.541744
979.416777	2536.534696
979.714228	2538.193235
980.011642	2538.467978
980.309020	2539.786240
980.606360	2539.009902
980.903664	2539.713143
981.200931	2536.368338
981.498162	2539.408153
981.795356	2541.003678
982.092513	2546.095244
982.389633	2546.533824
982.686717	2550.423074
982.983764	2554.040102
983.280775	2554.892057
983.577749	2554.972716
983.874686	2550.402910
984.171587	2545.840666
984.468451	2544.484595
984.765279	2544.630789
985.062070	2542.508463
985.358824	2539.045190
985.655543	2540.494522
985.952224	2538.553678
986.248869	2539.642567
986.545478	2532.862215
986.842050	2534.919006
987.138586	2533.260466
987.435086	2530.618902
987.731549	2530.513037
988.027975	2532.267359
988.324366	2532.242153
988.620719	2535.954963
988.917037	2532.259797
989.213318	2534.775333
989.509563	2532.806762
989.805772	2533.930940
990.101944	2531.977493
990.398080	2532.637884
990.694180	2533.878008
990.990244	2532.763913
991.286271	2533.043697
991.582262	2534.712318
991.878217	2532.413552
992.174136	2536.948070
992.470019	2536.489325
992.765865	2536.862371
993.061676	2532.731145
993.357450	2533.583100
993.653188	2533.381454
993.948890	2535.024870
994.244556	2532.912627
994.540186	2535.503780
994.835780	2533.895652
995.131337	2535.097967
995.426859	2533.943543
995.722345	2536.186856
996.017795	2535.899510
996.313208	2538.349511
996.608586	2538.886394
996.903928	2539.624923
997.199234	2536.882535
997.494504	2539.340098
997.789738	2538.576363
998.084936	2534.795498
998.380099	2534.145189
998.675225	2535.077802
998.970316	2534.180477
999.265371	2536.080992
999.560390	2535.773481
999.855373	2534.084695
1000.150320	2533.948584
1000.445232	2536.285158
1000.740108	2533.018491
1001.034948	2535.831455
1001.329752	2531.269210
1001.624521	2537.679037
1001.919254	2527.561442
1002.213951	2531.417924
1002.508613	2529.903058
1002.803239	2531.642256
1003.097829	2528.549508
1003.392384	2532.665610
1003.686903	2532.947915
1003.981386	2531.465815
1004.275834	2531.823737
1004.570246	2530.099663
1004.864623	2533.676361
1005.158964	2531.375075
1005.453270	2527.372398
1005.747540	2533.371372
1006.041775	2533.744417
1006.335974	2531.617050
1006.630138	2531.536392
1006.924266	2534.019160
1007.218359	2531.675023
1007.512416	2532.088398
1007.806438	2535.105528
1008.100425	2531.987575
1008.394376	2533.454551
1008.688292	2530.061854
1008.982172	2532.295085
1009.276017	2532.678213
1009.569827	2529.343490
1009.863602	2534.051927
1010.157341	2531.193593
1010.451045	2531.669982
1010.744714	2529.701412
1011.038347	2531.526309
1011.331945	2532.653007
1011.625508	2532.443799
1011.919036	2530.588655
1012.212528	2533.701567
1012.505986	2532.010260
1012.799408	2534.505631
1013.092795	2530.331556
1013.386147	2532.849612
1013.679464	2531.851464
1013.972745	2531.150743
1014.265992	2530.152595
1014.559204	2532.932791
1014.852380	2529.923222
1015.145521	2530.777698
1015.438628	2531.057482
1015.731699	2531.435568
1016.024736	2529.966072
1016.317737	2530.802904
1016.610703	2532.184180
1016.903635	2526.739734
1017.196531	2529.746782
1017.489393	2529.187214
1017.782219	2526.142357
1018.075011	2530.215609
1018.367768	2530.210568
1018.660490	2532.559746
1018.953177	2532.559746
1019.245829	2532.559746
