Dividing Wavelength (nm)	Counts (n)	Blue Motor Position (mm): 38.200000	Red Motor Position (mm): 0.000000	
326.493990	2129.537140
326.888308	2129.537140
327.282561	2129.537140
327.676750	2097.974476
328.070874	2094.843919
328.464933	2097.722418
328.858929	2105.999993
329.252859	2115.048864
329.646726	2127.278703
330.040528	2139.314458
330.434265	2155.657878
330.827938	2174.549603
331.221547	2192.289423
331.615091	2209.121836
332.008571	2232.384240
332.401986	2246.590212
332.795338	2269.673655
333.188625	2287.282405
333.581847	2308.614048
333.975006	2322.199958
334.368100	2345.548062
334.761129	2361.573890
335.154095	2377.456045
335.546996	2398.775084
335.939833	2423.423806
336.332606	2441.652618
336.725315	2451.054370
337.117960	2461.885289
337.510540	2471.113122
337.903056	2483.010245
338.295508	2486.549135
338.687896	2497.153202
339.080220	2506.953205
339.472480	2510.933196
339.864676	2518.905781
340.256807	2520.418127
340.648875	2520.740761
341.040879	2526.477594
341.432818	2527.793335
341.824694	2530.205527
342.216506	2528.993129
342.608253	2529.618233
342.999937	2528.577234
343.391557	2528.196627
343.783113	2526.036493
344.174605	2524.874507
344.566033	2526.288550
344.957397	2524.551873
345.348697	2523.205885
345.739934	2519.752694
346.131106	2518.736902
346.522215	2518.343692
346.913260	2515.276150
347.304241	2513.854544
347.695159	2511.187774
348.086012	2510.650891
348.476802	2507.202742
348.867528	2509.632578
349.258191	2505.571929
349.648789	2504.384737
350.039324	2500.382061
350.429796	2501.937257
350.820203	2498.768892
351.210548	2500.276197
351.600828	2497.881648
351.991045	2496.565907
352.381198	2499.134375
352.771288	2496.104642
353.161314	2497.153202
353.551276	2495.293016
353.941175	2496.061792
354.331010	2492.984167
354.720782	2494.194044
355.110490	2498.025321
355.500135	2496.702018
355.889717	2495.106493
356.279235	2497.259066
356.668689	2498.191679
357.058080	2497.299395
357.447408	2496.860815
357.836672	2491.638179
358.225873	2496.313850
358.615010	2492.694301
359.004084	2498.345435
359.393095	2499.882987
359.782043	2502.262411
360.170927	2499.285610
360.559748	2500.467760
360.948505	2502.315343
361.337199	2503.036228
361.725830	2501.322236
362.114398	2504.087309
362.502903	2503.313492
362.891344	2504.188132
363.279722	2504.934223
363.668037	2508.021929
364.056289	2503.358862
364.444478	2509.123422
364.832603	2506.910355
365.220665	2504.966990
365.608665	2509.960253
365.996601	2508.946981
366.384474	2509.269615
366.772284	2510.754235
367.160031	2510.562671
367.547715	2510.355984
367.935336	2506.628050
368.322893	2510.519821
368.710388	2507.971518
369.097820	2512.652229
369.485189	2509.640140
369.872495	2509.254492
370.259738	2510.885305
370.646918	2512.080058
371.034035	2509.945130
371.421090	2512.145593
371.808081	2512.858917
372.195010	2512.374966
372.581875	2511.817918
372.968678	2513.670542
373.355418	2514.857734
373.742096	2515.132477
374.128710	2514.981242
374.515262	2515.742457
374.901751	2515.518125
375.288177	2515.129956
375.674540	2515.593743
376.060841	2518.472241
376.447079	2517.413599
376.833254	2516.385204
377.219367	2514.255316
377.605417	2517.532066
377.991404	2514.908146
378.377329	2516.707838
378.763191	2514.076355
379.148991	2518.565503
379.534727	2519.926614
379.920402	2518.847807
380.306013	2522.994156
380.691563	2523.657068
381.077049	2521.680936
381.462474	2522.608508
381.847835	2519.193126
382.233134	2524.849301
382.618371	2520.516429
383.003545	2525.262676
383.388657	2523.558766
383.773706	2525.207223
384.158693	2525.534898
384.543618	2523.712521
384.928480	2525.381143
385.313280	2526.066740
385.698017	2527.601771
386.082692	2527.828623
386.467305	2528.647810
386.851856	2526.538088
387.236344	2528.872142
387.620770	2526.674199
388.005133	2526.659075
388.389435	2532.506814
388.773674	2529.618233
389.157851	2531.259128
389.541965	2530.694519
389.926018	2529.401463
390.310008	2529.955990
390.693936	2533.565456
391.077802	2531.097811
391.461606	2537.041332
391.845348	2536.416228
392.229027	2536.413708
392.612645	2538.921682
392.996200	2540.809594
393.379694	2543.824204
393.763125	2554.612273
394.146494	2555.988508
394.529801	2565.344890
394.913047	2569.092988
395.296230	2580.511201
395.679351	2587.866245
396.062410	2600.002823
396.445408	2612.270470
396.828343	2628.331587
397.211217	2637.869450
397.594028	2649.577529
397.976778	2672.479491
398.359466	2688.709486
398.742092	2708.710264
399.124656	2726.833212
399.507158	2753.203488
399.889598	2779.760286
400.271977	2809.477888
400.654294	2832.526044
401.036549	2857.784745
401.418742	2880.215359
401.800874	2926.203285
402.182944	2960.147894
402.564952	3004.321005
402.946898	3034.522558
403.328783	3067.882393
403.710606	3074.173753
404.092367	3170.479956
404.474067	3197.888710
404.855705	3233.320460
405.237282	3243.185998
405.618797	3323.065601
406.000250	3376.138869
406.381642	3449.527986
406.762972	3474.222078
407.144240	3519.592463
407.525447	3559.851118
407.906593	3628.841829
408.287677	3690.754760
408.668700	3693.592929
409.049661	3765.010956
409.430560	3827.196109
409.811399	3828.489165
410.192176	3966.584013
410.572891	3965.636276
410.953545	4077.257504
411.334138	4032.176986
411.714669	4115.996251
412.095139	4080.745983
412.475547	4216.655491
412.855894	4244.142382
413.236180	4287.902118
413.616405	4286.525883
413.996568	4384.024319
414.376670	4374.191548
414.756711	4360.802244
415.136691	4414.535902
415.516609	4509.057537
415.896466	4562.821443
416.276262	4619.055514
416.655997	4625.198160
417.035670	4814.478363
417.415283	4917.007871
417.794834	4888.207759
418.174324	4862.863358
418.553753	4798.374397
418.933121	4992.219366
419.312428	5071.856994
419.691674	5035.253176
420.070859	5169.710831
420.449983	5095.885653
420.829045	5221.604469
421.208047	5141.437520
421.586988	5226.622937
421.965867	5246.520372
422.344686	5389.316095
422.723444	5251.228809
423.102141	5080.545422
423.480777	5378.162542
423.859352	5164.082383
424.237866	5419.865488
424.616319	5420.394809
424.994712	5529.054359
425.373044	5415.068830
425.751314	5555.210386
426.129524	5363.018916
426.507673	5565.695986
426.885762	5645.673892
427.263789	5579.415486
427.641756	5464.179751
428.019662	5586.147947
428.397508	5595.360656
428.775292	5543.804776
429.153016	5639.483355
429.530679	5565.275050
429.908282	5654.425335
430.285824	5525.490264
430.663305	5801.132994
431.040726	5539.078694
431.418086	5541.019538
431.795385	5642.611391
432.172624	5657.334081
432.549802	5647.508872
432.926920	5661.934134
433.303977	5672.848232
433.680974	5711.932298
434.057910	5726.322271
434.434786	5736.051698
434.811601	5704.673036
435.188355	5938.650630
435.565050	5810.408717
435.941683	5793.422549
436.318257	6010.824830
436.694770	5993.942005
437.071222	6033.268047
437.447614	5959.999917
437.823946	5870.524477
438.200218	6024.030132
438.576429	5895.450462
438.952580	5989.916644
439.328670	6037.850455
439.704700	5946.411486
440.080670	5928.616213
440.456580	6202.393717
440.832429	6083.563638
441.208218	5934.133756
441.583947	6083.283854
441.959616	6089.081181
442.335224	6016.297002
442.710773	6153.991078
443.086261	6177.535787
443.461689	5972.885106
443.837057	6123.338342
444.212365	6284.181397
444.587612	6172.449263
444.962800	6325.004661
445.337927	6300.885260
445.712995	5918.607002
446.088002	6493.777450
446.462949	6324.639177
446.837837	6257.123004
447.212664	6423.092912
447.587431	6570.808802
447.962139	7112.982377
448.336786	8037.706433
448.711374	7780.158924
449.085901	6850.643252
449.460369	6775.318331
449.834776	6703.749070
450.209124	7103.578105
450.583412	7252.902123
450.957640	7392.660552
451.331808	7159.560118
451.705917	6713.821295
452.079965	6638.219111
452.453954	6846.506985
452.827883	6726.028449
453.201752	6821.467574
453.575562	6612.574761
453.949311	6819.451112
454.323001	6711.499844
454.696632	6783.926101
455.070202	6917.645227
455.443713	7077.540545
455.817164	7178.845052
456.190556	7261.456961
456.563888	7337.759866
456.937160	7377.831998
457.310373	7031.716457
457.683526	7058.721918
458.056619	6951.995650
458.429653	6937.716582
458.802628	6876.915225
459.175542	6981.567058
459.548398	7336.935637
459.921194	7496.049576
460.293930	7503.402099
460.666607	8030.555556
461.039224	8336.059562
461.411782	8461.049930
461.784280	8483.790575
462.156719	8370.150365
462.529099	8245.643947
462.901419	7838.502718
463.273680	7734.579332
463.645882	7742.806495
464.018024	7608.820187
464.390106	7780.773945
464.762130	8162.727048
465.134094	8638.392681
465.505999	9656.723402
465.877845	10876.107942
466.249631	11526.557940
466.621358	11135.805503
466.993026	10511.594710
467.364634	10257.225648
467.736184	9892.508250
468.107674	9571.653931
468.479105	9595.478424
468.850477	9359.675932
469.221790	9128.165983
469.593043	8805.030542
469.964238	8663.873193
470.335373	8674.820059
470.706449	8728.578924
471.077467	8713.427736
471.448425	10027.049084
471.819324	11094.221024
472.190164	11114.456216
472.560945	9871.121155
472.931667	9083.289632
473.302330	8948.665618
473.672934	8599.754758
474.043479	8953.926062
474.413965	8890.258810
474.784393	8775.038198
475.154761	8932.357486
475.525070	9020.504581
475.895321	8846.657870
476.265513	9019.559365
476.635645	9192.997742
477.005719	9195.651910
477.375734	9313.251947
477.745691	9541.064210
478.115588	9678.952370
478.485427	9920.088403
478.855207	10458.113109
479.224928	11267.447673
479.594591	11902.169272
479.964194	11706.285157
480.333739	11648.657207
480.703226	11567.880278
481.072653	11659.256233
481.442022	11892.737273
481.811333	12081.868762
482.180584	11889.377344
482.549777	11597.814650
482.918912	11420.731518
483.287988	11443.210023
483.657005	11457.274842
484.025964	11133.408434
484.394864	11276.526792
484.763706	11242.125958
485.132489	11001.995635
485.501213	10961.268153
485.869879	11032.403875
486.238487	10885.479447
486.607036	10987.565332
486.975527	10769.943762
487.343959	10963.140942
487.712333	11010.742037
488.080648	10936.291757
488.448905	10984.258336
488.817104	10921.740466
489.185244	11186.683348
489.553326	11345.169663
489.921350	11887.476829
490.289315	12935.023557
490.657222	13289.257876
491.025070	13186.146115
491.392861	13064.911407
491.760593	12690.295702
492.128267	12340.515243
492.495883	12008.237669
492.863440	11671.831391
493.230939	11335.104999
493.598380	11267.341809
493.965763	11141.272634
494.333088	11036.492251
494.700354	10959.047525
495.067563	11020.035404
495.434713	10848.101811
495.801805	10973.883641
496.168839	10895.506302
496.535815	10835.708135
496.902733	10836.141674
497.269593	10769.197671
497.636395	10873.284895
498.003139	10853.722698
498.369825	10724.835517
498.736453	10885.613037
499.103023	10812.198714
499.469535	10842.077632
499.835989	10820.728346
500.202385	10792.810436
500.568723	10641.989195
500.935003	10863.570592
501.301226	10670.028093
501.667390	10928.533421
502.033497	11026.447752
502.399546	10886.694365
502.765537	10795.850252
503.131470	10862.343071
503.497345	11041.394773
503.863163	10646.679989
504.228923	10958.810591
504.594625	11023.039932
504.960269	10772.771849
505.325856	10996.014306
505.691385	10789.122832
506.056856	10939.709659
506.422270	10964.650768
506.787625	10848.641215
507.152924	10971.970523
507.518164	10950.782553
507.883347	10875.064423
508.248472	10789.339602
508.613540	11025.522700
508.978550	10905.596171
509.343503	10884.047759
509.708398	11010.308498
510.073236	11117.395209
510.438016	11129.115891
510.802738	11074.129506
511.167403	11121.158430
511.532010	11019.289314
511.896561	11250.703481
512.261053	11324.281642
512.625488	11189.985303
512.989866	11173.130206
513.354186	11165.303814
513.718449	11071.303939
514.082655	11260.697568
514.446803	11154.634212
514.810894	11277.925712
515.174927	11140.755916
515.538904	11167.703403
515.902822	11318.199490
516.266684	11210.306195
516.630488	11141.872531
516.994235	11207.586492
517.357925	11266.469690
517.721558	11359.589883
518.085133	11363.884947
518.448651	11377.236442
518.812112	11259.684297
519.175516	11273.549990
519.538863	11395.256047
519.902152	11310.688171
520.265385	11472.557100
520.628560	11381.163501
520.991678	11362.191119
521.354739	11433.377252
521.717743	11358.075017
522.080690	11334.573157
522.443580	11478.689664
522.806413	11435.423961
523.169189	11461.464041
523.531908	11520.813545
523.894569	11339.001811
524.257174	11345.240239
524.619722	11461.254833
524.982213	11408.105948
525.344647	11455.412136
525.707025	11413.414283
526.069345	11508.311484
526.431608	11421.734708
526.793815	11534.890967
527.155964	11319.827783
527.518057	11369.664629
527.880093	11324.637043
528.242072	11386.764223
528.603995	11296.230141
528.965860	11213.761906
529.327669	11271.601584
529.689421	11214.213089
530.051117	11184.634119
530.412755	11291.249481
530.774337	11183.565394
531.135862	11166.584267
531.497331	11185.171002
531.858743	11038.972499
532.220098	11201.584998
532.581396	11074.666389
532.942638	11058.759028
533.303824	11012.307316
533.664953	11039.229598
534.026025	10948.546802
534.387040	11049.289220
534.747999	11056.087216
535.108902	11112.059147
535.469748	10868.309277
535.830537	10972.835081
536.191270	10951.306833
536.551947	10976.129475
536.912567	10966.374842
537.273131	10898.896478
537.633638	10878.434434
537.994089	10865.869358
538.354483	10819.856226
538.714821	10959.289501
539.075103	10966.226128
539.435328	10935.833012
539.795497	10757.023285
540.155609	10915.958263
540.515665	10997.093113
540.875665	10742.960986
541.235609	10814.270628
541.595496	10806.109000
541.955328	10960.292690
542.315102	10842.629639
542.674821	10796.845880
543.034483	10782.007243
543.394090	10797.569285
543.753640	10722.430887
544.113134	10950.878335
544.472571	10801.166148
544.831953	10944.150916
545.191278	10751.407439
545.550548	10782.677717
545.909761	10922.123594
546.268918	10890.046732
546.628019	10976.724331
546.987064	10839.733496
547.346053	10755.548747
547.704986	10859.633451
548.063863	10847.239774
548.422684	10838.369864
548.781449	10752.803839
549.140158	10860.543379
549.498811	10731.250386
549.857408	10592.510270
550.215949	10821.615589
550.574434	10669.508854
550.932864	10771.463670
551.291237	10828.678246
551.649555	10775.453743
552.007817	10790.395723
552.366022	10751.301575
552.724173	10742.668599
553.082267	10731.021013
553.440305	10864.677125
553.798288	10669.387866
554.156215	10823.415281
554.514086	10804.878958
554.871902	10650.755762
555.229661	10679.991933
555.587365	10665.554069
555.945014	10552.652387
556.302606	10672.233598
556.660143	10576.232384
557.017625	10726.652853
557.375050	10628.123502
557.732421	10761.507391
558.089735	10670.217136
558.446994	10673.314925
558.804197	10710.332118
559.161345	10714.659948
559.518437	10564.418440
559.875474	10651.043108
560.232455	10681.292551
560.589381	10630.863369
560.946251	10625.713830
561.303065	10725.947092
561.659825	10667.154635
562.016528	10604.374626
562.373177	10478.154216
562.729770	10592.603532
563.086307	10514.458085
563.442789	10602.048133
563.799216	10487.654270
564.155587	10530.647751
564.511904	10484.811059
564.868164	10479.132200
565.224370	10492.062759
565.580520	10414.854967
565.936615	10415.437221
566.292654	10290.872830
566.648638	10422.275546
567.004567	10380.718794
567.360441	10358.394044
567.716260	10273.720304
568.072023	10359.465290
568.427732	10315.846706
568.783385	10226.588036
569.138982	10297.267533
569.494525	10309.825048
569.850013	10184.945585
570.205445	10270.176373
570.560823	10164.022276
570.916145	10081.896838
571.271412	10149.271859
571.626625	10097.337893
571.981782	10071.023069
572.336884	10051.072703
572.691931	10052.683352
573.046923	9998.639662
573.401860	9953.728022
573.756743	9886.045491
574.111570	9930.168190
574.466342	9921.202498
574.821059	9941.654459
575.175722	9836.203603
575.530330	9849.645839
575.884882	9836.102780
576.239380	9770.693808
576.593823	9750.627496
576.948211	9762.975802
577.302544	9642.978696
577.656823	9658.908742
578.011047	9652.428339
578.365216	9629.342375
578.719330	9551.411178
579.073389	9567.416841
579.427394	9514.194860
579.781344	9498.819340
580.135239	9438.181821
580.489080	9453.968195
580.842866	9352.915745
581.196597	9357.677115
581.550273	9395.881499
581.903895	9364.323876
582.257463	9430.380636
582.610975	9303.242736
582.964434	9334.455040
583.317837	9260.234132
583.671186	9240.999609
584.024481	9236.018949
584.377721	9151.030137
584.730906	9131.223443
585.084037	9164.951283
585.437113	9096.237835
585.790135	9112.924055
586.143103	9020.257565
586.496016	8984.530907
586.848874	9047.542810
587.201679	9034.531592
587.554428	8918.459024
587.907124	8965.757650
588.259765	8932.329759
588.612352	8934.464688
588.964884	8817.777100
589.317362	8832.164553
589.669786	8831.451230
590.022155	8881.353612
590.374470	8893.071774
590.726731	8833.422321
591.078937	8680.219135
591.431090	8799.031569
591.783188	8673.247219
592.135232	8662.126434
592.487222	8661.745827
592.839157	8715.713899
593.191038	8648.396851
593.542866	8588.296215
593.894639	8495.652410
594.246358	8549.630565
594.598022	8563.561794
594.949633	8456.709497
595.301190	8431.891896
595.652692	8461.145712
596.004141	8580.353877
596.355535	8354.956327
596.706876	8327.595464
597.058162	8269.909541
597.409395	8347.724792
597.760573	8406.938185
598.111698	8313.875964
598.462768	8301.928430
598.813785	8266.153881
599.164748	8233.310764
599.515657	8229.040907
599.866511	8136.145044
600.217312	8258.987881
600.568060	8119.297508
600.918753	8223.737613
601.269392	8201.513686
601.619978	8102.021474
601.970510	8169.431783
602.320988	8159.780494
602.671412	8219.747540
603.021783	8155.742530
603.372100	8130.630022
603.722363	8126.929815
604.072572	8104.665559
604.422728	8122.014690
604.772830	8050.984832
605.122878	8054.702683
605.472872	8046.588946
605.822813	8078.194460
606.172701	8023.911316
606.522534	8096.486287
606.872314	8097.053417
607.222041	8066.655259
607.571714	8127.890155
607.921333	8075.699089
608.270899	8085.549504
608.620411	8177.011158
608.969870	8085.103362
609.319276	8076.699758
609.668627	8092.138292
610.017926	8125.969475
610.367171	8176.040736
610.716362	8149.441087
611.065500	8141.208883
611.414585	8166.029004
611.763616	8153.269844
612.112594	8142.204511
612.461518	8153.930235
612.810389	8215.991880
613.159207	8155.830750
613.507971	8101.318233
613.856682	8219.762663
614.205340	8174.598966
614.553945	8253.835822
614.902496	8150.461921
615.250994	8207.036270
615.599439	8187.978188
615.947830	8199.356072
616.296169	8178.213473
616.644454	8188.232766
616.992686	8183.993156
617.340864	8246.016992
617.688990	8144.692321
618.037063	8240.839727
618.385082	8186.556583
618.733048	8273.692927
619.080961	8209.065335
619.428821	8227.841112
619.776628	8231.233809
620.124382	8178.253802
620.472083	8168.040425
620.819731	8190.443312
621.167326	8088.065039
621.514868	8094.454702
621.862357	7982.062177
622.209793	8002.572111
622.557176	7933.319260
622.904506	7907.506032
623.251783	7838.575815
623.599007	7794.294320
623.946179	7801.651884
624.293297	7752.818226
624.640363	7676.348964
624.987376	7657.472363
625.334336	7599.851975
625.681243	7554.448823
626.028097	7538.899383
626.374899	7517.285436
626.721647	7507.104826
627.068343	7443.951771
627.414987	7410.004641
627.761577	7366.360852
628.108115	7406.858961
628.454600	7299.396685
628.801032	7348.956268
629.147412	7307.742315
629.493739	7290.899820
629.840014	7236.979638
630.186236	7294.610109
630.532405	7174.749115
630.878521	7228.598720
631.224585	7181.980650
631.570597	7105.239165
631.916556	7139.380379
632.262462	7134.127497
632.608316	7097.972342
632.954117	7077.348981
633.299866	7061.471867
633.645562	7052.982564
633.991206	6973.894422
634.336797	6919.233191
634.682336	6872.486571
635.027823	6842.363157
635.373257	6836.066755
635.718639	6765.314161
636.063968	6778.678260
636.409245	6673.789493
636.754470	6668.617269
637.099642	6629.916331
637.444762	6569.195633
637.789829	6585.229022
638.134845	6523.316091
638.479808	6507.103741
638.824719	6511.169431
639.169577	6442.612259
639.514383	6462.466844
639.859137	6389.806173
640.203839	6396.405043
640.548489	6385.921964
640.893086	6366.420260
641.237632	6330.965825
641.582125	6355.735535
641.926566	6321.337221
642.270955	6337.216856
642.615292	6333.143604
642.959576	6345.655747
643.303809	6340.695252
643.647990	6348.627508
643.992118	6330.713768
644.336195	6278.648731
644.680219	6305.749974
645.024192	6296.602800
645.368112	6394.156689
645.711981	6413.386170
646.055797	6487.733107
646.399562	6442.942455
646.743274	6575.061015
647.086935	6630.430528
647.430544	6620.479291
647.774101	6642.405789
648.117606	6650.239742
648.461059	6642.360419
648.804460	6605.207115
649.147810	6510.982908
649.491108	6480.549463
649.834354	6456.488035
650.177548	6370.120467
650.520690	6290.729856
650.863781	6263.759683
651.206820	6286.548219
651.549807	6205.393203
651.892742	6147.056971
652.235626	6153.486963
652.578458	6139.381814
652.921238	6047.458895
653.263967	6087.614206
653.606644	6030.203025
653.949269	6028.597418
654.291843	5973.227904
654.634365	6020.334966
654.976836	5976.940714
655.319255	5972.950641
655.661622	5951.089677
656.003938	5946.124141
656.346203	5905.797430
656.688416	5937.259272
657.030577	5891.233537
657.372687	5864.490216
657.714746	5849.460016
658.056753	5895.347118
658.398708	5833.814795
658.740612	5824.624771
659.082465	5867.953488
659.424266	5867.963571
659.766016	5865.503488
660.107715	5836.882337
660.449362	5851.615109
660.790958	5851.927660
661.132503	5833.066183
661.473996	5867.008272
661.815438	5855.469071
662.156829	5853.976889
662.498168	5845.051527
662.839456	5826.031253
663.180693	5858.445872
663.521879	5858.082909
663.863013	5847.824161
664.204097	5871.000866
664.545129	5907.932359
664.886110	5900.327778
665.227040	5938.290188
665.567918	5906.089817
665.908746	5933.604435
666.249522	5938.300270
666.590248	5922.075316
666.930922	5946.857628
667.271545	5962.802798
667.612118	5965.285566
667.952639	5938.121309
668.293109	5959.294155
668.633528	5920.119348
668.973896	5920.147075
669.314213	5914.349748
669.654480	5895.977263
669.994695	5888.004678
670.334859	5879.964038
670.674973	5869.543973
671.015035	5876.770467
671.355047	5871.144539
671.695008	5857.853537
672.034918	5831.543755
672.374777	5840.423747
672.714585	5826.963867
673.054342	5834.991904
673.394049	5826.489998
673.733705	5853.918916
674.073310	5845.394325
674.412864	5801.269105
674.752368	5793.039422
675.091820	5796.416995
675.431223	5733.979784
675.770574	5744.172997
676.109875	5688.435479
676.449125	5690.905645
676.788324	5664.847921
677.127473	5601.447849
677.466571	5592.817394
677.805619	5583.128296
678.144616	5572.327624
678.483562	5546.915167
678.822458	5513.946021
679.161303	5511.231360
679.500098	5503.611656
679.838842	5487.169933
680.177535	5488.236137
680.516179	5506.195247
680.854771	5517.563049
681.193314	5596.270584
681.531805	5705.035999
681.870247	5856.071489
682.208638	5956.433300
682.546978	5966.268591
682.885268	5947.926353
683.223508	5863.237489
683.561697	5808.664478
683.899836	5778.268841
684.237925	5735.474486
684.575963	5698.301018
684.913951	5656.504811
685.251889	5722.619544
685.589776	5689.257187
685.927614	5660.603269
686.265401	5729.954422
686.603137	5720.073761
686.940824	5790.118073
687.278460	5813.708153
687.616046	5823.109904
687.953582	5891.301593
688.291068	5871.411720
688.628504	5940.316731
688.965889	5899.145628
689.303224	5842.379715
689.640510	5795.161748
689.977745	5719.425973
690.314930	5621.007526
690.652065	5566.028702
690.989150	5472.709383
691.326185	5399.305142
691.663170	5339.338096
692.000105	5267.912508
692.336990	5190.694634
692.673825	5164.974667
693.010610	5096.193164
693.347345	5026.171537
693.684030	5015.101163
694.020665	4975.427282
694.357251	4879.214341
694.693786	4894.395775
695.030272	4858.442266
695.366707	4821.311647
695.703093	4790.384169
696.039429	4811.604906
696.375716	4795.609325
696.711952	4768.916415
697.048139	4754.523921
697.384276	4734.921394
697.720363	4750.738014
698.056400	4757.243623
698.392388	4705.536508
698.728326	4687.317778
699.064214	4664.196526
699.400053	4657.743849
699.735842	4628.855517
700.071581	4599.155559
700.407270	4572.767639
700.742910	4558.932193
701.078501	4501.936907
701.414042	4501.851208
701.749533	4469.686126
702.084974	4406.210437
702.420366	4462.545331
702.755709	4407.334614
703.091002	4350.140203
703.426246	4397.096031
703.761440	4350.724977
704.096584	4313.773319
704.431679	4337.156712
704.766725	4318.748938
705.101721	4309.894152
705.436668	4336.231660
705.771565	4287.491264
706.106413	4314.181653
706.441212	4347.594421
706.775961	4351.965101
707.110661	4337.207123
707.445311	4360.154455
707.779913	4386.663363
708.114465	4399.896392
708.448967	4419.090585
708.783421	4484.809587
709.117825	4522.482130
709.452180	4524.576729
709.786485	4570.002567
710.120742	4659.505732
710.454949	4639.855315
710.789107	4711.593455
711.123216	4787.228406
711.457275	4775.399339
711.791286	4848.939691
712.125247	4863.861507
712.459159	4769.735602
712.793023	4844.470708
713.126837	4806.253721
713.460602	4797.623266
713.794318	4714.305595
714.127985	4723.689703
714.461602	4637.571672
714.795171	4613.802632
715.128691	4546.167991
715.462162	4491.484075
715.795584	4436.059109
716.128957	4420.981018
716.462281	4372.051578
716.795556	4345.610727
717.128782	4302.390394
717.461960	4233.142584
717.795088	4246.105911
718.128167	4206.137123
718.461198	4145.360972
718.794180	4142.026249
719.127113	4121.647385
719.459997	4102.438068
719.792833	4054.733629
720.125619	4047.701219
720.458357	4010.169829
720.791046	4015.122763
721.123686	3993.256758
721.456278	3947.243626
721.788821	3962.160400
722.121315	3936.876493
722.453761	3913.273811
722.786158	3926.242179
723.118506	3953.078762
723.450805	3898.934249
723.783056	3924.223197
724.115259	3939.858336
724.447412	3943.924026
724.779518	3937.206689
725.111574	3939.810445
725.443582	3971.388232
725.775542	3956.877271
726.107453	4007.152698
726.439315	4007.485415
726.771129	4021.386396
727.102895	4059.086665
727.434612	4102.448150
727.766281	4118.516828
728.097901	4118.262250
728.429473	4124.757777
728.760996	4131.712048
729.092471	4124.576295
729.423897	4109.452833
729.755276	4116.986838
730.086606	4115.673617
730.417887	4149.444307
730.749120	4214.845716
731.080305	4281.877939
731.411442	4307.184531
731.742530	4276.302423
732.073570	4283.773413
732.404562	4336.534129
732.735506	4327.341585
733.066401	4290.722643
733.397249	4229.364239
733.728048	4150.374400
734.058798	4062.456677
734.389501	3993.959999
734.720156	3929.657561
735.050762	3889.222466
735.381320	3879.175446
735.711831	3827.574196
736.042293	3800.845998
736.372707	3825.532528
736.703073	3794.920122
737.033391	3784.631127
737.363661	3803.364054
737.693883	3832.375895
738.024056	3837.573324
738.354182	3834.011749
738.684260	3897.726892
739.014290	3918.267074
739.344272	3914.375303
739.674207	3954.195377
740.004093	3959.163434
740.333931	3954.278556
740.663722	3955.798464
740.993464	3949.333184
741.323159	3927.520112
741.652806	3900.020617
741.982405	3875.250908
742.311956	3842.553984
742.641460	3831.707942
742.970915	3809.231957
743.300323	3768.423817
743.629683	3733.584403
743.958996	3722.617373
744.288260	3696.993188
744.617477	3667.643590
744.946647	3649.079541
745.275768	3623.117598
745.604842	3619.455200
745.933869	3573.802511
746.262847	3568.713466
746.591778	3605.350052
746.920662	3574.478026
747.249498	3544.029456
747.578286	3589.167948
747.907027	3606.249898
748.235720	3603.562963
748.564365	3630.654123
748.892963	3630.581027
749.221514	3610.880197
749.550017	3591.759101
749.878473	3588.832711
750.206881	3555.374573
750.535242	3553.751322
750.863555	3555.029254
751.191821	3551.182854
751.520039	3531.461860
751.848210	3509.280783
752.176334	3542.854868
752.504411	3547.689334
752.832440	3512.081144
753.160421	3489.877382
753.488356	3501.993795
753.816243	3513.255733
754.144082	3474.005309
754.471875	3458.793627
754.799620	3478.229796
755.127318	3466.672951
755.454969	3464.217909
755.782572	3473.886842
756.110129	3447.693006
756.437638	3442.556071
756.765100	3451.947740
757.092515	3462.342599
757.419882	3466.551963
757.747203	3440.978189
758.074477	3442.959363
758.401703	3459.257413
758.728882	3479.800115
759.056014	3487.692042
759.383099	3492.198833
759.710138	3487.974346
760.037129	3506.119979
760.364073	3534.892365
760.690970	3518.702699
761.017820	3495.994822
761.344623	3518.506094
761.671379	3559.384811
761.998088	3614.330867
762.324751	3738.970876
762.651366	3985.616889
762.977935	4462.749498
763.304456	4908.203496
763.630931	4999.927290
763.957359	4640.755161
764.283740	4300.053819
764.610074	4108.469808
764.936362	3902.311822
765.262602	3749.453955
765.588796	3634.727376
765.914943	3549.814180
766.241044	3457.956796
766.567097	3433.587858
766.893104	3383.998028
767.219064	3349.133408
767.544978	3319.115857
767.870845	3268.172477
768.196665	3249.903335
768.522438	3257.707041
768.848165	3253.096906
769.173846	3216.871175
769.499479	3198.213864
769.825066	3183.339940
770.150607	3169.103721
770.476101	3181.479754
770.801548	3176.289886
771.126949	3132.293216
771.452303	3117.101699
771.777611	3121.663943
772.102872	3126.942031
772.428087	3102.290789
772.753256	3091.462390
773.078378	3087.379056
773.403453	3052.617779
773.728482	3036.118083
774.053465	3058.460477
774.378401	3048.819270
774.703291	3015.877850
775.028135	3020.487985
775.352932	3012.739732
775.677683	3001.384533
776.002388	2995.435971
776.327046	2998.511075
776.651658	2987.798623
776.976224	2976.269504
777.300743	2976.788743
777.625216	2968.904379
777.949643	2962.497072
778.274024	2964.294243
778.598359	2953.382666
778.922647	2958.602781
779.246889	2958.902729
779.571086	2942.652570
779.895236	2936.860284
780.219339	2947.426543
780.543397	2959.225363
780.867409	2962.713842
781.191374	2954.854683
781.515294	2953.664971
781.839167	2953.879220
782.162995	2943.673404
782.486776	2950.461317
782.810511	2950.153807
783.134201	2938.975048
783.457844	2941.984617
783.781441	2933.800304
784.104993	2914.704413
784.428498	2913.267684
784.751958	2928.854932
785.075372	2925.663882
785.398739	2908.576891
785.722061	2923.037440
786.045337	2936.237702
786.368568	2919.853952
786.691752	2911.561254
787.014891	2957.604632
787.337983	2987.420537
787.661030	3017.173427
787.984031	3083.751946
788.306987	3132.600726
788.629897	3122.410034
788.952760	3108.665328
789.275579	3089.324941
789.598351	3033.668082
789.921078	2988.411123
790.243759	2980.229331
790.566395	2963.056640
790.888984	2937.172836
791.211529	2920.010228
791.534027	2910.588311
791.856480	2903.412228
792.178888	2886.065618
792.501249	2880.820297
792.823566	2873.719832
793.145836	2874.952394
793.468062	2871.199255
793.790241	2866.876466
794.112375	2872.855274
794.434464	2886.428581
794.756507	2890.451422
795.078505	2893.433264
795.400457	2908.463465
795.722364	2945.518466
796.044226	2971.019143
796.366042	2975.225986
796.687812	2961.579582
797.009538	2982.500371
797.331218	2970.338587
797.652852	2952.724795
797.974442	2937.747527
798.295986	2935.637804
798.617484	2927.685384
798.938938	2914.553178
799.260346	2896.861249
799.581709	2891.515105
799.903026	2886.705845
800.224299	2882.746018
800.545526	2870.591796
800.866708	2854.802903
801.187845	2844.828980
801.508936	2845.706140
801.829983	2854.409692
802.150984	2840.281859
802.471940	2826.726196
802.792851	2824.727379
803.113717	2827.137050
803.434538	2832.626867
803.755314	2824.881134
804.076045	2820.432316
804.396731	2822.408448
804.717372	2818.032726
805.037967	2814.221614
805.358518	2819.373673
805.679024	2832.407577
805.999485	2827.734427
806.319901	2831.848008
806.640272	2822.526915
806.960598	2828.898933
807.280879	2838.305727
807.601115	2845.501974
807.921306	2833.640139
808.241453	2828.659479
808.561554	2833.866991
808.881611	2836.793380
809.201623	2830.305415
809.521590	2832.745334
809.841513	2825.213850
810.161390	2829.924808
810.481223	2824.424909
810.801011	2815.244968
811.120755	2813.251192
811.440453	2813.992242
811.760107	2814.977787
812.079716	2814.945020
812.399281	2800.562608
812.718801	2795.554221
813.038276	2790.457615
813.357707	2801.079326
813.677093	2803.410860
813.996434	2796.605302
814.315731	2793.666309
814.634983	2789.449384
814.954191	2789.953499
815.273354	2806.019657
815.592473	2812.026192
815.911547	2815.275215
816.230577	2821.964826
816.549562	2835.490242
816.868502	2828.798110
817.187399	2841.983248
817.506250	2855.307018
817.825058	2851.374918
818.143821	2862.944366
818.462539	2879.091182
818.781213	2904.642270
819.099843	2938.468412
819.418429	2998.720283
819.736970	3063.332752
820.055466	3133.185500
820.373919	3239.553846
820.692327	3380.766648
821.010691	3551.611352
821.329011	3996.256244
821.647286	4903.457249
821.965517	6286.840606
822.283704	7035.809874
822.601847	7012.353385
822.919945	6382.428444
823.237999	5878.464294
823.556010	5291.706754
823.873976	4729.512236
824.191897	4321.846727
824.509775	4022.931510
824.827609	3754.048967
825.145398	3628.456180
825.463144	3618.474696
825.780845	3707.408211
826.098502	3810.484684
826.416116	4095.682922
826.733685	4415.622271
827.051210	4477.021004
827.368692	4361.709651
827.686129	4097.396914
828.003522	3768.025566
828.320872	3506.455216
828.638177	3312.325423
828.955439	3173.239988
829.272656	3091.240580
829.589830	3022.580064
829.906960	2972.120635
830.224046	2926.331834
830.541088	2892.407390
830.858086	2875.592621
831.175041	2859.997812
831.491952	2859.476052
831.808819	2873.598845
832.125642	2897.186403
832.442421	2943.449072
832.759157	3025.957637
833.075849	3202.123279
833.392497	3485.305055
833.709101	3690.071683
834.025662	3643.065444
834.342179	3479.374138
834.658653	3303.813434
834.975083	3152.104951
835.291469	3055.571896
835.607811	2971.248515
835.924110	2910.827766
836.240366	2857.562934
836.556578	2815.832263
836.872746	2794.112451
837.188871	2770.882814
837.504952	2754.390680
837.820990	2744.691500
838.136984	2733.235477
838.452935	2723.238869
838.768842	2723.637121
839.084706	2740.930799
839.400526	2820.754949
839.716303	2954.600105
840.032037	3034.545243
840.347727	3020.994621
840.663373	2958.534725
840.978977	2882.841800
841.294537	2810.299596
841.610054	2762.486773
841.925527	2738.967269
842.240957	2717.708724
842.556344	2694.632842
842.871687	2679.325378
843.186987	2670.573935
843.502244	2666.868687
843.817458	2661.842657
844.132629	2647.016623
844.447756	2641.453710
844.762840	2631.535240
845.077881	2637.950108
845.392879	2634.912813
845.707833	2632.321660
846.022745	2623.464352
846.337613	2628.785290
846.652438	2623.832357
846.967221	2627.250259
847.281960	2623.310597
847.596656	2624.623818
847.911309	2620.951337
848.225919	2617.044443
848.540485	2616.290791
848.855009	2611.524380
849.169490	2617.109978
849.483928	2613.445059
849.798323	2613.112343
850.112675	2614.317179
850.426984	2612.802312
850.741251	2612.688886
851.055474	2611.327775
851.369654	2615.393465
851.683792	2615.491768
851.997887	2614.677621
852.311938	2611.809205
852.625947	2615.133846
852.939914	2618.881944
853.253837	2616.467231
853.567718	2612.986314
853.881555	2610.173350
854.195350	2614.170985
854.509103	2616.323558
854.822812	2612.439349
855.136479	2611.191663
855.450103	2612.225100
855.763685	2612.134359
856.077224	2611.398351
856.390720	2607.589759
856.704173	2613.445059
857.017584	2618.758435
857.330953	2614.924638
857.644278	2617.735081
857.957561	2618.566872
858.270802	2614.629730
858.584000	2615.537138
858.897155	2621.558796
859.210268	2620.996708
859.523339	2614.433125
859.836367	2609.512959
860.149352	2610.490943
860.462295	2613.117384
860.775195	2609.954060
861.088054	2607.972887
861.400869	2609.034050
861.713642	2604.459203
862.026373	2604.381065
862.339062	2610.042280
862.651708	2616.774741
862.964312	2614.372632
863.276873	2612.832559
863.589392	2618.511419
863.901869	2618.874382
864.214303	2624.117182
864.526696	2628.971813
864.839045	2628.266052
865.151353	2634.081022
865.463619	2634.058337
865.775842	2633.057668
866.088023	2633.161012
866.400162	2635.202679
866.712258	2631.908285
867.024313	2630.474077
867.336325	2628.059364
867.648296	2629.498614
867.960224	2636.304171
868.272110	2632.722432
868.583954	2627.862759
868.895755	2626.786473
869.207515	2633.161012
869.519233	2639.825417
869.830909	2634.189407
870.142542	2631.762092
870.454134	2632.382154
870.765684	2642.940850
871.077191	2639.918679
871.388657	2645.658032
871.700081	2640.914307
872.011463	2642.131745
872.322803	2644.130563
872.634101	2649.249854
872.945357	2656.952737
873.256571	2661.018428
873.567744	2659.420382
873.878874	2658.946514
874.189963	2657.908036
874.501010	2663.720487
874.812015	2666.747699
875.122979	2668.358348
875.433900	2656.952737
875.744780	2657.615649
876.055618	2664.209478
876.366415	2669.079233
876.677169	2668.239881
876.987882	2664.388439
877.298554	2661.489776
877.609183	2670.606703
877.919771	2678.934689
878.230317	2684.563137
878.540822	2697.249201
878.851285	2709.927703
879.161707	2735.667834
879.472087	2775.193001
879.782425	2820.631441
880.092722	2937.823145
880.402977	3128.078811
880.713191	3387.930128
881.023363	3686.258050
881.333494	3880.841548
881.643583	4053.443094
881.953631	4047.945715
882.263637	3874.305692
882.573602	3652.958709
882.883526	3517.858306
883.193408	3401.450502
883.503248	3300.773619
883.813048	3186.626772
884.122806	3069.309040
884.432522	2983.463231
884.742197	2918.754980
885.051831	2877.909031
885.361424	2843.432580
885.670975	2806.843885
885.980485	2778.948661
886.289954	2756.676843
886.599382	2741.823083
886.908768	2731.035014
887.218113	2714.031202
887.527417	2700.311702
887.836680	2692.318952
888.145901	2686.972809
888.455082	2677.563495
888.764221	2665.651248
889.073319	2658.460042
889.382376	2655.952068
889.691392	2659.889210
890.000366	2658.361740
890.309300	2659.107831
890.618193	2659.987512
890.927044	2660.277378
891.235855	2661.799807
891.544625	2660.433654
891.853353	2662.961793
892.162041	2669.303564
892.470687	2690.602439
892.779293	2701.456044
893.087858	2710.252857
893.396381	2735.113307
893.704864	2776.901952
894.013306	2847.498271
894.321707	2939.504369
894.630068	2990.851042
894.938387	3011.003054
895.246665	3005.084740
895.554903	2961.062864
895.863100	2915.062335
896.171256	2859.191227
896.479371	2797.744603
896.787446	2757.291864
897.095480	2737.679255
897.403473	2730.271279
897.711425	2716.718137
898.019336	2699.255580
898.327207	2681.649350
898.635038	2683.035667
898.942827	2680.101716
899.250576	2671.380520
899.558284	2656.824188
899.865952	2652.675318
900.173579	2654.769918
900.481165	2648.874288
900.788711	2641.539410
901.096216	2633.274438
901.403681	2633.511372
901.711105	2632.440127
902.018489	2631.729324
902.325832	2636.412556
902.633135	2636.374747
902.940397	2650.978970
903.247619	2687.766790
903.554800	2758.637852
903.861941	2887.169631
904.169041	3017.319620
904.476101	3078.756162
904.783121	3071.585121
905.090100	3016.142511
905.397039	2937.916406
905.703938	2865.086856
906.010796	2798.062195
906.317614	2749.699886
906.624391	2712.798640
906.931129	2682.231603
907.237826	2660.957934
907.544483	2642.159472
907.851099	2629.733027
908.157675	2619.522170
908.464211	2611.605038
908.770707	2600.113728
909.077163	2596.695826
909.383578	2589.587799
909.689954	2592.647779
909.996289	2586.837849
910.302584	2588.597212
910.608839	2587.334403
910.915054	2585.514546
911.221229	2589.161821
911.527363	2594.979313
911.833458	2586.956316
912.139513	2589.847418
912.445527	2595.072574
912.751502	2597.837647
913.057436	2604.305447
913.363331	2612.144442
913.669186	2622.383025
913.975000	2634.020529
914.280775	2651.478044
914.586510	2672.255160
914.892205	2707.570963
915.197859	2775.568567
915.503475	2862.072246
915.809050	2929.001125
916.114585	2945.558795
916.420081	2956.712348
916.725536	2965.804069
917.030952	2943.461675
917.336328	2892.624159
917.641665	2844.539113
917.946961	2791.110444
918.252218	2757.785897
918.557435	2732.582648
918.862612	2706.761858
919.167750	2691.580423
919.472848	2673.573422
919.777906	2656.395690
920.082925	2642.489667
920.387904	2634.033132
920.692843	2628.369395
920.997743	2627.225053
921.302603	2617.951851
921.607423	2609.704523
921.912204	2606.395006
922.216946	2602.800663
922.521647	2602.760334
922.826310	2597.310846
923.130932	2590.611153
923.435516	2588.065370
923.740059	2584.287025
924.044564	2583.939186
924.349028	2581.363156
924.653454	2572.392423
924.957840	2569.221537
925.262186	2568.218347
925.566493	2571.316137
925.870761	2565.337328
926.174989	2564.079560
926.479178	2563.693912
926.783328	2563.996381
927.087438	2559.683674
927.391509	2561.337172
927.695541	2558.612429
927.999533	2559.560166
928.303486	2555.449105
928.607400	2555.854918
928.911275	2556.447253
929.215110	2557.016904
929.518906	2555.769218
929.822663	2557.936914
930.126381	2553.616645
930.430060	2556.568241
930.733699	2556.795093
931.037299	2555.817109
931.340861	2556.169990
931.644383	2559.023283
931.947866	2557.526060
932.251309	2556.739640
932.554714	2557.379867
932.858080	2559.413972
933.161407	2555.194527
933.464694	2553.959444
933.767943	2555.789383
934.071153	2553.941800
934.374323	2553.425082
934.677455	2552.948692
934.980548	2551.348126
935.283602	2552.230328
935.586617	2552.056408
935.889593	2553.556152
936.192530	2552.936090
936.495428	2553.674619
936.798287	2553.755277
937.101108	2554.748384
937.403890	2556.074208
937.706632	2562.461350
938.009336	2563.068809
938.312002	2569.849161
938.614628	2570.534758
938.917216	2574.960891
939.219765	2576.085068
939.522275	2577.443659
939.824747	2575.643967
940.127179	2570.794377
940.429573	2570.333112
940.731929	2570.365879
941.034246	2567.636094
941.336524	2567.593244
941.638763	2565.763306
941.940964	2566.194324
942.243126	2564.460167
942.545250	2561.652245
942.847335	2562.852039
943.149381	2561.601833
943.451389	2562.783984
943.753359	2557.873900
944.055290	2557.780638
944.357182	2558.073025
944.659036	2555.222253
944.960851	2557.213509
945.262628	2555.000442
945.564367	2555.950700
945.866067	2555.824671
946.167729	2557.868859
946.469352	2555.423899
946.770937	2558.751061
947.072484	2553.946841
947.373992	2557.619322
947.675462	2554.335010
947.976893	2553.846018
948.278286	2550.904505
948.579641	2553.208312
948.880958	2548.653629
949.182236	2554.219063
949.483476	2550.949875
949.784678	2552.386604
950.085841	2549.616490
950.386967	2550.786038
950.688054	2550.677653
950.989103	2554.894578
951.290114	2557.034548
951.591087	2559.088818
951.892021	2558.801472
952.192917	2558.872048
952.493776	2560.318859
952.794596	2560.558314
953.095378	2561.528736
953.396122	2563.741803
953.696828	2558.430947
953.997496	2556.810216
954.298126	2558.143602
954.598718	2557.735268
954.899272	2556.041440
955.199788	2554.103117
955.500266	2550.934752
955.800706	2547.458876
956.101108	2545.762528
956.401472	2544.575336
956.701798	2545.550799
957.002087	2543.793957
957.302337	2543.105840
957.602550	2544.159441
957.902724	2541.187681
958.202861	2543.501570
958.502960	2542.364790
958.803022	2540.814635
959.103045	2540.413863
959.403031	2541.898483
959.702979	2541.270860
960.002889	2542.470654
960.302762	2538.437731
960.602596	2542.450490
960.902393	2537.391692
961.202153	2538.568801
961.501875	2539.650129
961.801559	2537.225334
962.101205	2537.978986
962.400814	2539.655170
962.700385	2537.437062
962.999918	2542.926879
963.299414	2535.067720
963.598873	2538.495704
963.898293	2535.561753
964.197677	2537.817669
964.497022	2538.619213
964.796331	2538.636857
965.095601	2538.120138
965.394835	2535.463450
965.694030	2537.452186
965.993189	2539.443441
966.292309	2538.283976
966.591393	2537.515200
966.890439	2537.885725
967.189447	2536.083512
967.488419	2537.079140
967.787353	2535.110570
968.086249	2534.966897
968.385108	2536.849768
968.683930	2539.914789
968.982714	2535.554191
969.281462	2537.525282
969.580172	2538.299099
969.878844	2536.769109
970.177480	2537.323636
970.476078	2539.451003
970.774639	2538.757844
971.073162	2537.976466
971.371649	2534.858512
971.670098	2533.013450
971.968510	2535.644932
972.266885	2531.964890
972.565223	2537.522762
972.863524	2537.663914
973.161788	2541.580891
973.460014	2535.649973
973.758204	2537.275745
974.056356	2538.218441
974.354471	2538.283976
974.652550	2536.897659
974.950591	2539.695499
975.248595	2536.007895
975.546563	2538.420087
975.844493	2539.304810
976.142386	2540.693647
976.440243	2534.495549
976.738062	2536.713657
977.035845	2537.179963
977.333590	2538.561239
977.631299	2538.228523
977.928971	2537.757175
978.226606	2538.273894
978.524204	2537.815149
978.821765	2535.281969
979.119290	2536.837165
979.416777	2535.087884
979.714228	2536.857329
980.011642	2536.912782
980.309020	2539.677855
980.606360	2536.824562
980.903664	2538.127700
981.200931	2535.150899
981.498162	2537.631147
981.795356	2540.118956
982.092513	2544.900490
982.389633	2545.008875
982.686717	2551.885009
982.983764	2552.762170
983.280775	2554.055226
983.577749	2551.585060
983.874686	2551.547252
984.171587	2548.830070
984.468451	2544.928217
984.765279	2542.218597
985.062070	2543.055428
985.358824	2539.622402
985.655543	2542.420243
985.952224	2539.622402
986.248869	2537.638708
986.545478	2533.129396
986.842050	2533.978831
987.138586	2535.057637
987.435086	2530.739889
987.731549	2531.470857
988.027975	2534.929088
988.324366	2534.354397
988.620719	2530.654190
988.917037	2532.668131
989.213318	2534.172915
989.509563	2533.751979
989.805772	2533.268028
990.101944	2533.172246
990.398080	2535.458409
990.694180	2531.397760
990.990244	2532.985723
991.286271	2536.151568
991.582262	2534.185518
991.878217	2533.298275
992.174136	2535.594520
992.470019	2532.090918
992.765865	2534.276259
993.061676	2533.694005
993.357450	2536.020498
993.653188	2533.532688
993.948890	2532.342976
994.244556	2534.140148
994.540186	2535.395395
994.835780	2533.109232
995.131337	2535.382792
995.426859	2533.636032
995.722345	2535.745755
996.017795	2536.101156
996.313208	2535.851619
996.608586	2537.724408
996.903928	2536.116280
997.199234	2537.570653
997.494504	2537.333718
997.789738	2535.390354
998.084936	2536.910262
998.380099	2540.066024
998.675225	2535.516383
998.970316	2533.111752
999.265371	2533.462112
999.560390	2534.903882
999.855373	2534.331711
1000.150320	2534.619057
1000.445232	2533.255425
1000.740108	2531.768285
1001.034948	2530.112266
1001.329752	2532.494211
1001.624521	2530.954138
1001.919254	2524.771163
1002.213951	2531.279293
1002.508613	2528.811648
1002.803239	2529.018335
1003.097829	2528.418438
1003.392384	2532.993285
1003.686903	2532.453882
1003.981386	2530.994467
1004.275834	2531.370033
1004.570246	2531.233922
1004.864623	2533.966228
1005.158964	2529.756864
1005.453270	2530.802904
1005.747540	2533.678882
1006.041775	2529.477080
1006.335974	2530.039169
1006.630138	2528.942718
1006.924266	2531.128058
1007.218359	2530.616381
1007.512416	2532.282482
1007.806438	2529.666123
1008.100425	2533.227699
1008.394376	2532.708460
1008.688292	2529.333407
1008.982172	2528.829292
1009.276017	2531.574200
1009.569827	2532.542102
1009.863602	2532.269879
1010.157341	2531.669982
1010.451045	2531.929602
1010.744714	2529.257790
1011.038347	2527.886596
1011.331945	2530.051772
1011.625508	2531.420445
1011.919036	2531.100332
1012.212528	2530.064375
1012.505986	2534.125024
1012.799408	2531.624612
1013.092795	2531.125538
1013.386147	2530.404652
1013.679464	2531.014632
1013.972745	2530.238294
1014.265992	2531.738038
1014.559204	2531.238963
1014.852380	2532.970600
1015.145521	2531.077647
1015.438628	2532.542102
1015.731699	2529.298119
1016.024736	2531.433048
1016.317737	2530.475229
1016.610703	2532.075795
1016.903635	2529.371216
1017.196531	2526.487676
1017.489393	2527.329549
1017.782219	2526.260824
1018.075011	2529.898017
1018.367768	2529.340969
1018.660490	2529.522451
1018.953177	2529.522451
1019.245829	2529.522451
