Dividing Wavelength (nm)	Counts (n)	Blue Motor Position (mm): 31.400000	Red Motor Position (mm): 0.000000	
326.493990	2133.529734
326.888308	2133.529734
327.282561	2133.529734
327.676750	2096.749475
328.070874	2100.018663
328.464933	2100.535382
328.858929	2108.162648
329.252859	2116.798144
329.646726	2128.496142
330.040528	2139.188429
330.434265	2158.606953
330.827938	2176.714778
331.221547	2193.527026
331.615091	2211.607124
332.008571	2230.773591
332.401986	2254.018352
332.795338	2269.497215
333.188625	2290.193672
333.581847	2307.774696
333.975006	2325.149033
334.368100	2344.933041
334.761129	2362.156143
335.154095	2378.648278
335.546996	2401.164591
335.939833	2427.396235
336.332606	2438.285128
336.725315	2452.791048
337.117960	2461.471915
337.510540	2470.598924
337.903056	2481.313896
338.295508	2489.969558
338.687896	2496.719663
339.080220	2506.217196
339.472480	2511.442352
339.864676	2516.932169
340.256807	2520.397962
340.648875	2521.380987
341.040879	2526.780063
341.432818	2527.158149
341.824694	2529.348531
342.216506	2529.703932
342.608253	2530.535723
342.999937	2530.994467
343.391557	2529.194776
343.783113	2527.732841
344.174605	2526.759898
344.566033	2525.010618
344.957397	2525.487007
345.348697	2523.107582
345.739934	2520.675226
346.131106	2519.815709
346.522215	2518.948630
346.913260	2513.852024
347.304241	2512.790861
347.695159	2510.862620
348.086012	2512.095182
348.476802	2509.095695
348.867528	2508.074862
349.258191	2506.161744
349.648789	2506.076044
350.039324	2502.988337
350.429796	2500.923985
350.820203	2503.018584
351.210548	2500.538337
351.600828	2497.284272
351.991045	2497.649755
352.381198	2494.453664
352.771288	2495.592965
353.161314	2496.465084
353.551276	2496.064312
353.941175	2497.783346
354.331010	2496.036586
354.720782	2497.286792
355.110490	2496.026504
355.500135	2497.259066
355.889717	2493.810917
356.279235	2497.448109
356.668689	2495.751761
357.058080	2499.504900
357.447408	2494.020125
357.836672	2493.057264
358.225873	2498.058089
358.615010	2493.405104
359.004084	2496.379385
359.393095	2498.232009
359.782043	2499.177225
360.170927	2502.544716
360.559748	2504.057062
360.948505	2500.876094
361.337199	2499.688902
361.725830	2502.892555
362.114398	2502.970693
362.502903	2504.054541
362.891344	2505.997906
363.279722	2506.514624
363.668037	2505.662669
364.056289	2507.316168
364.444478	2503.661331
364.832603	2509.677948
365.220665	2505.655108
365.608665	2504.553616
365.996601	2509.400685
366.384474	2506.439007
366.772284	2509.577125
367.160031	2506.945643
367.547715	2508.362207
367.935336	2508.132835
368.322893	2509.607372
368.710388	2508.780623
369.097820	2510.920593
369.485189	2510.076200
369.872495	2510.103926
370.259738	2512.027126
370.646918	2513.184071
371.034035	2511.391941
371.421090	2515.324041
371.808081	2514.628362
372.195010	2512.929493
372.581875	2513.083248
372.968678	2514.250275
373.355418	2513.733557
373.742096	2515.109792
374.128710	2513.499143
374.515262	2514.603156
374.901751	2513.783968
375.288177	2516.390245
375.674540	2514.033505
376.060841	2512.402692
376.447079	2514.590553
376.833254	2514.905625
377.219367	2512.440501
377.605417	2514.633403
377.991404	2511.286077
378.377329	2514.167096
378.763191	2512.538803
379.148991	2517.927797
379.534727	2515.508043
379.920402	2516.881757
380.306013	2515.508043
380.691563	2522.401821
381.077049	2515.261026
381.462474	2516.785975
381.847835	2518.920904
382.233134	2515.959226
382.618371	2518.147087
383.003545	2516.854031
383.388657	2519.205729
383.773706	2519.314114
384.158693	2520.395442
384.543618	2518.202540
384.928480	2521.438960
385.313280	2521.534742
385.698017	2520.539114
386.082692	2521.249917
386.467305	2519.387211
386.851856	2520.670184
387.236344	2522.948786
387.620770	2521.335617
388.005133	2525.310567
388.389435	2523.906605
388.773674	2522.653878
389.157851	2524.894671
389.541965	2521.421316
389.926018	2524.269568
390.310008	2521.007942
390.693936	2526.074301
391.077802	2522.482479
391.461606	2526.223015
391.845348	2526.076822
392.229027	2524.350227
392.612645	2525.802079
392.996200	2525.950793
393.379694	2526.497758
393.763125	2527.886596
394.146494	2526.018849
394.529801	2527.863911
394.913047	2526.243180
395.296230	2528.052954
395.679351	2526.591020
396.062410	2529.562780
396.445408	2528.327697
396.828343	2531.455733
397.211217	2523.528519
397.594028	2524.693025
397.976778	2523.631862
398.359466	2530.686957
398.742092	2524.992974
399.124656	2532.584952
399.507158	2529.023376
399.889598	2530.167718
400.271977	2531.105373
400.654294	2533.333563
401.036549	2529.925743
401.418742	2531.480939
401.800874	2532.428676
402.182944	2530.772657
402.564952	2533.273069
402.946898	2532.458923
403.328783	2535.544109
403.710606	2531.468336
404.092367	2534.528316
404.474067	2534.684592
404.855705	2534.795498
405.237282	2534.515713
405.618797	2535.443286
406.000250	2535.211393
406.381642	2535.796167
406.762972	2538.079809
407.144240	2538.117618
407.525447	2539.869419
407.906593	2535.559232
408.287677	2538.561239
408.668700	2538.082330
409.049661	2539.491332
409.430560	2537.671476
409.811399	2537.462268
410.192176	2536.882535
410.572891	2540.212217
410.953545	2540.547454
411.334138	2538.513348
411.714669	2541.152393
412.095139	2541.079296
412.475547	2539.342618
412.855894	2540.965870
413.236180	2543.680531
413.616405	2543.355377
413.996568	2545.114739
414.376670	2544.267826
414.756711	2542.712630
415.136691	2546.044832
415.516609	2542.432846
415.896466	2548.328475
416.276262	2551.751418
416.655997	2548.988866
417.035670	2550.458363
417.415283	2553.384752
417.794834	2552.444577
418.174324	2559.787018
418.553753	2565.299519
418.933121	2574.582804
419.312428	2577.965418
419.691674	2584.012283
420.070859	2592.315063
420.449983	2596.201792
420.829045	2606.939450
421.208047	2612.134359
421.586988	2628.175311
421.965867	2636.296610
422.344686	2652.776142
422.723444	2658.404590
423.102141	2660.491627
423.480777	2686.498940
423.859352	2692.218129
424.237866	2717.454145
424.616319	2731.710528
424.994712	2754.947727
425.373044	2766.008019
425.751314	2798.430200
426.129524	2798.331897
426.507673	2835.091991
426.885762	2860.650641
427.263789	2883.028323
427.641756	2892.886299
428.019662	2929.706887
428.397508	2954.078345
428.775292	2979.732777
429.153016	3018.259795
429.530679	3036.032383
429.908282	3079.618199
430.285824	3086.312852
430.663305	3170.613547
431.040726	3157.836742
431.418086	3186.510826
431.795385	3248.527100
432.172624	3283.779889
432.549802	3321.220539
432.926920	3365.870038
433.303977	3407.646080
433.680974	3457.135088
434.057910	3506.934126
434.434786	3550.741753
434.811601	3583.650405
435.188355	3703.183724
435.565050	3705.742110
435.941683	3746.275508
436.318257	3873.897358
436.694770	3918.377979
437.071222	3988.961695
437.447614	4004.939632
437.823946	4016.645191
438.200218	4134.315804
438.576429	4129.987974
438.952580	4228.345926
439.328670	4300.749498
439.704700	4306.002381
440.080670	4344.010160
440.456580	4545.305954
440.832429	4537.053585
441.208218	4504.659130
441.583947	4635.875324
441.959616	4690.662584
442.335224	4698.589798
442.710773	4834.282536
443.086261	4904.883896
443.461689	4815.721008
443.837057	4964.941682
444.212365	5118.507831
444.587612	5086.287297
444.962800	5243.949383
445.337927	5280.487666
445.712995	5039.679309
446.088002	5509.577862
446.462949	5429.506694
446.837837	5419.731897
447.212664	5591.105922
447.587431	5749.582155
447.962139	6223.518672
448.336786	6998.578432
448.711374	6841.334761
449.085901	6134.731350
449.460369	6117.483042
449.834776	6093.892963
450.209124	6468.828780
450.583412	6640.245655
450.957640	6789.932636
451.331808	6624.855012
451.705917	6264.601555
452.079965	6221.613116
452.453954	6444.863135
452.827883	6357.013467
453.201752	6467.578574
453.575562	6305.689480
453.949311	6516.056830
454.323001	6430.717657
454.696632	6517.483476
455.070202	6671.936868
455.443713	6834.466189
455.817164	6945.986594
456.190556	7044.170627
456.563888	7132.726056
456.937160	7187.888882
457.310373	6872.068156
457.683526	6910.451501
458.056619	6815.055226
458.429653	6818.180742
458.802628	6764.568070
459.175542	6876.116202
459.548398	7232.818166
459.921194	7395.657517
460.293930	7401.351501
460.666607	7929.208199
461.039224	8242.762928
461.411782	8368.630457
461.784280	8396.775219
462.156719	8295.556411
462.529099	8181.278495
462.901419	7778.147504
463.273680	7678.365425
463.645882	7688.392280
464.018024	7561.614823
464.390106	7731.174032
464.762130	8111.831559
465.134094	8585.253879
465.505999	9598.253579
465.877845	10816.294651
466.249631	11460.675100
466.621358	11082.782646
466.993026	10459.247368
467.364634	10207.154388
467.736184	9845.683493
468.107674	9519.561168
468.479105	9547.937823
468.850477	9315.840579
469.221790	9097.120037
469.593043	8762.163091
469.964238	8632.960838
470.335373	8641.780337
470.706449	8693.729427
471.077467	8683.576543
471.448425	9988.327982
471.819324	11059.547968
472.190164	11075.319218
472.560945	9837.098407
472.931667	9052.594046
473.302330	8919.225280
473.672934	8564.010456
474.043479	8918.874920
474.413965	8860.309315
474.784393	8744.047704
475.154761	8903.481756
475.525070	8990.038368
475.895321	8812.315010
476.265513	8993.872165
476.635645	9159.529522
477.005719	9164.406838
477.375734	9274.742573
477.745691	9508.170681
478.115588	9648.224017
478.485427	9891.668898
478.855207	10424.445763
479.224928	11232.303269
479.594591	11861.446831
479.964194	11666.938951
480.333739	11610.455343
480.703226	11523.886128
481.072653	11620.066303
481.442022	11856.907272
481.811333	12043.961806
482.180584	11847.117351
482.549777	11559.764020
482.918912	11387.333874
483.287988	11402.588405
483.657005	11419.110787
484.025964	11101.533218
484.394864	11233.119936
484.763706	11198.063752
485.132489	10955.720364
485.501213	10924.944119
485.869879	10997.216622
486.238487	10840.308188
486.607036	10959.508791
486.975527	10732.697197
487.343959	10919.529920
487.712333	10969.724689
488.080648	10899.453525
488.448905	10945.247367
488.817104	10886.346525
489.185244	11152.227061
489.553326	11308.885958
489.921350	11841.055364
490.289315	12896.403277
490.657222	13235.930030
491.025070	13146.580619
491.392861	13023.725180
491.760593	12643.032365
492.128267	12284.180349
492.495883	11965.929786
492.863440	11635.494754
493.230939	11292.771910
493.598380	11234.382745
493.965763	11099.604977
494.333088	10997.791313
494.700354	10925.498646
495.067563	10978.720628
495.434713	10814.575618
495.801805	10943.944228
496.168839	10871.691891
496.535815	10809.239556
496.902733	10801.950048
497.269593	10737.093083
497.636395	10834.195788
498.003139	10818.769858
498.369825	10690.137256
498.736453	10853.672286
499.103023	10772.550039
499.469535	10809.027828
499.835989	10799.041302
500.202385	10753.456668
500.568723	10610.403846
500.935003	10824.816722
501.301226	10639.526592
501.667390	10892.400951
502.033497	10994.191929
502.399546	10852.790084
502.765537	10762.140056
503.131470	10831.445839
503.497345	11006.799855
503.863163	10622.290887
504.228923	10923.696434
504.594625	10995.268216
504.960269	10742.461912
505.325856	10962.946858
505.691385	10757.371124
506.056856	10914.846688
506.422270	10933.917373
506.787625	10822.885960
507.152924	10940.117993
507.518164	10919.965980
507.883347	10841.868425
508.248472	10761.499829
508.613540	10993.034984
508.978550	10880.891997
509.343503	10856.170178
509.708398	10975.413631
510.073236	11083.584190
510.438016	11088.579973
510.802738	11040.205061
511.167403	11088.287586
511.532010	10987.590538
511.896561	11223.839172
512.261053	11293.734770
512.625488	11162.473206
512.989866	11139.296502
513.354186	11130.696293
513.718449	11035.191633
514.082655	11228.260264
514.446803	11121.065169
514.810894	11238.854249
515.174927	11112.593510
515.538904	11134.051181
515.902822	11283.828903
516.266684	11165.888588
516.630488	11121.644901
516.994235	11167.990749
517.357925	11229.293701
517.721558	11312.427369
518.085133	11333.948054
518.448651	11346.863491
518.812112	11226.223638
519.175516	11240.911040
519.538863	11362.644823
519.902152	11279.344797
520.265385	11439.129209
520.628560	11341.729075
520.991678	11324.536220
521.354739	11389.007537
521.717743	11327.989411
522.080690	11302.657613
522.443580	11441.526277
522.806413	11395.069524
523.169189	11428.383989
523.531908	11477.431896
523.894569	11303.686008
524.257174	11304.227932
524.619722	11424.257805
524.982213	11367.421316
525.344647	11421.795201
525.707025	11371.794517
526.069345	11459.392127
526.431608	11389.428473
526.793815	11492.378917
527.155964	11284.680858
527.518057	11335.601553
527.880093	11282.810590
528.242072	11357.190294
528.603995	11261.836869
528.965860	11183.308295
529.327669	11226.732794
529.689421	11182.506752
530.051117	11153.200004
530.412755	11252.450241
530.774337	11146.144909
531.135862	11128.493309
531.497331	11148.831844
531.858743	10999.825419
532.220098	11169.460246
532.581396	11041.533405
532.942638	11022.916424
533.303824	10982.816566
533.664953	10997.423309
534.026025	10919.567729
534.387040	11008.692808
534.747999	11009.471667
535.108902	11080.698129
535.469748	10829.207567
535.830537	10935.510378
536.191270	10915.819631
536.551947	10935.520460
536.912567	10932.563823
537.273131	10861.143276
537.633638	10837.278454
537.994089	10835.408186
538.354483	10778.503641
538.714821	10923.993862
539.075103	10928.808164
539.435328	10898.145346
539.795497	10724.701927
540.155609	10882.371575
540.515665	10970.798455
540.875665	10702.427589
541.235609	10774.695050
541.595496	10766.477969
541.955328	10923.686352
542.315102	10809.398353
542.674821	10754.202759
543.034483	10761.497309
543.394090	10763.196178
543.753640	10689.940651
544.113134	10914.871894
544.472571	10764.290108
544.831953	10907.300081
545.191278	10708.136695
545.550548	10743.182797
545.909761	10881.418797
546.268918	10857.526248
546.628019	10940.470873
546.987064	10805.040275
547.346053	10725.175795
547.704986	10821.497122
548.063863	10810.656121
548.422684	10801.292177
548.781449	10722.566998
549.140158	10823.470734
549.498811	10697.971209
549.857408	10559.147914
550.215949	10781.177973
550.574434	10634.198092
550.932864	10731.401620
551.291237	10794.395879
551.649555	10743.669268
552.007817	10755.132852
552.366022	10716.283200
552.724173	10707.204082
553.082267	10699.226456
553.440305	10834.825933
553.798288	10631.344799
554.156215	10784.036308
554.514086	10763.859089
554.871902	10616.206214
555.229661	10654.927317
555.587365	10626.124684
555.945014	10520.585608
556.302606	10641.911057
556.660143	10541.816427
557.017625	10695.584222
557.375050	10586.481050
557.732421	10722.821577
558.089735	10638.409976
558.446994	10639.292178
558.804197	10678.421614
559.161345	10673.640080
559.518437	10520.699034
559.875474	10614.812335
560.232455	10647.461368
560.589381	10586.133211
560.946251	10593.531104
561.303065	10696.153873
561.659825	10630.200457
562.016528	10563.649664
562.373177	10442.505696
562.729770	10560.617410
563.086307	10474.176745
563.442789	10569.454553
563.799216	10448.053486
564.155587	10496.181382
564.511904	10451.602458
564.868164	10437.300705
565.224370	10449.588517
565.580520	10384.103929
565.936615	10385.157530
566.292654	10255.138611
566.648638	10380.444051
567.004567	10340.034162
567.360441	10327.272481
567.716260	10239.611857
568.072023	10336.064253
568.427732	10290.577922
568.783385	10186.909114
569.138982	10263.325445
569.494525	10279.968814
569.850013	10153.471141
570.205445	10233.116330
570.560823	10125.621286
570.916145	10049.618330
571.271412	10118.324216
571.626625	10065.258510
571.981782	10043.793277
572.336884	10020.094813
572.691931	10015.890490
573.046923	9958.186923
573.401860	9923.730636
573.756743	9854.364359
574.111570	9900.843798
574.466342	9887.537672
574.821059	9913.383668
575.175722	9803.899889
575.530330	9812.558071
575.884882	9805.510537
576.239380	9732.925484
576.593823	9718.535510
576.948211	9724.995749
577.302544	9611.431156
577.656823	9623.396334
578.011047	9629.065112
578.365216	9596.887427
578.719330	9521.353298
579.073389	9531.259165
579.427394	9483.806784
579.781344	9459.470614
580.135239	9407.385412
580.489080	9419.456455
580.842866	9319.477772
581.196597	9326.253083
581.550273	9363.245069
581.903895	9331.432868
582.257463	9399.798476
582.610975	9276.567470
582.964434	9306.310278
583.317837	9226.201302
583.671186	9212.257471
584.024481	9204.733548
584.377721	9123.177762
584.730906	9102.758568
585.084037	9130.021128
585.437113	9061.053102
585.790135	9084.423891
586.143103	8982.529569
586.496016	8961.386970
586.848874	9015.813787
587.201679	9006.921192
587.554428	8893.112103
587.907124	8933.965614
588.259765	8908.343949
588.612352	8914.105988
588.964884	8791.026217
589.317362	8805.965676
589.669786	8802.376375
590.022155	8850.169034
590.374470	8866.149492
590.726731	8802.784708
591.078937	8657.354982
591.431090	8769.949153
591.783188	8641.946695
592.135232	8641.387127
592.487222	8637.966704
592.839157	8688.960496
593.191038	8613.963250
593.542866	8571.241992
593.894639	8470.860016
594.246358	8518.912294
594.598022	8536.140437
594.949633	8434.987165
595.301190	8406.383658
595.652692	8438.710057
596.004141	8545.559833
596.355535	8325.261410
596.706876	8304.224675
597.058162	8242.878874
597.409395	8315.022827
597.760573	8377.429791
598.111698	8286.817571
598.462768	8270.501877
598.813785	8234.039211
599.164748	8212.503402
599.515657	8196.341462
599.866511	8104.554654
600.217312	8238.455262
600.568060	8095.009229
600.918753	8197.838685
601.269392	8164.168818
601.619978	8071.603152
601.970510	8140.006568
602.320988	8141.075293
602.671412	8196.275927
603.021783	8129.384857
603.372100	8103.508614
603.722363	8105.671269
604.072572	8079.835356
604.422728	8093.907737
604.772830	8022.033486
605.122878	8027.125051
605.472872	8024.022221
605.822813	8054.790903
606.172701	7993.987026
606.522534	8073.498625
606.872314	8075.477278
607.222041	8044.113740
607.571714	8098.898479
607.921333	8058.324752
608.270899	8062.670227
608.620411	8148.992425
608.969870	8052.366108
609.319276	8049.653968
609.668627	8066.042759
610.017926	8108.600180
610.367171	8145.763566
610.716362	8120.099052
611.065500	8118.006973
611.414585	8135.842575
611.763616	8129.949466
612.112594	8114.435315
612.461518	8129.813355
612.810389	8186.017179
613.159207	8125.745144
613.507971	8074.879902
613.856682	8191.459105
614.205340	8156.997777
614.553945	8231.470743
614.902496	8130.037686
615.250994	8183.161366
615.599439	8158.615988
615.947830	8178.662136
616.296169	8142.910273
616.644454	8162.419538
616.992686	8165.605547
617.340864	8214.804688
617.688990	8118.122919
618.037063	8211.490130
618.385082	8158.835278
618.733048	8250.790965
619.080961	8185.538270
619.428821	8206.317906
619.776628	8205.861681
620.124382	8157.791759
620.472083	8140.616548
620.819731	8171.924634
621.167326	8062.186276
621.514868	8071.857730
621.862357	7961.022921
622.209793	7974.855847
622.557176	7910.583657
622.904506	7881.597022
623.251783	7811.419119
623.599007	7769.680886
623.946179	7776.294880
624.293297	7724.250008
624.640363	7651.095303
624.987376	7636.281873
625.334336	7576.203922
625.681243	7532.335801
626.028097	7522.039244
626.374899	7493.120665
626.721647	7482.458625
627.068343	7421.294305
627.414987	7391.745582
627.761577	7351.247473
628.108115	7381.610342
628.454600	7276.562778
628.801032	7328.784091
629.147412	7285.341948
629.493739	7279.244672
629.840014	7210.853859
630.186236	7272.940709
630.532405	7154.287071
630.878521	7203.060235
631.224585	7165.191087
631.570597	7084.391473
631.916556	7113.962882
632.262462	7110.484486
632.608316	7077.023827
632.954117	7057.673358
633.299866	7038.222066
633.645562	7031.955912
633.991206	6957.457740
634.336797	6898.572022
634.682336	6852.110228
635.027823	6819.045299
635.373257	6818.034548
635.718639	6747.478559
636.063968	6761.339211
636.409245	6651.358878
636.754470	6651.426934
637.099642	6609.557631
637.444762	6552.932870
637.789829	6560.290434
638.134845	6505.344378
638.479808	6488.091029
638.824719	6497.210476
639.169577	6421.492345
639.514383	6443.885151
639.859137	6369.810436
640.203839	6376.124481
640.548489	6370.979984
640.893086	6343.634245
641.237632	6317.427807
641.582125	6328.969528
641.926566	6304.497247
642.270955	6319.391336
642.615292	6312.454708
642.959576	6333.403223
643.303809	6315.534853
643.647990	6328.286452
643.992118	6316.953938
644.336195	6266.736484
644.680219	6291.312109
645.024192	6275.210664
645.368112	6372.136929
645.711981	6395.669035
646.055797	6469.592515
646.399562	6423.876811
646.743274	6558.634415
647.086935	6608.478824
647.430544	6604.758452
647.774101	6628.958511
648.117606	6630.004551
648.461059	6620.983406
648.804460	6579.308187
649.147810	6493.825341
649.491108	6464.657225
649.834354	6438.347443
650.177548	6353.547674
650.520690	6274.451970
650.863781	6252.341469
651.206820	6265.577019
651.549807	6190.012643
651.892742	6133.032481
652.235626	6136.704962
652.578458	6121.364731
652.921238	6030.636564
653.263967	6069.050157
653.606644	6006.837277
653.949269	6011.139902
654.291843	5951.339214
654.634365	5999.711606
654.976836	5957.358352
655.319255	5952.665038
655.661622	5930.857006
656.003938	5929.473209
656.346203	5890.890738
656.688416	5924.749648
657.030577	5872.717379
657.372687	5849.119738
657.714746	5831.836142
658.056753	5875.074118
658.398708	5815.966589
658.740612	5808.077184
659.082465	5855.617785
659.424266	5846.962124
659.766016	5844.305436
660.107715	5820.115459
660.449362	5835.201112
660.790958	5833.434188
661.132503	5817.690664
661.473996	5856.275656
661.815438	5838.356874
662.156829	5836.277398
662.498168	5830.091903
662.839456	5809.783614
663.180693	5840.345609
663.521879	5844.570096
663.863013	5832.882181
664.204097	5850.599316
664.545129	5887.273711
664.886110	5886.923350
665.227040	5921.379637
665.567918	5884.884204
665.908746	5913.210447
666.249522	5922.342497
666.590248	5904.338016
666.930922	5931.545124
667.271545	5947.812927
667.612118	5945.080622
667.952639	5921.097332
668.293109	5941.708090
668.633528	5902.540845
668.973896	5907.382873
669.314213	5894.311161
669.654480	5875.308532
669.994695	5870.126226
670.334859	5859.938054
670.674973	5855.073340
671.015035	5856.580645
671.355047	5856.656263
671.695008	5840.403583
672.034918	5813.866949
672.374777	5827.049566
672.714585	5813.703111
673.054342	5813.191434
673.394049	5809.675229
673.733705	5842.359550
674.073310	5823.919010
674.412864	5785.964162
674.752368	5775.738182
675.091820	5784.159429
675.431223	5720.214913
675.770574	5719.476384
676.109875	5671.129198
676.449125	5676.674467
676.788324	5640.763808
677.127473	5588.113997
677.466571	5578.629066
677.805619	5566.827725
678.144616	5553.289707
678.483562	5531.522004
678.822458	5499.193085
679.161303	5498.820039
679.500098	5486.348225
679.838842	5473.059743
680.177535	5473.778107
680.516179	5490.935675
680.854771	5503.561244
681.193314	5583.866825
681.531805	5689.889852
681.870247	5835.662378
682.208638	5944.737823
682.546978	5954.303413
682.885268	5937.261792
683.223508	5848.597978
683.561697	5794.052694
683.899836	5763.934320
684.237925	5719.788936
684.575963	5684.321898
684.913951	5642.886134
685.251889	5706.387028
685.589776	5674.937790
685.927614	5644.693387
686.265401	5714.841043
686.603137	5697.159196
686.940824	5773.890599
687.278460	5799.197191
687.616046	5807.759591
687.953582	5875.091762
688.291068	5859.249936
688.628504	5917.155150
688.965889	5884.559049
689.303224	5825.083516
689.640510	5782.299243
689.977745	5705.784610
690.314930	5610.496720
690.652065	5547.820055
690.989150	5455.569460
691.326185	5380.854519
691.663170	5328.103885
692.000105	5252.211834
692.336990	5174.210061
692.673825	5149.843644
693.010610	5083.522224
693.347345	5012.830123
693.684030	5004.328217
694.020665	4955.207214
694.357251	4864.121126
694.693786	4880.005802
695.030272	4845.115976
695.366707	4808.418897
695.703093	4775.653917
696.039429	4797.522442
696.375716	4780.914361
696.711952	4755.025516
697.048139	4746.488322
697.384276	4721.887491
697.720363	4738.452722
698.056400	4747.017643
698.392388	4694.062842
698.728326	4672.884955
699.064214	4653.345442
699.400053	4648.601717
699.735842	4617.114670
700.071581	4593.141463
700.407270	4562.791196
700.742910	4548.131521
701.078501	4487.965349
701.414042	4486.790761
701.749533	4460.639775
702.084974	4395.450094
702.420366	4449.340029
702.755709	4395.853386
703.091002	4340.473791
703.426246	4388.682345
703.761440	4340.977906
704.096584	4308.200324
704.431679	4327.949044
704.766725	4315.000840
705.101721	4299.632883
705.436668	4329.600022
705.771565	4276.821662
706.106413	4303.630518
706.441212	4337.577648
706.775961	4344.960418
707.110661	4327.412161
707.445311	4352.670863
707.779913	4375.766909
708.114465	4389.327613
708.448967	4412.368206
708.783421	4471.624449
709.117825	4516.372251
709.452180	4519.878374
709.786485	4563.358326
710.120742	4651.071882
710.454949	4628.638747
710.789107	4701.518709
711.123216	4771.852887
711.457275	4763.285446
711.791286	4841.546839
712.125247	4854.842882
712.459159	4756.769755
712.793023	4833.501157
713.126837	4791.417605
713.460602	4786.076503
713.794318	4707.195048
714.127985	4716.480853
714.461602	4627.549858
714.795171	4598.812761
715.128691	4533.867576
715.462162	4474.286178
715.795584	4430.039971
716.128957	4411.801077
716.462281	4362.556565
716.795556	4332.672605
717.128782	4294.034682
717.461960	4224.416347
717.795088	4238.166094
718.128167	4198.093962
718.461198	4136.407883
718.794180	4135.235815
719.127113	4110.657669
719.459997	4089.835183
719.792833	4052.006365
720.125619	4039.012791
720.458357	4004.115403
720.791046	4010.951208
721.123686	3983.585304
721.456278	3941.380764
721.788821	3955.644709
722.121315	3930.973302
722.453761	3902.389960
722.786158	3917.231117
723.118506	3942.232719
723.450805	3892.022827
723.783056	3914.725663
724.115259	3928.977005
724.447412	3935.351544
724.779518	3929.032458
725.111574	3932.604115
725.443582	3964.446564
725.775542	3948.115746
726.107453	4001.914940
726.439315	4000.949559
726.771129	4015.054707
727.102895	4048.495201
727.434612	4098.034620
727.766281	4109.977113
728.097901	4113.369810
728.429473	4113.636991
728.760996	4120.762662
729.092471	4117.503556
729.423897	4095.572016
729.755276	4107.973255
730.086606	4110.410653
730.417887	4142.676558
730.749120	4212.370510
731.080305	4270.850415
731.411442	4302.738234
731.742530	4269.262452
732.073570	4271.011732
732.404562	4328.982481
732.735506	4319.495029
733.066401	4281.152013
733.397249	4220.509453
733.728048	4141.590189
734.058798	4056.054411
734.389501	3986.110922
734.720156	3922.937703
735.050762	3881.106208
735.381320	3876.037328
735.711831	3826.225687
736.042293	3792.633958
736.372707	3814.515087
736.703073	3791.061118
737.033391	3779.584932
737.363661	3794.925163
737.693883	3820.040191
738.024056	3830.969413
738.354182	3825.071263
738.684260	3890.772621
739.014290	3911.242226
739.344272	3907.287441
739.674207	3945.030560
740.004093	3952.952733
740.333931	3948.778657
740.663722	3949.928041
740.993464	3949.635654
741.323159	3920.848145
741.652806	3893.444432
741.982405	3864.031820
742.311956	3833.489990
742.641460	3826.326510
742.970915	3801.365237
743.300323	3759.102723
743.629683	3726.607446
743.958996	3712.524983
744.288260	3692.123433
744.617477	3655.920387
744.946647	3642.513438
745.275768	3617.340436
745.604842	3616.579222
745.933869	3567.256573
746.262847	3558.331210
746.591778	3600.271089
746.920662	3569.091553
747.249498	3537.609547
747.578286	3579.211669
747.907027	3602.148919
748.235720	3601.203703
748.564365	3624.788741
748.892963	3627.042137
749.221514	3607.283334
749.550017	3584.235179
749.878473	3583.872216
750.206881	3553.126218
750.535242	3549.249571
750.863555	3549.627658
751.191821	3546.683624
751.520039	3527.691077
751.848210	3504.524454
752.176334	3537.992675
752.504411	3544.236144
752.832440	3504.796677
753.160421	3487.785303
753.488356	3493.915346
753.816243	3509.192563
754.144082	3465.163125
754.471875	3451.136114
754.799620	3466.738486
755.127318	3461.223463
755.454969	3462.849235
755.782572	3469.347283
756.110129	3443.092953
756.437638	3435.621963
756.765100	3446.190743
757.092515	3458.183648
757.419882	3462.980305
757.747203	3433.534926
758.074477	3441.338632
758.401703	3455.136270
758.728882	3476.306596
759.056014	3484.213645
759.383099	3485.095847
759.710138	3482.358501
760.037129	3498.591016
760.364073	3532.253321
760.690970	3516.361083
761.017820	3492.334944
761.344623	3512.663397
761.671379	3555.813153
761.998088	3606.766616
762.324751	3733.486100
762.651366	3979.222186
762.977935	4456.861430
763.304456	4895.900560
763.630931	4987.329447
763.957359	4628.754694
764.283740	4288.214669
764.610074	4096.915484
764.936362	3899.445926
765.262602	3743.901124
765.588796	3629.746716
765.914943	3541.927295
766.241044	3454.238945
766.567097	3427.571241
766.893104	3377.454610
767.219064	3345.188705
767.544978	3317.958912
767.870845	3264.162239
768.196665	3245.167171
768.522438	3257.250817
768.848165	3247.768407
769.173846	3214.801781
769.499479	3196.333514
769.825066	3180.103519
770.150607	3163.344203
770.476101	3178.281142
770.801548	3175.223682
771.126949	3132.961169
771.452303	3114.046760
771.777611	3116.547172
772.102872	3123.226701
772.428087	3101.524533
772.753256	3089.471135
773.078378	3080.079465
773.403453	3048.055535
773.728482	3035.485418
774.053465	3060.262689
774.378401	3043.793240
774.703291	3012.369207
775.028135	3016.467665
775.352932	3010.446007
775.677683	2999.176508
776.002388	2993.643841
776.327046	2998.092659
776.651658	2983.647233
776.976224	2973.028043
777.300743	2973.154071
777.625216	2965.892289
777.949643	2959.626135
778.274024	2961.612350
778.598359	2953.733026
778.922647	2954.753860
779.246889	2956.414920
779.571086	2940.293310
779.895236	2933.966662
780.219339	2944.618620
780.543397	2958.993470
780.867409	2961.859366
781.191374	2953.163376
781.515294	2950.655402
781.839167	2951.572892
782.162995	2942.352621
782.486776	2952.381997
782.810511	2949.785803
783.134201	2936.797270
783.457844	2943.209618
783.781441	2933.681837
784.104993	2913.345822
784.428498	2911.387334
784.751958	2925.744540
785.075372	2920.680701
785.398739	2906.257960
785.722061	2923.672626
786.045337	2936.293154
786.368568	2919.680032
786.691752	2907.702250
787.014891	2958.791824
787.337983	2987.861638
787.661030	3017.808612
787.984031	3081.460741
788.306987	3128.822382
788.629897	3122.657050
788.952760	3104.304730
789.275579	3092.649582
789.598351	3031.480221
789.921078	2986.785351
790.243759	2977.250009
790.566395	2962.078656
790.888984	2934.972372
791.211529	2922.230856
791.534027	2908.949936
791.856480	2902.966086
792.178888	2883.560165
792.501249	2880.371635
792.823566	2872.580532
793.145836	2872.530120
793.468062	2868.726569
793.790241	2865.250694
794.112375	2869.964173
794.434464	2884.709548
794.756507	2890.030486
795.078505	2892.455281
795.400457	2906.048752
795.722364	2945.589042
796.044226	2969.937815
796.366042	2972.191211
796.687812	2960.778039
797.009538	2980.743528
797.331218	2969.569811
797.652852	2950.925103
797.974442	2936.381375
798.295986	2930.952052
798.617484	2927.776125
798.938938	2912.637540
799.260346	2898.058523
799.581709	2890.663150
799.903026	2883.915566
800.224299	2877.727550
800.545526	2869.550798
800.866708	2854.916328
801.187845	2843.351922
801.508936	2846.217818
801.829983	2852.897346
802.150984	2836.261539
802.471940	2826.554797
802.792851	2827.537822
803.113717	2825.420537
803.434538	2833.282217
803.755314	2827.139571
804.076045	2815.960812
804.396731	2818.120947
804.717372	2817.397541
805.037967	2813.689772
805.358518	2821.148159
805.679024	2831.606033
805.999485	2826.781649
806.319901	2833.188955
806.640272	2824.306442
806.960598	2828.533450
807.280879	2836.485870
807.601115	2845.696058
807.921306	2830.207113
808.241453	2828.974551
808.561554	2834.361024
808.881611	2836.891683
809.201623	2829.087977
809.521590	2830.302895
809.841513	2826.093531
810.161390	2829.627380
810.481223	2820.573468
810.801011	2814.778662
811.120755	2810.344967
811.440453	2813.818322
811.760107	2810.481078
812.079716	2815.204639
812.399281	2798.649490
812.718801	2794.309056
813.038276	2790.434930
813.357707	2795.498769
813.677093	2805.623926
813.996434	2796.144036
814.315731	2792.718572
814.634983	2787.248920
814.954191	2788.690690
815.273354	2803.345325
815.592473	2815.486944
815.911547	2813.573826
816.230577	2823.865341
816.549562	2829.982782
816.868502	2828.813234
817.187399	2838.194821
817.506250	2857.073942
817.825058	2849.882736
818.143821	2861.283306
818.462539	2878.307282
818.781213	2906.963721
819.099843	2942.471088
819.418429	2997.540653
819.736970	3059.375446
820.055466	3132.812455
820.373919	3236.602251
820.692327	3378.185577
821.010691	3545.612379
821.329011	3987.827435
821.647286	4889.470568
821.965517	6266.580208
822.283704	7011.937490
822.601847	6989.774057
822.919945	6353.976172
823.237999	5848.134192
823.556010	5267.105923
823.873976	4714.829875
824.191897	4304.916012
824.509775	4010.817617
824.827609	3741.683016
825.145398	3615.107205
825.463144	3604.702263
825.780845	3698.971840
826.098502	3806.761792
826.416116	4082.835541
826.733685	4398.056371
827.051210	4464.231597
827.368692	4348.766489
827.686129	4084.950305
828.003522	3756.657764
828.320872	3501.300636
828.638177	3303.838640
828.955439	3167.230933
829.272656	3086.685897
829.589830	3018.529497
829.906960	2971.964359
830.224046	2922.470311
830.541088	2890.169117
830.858086	2875.358207
831.175041	2858.263655
831.491952	2859.677698
831.808819	2871.232023
832.125642	2894.759088
832.442421	2939.627878
832.759157	3020.949251
833.075849	3199.448947
833.392497	3480.402533
833.709101	3683.346784
834.025662	3632.310142
834.342179	3474.065803
834.658653	3299.283958
834.975083	3150.703510
835.291469	3051.775907
835.607811	2968.604430
835.924110	2908.957498
836.240366	2858.803058
836.556578	2814.420740
836.872746	2792.519447
837.188871	2771.031528
837.504952	2751.272726
837.820990	2745.127559
838.136984	2730.513254
838.452935	2725.381360
838.768842	2722.245762
839.084706	2739.728484
839.400526	2818.471307
839.716303	2950.461317
840.032037	3033.577341
840.347727	3016.969260
840.663373	2955.835187
840.978977	2880.462376
841.294537	2808.008392
841.610054	2762.277565
841.925527	2739.277300
842.240957	2718.822819
842.556344	2695.832637
842.871687	2680.454597
843.186987	2670.397495
843.502244	2666.528409
843.817458	2662.351813
844.132629	2649.151552
844.447756	2638.975983
844.762840	2635.721918
845.077881	2635.880714
845.392879	2633.796197
845.707833	2630.695888
846.022745	2623.597943
846.337613	2629.717904
846.652438	2625.863942
846.967221	2624.606174
847.281960	2622.854373
847.596656	2623.734054
847.911309	2619.741460
848.225919	2618.970164
848.540485	2615.806840
848.855009	2616.477313
849.169490	2615.761469
849.483928	2616.850359
849.798323	2612.570419
850.112675	2612.436828
850.426984	2612.986314
850.741251	2613.561006
851.055474	2610.372476
851.369654	2616.547889
851.683792	2615.469082
851.997887	2616.033692
852.311938	2613.215687
852.625947	2612.492281
852.939914	2618.518981
853.253837	2615.849690
853.567718	2612.091509
853.881555	2611.746190
854.195350	2614.808691
854.509103	2614.234000
854.822812	2612.683845
855.136479	2609.964142
855.450103	2614.823815
855.763685	2615.393465
856.077224	2612.948506
856.390720	2606.826024
856.704173	2612.961108
857.017584	2617.293980
857.330953	2617.208281
857.644278	2620.782459
857.957561	2621.508385
858.270802	2615.605194
858.584000	2613.689555
858.897155	2618.022427
859.210268	2622.115844
859.523339	2613.346757
859.836367	2607.546909
860.149352	2612.817436
860.462295	2612.741818
860.775195	2612.414143
861.088054	2608.209821
861.400869	2608.156889
861.713642	2606.301744
862.026373	2609.029008
862.339062	2613.434977
862.651708	2616.300873
862.964312	2613.097220
863.276873	2615.146449
863.589392	2616.794906
863.901869	2622.730865
864.214303	2626.589868
864.526696	2629.090280
864.839045	2632.525827
865.151353	2635.026239
865.463619	2634.738893
865.775842	2631.923409
866.088023	2632.674541
866.400162	2633.382823
866.712258	2633.271917
867.024313	2631.454581
867.336325	2628.195475
867.648296	2629.261679
867.960224	2635.847947
868.272110	2634.564973
868.583954	2627.139354
868.895755	2628.697070
869.207515	2634.799387
869.519233	2640.226189
869.830909	2636.588997
870.142542	2631.242853
870.454134	2633.599592
870.765684	2639.638895
871.077191	2642.653505
871.388657	2645.587456
871.700081	2642.300624
872.011463	2643.306334
872.322803	2643.150058
872.634101	2646.840183
872.945357	2655.354692
873.256571	2660.998263
873.567744	2657.623211
873.878874	2657.550114
874.189963	2660.055568
874.501010	2661.746875
874.812015	2666.878769
875.122979	2666.087308
875.433900	2659.601864
875.744780	2659.760660
876.055618	2663.758295
876.366415	2666.306598
876.677169	2668.542350
876.987882	2661.162101
877.298554	2662.079591
877.609183	2671.781292
877.919771	2677.883608
878.230317	2683.880061
878.540822	2694.088397
878.851285	2708.730429
879.161707	2732.176835
879.472087	2773.252157
879.782425	2819.623210
880.092722	2932.900458
880.402977	3121.023717
880.713191	3381.316134
881.023363	3672.359589
881.333494	3862.516953
881.643583	4040.078995
881.953631	4040.376423
882.263637	3858.789020
882.573602	3637.469763
882.883526	3505.522603
883.193408	3394.960017
883.503248	3291.283647
883.813048	3173.950791
884.122806	3060.245045
884.432522	2976.970225
884.742197	2912.894639
885.051831	2874.322250
885.361424	2839.475274
885.670975	2804.041004
885.980485	2771.694440
886.289954	2754.826739
886.599382	2744.174781
886.908768	2730.046948
887.218113	2709.289997
887.527417	2699.847916
887.836680	2692.654189
888.145901	2685.079855
888.455082	2673.454955
888.764221	2668.013029
889.073319	2659.947183
889.382376	2658.495331
889.691392	2658.933911
890.000366	2658.475166
890.309300	2657.282933
890.618193	2660.978099
890.927044	2661.903151
891.235855	2660.824344
891.544625	2660.726041
891.853353	2663.473470
892.162041	2668.592762
892.470687	2686.723272
892.779293	2700.929243
893.087858	2709.174050
893.396381	2733.482494
893.704864	2775.586211
894.013306	2847.319310
894.321707	2935.710901
894.630068	2986.124960
894.938387	3007.912827
895.246665	3001.883607
895.554903	2958.869962
895.863100	2914.212901
896.171256	2855.972450
896.479371	2793.736885
896.787446	2755.620721
897.095480	2737.117166
897.403473	2729.595764
897.711425	2715.467931
898.019336	2698.532174
898.327207	2682.594567
898.635038	2682.597087
898.942827	2680.497447
899.250576	2668.257525
899.558284	2659.657317
899.865952	2654.641368
900.173579	2652.587098
900.481165	2650.489978
900.788711	2640.211066
901.096216	2632.755199
901.403681	2632.036835
901.711105	2634.005405
902.018489	2630.285034
902.325832	2635.648821
902.633135	2635.036321
902.940397	2649.963178
903.247619	2688.260823
903.554800	2757.251534
903.861941	2884.311297
904.169041	3011.028260
904.476101	3072.230388
904.783121	3064.346024
905.090100	3007.731346
905.397039	2933.994388
905.703938	2861.754654
906.010796	2796.459108
906.317614	2745.414905
906.624391	2711.041798
906.931129	2682.637416
907.237826	2662.230826
907.544483	2640.286683
907.851099	2626.990640
908.157675	2618.236676
908.464211	2610.117898
908.770707	2600.166660
909.077163	2594.926381
909.383578	2594.024014
909.689954	2592.375557
909.996289	2590.464959
910.302584	2591.962182
910.608839	2587.720051
910.915054	2586.986563
911.221229	2589.814651
911.527363	2592.529312
911.833458	2588.264496
912.139513	2594.739858
912.445527	2591.730289
912.751502	2598.777822
913.057436	2604.895262
913.363331	2610.730398
913.669186	2619.905298
913.975000	2634.007926
914.280775	2654.890906
914.586510	2673.089471
914.892205	2706.066179
915.197859	2772.687547
915.503475	2857.729292
915.809050	2926.006680
916.114585	2941.137703
916.420081	2949.143056
916.725536	2960.765436
917.030952	2935.453802
917.336328	2888.850856
917.641665	2839.772702
917.946961	2788.352933
918.252218	2755.131729
918.557435	2730.084756
918.862612	2707.548278
919.167750	2687.381142
919.472848	2673.139882
919.777906	2656.166317
920.082925	2643.858340
920.387904	2634.350724
920.692843	2630.564818
920.997743	2623.713890
921.302603	2617.341871
921.607423	2611.731067
921.912204	2606.861312
922.216946	2601.792432
922.521647	2601.643718
922.826310	2596.743717
923.130932	2590.343972
923.435516	2589.146698
923.740059	2583.361974
924.044564	2580.627148
924.349028	2583.319124
924.653454	2573.130952
924.957840	2571.510221
925.262186	2568.561146
925.566493	2568.760272
925.870761	2564.971844
926.174989	2565.130641
926.479178	2563.272976
926.783328	2565.828841
927.087438	2561.029662
927.391509	2561.654765
927.695541	2560.971689
927.999533	2558.173848
928.303486	2558.163766
928.607400	2556.822819
928.911275	2557.369784
929.215110	2554.327448
929.518906	2554.554300
929.822663	2555.083621
930.126381	2555.759136
930.430060	2557.203426
930.733699	2555.993549
931.037299	2559.494631
931.340861	2558.297357
931.644383	2557.132850
931.947866	2557.677295
932.251309	2555.466749
932.554714	2556.958930
932.858080	2556.699311
933.161407	2556.880792
933.464694	2556.500185
933.767943	2554.763508
934.071153	2552.245452
934.374323	2554.047664
934.677455	2553.750236
934.980548	2553.639331
935.283602	2553.460370
935.586617	2553.629248
935.889593	2552.260575
936.192530	2553.898950
936.495428	2552.827705
936.798287	2556.439692
937.101108	2556.417006
937.403890	2558.342727
937.706632	2565.569221
938.009336	2564.424879
938.312002	2569.062741
938.614628	2570.880077
938.917216	2574.232444
939.219765	2577.100861
939.522275	2577.194122
939.824747	2572.977197
940.127179	2571.532906
940.429573	2569.077864
940.731929	2569.403019
941.034246	2565.395301
941.336524	2565.256670
941.638763	2567.134499
941.940964	2565.990157
942.243126	2564.611402
942.545250	2560.570917
942.847335	2561.884138
943.149381	2560.467573
943.451389	2562.473953
943.753359	2557.571431
944.055290	2558.405742
944.357182	2558.683005
944.659036	2554.249310
944.960851	2557.989846
945.262628	2556.301060
945.564367	2556.785011
945.866067	2559.048489
946.167729	2557.878941
946.469352	2554.982798
946.770937	2556.401883
947.072484	2556.979095
947.373992	2555.154197
947.675462	2556.169990
947.976893	2553.838456
948.278286	2555.648230
948.579641	2554.776111
948.880958	2553.011707
949.182236	2555.572613
949.483476	2556.593447
949.784678	2550.470965
950.085841	2554.576985
950.386967	2552.747046
950.688054	2554.932387
950.989103	2555.607901
951.290114	2555.744012
951.591087	2557.546225
951.892021	2560.949004
952.192917	2558.698128
952.493776	2560.215516
952.794596	2561.264076
953.095378	2560.898592
953.396122	2564.787842
953.696828	2560.757440
953.997496	2558.118396
954.298126	2557.785680
954.598718	2557.014383
954.899272	2555.058415
955.199788	2555.343241
955.500266	2552.366439
955.800706	2551.035575
956.101108	2543.506611
956.401472	2548.726726
956.701798	2542.579039
957.002087	2547.552137
957.302337	2546.659853
957.602550	2544.242620
957.902724	2543.839327
958.202861	2545.487785
958.502960	2544.414019
958.803022	2543.872095
959.103045	2542.810932
959.403031	2541.162475
959.702979	2541.611138
960.002889	2541.598535
960.302762	2540.607948
960.602596	2541.192722
960.902393	2540.590304
961.202153	2541.354039
961.501875	2538.029398
961.801559	2540.199614
962.101205	2540.857485
962.400814	2540.917979
962.700385	2541.588452
962.999918	2538.089892
963.299414	2537.663914
963.598873	2540.093750
963.898293	2537.464788
964.197677	2540.691127
964.497022	2538.354552
964.796331	2538.349511
965.095601	2537.489994
965.394835	2536.983358
965.694030	2538.508307
965.993189	2537.414377
966.292309	2537.729449
966.591393	2539.619882
966.890439	2540.343287
967.189447	2538.619213
967.488419	2538.972093
967.787353	2537.968904
968.086249	2537.215251
968.385108	2538.162988
968.683930	2536.529654
968.982714	2538.488143
969.281462	2538.520910
969.580172	2537.495035
969.878844	2537.875642
970.177480	2537.633667
970.476078	2539.239275
970.774639	2537.038811
971.073162	2540.514687
971.371649	2537.800025
971.670098	2535.226516
971.968510	2537.500077
972.266885	2534.629139
972.565223	2540.912938
972.863524	2539.077958
973.161788	2540.809594
973.460014	2539.904707
973.758204	2539.221631
974.056356	2539.992927
974.354471	2540.923020
974.652550	2539.297248
974.950591	2540.154244
975.248595	2541.853113
975.546563	2537.018646
975.844493	2540.509645
976.142386	2539.574511
976.440243	2541.999306
976.738062	2539.607279
977.035845	2540.514687
977.333590	2539.350180
977.631299	2535.748276
977.928971	2537.673996
978.226606	2538.112577
978.524204	2536.627957
978.821765	2538.160468
979.119290	2538.684748
979.416777	2537.575694
979.714228	2537.101825
980.011642	2536.305323
980.309020	2542.029553
980.606360	2539.284645
980.903664	2539.264480
981.200931	2539.476209
981.498162	2539.506456
981.795356	2542.009389
982.092513	2543.347815
982.389633	2547.267312
982.686717	2548.565409
982.983764	2552.295863
983.280775	2556.474980
983.577749	2554.375339
983.874686	2550.997766
984.171587	2548.426777
984.468451	2547.247148
984.765279	2544.555171
985.062070	2541.530479
985.358824	2544.167002
985.655543	2541.021322
985.952224	2540.277752
986.248869	2536.496887
986.545478	2535.322298
986.842050	2534.256094
987.138586	2535.987730
987.435086	2536.224665
987.731549	2528.932636
988.027975	2536.280117
988.324366	2536.605272
988.620719	2536.582587
988.917037	2534.987061
989.213318	2534.074613
989.509563	2535.297092
989.805772	2534.170394
990.101944	2536.055786
990.398080	2533.031094
990.694180	2533.903213
990.990244	2536.174253
991.286271	2535.740714
991.582262	2533.467153
991.878217	2534.883718
992.174136	2533.905734
992.470019	2535.087884
992.765865	2533.172246
993.061676	2534.664428
993.357450	2539.201466
993.653188	2536.718698
993.948890	2535.478574
994.244556	2531.485980
994.540186	2535.831455
994.835780	2533.711649
995.131337	2536.892618
995.426859	2534.402287
995.722345	2537.711805
996.017795	2537.893287
996.313208	2539.486291
996.608586	2542.072403
996.903928	2537.724408
997.199234	2540.277752
997.494504	2539.231713
997.789738	2537.447144
998.084936	2537.104346
998.380099	2534.712318
998.675225	2534.586290
998.970316	2534.235929
999.265371	2539.130890
999.560390	2535.944881
999.855373	2534.172915
1000.150320	2535.758358
1000.445232	2537.820190
1000.740108	2532.678213
1001.034948	2533.401618
1001.329752	2533.187369
1001.624521	2535.304654
1001.919254	2529.618233
1002.213951	2529.769467
1002.508613	2531.402801
1002.803239	2531.211237
1003.097829	2528.496576
1003.392384	2534.145189
1003.686903	2531.964890
1003.981386	2536.615354
1004.275834	2536.456558
1004.570246	2536.811959
1004.864623	2532.703419
1005.158964	2531.080167
1005.453270	2531.612009
1005.747540	2531.110414
1006.041775	2533.273069
1006.335974	2534.966897
1006.630138	2534.576207
1006.924266	2532.665610
1007.218359	2534.639222
1007.512416	2532.456402
1007.806438	2534.858512
1008.100425	2537.192566
1008.394376	2534.225847
1008.688292	2533.850281
1008.982172	2531.853984
1009.276017	2532.811803
1009.569827	2533.136958
1009.863602	2537.212731
1010.157341	2534.246012
1010.451045	2532.310209
1010.744714	2534.301464
1011.038347	2534.558563
1011.331945	2530.573531
1011.625508	2533.696526
1011.919036	2533.585621
1012.212528	2532.993285
1012.505986	2533.159643
1012.799408	2533.172246
1013.092795	2532.990764
1013.386147	2529.189734
1013.679464	2533.154602
1013.972745	2534.225847
1014.265992	2532.650487
1014.559204	2533.086546
1014.852380	2532.428676
1015.145521	2534.505631
1015.438628	2531.758202
1015.731699	2533.162164
1016.024736	2530.359282
1016.317737	2534.238450
1016.610703	2533.217616
1016.903635	2529.661082
1017.196531	2524.960206
1017.489393	2529.983716
1017.782219	2527.097656
1018.075011	2530.618902
1018.367768	2532.474046
1018.660490	2532.005219
1018.953177	2532.005219
1019.245829	2532.005219
