Dividing Wavelength (nm)	Counts (n)	Blue Motor Position (mm): 29.600000	Red Motor Position (mm): 0.000000	
326.493990	2053.871941
326.888308	2053.871941
327.282561	2053.871941
327.676750	2028.792201
328.070874	2030.710360
328.464933	2036.059024
328.858929	2045.163348
329.252859	2055.011242
329.646726	2068.148489
330.040528	2087.297312
330.434265	2101.654518
330.827938	2125.715945
331.221547	2142.858389
331.615091	2164.837820
332.008571	2184.674760
332.401986	2206.944057
332.795338	2226.833930
333.188625	2244.687176
333.581847	2264.458581
333.975006	2282.815943
334.368100	2299.779426
334.761129	2313.564461
335.154095	2331.568942
335.546996	2381.599873
335.939833	2488.931080
336.332606	2494.120948
336.725315	2511.028978
337.117960	2521.113806
337.510540	2530.374406
337.903056	2540.779347
338.295508	2546.516180
338.687896	2554.287119
339.080220	2558.403221
339.472480	2560.167625
339.864676	2566.766495
340.256807	2566.317833
340.648875	2570.638101
341.040879	2572.856209
341.432818	2572.894018
341.824694	2573.617423
342.216506	2572.399985
342.608253	2571.260684
342.999937	2573.491394
343.391557	2573.231775
343.783113	2569.370251
344.174605	2568.001578
344.566033	2567.368913
344.957397	2565.039900
345.348697	2561.952193
345.739934	2562.040413
346.131106	2559.829868
346.522215	2560.414641
346.913260	2559.101421
347.304241	2556.583364
347.695159	2555.113868
348.086012	2552.063970
348.476802	2549.913918
348.867528	2549.876109
349.258191	2543.751107
349.648789	2546.044832
350.039324	2542.014430
350.429796	2544.683721
350.820203	2543.299924
351.210548	2540.928061
351.600828	2544.174564
351.991045	2540.605427
352.381198	2542.047197
352.771288	2540.555016
353.161314	2541.739687
353.551276	2542.092568
353.941175	2536.995961
354.331010	2540.000489
354.720782	2543.960315
355.110490	2544.018288
355.500135	2543.065510
355.889717	2538.946888
356.279235	2542.145500
356.668689	2540.509645
357.058080	2541.774975
357.447408	2542.843700
357.836672	2543.322609
358.225873	2545.558361
358.615010	2542.614327
359.004084	2544.345963
359.393095	2546.985008
359.782043	2543.678011
360.170927	2546.553989
360.559748	2548.068856
360.948505	2549.729916
361.337199	2550.198743
361.725830	2549.492982
362.114398	2550.395348
362.502903	2550.657488
362.891344	2551.948023
363.279722	2548.976263
363.668037	2551.020451
364.056289	2551.978270
364.444478	2554.168652
364.832603	2552.338713
365.220665	2554.110678
365.608665	2553.581357
365.996601	2554.455998
366.384474	2551.191850
366.772284	2555.499516
367.160031	2554.904660
367.547715	2557.311811
367.935336	2553.399876
368.322893	2555.960782
368.710388	2552.053888
369.097820	2554.377860
369.485189	2552.661347
369.872495	2554.387942
370.259738	2559.315670
370.646918	2557.972202
371.034035	2560.704508
371.421090	2557.715103
371.808081	2558.897254
372.195010	2559.146791
372.581875	2558.536812
372.968678	2558.536812
373.355418	2560.192831
373.742096	2557.876420
374.128710	2559.900444
374.515262	2560.528067
374.901751	2562.630228
375.288177	2562.516803
375.674540	2560.528067
376.060841	2564.833213
376.447079	2562.753737
376.833254	2564.896227
377.219367	2560.402038
377.605417	2563.517472
377.991404	2565.032338
378.377329	2564.555949
378.763191	2564.926474
379.148991	2564.704663
379.534727	2564.671896
379.920402	2565.511248
380.306013	2562.592420
380.691563	2568.644325
381.077049	2565.659962
381.462474	2564.442523
381.847835	2565.138202
382.233134	2568.765313
382.618371	2568.122566
383.003545	2567.104252
383.388657	2566.728687
383.773706	2567.580642
384.158693	2568.457802
384.543618	2570.837227
384.928480	2569.445868
385.313280	2565.899417
385.698017	2568.961918
386.082692	2570.935529
386.467305	2571.119532
386.851856	2570.413770
387.236344	2571.061558
387.620770	2568.518296
388.005133	2567.565518
388.389435	2569.077864
388.773674	2567.313460
389.157851	2570.716239
389.541965	2570.592731
389.926018	2574.386199
390.310008	2572.241188
390.693936	2573.816549
391.077802	2575.848134
391.461606	2575.364183
391.845348	2574.502146
392.229027	2574.948288
392.612645	2574.645819
392.996200	2574.103895
393.379694	2576.286714
393.763125	2573.637588
394.146494	2574.996179
394.529801	2576.032136
394.913047	2576.657239
395.296230	2578.691345
395.679351	2576.866447
396.062410	2576.190932
396.445408	2579.558423
396.828343	2577.710840
397.211217	2576.523648
397.594028	2577.824266
397.976778	2580.191088
398.359466	2582.028588
398.742092	2578.446849
399.124656	2580.256623
399.507158	2578.822415
399.889598	2580.549010
400.271977	2579.845769
400.654294	2580.806109
401.036549	2581.355594
401.418742	2585.073445
401.800874	2583.402303
402.182944	2583.762745
402.564952	2583.863568
402.946898	2585.509505
403.328783	2586.011100
403.710606	2585.602767
404.092367	2585.161666
404.474067	2585.680904
404.855705	2585.547314
405.237282	2585.605287
405.618797	2586.802561
406.000250	2587.750298
406.381642	2586.963878
406.762972	2585.743919
407.144240	2584.118147
407.525447	2588.264496
407.906593	2583.525811
408.287677	2588.561924
408.668700	2591.074939
409.049661	2591.034610
409.430560	2590.502768
409.811399	2590.134764
410.192176	2594.107193
410.572891	2589.401276
410.953545	2591.137953
411.334138	2589.076122
411.714669	2593.698860
412.095139	2591.173242
412.475547	2591.773139
412.855894	2596.090887
413.236180	2594.323963
413.616405	2594.883531
413.996568	2594.215578
414.376670	2597.802359
414.756711	2592.526791
415.136691	2594.903695
415.516609	2596.821854
415.896466	2599.087853
416.276262	2598.467791
416.655997	2599.896958
417.035670	2598.369489
417.415283	2601.641197
417.794834	2598.619026
418.174324	2600.713625
418.553753	2599.796135
418.933121	2602.377206
419.312428	2601.900817
419.691674	2601.099273
420.070859	2600.068358
420.449983	2600.791763
420.829045	2603.584562
421.208047	2607.075561
421.586988	2605.686723
421.965867	2606.458020
422.344686	2608.645881
422.723444	2607.526745
423.102141	2606.974738
423.480777	2609.318875
423.859352	2606.652104
424.237866	2613.573609
424.616319	2612.305758
424.994712	2613.883640
425.373044	2610.427929
425.751314	2613.256016
426.129524	2612.202415
426.507673	2612.547734
426.885762	2613.082096
427.263789	2619.290277
427.641756	2619.749022
428.019662	2622.466204
428.397508	2624.858232
428.775292	2624.142388
429.153016	2628.291257
429.530679	2630.670682
429.908282	2634.507000
430.285824	2636.841054
430.663305	2638.310551
431.040726	2641.781385
431.418086	2644.415388
431.795385	2650.641213
432.172624	2653.489465
432.549802	2659.274189
432.926920	2664.776608
433.303977	2671.592248
433.680974	2676.383865
434.057910	2685.712520
434.434786	2694.993284
434.811601	2699.565611
435.188355	2716.892057
435.565050	2722.061760
435.941683	2733.971486
436.318257	2752.028899
436.694770	2763.285796
437.071222	2780.390431
437.447614	2788.773869
437.823946	2801.500262
438.200218	2822.098417
438.576429	2833.128462
438.952580	2858.009076
439.328670	2876.583208
439.704700	2902.971128
440.080670	2915.369845
440.456580	2949.269084
440.832429	2975.830924
441.208218	2983.450628
441.583947	3012.684279
441.959616	3045.572767
442.335224	3073.989751
442.710773	3112.957870
443.086261	3153.254334
443.461689	3164.307063
443.837057	3210.536965
444.212365	3261.752567
444.587612	3295.361940
444.962800	3324.295643
445.337927	3377.290772
445.712995	3365.171838
446.088002	3484.357318
446.462949	3539.436965
446.837837	3590.438319
447.212664	3649.293790
447.587431	3844.353676
447.962139	4063.510278
448.336786	4249.992641
448.711374	4240.933688
449.085901	4106.503758
449.460369	4165.772604
449.834776	4230.059919
450.209124	4496.948686
450.583412	4524.334754
450.957640	4644.823372
451.331808	4625.735043
451.705917	4595.087348
452.079965	4655.079599
452.453954	4787.263694
452.827883	4858.593501
453.201752	4928.126136
453.575562	5021.316906
453.949311	5216.011308
454.323001	5332.769473
454.696632	5404.920987
455.070202	5693.799267
455.443713	5821.479091
455.817164	5974.243697
456.190556	6197.947419
456.563888	6240.651033
456.937160	6429.495177
457.310373	6336.833728
457.683526	6464.294262
458.056619	6592.493325
458.429653	6737.318113
458.802628	6931.268946
459.175542	7068.189205
459.548398	7447.977133
459.921194	7855.322528
460.293930	8142.771641
460.666607	8686.210546
461.039224	9202.218013
461.411782	9478.813521
461.784280	9403.796111
462.156719	9493.228701
462.529099	9586.948792
462.901419	9389.620386
463.273680	9312.500815
463.645882	9579.079551
464.018024	9696.518271
464.390106	10081.140665
464.762130	10958.394696
465.134094	12169.925117
465.505999	13787.694401
465.877845	15266.884886
466.249631	16056.294290
466.621358	15818.419884
466.993026	15429.068888
467.364634	15111.143479
467.736184	14785.459735
468.107674	14549.692531
468.479105	14581.451800
468.850477	14532.023287
469.221790	14363.578172
469.593043	14023.093600
469.964238	13885.543197
470.335373	14085.603908
470.706449	14877.183529
471.077467	15908.747279
471.448425	17931.527904
471.819324	19278.405744
472.190164	18961.889338
472.560945	17678.323349
472.931667	16618.612317
473.302330	16528.370622
473.672934	16254.625885
474.043479	16711.321656
474.413965	16651.296638
474.784393	16594.573574
475.154761	17228.395327
475.525070	17439.861648
475.895321	17382.021970
476.265513	17931.779961
476.635645	18542.051964
477.005719	18677.064146
477.375734	19109.673284
477.745691	19720.953517
478.115588	20413.232489
478.485427	21638.159777
478.855207	23448.203710
479.224928	25102.624703
479.594591	26239.717446
479.964194	25823.721431
480.333739	26244.526707
480.703226	26595.451509
481.072653	27139.601217
481.442022	27656.473241
481.811333	28008.121448
482.180584	27595.898736
482.549777	27455.245503
482.918912	27331.903592
483.287988	27328.470566
483.657005	27225.222694
484.025964	26952.690355
484.394864	27183.965891
484.763706	27158.361871
485.132489	26731.550060
485.501213	26842.150454
485.869879	27068.296616
486.238487	27059.446870
486.607036	27350.265995
486.975527	27118.894677
487.343959	27474.353997
487.712333	27818.697572
488.080648	27819.405854
488.448905	28267.035110
488.817104	28209.344145
489.185244	29130.027716
489.553326	30298.262188
489.921350	32229.132496
490.289315	34585.151034
490.657222	35248.201396
491.025070	35654.283983
491.392861	35286.877128
491.760593	34492.078731
492.128267	33513.482384
492.495883	32587.258585
492.863440	31796.089818
493.230939	30934.818766
493.598380	30459.357300
493.965763	30362.935150
494.333088	29926.784602
494.700354	29766.987587
495.067563	29751.538971
495.434713	29675.926704
495.801805	29979.280657
496.168839	29851.729383
496.535815	29727.154910
496.902733	29882.031759
497.269593	29727.636340
497.636395	29880.108558
498.003139	30169.705203
498.369825	29956.587903
498.736453	30364.432373
499.103023	30229.853730
499.469535	30325.194552
499.835989	30463.158330
500.202385	30339.443373
500.568723	30420.051423
500.935003	30752.979306
501.301226	30667.483857
501.667390	31351.137415
502.033497	31549.385832
502.399546	31359.339373
502.765537	30968.783540
503.131470	31433.822421
503.497345	31863.994161
503.863163	30888.364533
504.228923	31648.724289
504.594625	32034.480943
504.960269	31557.023180
505.325856	32216.406103
505.691385	31909.919072
506.056856	32232.663824
506.422270	32719.989646
506.787625	32271.873918
507.152924	32724.405696
507.518164	32936.809672
507.883347	32506.700947
508.248472	32681.568492
508.613540	33354.459186
508.978550	33598.161166
509.343503	33460.202429
509.708398	33820.617203
510.073236	34426.195891
510.438016	34540.506575
510.802738	34243.653190
511.167403	34804.005166
511.532010	35070.374694
511.896561	35550.365637
512.261053	36283.833357
512.625488	36087.094767
512.989866	36026.863060
513.354186	36082.822389
513.718449	36063.981076
514.082655	36930.736904
514.446803	36650.179048
514.810894	37260.544312
515.174927	37286.342417
515.538904	37295.580331
515.902822	37937.243598
516.266684	37644.667632
516.630488	38012.739918
516.994235	38028.387660
517.357925	38612.443142
517.721558	38871.437462
518.085133	39249.455945
518.448651	39455.150145
518.812112	39335.173204
519.175516	39504.986992
519.538863	39940.439341
519.902152	40020.903718
520.265385	40558.222662
520.628560	40587.766344
520.991678	40545.796218
521.354739	40796.263426
521.717743	41144.455922
522.080690	41072.755591
522.443580	41738.752508
522.806413	41770.415995
523.169189	41902.905080
523.531908	42131.203814
523.894569	42000.453928
524.257174	42207.816750
524.619722	42540.835373
524.982213	42687.331304
525.344647	42721.878331
525.707025	42853.999412
526.069345	43302.347032
526.431608	43208.226169
526.793815	43604.594452
527.155964	43165.353676
527.518057	43421.925722
527.880093	43272.737815
528.242072	43901.909103
528.603995	43646.362932
528.965860	43566.833689
529.327669	43792.788287
529.689421	43853.385477
530.051117	43800.723063
530.412755	44095.305408
530.774337	44167.323332
531.135862	44108.183036
531.497331	44254.557979
531.858743	44246.338378
532.220098	44672.308316
532.581396	44400.050720
532.942638	44149.835570
533.303824	44400.068364
533.664953	44475.990662
534.026025	44150.989994
534.387040	44727.826543
534.747999	44803.947966
535.108902	45127.390918
535.469748	44454.643896
535.830537	44720.526953
536.191270	44953.045133
536.551947	44698.126585
536.912567	44985.744577
537.273131	45142.539585
537.633638	44764.455567
537.994089	44948.127487
538.354483	44714.417074
538.714821	45359.924221
539.075103	45644.593138
539.435328	45505.122055
539.795497	45261.616680
540.155609	45374.236057
540.515665	45964.671119
540.875665	45281.317509
541.235609	45554.525363
541.595496	45678.237798
541.955328	46246.910199
542.315102	45690.046701
542.674821	45581.382110
543.034483	45459.280322
543.394090	45488.536659
543.753640	45472.306664
544.113134	46523.687189
544.472571	45635.594678
544.831953	46767.139632
545.191278	46016.698347
545.550548	45713.251133
545.909761	46353.742332
546.268918	46500.018972
546.628019	46919.069927
546.987064	46344.330497
547.346053	45634.475542
547.704986	46537.784776
548.063863	46201.479321
548.422684	46396.362767
548.781449	46001.678229
549.140158	46526.797581
549.498811	46289.669266
549.857408	45685.970928
550.215949	46522.988990
550.574434	46353.036570
550.932864	46282.843544
551.291237	47003.476486
551.649555	46767.076618
552.007817	46939.814275
552.366022	46597.766945
552.724173	46666.981987
553.082267	47071.310252
553.440305	47407.845080
553.798288	46673.737134
554.156215	47067.015189
554.514086	47261.976773
554.871902	46890.030360
555.229661	47053.507417
555.587365	46733.525218
555.945014	46870.364819
556.302606	46887.729073
556.660143	46977.247363
557.017625	47197.351701
557.375050	46901.783810
557.732421	47299.886250
558.089735	47368.599698
558.446994	47235.142711
558.804197	47698.772589
559.161345	47576.585102
559.518437	46924.859692
559.875474	47170.371446
560.232455	47406.010100
560.589381	47454.067420
560.946251	47249.068899
561.303065	47906.362263
561.659825	47610.965772
562.016528	47409.279288
562.373177	46986.258425
562.729770	47605.538969
563.086307	47138.904564
563.442789	47676.977161
563.799216	47525.755148
564.155587	47414.925381
564.511904	47376.821819
564.868164	47435.082434
565.224370	47738.007890
565.580520	47475.908219
565.936615	47670.950461
566.292654	47331.133842
566.648638	47688.488635
567.004567	47620.682596
567.360441	47700.950368
567.716260	47434.991694
568.072023	47798.726067
568.427732	47740.636851
568.783385	47275.391283
569.138982	47673.140843
569.494525	47808.823498
569.850013	47396.885612
570.205445	47534.196560
570.560823	47307.410172
570.916145	47174.681632
571.271412	47399.857372
571.626625	47074.846622
571.981782	47144.706932
572.336884	46731.410454
572.691931	47069.659274
573.046923	46730.840804
573.401860	46572.057061
573.756743	46577.577124
574.111570	46731.972543
574.466342	46627.844990
574.821059	46776.813606
575.175722	46279.039993
575.530330	46382.993627
575.884882	46021.651281
576.239380	45917.196053
576.593823	46011.500917
576.948211	45957.411857
577.302544	45499.725500
577.656823	45496.012690
578.011047	45742.956132
578.365216	45578.538899
578.719330	45293.512060
579.073389	45279.016223
579.427394	45312.038301
579.781344	45251.705772
580.135239	45003.091187
580.489080	45075.744297
580.842866	44569.277214
581.196597	45047.294545
581.550273	45063.358182
581.903895	44994.972409
582.257463	45419.785403
582.610975	44852.108630
582.964434	45201.551332
583.317837	44718.061828
583.671186	44660.199464
584.024481	44938.670282
584.377721	44489.649668
584.730906	44689.652406
585.084037	44800.157019
585.437113	44505.171381
585.790135	44640.183563
586.143103	44190.784862
586.496016	44372.944436
586.848874	44459.526253
587.201679	44480.963760
587.554428	43986.441691
587.907124	44259.079894
588.259765	44033.470615
588.612352	44198.218044
588.964884	43642.955112
589.317362	43955.463801
589.669786	43953.079335
590.022155	43805.544927
590.374470	44252.271816
590.726731	43828.162063
591.078937	43168.857278
591.431090	43512.434598
591.783188	43043.463617
592.135232	42831.213396
592.487222	43098.923871
592.839157	43245.994494
593.191038	42891.724887
593.542866	42700.256822
593.894639	42105.020061
594.246358	42401.979311
594.598022	42389.487332
594.949633	41972.737664
595.301190	41942.609208
595.652692	41899.030953
596.004141	42366.920607
596.355535	41281.971037
596.706876	41314.489000
597.058162	41023.357325
597.409395	41501.225942
597.760573	41717.894734
598.111698	41332.178409
598.462768	41251.623291
598.813785	41269.834460
599.164748	40869.841587
599.515657	41160.141472
599.866511	40662.090596
600.217312	41330.373676
600.568060	40286.943050
600.918753	41107.985695
601.269392	41031.072811
601.619978	40740.089849
601.970510	40960.133694
602.320988	41091.899373
602.671412	41353.389064
603.021783	41226.404919
603.372100	40799.865331
603.722363	40909.543194
604.072572	40931.764600
604.422728	40933.392893
604.772830	40705.724303
605.122878	40857.911697
605.472872	40723.264998
605.822813	40978.586837
606.172701	40748.876580
606.522534	41076.881776
606.872314	41274.918463
607.222041	41110.372681
607.571714	41445.521192
607.921333	40943.946549
608.270899	41148.771150
608.620411	41539.279092
608.969870	41275.341920
609.319276	41294.664663
609.668627	41332.899294
610.017926	41723.346742
610.367171	41865.237579
610.716362	41906.786769
611.065500	41774.821964
611.414585	42018.070240
611.763616	42183.720035
612.112594	42081.598861
612.461518	42217.783111
612.810389	42609.102678
613.159207	42392.557394
613.507971	42373.373283
613.856682	42875.593194
614.205340	42697.443858
614.553945	43380.033733
614.902496	42711.246538
615.250994	43136.225889
615.599439	43202.360787
615.947830	43305.331395
616.296169	43323.658510
616.644454	43354.442316
616.992686	43513.820915
617.340864	43973.969877
617.688990	43502.392619
618.037063	44164.323846
618.385082	43992.700284
618.733048	44326.875852
619.080961	44193.018093
619.428821	44225.425151
619.776628	44241.244292
620.124382	44057.539604
620.472083	44152.714068
620.819731	44258.406900
621.167326	43820.975898
621.514868	43800.574349
621.862357	43259.267852
622.209793	43345.033002
622.557176	42911.566868
622.904506	42648.665654
623.251783	42291.653659
623.599007	41980.339724
623.946179	41891.486867
624.293297	41641.191058
624.640363	41107.365633
624.987376	40960.138735
625.334336	40750.325912
625.681243	40341.962203
626.028097	40251.327298
626.374899	40088.114901
626.721647	40049.527389
627.068343	39841.650369
627.414987	39540.811952
627.761577	39280.864854
628.108115	39619.373293
628.454600	38868.009477
628.801032	39105.538564
629.147412	39001.819344
629.493739	38903.075743
629.840014	38476.311823
630.186236	38893.575689
630.532405	38357.885037
630.878521	38595.391439
631.224585	38371.120587
631.570597	38035.306644
631.916556	38204.114721
632.262462	38078.917666
632.608316	38002.163578
632.954117	37873.102478
633.299866	37828.783173
633.645562	37745.568847
633.991206	37208.832156
634.336797	36809.590415
634.682336	36699.501697
635.027823	36448.943748
635.373257	36334.698599
635.718639	36005.475965
636.063968	35894.603348
636.409245	35248.498824
636.754470	35212.048761
637.099642	34984.075182
637.444762	34410.255763
637.789829	34563.239658
638.134845	34174.828837
638.479808	34095.619707
638.824719	34048.094229
639.169577	33532.439643
639.514383	33622.089003
639.859137	33252.340533
640.203839	33416.732560
640.548489	33129.464928
640.893086	33122.031747
641.237632	32851.631817
641.582125	32951.625624
641.926566	32760.636469
642.270955	32792.562096
642.615292	32718.162227
642.959576	32601.005812
643.303809	32625.515902
643.647990	32717.335478
643.992118	32648.732936
644.336195	32508.031812
644.680219	32600.108487
645.024192	32798.785401
645.368112	33328.557738
645.711981	33360.470762
646.055797	34079.830813
646.399562	33902.672064
646.743274	34775.663799
647.086935	35153.825955
647.430544	35114.719204
647.774101	35154.771171
648.117606	35442.066529
648.461059	35572.231642
648.804460	35158.128580
649.147810	34634.866893
649.491108	34285.981238
649.834354	34126.592556
650.177548	33308.055365
650.520690	32814.339881
650.863781	32805.154899
651.206820	32629.437920
651.549807	32223.098234
651.892742	31650.103044
652.235626	31553.948076
652.578458	31428.682964
652.921238	30751.751785
653.263967	31039.387420
653.606644	30762.580183
653.949269	30665.154844
654.291843	30278.021955
654.634365	30649.668419
654.976836	30188.735559
655.319255	30254.038666
655.661622	30130.016199
656.003938	30011.483548
656.346203	29827.176443
656.688416	30074.591233
657.030577	29834.123153
657.372687	29661.120835
657.714746	29828.300620
658.056753	29994.560395
658.398708	29391.766944
658.740612	29468.374839
659.082465	29673.431333
659.424266	29581.382384
659.766016	29581.364740
660.107715	29431.773541
660.449362	29538.956034
660.790958	29524.152685
661.132503	29445.490521
661.473996	29514.826551
661.815438	29593.392933
662.156829	29727.028881
662.498168	29530.358346
662.839456	29504.696352
663.180693	29627.723191
663.521879	29722.844723
663.863013	29678.227991
664.204097	29661.451031
664.545129	30077.048795
664.886110	29993.317750
665.227040	30116.337028
665.567918	30111.217736
665.908746	30189.211948
666.249522	30269.323444
666.590248	30303.860389
666.930922	30399.869164
667.271545	30395.629554
667.612118	30445.973037
667.952639	30255.462792
668.293109	30295.792022
668.633528	30141.890637
668.973896	30110.496851
669.314213	30097.725088
669.654480	29896.119263
669.994695	29889.868232
670.334859	29811.692539
670.674973	29643.471756
671.015035	29827.428501
671.355047	29770.851631
671.695008	29709.462980
672.034918	29622.160278
672.374777	29716.742406
672.714585	29580.424565
673.054342	29722.547295
673.394049	29567.068028
673.733705	29788.987182
674.073310	29510.859163
674.412864	29575.363247
674.752368	29252.011036
675.091820	29481.880090
675.431223	29087.863505
675.770574	28873.241421
676.109875	28729.596263
676.449125	28509.809517
676.788324	28405.324042
677.127473	27941.114431
677.466571	27834.768770
677.805619	27560.020844
678.144616	27492.905443
678.483562	27435.597606
678.822458	27128.961861
679.161303	27072.566473
679.500098	27001.345052
679.838842	26926.645234
680.177535	27019.878854
680.516179	27263.701821
680.854771	27419.337364
681.193314	28185.353294
681.531805	29220.282014
681.870247	29979.724279
682.208638	30688.031600
682.546978	30957.783742
682.885268	31073.652143
683.223508	30608.295670
683.561697	30357.079850
683.899836	30199.929441
684.237925	29793.035229
684.575963	29641.757763
684.913951	29275.457443
685.251889	29462.794281
685.589776	29490.094650
685.927614	29499.277112
686.265401	29687.541523
686.603137	29815.543981
686.940824	30310.892799
687.278460	30662.414977
687.616046	30827.792549
687.953582	31509.535510
688.291068	31418.280543
688.628504	31748.163569
688.965889	31720.444784
689.303224	31444.292897
689.640510	31137.959622
689.977745	30509.378149
690.314930	29752.554763
690.652065	29310.816096
690.989150	28626.570202
691.326185	27788.740515
691.663170	27134.716338
692.000105	26411.222541
692.336990	25815.103578
692.673825	25389.751182
693.010610	24911.890126
693.347345	24417.889817
693.684030	23800.035919
694.020665	23594.956739
694.357251	22929.864710
694.693786	22935.445267
695.030272	22691.372762
695.366707	22212.959701
695.703093	21938.027773
696.039429	22013.214062
696.375716	21794.639713
696.711952	21795.458901
697.048139	21661.109630
697.384276	21500.163232
697.720363	21621.571861
698.056400	21511.094974
698.392388	21357.722909
698.728326	21354.829287
699.064214	21183.911487
699.400053	21177.360507
699.735842	20800.919905
700.071581	20596.869121
700.407270	20359.322390
700.742910	20182.322438
701.078501	19924.764846
701.414042	19723.481656
701.749533	19433.499363
702.084974	19115.321897
702.420366	19348.500468
702.755709	18951.439026
703.091002	18633.874060
703.426246	18709.125884
703.761440	18651.296288
704.096584	18404.194050
704.431679	18339.243824
704.766725	18297.324109
705.101721	18226.047235
705.436668	18342.555862
705.771565	18073.365808
706.106413	18395.639212
706.441212	18473.583012
706.775961	18574.141428
707.110661	18666.583587
707.445311	19024.770171
707.779913	18910.739271
708.114465	19207.343119
708.448967	19521.684267
708.783421	20152.204064
709.117825	20527.255828
709.452180	20764.386663
709.786485	21219.053370
710.120742	21979.143423
710.454949	22101.600612
710.789107	22604.014607
711.123216	23320.642353
711.457275	23543.594943
711.791286	24086.111318
712.125247	24238.298711
712.459159	23951.502427
712.793023	24686.066598
713.126837	23664.895187
713.460602	23897.587287
713.794318	23552.011150
714.127985	23265.391307
714.461602	22366.503164
714.795171	22343.243281
715.128691	21366.784383
715.462162	20836.339052
715.795584	20416.857079
716.128957	20145.882457
716.462281	19768.564694
716.795556	19499.498149
717.128782	19025.854019
717.461960	18430.685313
717.795088	18383.169918
718.128167	18048.308753
718.461198	17603.298377
718.794180	17476.341958
719.127113	17146.529509
719.459997	16954.252340
719.792833	16596.272443
720.125619	16642.136861
720.458357	16298.456198
720.791046	16173.881724
721.123686	16026.662388
721.456278	15801.519416
721.788821	15792.281502
722.121315	15532.420103
722.453761	15642.007226
722.786158	15528.722417
723.118506	15610.164778
723.450805	15495.024824
723.783056	15669.486556
724.115259	15566.639455
724.447412	15562.238528
724.779518	15788.266223
725.111574	15838.755899
725.443582	16095.421206
725.775542	16063.513223
726.107453	16583.556133
726.439315	16506.282806
726.771129	16926.679749
727.102895	17350.219851
727.434612	17625.255122
727.766281	17781.931663
728.097901	18106.496271
728.429473	18189.894600
728.760996	18200.859110
729.092471	18305.785686
729.423897	18194.434159
729.755276	18073.539728
730.086606	18183.247839
730.417887	18779.739847
730.749120	19332.025977
731.080305	19549.019924
731.411442	19955.170566
731.742530	20049.324196
732.073570	20216.161183
732.404562	20527.916219
732.735506	20357.812565
733.066401	20142.767024
733.397249	19646.662033
733.728048	19011.383387
734.058798	18146.994381
734.389501	17396.623672
734.720156	16885.896814
735.050762	16310.013043
735.381320	15933.849704
735.711831	15674.822617
736.042293	15312.567822
736.372707	15356.531725
736.703073	15146.098840
737.033391	15353.615417
737.363661	15353.441497
737.693883	15480.130735
738.024056	15684.171437
738.354182	15913.226344
738.684260	16276.559946
739.014290	16560.429839
739.344272	16786.422246
739.674207	17140.638921
740.004093	17301.224877
740.333931	17350.834872
740.663722	17430.001152
740.993464	17459.474257
741.323159	17300.972819
741.652806	16996.174575
741.982405	16827.043863
742.311956	16461.676156
742.641460	16348.656007
742.970915	16017.124525
743.300323	15663.669064
743.629683	15448.258040
743.958996	15143.684127
744.288260	14824.543801
744.617477	14526.553635
744.946647	14487.459487
745.275768	14172.349563
745.604842	13972.263646
745.933869	13796.546667
746.262847	13770.269653
746.591778	13696.338611
746.920662	13585.586982
747.249498	13593.161315
747.578286	13747.765942
747.907027	13931.168160
748.235720	14199.692781
748.564365	14274.379996
748.892963	14194.573490
749.221514	14298.232216
749.550017	14158.125947
749.878473	14130.054282
750.206881	13911.883226
750.535242	13835.550074
750.863555	13754.957148
751.191821	13652.105007
751.520039	13672.940095
751.848210	13599.924023
752.176334	13651.921004
752.504411	13573.155496
752.832440	13394.698650
753.160421	13514.201723
753.488356	13398.789546
753.816243	13313.064725
754.144082	13146.792348
754.471875	13096.900048
754.799620	13063.981314
755.127318	13031.831355
755.454969	13030.611396
755.782572	12996.583607
756.110129	13000.823218
756.437638	12914.039754
756.765100	12918.833892
757.092515	12951.971916
757.419882	12986.995333
757.747203	13001.718023
758.074477	13102.185698
758.401703	13085.300353
758.728882	13281.905353
759.056014	13330.275224
759.383099	13501.230834
759.710138	13615.929687
760.037129	13745.376435
760.364073	13806.883553
760.690970	13832.928674
761.017820	13845.854193
761.344623	14077.558227
761.671379	14450.719558
761.998088	15165.580379
762.324751	16954.743852
762.651366	20398.245139
762.977935	24896.658280
763.304456	27840.755140
763.630931	28831.205760
763.957359	27601.718748
764.283740	25300.752131
764.610074	23021.875850
764.936362	20389.765918
765.262602	18520.536319
765.588796	16593.116681
765.914943	15319.970757
766.241044	14222.599784
766.567097	13443.955764
766.893104	12727.912793
767.219064	12267.216866
767.544978	11795.904269
767.870845	11406.727192
768.196665	11198.426716
768.522438	10961.747063
768.848165	10767.876889
769.173846	10550.804804
769.499479	10430.845508
769.825066	10261.981977
770.150607	10030.280464
770.476101	9951.220048
770.801548	9825.786058
771.126949	9664.050719
771.452303	9557.329492
771.777611	9351.536990
772.102872	9354.322227
772.428087	9206.911327
772.753256	9053.183861
773.078378	8959.347823
773.403453	8780.797716
773.728482	8667.732197
774.053465	8597.549253
774.378401	8497.348758
774.703291	8373.227989
775.028135	8252.938497
775.352932	8220.418013
775.677683	8112.262578
776.002388	8009.425560
776.327046	8015.580809
776.651658	7918.102537
776.976224	7818.759039
777.300743	7820.820871
777.625216	7732.862819
777.949643	7690.975872
778.274024	7708.987914
778.598359	7616.114737
778.922647	7634.976214
779.246889	7589.683967
779.571086	7602.364990
779.895236	7610.728264
780.219339	7613.891588
780.543397	7625.904658
780.867409	7700.019702
781.191374	7710.464972
781.515294	7672.288314
781.839167	7769.905217
782.162995	7739.353304
782.486776	7677.410127
782.810511	7633.617623
783.134201	7543.184364
783.457844	7543.386010
783.781441	7492.858525
784.104993	7420.780108
784.428498	7402.571460
784.751958	7383.548666
785.075372	7356.565890
785.398739	7297.110522
785.722061	7344.971236
786.045337	7350.045158
786.368568	7511.021803
786.691752	7537.051801
787.014891	7884.939307
787.337983	8246.430367
787.661030	8844.273404
787.984031	9474.044590
788.306987	9880.152382
788.629897	10080.114790
788.952760	10017.241520
789.275579	9793.431933
789.598351	9390.006035
789.921078	9033.546046
790.243759	8617.643292
790.566395	8327.950866
790.888984	8080.399965
791.211529	7869.251236
791.534027	7646.780076
791.856480	7446.598377
792.178888	7376.105402
792.501249	7278.186030
792.823566	7122.195086
793.145836	7126.001157
793.468062	7102.642971
793.790241	7056.876856
794.112375	7121.897658
794.434464	7274.969774
794.756507	7324.191600
795.078505	7487.562793
795.400457	7797.898745
795.722364	8156.539032
796.044226	8447.862272
796.366042	8717.841266
796.687812	8664.049634
797.009538	8737.892455
797.331218	8628.796845
797.652852	8542.577991
797.974442	8382.672591
798.295986	8298.230743
798.617484	8106.145138
798.938938	7961.254814
799.260346	7858.332097
799.581709	7655.556725
799.903026	7578.664005
800.224299	7475.161555
800.545526	7301.899618
800.866708	7206.152983
801.187845	7136.711088
801.508936	7032.575973
801.829983	6991.120045
802.150984	6840.886098
802.471940	6798.817670
802.792851	6787.291071
803.113717	6755.715804
803.434538	6719.013684
803.755314	6667.936713
804.076045	6667.800602
804.396731	6620.927953
804.717372	6648.122458
805.037967	6654.060937
805.358518	6697.513163
805.679024	6780.876203
805.999485	6797.075951
806.319901	6839.804771
806.640272	6860.970055
806.960598	6942.488034
807.280879	6939.246572
807.601115	7020.678850
807.921306	6959.086033
808.241453	6979.212839
808.561554	6998.376786
808.881611	6955.327853
809.201623	6971.446942
809.521590	6908.306490
809.841513	6891.504324
810.161390	6927.109994
810.481223	6796.702906
810.801011	6776.923938
811.120755	6753.374188
811.440453	6674.124729
811.760107	6638.012424
812.079716	6612.806654
812.399281	6546.230656
812.718801	6536.395365
813.038276	6492.318036
813.357707	6429.003665
813.677093	6472.876827
813.996434	6373.545931
814.315731	6421.119300
814.634983	6407.750160
814.954191	6423.108035
815.273354	6528.158120
815.592473	6597.151351
815.911547	6716.306584
816.230577	6801.996117
816.549562	6948.817202
816.868502	7043.346399
817.187399	7144.398848
817.506250	7293.841333
817.825058	7328.859708
818.143821	7600.424146
818.462539	7869.107563
818.781213	8238.987103
819.099843	8790.975805
819.418429	9798.470566
819.736970	10774.969792
820.055466	11954.884618
820.373919	13489.149708
820.692327	15835.363202
821.010691	19981.664350
821.329011	28998.582150
821.647286	42014.246525
821.965517	55428.235150
822.283704	60781.398610
822.601847	62732.531836
822.919945	59974.183851
823.237999	55713.009931
823.556010	49476.162448
823.873976	42745.672577
824.191897	36241.089414
824.509775	31420.319690
824.827609	26933.909537
825.145398	24366.500294
825.463144	23032.225338
825.780845	23373.357699
826.098502	25164.303220
826.416116	28975.148346
826.733685	32667.942253
827.051210	33828.859490
827.368692	32038.655018
827.686129	28050.076451
828.003522	23901.196753
828.320872	20191.020948
828.638177	17332.505236
828.955439	15193.155490
829.272656	13384.570972
829.589830	11905.405693
829.906960	10642.790739
830.224046	9701.294764
830.541088	8956.507133
830.858086	8504.391250
831.175041	8126.324877
831.491952	8010.794233
831.808819	8057.555976
832.125642	8468.165519
832.442421	9360.578299
832.759157	11176.742192
833.075849	14121.829640
833.392497	17355.843258
833.709101	19537.473161
834.025662	19368.770948
834.342179	17633.404148
834.658653	15427.601912
834.975083	13493.825379
835.291469	11876.504758
835.607811	10547.840606
835.924110	9644.470878
836.240366	8774.627343
836.556578	7982.798185
836.872746	7339.166347
837.188871	6830.508883
837.504952	6418.845740
837.820990	6112.678822
838.136984	5898.066821
838.452935	5795.030678
838.768842	5836.337892
839.084706	6264.394868
839.400526	7481.576423
839.716303	9070.873270
840.032037	10167.246093
840.347727	10075.406353
840.663373	9085.830373
840.978977	8047.640027
841.294537	7236.147848
841.610054	6640.671632
841.925527	6202.837338
842.240957	5844.479356
842.556344	5514.064488
842.871687	5234.829936
843.186987	4954.551864
843.502244	4725.751535
843.817458	4563.287750
844.132629	4433.026855
844.447756	4339.158050
844.762840	4259.890947
845.077881	4187.414278
845.392879	4123.610914
845.707833	4079.745314
846.022745	4033.223026
846.337613	4002.789580
846.652438	3956.726037
846.967221	3947.863688
847.281960	3911.668203
847.596656	3894.316552
847.911309	3873.423490
848.225919	3852.197712
848.540485	3835.982840
848.855009	3820.289728
849.169490	3799.590751
849.483928	3791.971047
849.798323	3779.504273
850.112675	3761.328393
850.426984	3772.544960
850.741251	3755.568875
851.055474	3750.978904
851.369654	3755.415119
851.683792	3754.192640
851.997887	3756.105758
852.311938	3759.488372
852.625947	3762.071963
852.939914	3754.144749
853.253837	3766.079680
853.567718	3760.710852
853.881555	3751.765324
854.195350	3768.799383
854.509103	3759.057353
854.822812	3756.977877
855.136479	3750.205087
855.450103	3761.288064
855.763685	3748.107967
856.077224	3753.035695
856.390720	3772.111421
856.704173	3789.316879
857.017584	3804.674754
857.330953	3815.596414
857.644278	3833.928570
857.957561	3843.284952
858.270802	3841.303778
858.584000	3846.234027
858.897155	3836.015608
859.210268	3818.280828
859.523339	3797.889361
859.836367	3798.453970
860.149352	3790.209163
860.462295	3781.082154
860.775195	3771.388015
861.088054	3766.102366
861.400869	3766.639248
861.713642	3767.793673
862.026373	3775.609982
862.339062	3782.234058
862.651708	3802.449085
862.964312	3835.564424
863.276873	3848.008513
863.589392	3907.143768
863.901869	3952.912404
864.214303	3998.451667
864.526696	4031.226729
864.839045	4077.970828
865.151353	4100.567800
865.463619	4108.610961
865.775842	4120.235862
866.088023	4139.488028
866.400162	4127.006131
866.712258	4133.312615
867.024313	4137.216988
867.336325	4130.721462
867.648296	4140.118172
867.960224	4135.762615
868.272110	4147.861385
868.583954	4149.842558
868.895755	4164.184641
869.207515	4159.887057
869.519233	4206.154767
869.830909	4217.741859
870.142542	4244.185232
870.454134	4257.002365
870.765684	4288.227272
871.077191	4323.485102
871.388657	4345.731714
871.700081	4382.201942
872.011463	4425.954116
872.322803	4461.327893
872.634101	4496.058922
872.945357	4534.837998
873.256571	4586.794650
873.567744	4617.127273
873.878874	4636.548318
874.189963	4675.312270
874.501010	4680.454247
874.812015	4681.293599
875.122979	4723.329261
875.433900	4719.543354
875.744780	4736.022886
876.055618	4757.047018
876.366415	4761.014406
876.677169	4781.695740
876.987882	4827.565199
877.298554	4877.560842
877.609183	4955.872647
877.919771	5063.357608
878.230317	5213.909147
878.540822	5427.333957
878.851285	5746.015539
879.161707	6211.359409
879.472087	6969.362425
879.782425	8201.675003
880.092722	10382.279031
880.402977	13682.825798
880.713191	17431.770597
881.023363	21143.113428
881.333494	23333.666174
881.643583	24535.462127
881.953631	24532.548340
882.263637	23671.136136
882.573602	22185.334177
882.883526	20622.107658
883.193408	18950.536660
883.503248	17242.152636
883.813048	15715.023298
884.122806	14295.935970
884.432522	12828.521620
884.742197	11573.594426
885.051831	10489.126287
885.361424	9492.964040
885.670975	8685.015793
885.980485	8001.014395
886.289954	7434.829803
886.599382	6962.042669
886.908768	6594.978614
887.218113	6232.360856
887.527417	5945.209171
887.836680	5680.994736
888.145901	5463.441222
888.455082	5299.386952
888.764221	5155.250281
889.073319	5020.182646
889.382376	4948.182366
889.691392	4888.979056
890.000366	4864.106002
890.309300	4848.216286
890.618193	4852.413046
890.927044	4837.478628
891.235855	4858.331361
891.544625	4886.829003
891.853353	4954.952636
892.162041	5068.378598
892.470687	5253.111680
892.779293	5505.791955
893.087858	5879.495210
893.396381	6456.394774
893.704864	7259.596775
894.013306	8416.909587
894.321707	9600.133930
894.630068	10421.297562
894.938387	10629.537545
895.246665	10380.764165
895.554903	9769.143654
895.863100	9068.884535
896.171256	8508.467023
896.479371	7998.584559
896.787446	7497.781212
897.095480	7072.401089
897.403473	6755.148674
897.711425	6438.012207
898.019336	6177.114851
898.327207	5904.683335
898.635038	5671.076266
898.942827	5426.048463
899.250576	5231.394389
899.558284	5039.381881
899.865952	4914.197428
900.173579	4768.644193
900.481165	4659.631761
900.788711	4569.362340
901.096216	4495.126308
901.403681	4434.667750
901.711105	4404.970313
902.018489	4392.879106
902.325832	4464.385352
902.633135	4581.549329
902.940397	4932.640489
903.247619	5728.752107
903.554800	7171.648805
903.861941	9087.075538
904.169041	10604.903947
904.476101	11218.752648
904.783121	10851.822183
905.090100	10109.940777
905.397039	9277.689127
905.703938	8519.489506
906.010796	7827.170204
906.317614	7275.965402
906.624391	6744.879844
906.931129	6323.086502
907.237826	5924.258136
907.544483	5551.545467
907.851099	5179.508313
908.157675	4824.215352
908.464211	4509.276827
908.770707	4272.425776
909.077163	4074.941094
909.383578	3929.420627
909.689954	3817.862413
909.996289	3748.843975
910.302584	3683.263605
910.608839	3651.660612
910.915054	3621.917804
911.221229	3605.619753
911.527363	3617.310189
911.833458	3634.326604
912.139513	3659.819719
912.445527	3690.575799
912.751502	3770.672172
913.057436	3874.986248
913.363331	4007.795446
913.669186	4209.040828
913.975000	4468.582113
914.280775	4890.314961
914.586510	5467.532118
914.892205	6262.154075
915.197859	7305.781306
915.503475	8522.723406
915.809050	9587.198329
916.114585	10232.723120
916.420081	10491.873716
916.725536	10451.168919
917.030952	10008.200210
917.336328	9597.525133
917.641665	9179.477368
917.946961	8702.599337
918.252218	8283.780276
918.557435	7768.849096
918.862612	7337.870771
919.167750	6963.257587
919.472848	6539.941817
919.777906	6166.374673
920.082925	5809.224046
920.387904	5440.962717
920.692843	5180.249363
920.997743	4935.455973
921.302603	4699.900498
921.607423	4541.318401
921.912204	4377.881673
922.216946	4265.284981
922.521647	4141.852329
922.826310	4038.612019
923.130932	3945.106177
923.435516	3844.512472
923.740059	3776.489663
924.044564	3703.617264
924.349028	3643.408243
924.653454	3577.850557
924.957840	3507.292048
925.262186	3462.766056
925.566493	3401.541243
925.870761	3343.880525
926.174989	3307.984989
926.479178	3272.376799
926.783328	3230.570510
927.087438	3204.810214
927.391509	3168.299657
927.695541	3140.911068
927.999533	3113.640947
928.303486	3095.414655
928.607400	3079.633323
928.911275	3066.904409
929.215110	3048.148797
929.518906	3040.511448
929.822663	3036.297044
930.126381	3038.195038
930.430060	3045.892880
930.733699	3047.657284
931.037299	3057.578275
931.340861	3054.069632
931.644383	3064.882907
931.947866	3062.483318
932.251309	3058.291598
932.554714	3054.190619
932.858080	3047.521173
933.161407	3041.161757
933.464694	3035.581200
933.767943	3027.966537
934.071153	3024.387318
934.374323	3014.138652
934.677455	3007.315450
934.980548	2996.512258
935.283602	2993.943790
935.586617	2991.985302
935.889593	3000.610716
936.192530	3006.224041
936.495428	3019.820033
936.798287	3040.428269
937.101108	3076.598548
937.403890	3126.702576
937.706632	3190.269006
938.009336	3270.892179
938.312002	3345.546627
938.614628	3407.567942
938.917216	3458.148359
939.219765	3488.170951
939.522275	3522.894419
939.824747	3524.426930
940.127179	3524.167310
940.429573	3516.592977
940.731929	3514.115249
941.034246	3500.403311
941.336524	3485.254644
941.638763	3471.013384
941.940964	3455.796661
942.243126	3413.970208
942.545250	3389.203019
942.847335	3351.525435
943.149381	3314.692244
943.451389	3285.524128
943.753359	3248.781678
944.055290	3224.276630
944.357182	3201.024307
944.659036	3188.461752
944.960851	3176.236954
945.262628	3162.169614
945.564367	3164.148267
945.866067	3158.424037
946.167729	3156.699962
946.469352	3157.705672
946.770937	3149.811226
947.072484	3136.676499
947.373992	3139.335708
947.675462	3130.022176
947.976893	3112.980556
948.278286	3101.882455
948.579641	3097.892382
948.880958	3092.649582
949.182236	3094.625714
949.483476	3090.877617
949.784678	3088.893922
950.085841	3088.112544
950.386967	3101.101077
950.688054	3117.502471
950.989103	3135.748927
951.290114	3159.515447
951.591087	3185.986546
951.892021	3217.539127
952.192917	3242.167685
952.493776	3271.897889
952.794596	3277.919548
953.095378	3281.322327
953.396122	3271.353445
953.696828	3266.798762
953.997496	3260.421703
954.298126	3230.318452
954.598718	3213.743139
954.899272	3186.646937
955.199788	3158.925632
955.500266	3132.119296
955.800706	3089.488779
956.101108	3052.184240
956.401472	3021.637368
956.701798	2989.515136
957.002087	2949.614403
957.302337	2920.516863
957.602550	2894.985940
957.902724	2864.048379
958.202861	2838.300685
958.502960	2817.458035
958.803022	2799.672844
959.103045	2779.127622
959.403031	2760.034251
959.702979	2747.368352
960.002889	2734.629357
960.302762	2722.651575
960.602596	2709.242106
960.902393	2701.241795
961.202153	2693.773325
961.501875	2683.852334
961.801559	2678.470903
962.101205	2670.483194
962.400814	2670.082423
962.700385	2661.734272
962.999918	2654.757315
963.299414	2648.680204
963.598873	2647.601397
963.898293	2641.020171
964.197677	2640.432876
964.497022	2638.991106
964.796331	2635.721918
965.095601	2632.717390
965.394835	2632.067082
965.694030	2634.113790
965.993189	2629.173459
966.292309	2627.053654
966.591393	2626.093314
966.890439	2624.714559
967.189447	2627.701442
967.488419	2627.590537
967.787353	2629.145733
968.086249	2627.517440
968.385108	2630.600106
968.683930	2632.046917
968.982714	2636.490694
969.281462	2640.662249
969.580172	2647.505615
969.878844	2651.780514
970.177480	2660.194199
970.476078	2666.820796
970.774639	2676.519976
971.073162	2684.288394
971.371649	2692.419775
971.670098	2695.139478
971.968510	2700.331866
972.266885	2703.858153
972.565223	2708.158258
972.863524	2708.049873
973.161788	2712.690255
973.460014	2717.249979
973.758204	2719.957078
974.056356	2720.761142
974.354471	2722.152501
974.652550	2723.233828
974.950591	2720.751060
975.248595	2720.350288
975.546563	2715.714947
975.844493	2713.522045
976.142386	2710.560367
976.440243	2702.885211
976.738062	2699.459747
977.035845	2691.630835
977.333590	2686.251924
977.631299	2678.937209
977.928971	2674.574091
978.226606	2669.076713
978.524204	2664.448933
978.821765	2661.522543
979.119290	2661.953562
979.416777	2663.947338
979.714228	2667.455982
980.011642	2670.800787
980.309020	2676.419153
980.606360	2694.184179
980.903664	2713.973229
981.200931	2750.796337
981.498162	2798.329377
981.795356	2873.656818
982.092513	2960.843574
982.389633	3065.545818
982.686717	3161.322700
982.983764	3231.848443
983.280775	3283.976494
983.577749	3291.349182
983.874686	3276.329064
984.171587	3245.610793
984.468451	3203.827189
984.765279	3159.790190
985.062070	3113.441821
985.358824	3072.608475
985.655543	3014.972963
985.952224	2960.359623
986.248869	2896.510889
986.545478	2837.796570
986.842050	2785.025772
987.138586	2739.257136
987.435086	2700.289017
987.731549	2673.606189
988.027975	2645.824390
988.324366	2632.248563
988.620719	2618.524022
988.917037	2604.340735
989.213318	2594.437389
989.509563	2587.490679
989.805772	2586.598394
990.101944	2579.538258
990.398080	2579.893660
990.694180	2577.423494
990.990244	2575.890984
991.286271	2575.754872
991.582262	2579.785275
991.878217	2582.046233
992.174136	2588.047726
992.470019	2582.086562
992.765865	2590.936307
993.061676	2595.382605
993.357450	2603.208996
993.653188	2608.086313
993.948890	2627.903088
994.244556	2648.435708
994.540186	2669.185097
994.835780	2701.876980
995.131337	2738.750500
995.426859	2780.055194
995.722345	2825.836432
996.017795	2878.856768
996.313208	2912.508991
996.608586	2944.394289
996.903928	2954.317800
997.199234	2953.813685
997.494504	2949.359825
997.789738	2936.870367
998.084936	2911.505801
998.380099	2880.459855
998.675225	2852.705782
998.970316	2819.686225
999.265371	2785.613066
999.560390	2750.362798
999.855373	2719.505895
1000.150320	2692.853315
1000.445232	2664.819458
1000.740108	2646.870430
1001.034948	2627.585496
1001.329752	2612.078907
1001.624521	2602.104984
1001.919254	2588.103179
1002.213951	2582.076479
1002.508613	2572.780592
1002.803239	2568.046948
1003.097829	2561.637121
1003.392384	2556.389280
1003.686903	2550.826367
1003.981386	2550.228990
1004.275834	2544.028371
1004.570246	2541.520397
1004.864623	2540.194573
1005.158964	2536.912782
1005.453270	2535.801208
1005.747540	2534.876156
1006.041775	2533.056299
1006.335974	2530.596216
1006.630138	2529.905578
1006.924266	2527.518592
1007.218359	2529.023376
1007.512416	2526.636390
1007.806438	2523.112623
1008.100425	2523.278982
1008.394376	2523.581451
1008.688292	2523.770494
1008.982172	2525.048427
1009.276017	2523.084897
1009.569827	2522.812675
1009.863602	2523.246214
1010.157341	2521.312932
1010.451045	2520.092972
1010.744714	2520.496265
1011.038347	2521.297808
1011.331945	2516.128105
1011.625508	2518.613394
1011.919036	2514.444359
1012.212528	2516.700276
1012.505986	2510.398833
1012.799408	2515.387055
1013.092795	2513.035357
1013.386147	2515.432426
1013.679464	2511.654081
1013.972745	2510.164420
1014.265992	2510.741632
1014.559204	2512.896725
1014.852380	2511.517970
1015.145521	2517.181706
1015.438628	2513.398320
1015.731699	2513.184071
1016.024736	2514.225069
1016.317737	2515.674401
1016.610703	2514.333454
1016.903635	2519.399814
1017.196531	2518.593229
1017.489393	2520.334948
1017.782219	2523.074815
1018.075011	2521.012983
1018.367768	2522.046419
1018.660490	2523.513395
1018.953177	2523.513395
1019.245829	2523.513395
