Dividing Wavelength (nm)	Counts (n)	Blue Motor Position (mm): 30.300000	Red Motor Position (mm): 0.000000	
326.493990	2212.479244
326.888308	2212.479244
327.282561	2212.479244
327.676750	2171.913079
328.070874	2168.069199
328.464933	2170.763696
328.858929	2172.893583
329.252859	2178.222083
329.646726	2186.875224
330.040528	2198.737059
330.434265	2212.504450
330.827938	2232.550598
331.221547	2247.772362
331.615091	2264.350197
332.008571	2283.579678
332.401986	2301.185908
332.795338	2322.192396
333.188625	2336.491629
333.581847	2356.366378
333.975006	2376.659543
334.368100	2395.238715
334.761129	2413.805285
335.154095	2433.889242
335.546996	2458.984105
335.939833	2495.305619
336.332606	2507.590911
336.725315	2520.612211
337.117960	2536.544778
337.510540	2549.258568
337.903056	2557.730227
338.295508	2565.654921
338.687896	2577.690676
339.080220	2585.267530
339.472480	2589.234918
339.864676	2596.652976
340.256807	2602.755292
340.648875	2605.840479
341.040879	2606.561364
341.432818	2612.799792
341.824694	2614.866665
342.216506	2613.964298
342.608253	2615.554782
342.999937	2615.953033
343.391557	2614.831377
343.783113	2614.334823
344.174605	2611.342898
344.566033	2613.288783
344.957397	2612.426746
345.348697	2612.124277
345.739934	2608.557661
346.131106	2610.664863
346.522215	2606.543720
346.913260	2604.111363
347.304241	2601.951228
347.695159	2600.844695
348.086012	2602.256218
348.476802	2596.559714
348.867528	2594.470156
349.258191	2589.776842
349.648789	2588.816502
350.039324	2585.010431
350.429796	2588.619897
350.820203	2588.115782
351.210548	2585.640575
351.600828	2586.144691
351.991045	2586.852973
352.381198	2581.645461
352.771288	2583.513208
353.161314	2581.615214
353.551276	2582.857858
353.941175	2582.668815
354.331010	2581.637899
354.720782	2581.244689
355.110490	2583.747622
355.500135	2580.677559
355.889717	2578.547672
356.279235	2582.656212
356.668689	2580.612024
357.058080	2583.624114
357.447408	2582.142014
357.836672	2582.550348
358.225873	2581.317786
358.615010	2581.945409
359.004084	2583.109916
359.393095	2581.595049
359.782043	2585.733837
360.170927	2586.278281
360.559748	2581.244689
360.948505	2586.880699
361.337199	2585.567478
361.725830	2585.527149
362.114398	2585.716193
362.502903	2587.682242
362.891344	2587.757860
363.279722	2588.108220
363.668037	2591.102665
364.056289	2585.741398
364.444478	2589.544949
364.832603	2589.078642
365.220665	2591.879003
365.608665	2590.321287
365.996601	2590.200299
366.384474	2593.565269
366.772284	2593.197265
367.160031	2591.450505
367.547715	2595.438058
367.935336	2592.196596
368.322893	2589.315576
368.710388	2589.870103
369.097820	2591.206009
369.485189	2590.651482
369.872495	2598.553491
370.259738	2594.830599
370.646918	2595.710280
371.034035	2596.857142
371.421090	2600.527102
371.808081	2596.942842
372.195010	2597.542739
372.581875	2599.657503
372.968678	2598.205651
373.355418	2595.077615
373.742096	2601.076588
374.128710	2598.649273
374.515262	2599.871752
374.901751	2596.872266
375.288177	2599.508789
375.674540	2600.796804
376.060841	2598.566094
376.447079	2598.404777
376.833254	2601.530292
377.219367	2601.878132
377.605417	2601.510127
377.991404	2601.079109
378.377329	2602.261259
378.763191	2602.253698
379.148991	2603.047679
379.534727	2601.293358
379.920402	2602.248657
380.306013	2603.062803
380.691563	2604.718822
381.077049	2604.353338
381.462474	2603.773606
381.847835	2602.021805
382.233134	2609.021447
382.618371	2604.108842
383.003545	2604.355859
383.388657	2601.109356
383.773706	2605.911055
384.158693	2606.868874
384.543618	2606.800818
384.928480	2605.732094
385.313280	2608.461879
385.698017	2606.432814
386.082692	2607.355345
386.467305	2608.512290
386.851856	2609.084461
387.236344	2609.515480
387.620770	2608.502208
388.005133	2605.822835
388.389435	2607.461210
388.773674	2606.054728
389.157851	2613.588732
389.541965	2612.283073
389.926018	2610.637137
390.310008	2610.712754
390.693936	2611.756273
391.077802	2611.627723
391.461606	2612.845162
391.845348	2613.503032
392.229027	2615.595111
392.612645	2613.765172
392.996200	2614.367590
393.379694	2614.546551
393.763125	2615.900101
394.146494	2612.552775
394.529801	2615.965636
394.913047	2615.763990
395.296230	2617.306583
395.679351	2615.489247
396.062410	2619.534773
396.445408	2614.085286
396.828343	2617.667026
397.211217	2617.616614
397.594028	2620.671553
397.976778	2617.969495
398.359466	2619.524691
398.742092	2618.029989
399.124656	2618.468569
399.507158	2618.282046
399.889598	2620.416975
400.271977	2620.923611
400.654294	2618.450925
401.036549	2619.834722
401.418742	2623.877727
401.800874	2623.320680
402.182944	2623.474435
402.564952	2622.987963
402.946898	2623.020731
403.328783	2622.998046
403.710606	2626.088273
404.092367	2625.536267
404.474067	2625.992491
404.855705	2626.012656
405.237282	2628.195475
405.618797	2624.754888
406.000250	2627.996350
406.381642	2629.506175
406.762972	2626.826802
407.144240	2627.978706
407.525447	2627.111627
407.906593	2627.966103
408.287677	2630.088429
408.668700	2632.188069
409.049661	2631.686474
409.430560	2632.856022
409.811399	2633.942391
410.192176	2633.448358
410.572891	2631.653707
410.953545	2634.030611
411.334138	2635.205200
411.714669	2635.270735
412.095139	2636.160498
412.475547	2637.173770
412.855894	2639.936323
413.236180	2638.151754
413.616405	2639.490181
413.996568	2640.846251
414.376670	2639.041518
414.756711	2638.257618
415.136691	2639.548154
415.516609	2641.002527
415.896466	2641.741056
416.276262	2643.596200
416.655997	2645.857158
417.035670	2645.436222
417.415283	2648.607107
417.794834	2647.845893
418.174324	2645.970584
418.553753	2650.736995
418.933121	2652.516522
419.312428	2651.835966
419.691674	2655.102634
420.070859	2656.367964
420.449983	2656.141112
420.829045	2657.799651
421.208047	2658.651606
421.586988	2663.281906
421.965867	2670.946981
422.344686	2673.548216
422.723444	2678.559123
423.102141	2683.438960
423.480777	2691.550176
423.859352	2701.791280
424.237866	2712.831407
424.616319	2728.968141
424.994712	2748.956316
425.373044	2758.529467
425.751314	2783.110133
426.129524	2798.604119
426.507673	2826.862307
426.885762	2857.681401
427.263789	2894.607853
427.641756	2926.014242
428.019662	2966.053606
428.397508	3022.403624
428.775292	3058.084911
429.153016	3129.623925
429.530679	3173.502128
429.908282	3236.821541
430.285824	3268.094339
430.663305	3404.538209
431.040726	3418.439191
431.418086	3480.679797
431.795385	3596.389401
432.172624	3687.445242
432.549802	3756.987959
432.926920	3852.462372
433.303977	3910.206269
433.680974	4035.282337
434.057910	4147.180829
434.434786	4253.284514
434.811601	4323.182633
435.188355	4548.302920
435.565050	4589.587449
435.941683	4671.549049
436.318257	4922.946350
436.694770	5065.797527
437.071222	5211.864959
437.447614	5271.771511
437.823946	5357.335015
438.200218	5533.258682
438.576429	5574.714610
438.952580	5778.790600
439.328670	5935.268016
439.704700	5965.731708
440.080670	6075.356640
440.456580	6454.552232
440.832429	6467.646629
441.208218	6399.127266
441.583947	6677.590523
441.959616	6876.741305
442.335224	6908.828249
442.710773	7106.128929
443.086261	7351.040785
443.461689	7061.706281
443.837057	7549.740385
444.212365	7862.206224
444.587612	7765.433714
444.962800	8041.918317
445.337927	8018.252620
445.712995	7836.990372
446.088002	8694.818316
446.462949	8570.828617
446.837837	8663.308584
447.212664	8795.598543
447.587431	9256.513760
447.962139	9881.367300
448.336786	11621.079575
448.711374	12231.018861
449.085901	10756.932544
449.460369	10562.979191
449.834776	10249.646274
450.209124	11016.710763
450.583412	11423.224368
450.957640	12321.179897
451.331808	11781.526899
451.705917	11004.793476
452.079965	10512.933136
452.453954	11374.231915
452.827883	11119.295724
453.201752	11447.416866
453.575562	11082.853222
453.949311	11523.046776
454.323001	11546.369675
454.696632	11801.305866
455.070202	12110.371446
455.443713	12399.733677
455.817164	12885.136299
456.190556	12957.413842
456.563888	13344.398017
456.937160	13572.079210
457.310373	12976.340854
457.683526	13094.389554
458.056619	12703.448073
458.429653	12853.009025
458.802628	12377.013197
459.175542	12736.875964
459.548398	13685.449719
459.921194	14033.629612
460.293930	14113.133649
460.666607	15007.313354
461.039224	16010.540778
461.411782	16714.127058
461.784280	16672.855132
462.156719	16725.605766
462.529099	16461.519880
462.901419	15408.369910
463.273680	15222.026178
463.645882	15087.001393
464.018024	14846.608931
464.390106	15064.512806
464.762130	15805.885055
465.134094	16533.376487
465.505999	18479.733220
465.877845	21709.973534
466.249631	24563.470778
466.621358	24316.000536
466.993026	22875.122820
467.364634	22320.787461
467.736184	20898.824154
468.107674	20099.612226
468.479105	20225.041175
468.850477	19692.866728
469.221790	19277.934396
469.593043	18603.551520
469.964238	18061.183860
470.335373	17732.619096
470.706449	18143.425244
471.077467	17683.669492
471.448425	19495.649228
471.819324	23453.486839
472.190164	25588.160915
472.560945	22094.608532
472.931667	19691.331697
473.302330	19041.388334
473.672934	18518.729065
474.043479	18901.675276
474.413965	18715.172748
474.784393	18353.643880
475.154761	19001.492643
475.525070	19038.961019
475.895321	18670.402261
476.265513	19242.772348
476.635645	19829.572738
477.005719	19620.511047
477.375734	19817.794082
477.745691	20288.221956
478.115588	20808.590021
478.485427	21310.373872
478.855207	22357.804653
479.224928	24101.910294
479.594591	26322.105024
479.964194	26413.617089
480.333739	26603.648425
480.703226	26163.777505
481.072653	25835.119480
481.442022	26386.062143
481.811333	27280.987938
482.180584	27226.767808
482.549777	26284.145135
482.918912	25920.259527
483.287988	26030.993513
483.657005	25742.818473
484.025964	25458.394053
484.394864	25379.003442
484.763706	25095.602375
485.132489	24512.209805
485.501213	24679.545866
485.869879	24599.298258
486.238487	24401.720316
486.607036	24555.934253
486.975527	24227.394695
487.343959	24578.695063
487.712333	24519.020404
488.080648	24200.127094
488.448905	24662.166488
488.817104	24410.809516
489.185244	25068.070113
489.553326	25047.315683
489.921350	26011.259916
490.289315	28271.983002
490.657222	30084.935680
491.025070	30566.451572
491.392861	30360.573370
491.760593	29526.973211
492.128267	28625.642630
492.495883	27604.796373
492.863440	26731.300523
493.230939	25855.599167
493.598380	25692.812748
493.965763	25292.615709
494.333088	24846.740774
494.700354	24769.485092
495.067563	24662.647918
495.434713	24407.648713
495.801805	24551.414859
496.168839	24384.272882
496.535815	24188.358520
496.902733	24410.368415
497.269593	24082.990843
497.636395	24267.393730
498.003139	24253.742286
498.369825	24002.181147
498.736453	24198.375293
499.103023	24079.691408
499.469535	24094.648512
499.835989	24294.885663
500.202385	24328.240457
500.568723	23827.235465
500.935003	24097.113636
501.301226	23675.925232
501.667390	24526.816548
502.033497	24772.285453
502.399546	24496.768751
502.765537	24073.742847
503.131470	24457.520848
503.497345	24591.234933
503.863163	23800.648419
504.228923	24417.647841
504.594625	24614.789724
504.960269	24129.094716
505.325856	24625.504697
505.691385	24035.939234
506.056856	24649.167873
506.422270	24608.039619
506.787625	24199.252454
507.152924	24595.744245
507.518164	24616.728048
507.883347	24429.933133
508.248472	24120.857470
508.613540	24902.503498
508.978550	24684.571896
509.343503	24665.629761
509.708398	24946.724499
510.073236	25099.597490
510.438016	25300.863036
510.802738	24987.280582
511.167403	25241.475723
511.532010	24927.356386
511.896561	25714.104061
512.261053	25681.767580
512.625488	25526.353848
512.989866	25408.882360
513.354186	25261.584886
513.718449	25362.972572
514.082655	25744.419040
514.446803	25481.447249
514.810894	25936.081188
515.174927	25414.818319
515.538904	25458.106707
515.902822	25940.151920
516.266684	25695.986154
516.630488	25598.623829
516.994235	25593.479332
517.357925	25876.499791
517.721558	26066.702526
518.085133	26145.059701
518.448651	26067.178915
518.812112	25802.127648
519.175516	25995.934808
519.538863	26149.742933
519.902152	25925.882934
520.265385	26220.082152
520.628560	26021.269127
520.991678	26016.104465
521.354739	26100.032114
521.717743	26155.293243
522.080690	25953.763036
522.443580	26279.078776
522.806413	26296.548894
523.169189	26369.590172
523.531908	26428.304491
523.894569	26032.732711
524.257174	26106.494874
524.619722	26295.162577
524.982213	25989.545146
525.344647	26048.413220
525.707025	26165.219275
526.069345	26181.139239
526.431608	26108.828928
526.793815	26315.443139
527.155964	25763.036021
527.518057	25940.003206
527.880093	25850.260585
528.242072	26091.714211
528.603995	25809.144935
528.965860	25604.227072
529.327669	25632.659180
529.689421	25628.480063
530.051117	25467.039632
530.412755	25646.270295
530.774337	25442.711023
531.135862	25319.535470
531.497331	25514.668453
531.858743	25062.532406
532.220098	25551.453753
532.581396	25221.674071
532.942638	25168.076523
533.303824	25266.225268
533.664953	25293.008919
534.026025	24942.626041
534.387040	25176.568347
534.747999	25240.979170
535.108902	25399.762913
535.469748	24892.827003
535.830537	25081.676188
536.191270	25201.217069
536.551947	25093.522899
536.912567	24736.957047
537.273131	25074.585805
537.633638	24774.720330
537.994089	24991.356355
538.354483	24532.780233
538.714821	25031.045359
539.075103	25072.012296
539.435328	24849.115158
539.795497	24424.496249
540.155609	24818.532998
540.515665	25109.843635
540.875665	24354.809859
541.235609	24640.242510
541.595496	24605.985349
541.955328	24964.499608
542.315102	24869.020154
542.674821	24436.015285
543.034483	24303.594256
543.394090	24472.992149
543.753640	24261.316619
544.113134	24901.454938
544.472571	24495.962166
544.831953	24780.033706
545.191278	24400.412136
545.550548	24332.681714
545.909761	24534.658063
546.268918	24757.774491
546.628019	24731.318516
546.987064	24427.190746
547.346053	24197.838410
547.704986	24315.262007
548.063863	24460.923627
548.422684	24479.873324
548.781449	24008.603577
549.140158	24418.406535
549.498811	23997.933975
549.857408	23736.280446
550.215949	24170.840511
550.574434	23840.344985
550.932864	24067.138935
551.291237	24217.415731
551.649555	24087.462347
552.007817	24133.339367
552.366022	24009.092569
552.724173	24041.582806
553.082267	23991.322502
553.440305	24459.136537
553.798288	23719.074988
554.156215	24246.972016
554.514086	24327.184336
554.871902	23701.201577
555.229661	23991.103212
555.587365	23842.076622
555.945014	23707.772721
556.302606	23961.332677
556.660143	23899.848245
557.017625	24160.576722
557.375050	23680.754657
557.732421	24081.390277
558.089735	23892.488160
558.446994	23966.010868
558.804197	23978.649041
559.161345	23928.910497
559.518437	23694.476678
559.875474	23890.587645
560.232455	24057.956473
560.589381	23892.583942
560.946251	23863.947667
561.303065	24183.861811
561.659825	24272.812971
562.016528	23874.387897
562.373177	23626.622747
562.729770	23968.697803
563.086307	23835.482792
563.442789	24005.896477
563.799216	23836.866589
564.155587	23844.987888
564.511904	23832.846269
564.868164	23765.539303
565.224370	23746.423248
565.580520	23649.151664
565.936615	23786.760040
566.292654	23463.201142
566.648638	23769.093317
567.004567	23591.490946
567.360441	23544.958576
567.716260	23275.619808
568.072023	23605.795220
568.427732	23361.039639
568.783385	23140.234580
569.138982	23371.421896
569.494525	23417.656838
569.850013	23151.524244
570.205445	23260.715637
570.560823	23059.102250
570.916145	22831.937776
571.271412	22999.132684
571.626625	22751.911979
571.981782	22867.351881
572.336884	22672.178569
572.691931	22805.832160
573.046923	22537.975492
573.401860	22420.844282
573.756743	22426.255961
574.111570	22331.278102
574.466342	22259.192123
574.821059	22354.779961
575.175722	22057.442625
575.530330	22053.707130
575.884882	22073.788566
576.239380	21980.466726
576.593823	21880.246067
576.948211	21850.175585
577.302544	21693.950227
577.656823	21564.455587
578.011047	21668.494921
578.365216	21534.647245
578.719330	21408.250394
579.073389	21306.792132
579.427394	21463.894651
579.781344	21227.784648
580.135239	21125.066098
580.489080	21075.577090
580.842866	20849.413285
581.196597	21033.601923
581.550273	21015.751197
581.903895	20908.432593
582.257463	21230.716079
582.610975	20756.721589
582.964434	21074.110115
583.317837	20766.864391
583.671186	20856.319666
584.024481	20830.897127
584.377721	20595.039182
584.730906	20669.973414
585.084037	20674.046666
585.437113	20586.501988
585.790135	20797.479318
586.143103	20250.937582
586.496016	20263.457288
586.848874	20503.834627
587.201679	20443.229875
587.554428	20117.069742
587.907124	20453.899478
588.259765	20226.326669
588.612352	20307.806839
588.964884	19874.116374
589.317362	20048.464679
589.669786	20094.515620
590.022155	20141.330295
590.374470	20332.435396
590.726731	20117.566296
591.078937	19889.948117
591.431090	19976.398865
591.783188	19730.559436
592.135232	19699.692451
592.487222	19799.378747
592.839157	19827.100052
593.191038	19707.415498
593.542866	19596.250494
593.894639	19309.292894
594.246358	19534.226658
594.598022	19437.013047
594.949633	19182.550724
595.301190	19153.493514
595.652692	19318.324121
596.004141	19565.194466
596.355535	18885.115086
596.706876	18910.557789
597.058162	18789.489438
597.409395	19019.391260
597.760573	19100.541234
598.111698	18875.292397
598.462768	18808.113981
598.813785	18767.857847
599.164748	18586.124251
599.515657	18623.360734
599.866511	18424.018388
600.217312	18783.016597
600.568060	18307.537487
600.918753	18617.036607
601.269392	18521.899951
601.619978	18300.069017
601.970510	18506.176592
602.320988	18449.824054
602.671412	18663.891611
603.021783	18566.604903
603.372100	18292.668603
603.722363	18438.448690
604.072572	18380.306543
604.422728	18524.251649
604.772830	18285.860525
605.122878	18229.870950
605.472872	18215.743116
605.822813	18201.471610
606.172701	18175.529832
606.522534	18380.861069
606.872314	18399.684738
607.222041	18226.906752
607.571714	18444.576213
607.921333	18275.190923
608.270899	18345.565431
608.620411	18527.659469
608.969870	18296.535168
609.319276	18298.755797
609.668627	18326.988779
610.017926	18471.667374
610.367171	18574.028003
610.716362	18628.338873
611.065500	18432.653884
611.414585	18577.798786
611.763616	18550.586637
612.112594	18500.260798
612.461518	18468.924986
612.810389	18661.673503
613.159207	18513.657665
613.507971	18434.113298
613.856682	18709.322489
614.205340	18640.931676
614.553945	18783.243449
614.902496	18531.289100
615.250994	18766.365666
615.599439	18705.188743
615.947830	18689.513275
616.296169	18735.564216
616.644454	18698.688175
616.992686	18660.992947
617.340864	18884.275734
617.688990	18642.779259
618.037063	18823.275252
618.385082	18671.939813
618.733048	18953.402556
619.080961	18813.324014
619.428821	18863.778402
619.776628	18739.375328
620.124382	18674.888888
620.472083	18707.802582
620.819731	18721.698522
621.167326	18419.042769
621.514868	18457.453840
621.862357	18226.553871
622.209793	18240.028875
622.557176	18073.675839
622.904506	17903.229387
623.251783	17806.285478
623.599007	17565.898056
623.946179	17516.562804
624.293297	17455.794215
624.640363	17208.651648
624.987376	17225.605048
625.334336	17011.376174
625.681243	16862.243720
626.028097	16881.440434
626.374899	16802.737940
626.721647	16663.080335
627.068343	16497.344840
627.414987	16440.029442
627.761577	16411.430976
628.108115	16452.251719
628.454600	16173.924574
628.801032	16272.232115
629.147412	16205.106631
629.493739	16219.138683
629.840014	16025.533169
630.186236	16122.275432
630.532405	15886.404885
630.878521	16085.598518
631.224585	15988.329454
631.570597	15807.893955
631.916556	15831.118551
632.262462	15807.062165
632.608316	15732.778242
632.954117	15673.406053
633.299866	15660.183106
633.645562	15587.867754
633.991206	15331.041130
634.336797	15216.866557
634.682336	15183.098388
635.027823	15067.976079
635.373257	14944.359425
635.718639	14852.403737
636.063968	14792.361074
636.409245	14550.935176
636.754470	14571.568618
637.099642	14420.235700
637.444762	14186.517726
637.789829	14242.061159
638.134845	14084.124329
638.479808	14113.607518
638.824719	14050.640986
639.169577	13907.318461
639.514383	13954.475935
639.859137	13765.714970
640.203839	13857.025390
640.548489	13692.595554
640.893086	13676.973018
641.237632	13548.970561
641.582125	13700.989075
641.926566	13531.578580
642.270955	13541.945713
642.615292	13502.405422
642.959576	13516.762629
643.303809	13546.013924
643.647990	13472.881905
643.992118	13539.664591
644.336195	13313.185713
644.680219	13515.169624
645.024192	13433.260956
645.368112	13682.324203
645.711981	13740.766300
646.055797	13909.975149
646.399562	13887.660482
646.743274	14157.231143
647.086935	14433.435962
647.430544	14394.924067
647.774101	14412.777313
648.117606	14574.961315
648.461059	14541.477971
648.804460	14533.308781
649.147810	14260.279889
649.491108	14154.524043
649.834354	14169.965097
650.177548	13870.802863
650.520690	13684.494420
650.863781	13599.747583
651.206820	13650.867403
651.549807	13479.279129
651.892742	13280.554324
652.235626	13207.341647
652.578458	13218.041496
652.921238	12900.877302
653.263967	13102.039505
653.606644	12932.906273
653.949269	12906.997262
654.291843	12710.906460
654.634365	12878.945762
654.976836	12717.079353
655.319255	12730.093092
655.661622	12684.526102
656.003938	12602.756066
656.346203	12526.816124
656.688416	12606.426026
657.030577	12559.893655
657.372687	12475.794606
657.714746	12449.928446
658.056753	12646.488076
658.398708	12462.879170
658.740612	12460.613172
659.082465	12559.858367
659.424266	12529.009026
659.766016	12551.207747
660.107715	12465.750107
660.449362	12538.289791
660.790958	12495.807987
661.132503	12447.927108
661.473996	12504.798885
661.815438	12523.204138
662.156829	12545.062581
662.498168	12512.544618
662.839456	12517.457222
663.180693	12527.547092
663.521879	12624.964869
663.863013	12600.401847
664.204097	12570.628793
664.545129	12694.419366
664.886110	12671.318279
665.227040	12759.583842
665.567918	12761.622988
665.908746	12797.982310
666.249522	12780.870114
666.590248	12828.347701
666.930922	12938.988425
667.271545	12926.158688
667.612118	12999.603258
667.952639	12910.158066
668.293109	12920.237853
668.633528	12878.446687
668.973896	12850.952234
669.314213	12935.900718
669.654480	12671.209894
669.994695	12739.643557
670.334859	12763.899069
670.674973	12717.427193
671.015035	12749.050351
671.355047	12688.117924
671.695008	12649.782470
672.034918	12660.784788
672.374777	12702.727188
672.714585	12621.388171
673.054342	12656.048624
673.394049	12604.835542
673.733705	12703.866489
674.073310	12612.573713
674.412864	12627.636681
674.752368	12495.162719
675.091820	12513.809947
675.431223	12496.692710
675.770574	12365.347967
676.109875	12286.146399
676.449125	12248.645255
676.788324	12188.194259
677.127473	12023.121676
677.466571	12006.823626
677.805619	11907.263358
678.144616	11832.651760
678.483562	11798.402161
678.822458	11674.165445
679.161303	11657.060810
679.500098	11642.449026
679.838842	11586.542630
680.177535	11621.157712
680.516179	11672.713593
680.854771	11625.296500
681.193314	11838.433964
681.531805	12000.098727
681.870247	12411.860173
682.208638	12826.641270
682.546978	13137.224238
682.885268	13186.125951
683.223508	12886.212585
683.561697	12722.748130
683.899836	12623.631484
684.237925	12430.020929
684.575963	12341.049605
684.913951	12261.333839
685.251889	12207.902650
685.589776	12312.181438
685.927614	12229.582132
686.265401	12200.726567
686.603137	12249.991243
686.940824	12397.628995
687.278460	12521.764888
687.616046	12571.679873
687.953582	12740.394689
688.291068	12657.825631
688.628504	12900.567271
688.965889	12906.813260
689.303224	12869.186088
689.640510	12769.056170
689.977745	12460.257770
690.314930	12227.898387
690.652065	12139.773976
690.989150	11847.747496
691.326185	11621.787857
691.663170	11416.582648
692.000105	11171.214567
692.336990	11061.763555
692.673825	10804.160594
693.010610	10691.886536
693.347345	10484.891718
693.684030	10281.783629
694.020665	10227.515608
694.357251	10025.947592
694.693786	9965.773859
695.030272	9806.296958
695.366707	9681.725005
695.703093	9615.275035
696.039429	9620.369121
696.375716	9536.532212
696.711952	9407.065299
697.048139	9448.027195
697.384276	9404.907685
697.720363	9425.523484
698.056400	9352.797278
698.392388	9302.768867
698.728326	9264.766129
699.064214	9203.153147
699.400053	9252.095189
699.735842	9064.123165
700.071581	9018.818315
700.407270	8949.757028
700.742910	8864.806024
701.078501	8780.583467
701.414042	8656.644179
701.749533	8590.874765
702.084974	8445.460162
702.420366	8563.418121
702.755709	8444.252806
703.091002	8310.707599
703.426246	8336.878749
703.761440	8288.188765
704.096584	8247.897343
704.431679	8179.201539
704.766725	8168.877256
705.101721	8110.553627
705.436668	8158.026173
705.771565	8057.034217
706.106413	8136.704612
706.441212	8179.088113
706.775961	8134.869632
707.110661	8164.355341
707.445311	8314.843866
707.779913	8211.948875
708.114465	8341.314965
708.448967	8378.690079
708.783421	8521.813478
709.117825	8704.928350
709.452180	8740.990244
709.786485	8828.487031
710.120742	9115.641237
710.454949	9110.703426
710.789107	9209.603303
711.123216	9430.299977
711.457275	9590.878371
711.791286	9754.567157
712.125247	9741.795394
712.459159	9732.257531
712.793023	9987.092899
713.126837	9551.927896
713.460602	9713.746414
713.794318	9532.514413
714.127985	9564.646727
714.461602	9238.247139
714.795171	9187.238224
715.128691	8942.165050
715.462162	8693.434520
715.795584	8643.552302
716.128957	8490.407090
716.462281	8323.943148
716.795556	8372.799491
717.128782	8165.514807
717.461960	7900.516472
717.795088	7972.267215
718.128167	7880.850931
718.461198	7709.769293
718.794180	7651.417937
719.127113	7640.730691
719.459997	7491.762074
719.792833	7259.589213
720.125619	7327.551529
720.458357	7180.455701
720.791046	7171.076634
721.123686	7171.149731
721.456278	7008.847262
721.788821	7033.047321
722.121315	6922.893069
722.453761	6992.826475
722.786158	6930.401867
723.118506	6948.219826
723.450805	6912.430154
723.783056	6977.269475
724.115259	6888.366206
724.447412	6877.333641
724.779518	6930.064110
725.111574	6931.432783
725.443582	7012.214753
725.775542	6989.428738
726.107453	7182.051226
726.439315	7088.235353
726.771129	7153.041906
727.102895	7319.589027
727.434612	7429.967611
727.766281	7462.566232
728.097901	7545.836011
728.429473	7532.945781
728.760996	7517.925663
729.092471	7485.974830
729.423897	7438.444311
729.755276	7447.185672
730.086606	7372.367387
730.417887	7474.337326
730.749120	7670.045001
731.080305	7864.215123
731.411442	7989.013928
731.742530	7983.529153
732.073570	8091.671985
732.404562	8175.773555
732.735506	8023.374433
733.066401	8166.941453
733.397249	8096.866894
733.728048	7853.810182
734.058798	7518.691918
734.389501	7293.395191
734.720156	7116.775846
735.050762	6882.513426
735.381320	6787.611185
735.711831	6734.066569
736.042293	6630.420446
736.372707	6650.408621
736.703073	6509.667167
737.033391	6553.522685
737.363661	6569.107412
737.693883	6593.108346
738.024056	6678.813002
738.354182	6718.791873
738.684260	6751.571976
739.014290	6866.389296
739.344272	6978.010524
739.674207	7007.496233
740.004093	7071.463434
740.333931	7091.391115
740.663722	7091.741476
740.993464	7175.200298
741.323159	7164.147568
741.652806	6907.396562
741.982405	6930.545540
742.311956	6983.611246
742.641460	6817.288457
742.970915	6625.699405
743.300323	6619.342510
743.629683	6569.881229
743.958996	6435.146311
744.288260	6345.154153
744.617477	6292.471574
744.946647	6297.374097
745.275768	6132.440146
745.604842	6082.280665
745.933869	6064.805505
746.262847	6027.425349
746.591778	6012.606878
746.920662	5974.251258
747.249498	5960.191480
747.578286	6010.724007
747.907027	6088.693013
748.235720	6147.611498
748.564365	6117.205779
748.892963	6148.009749
749.221514	6298.500794
749.550017	6131.547861
749.878473	6009.244428
750.206881	6059.943312
750.535242	6006.459190
750.863555	5935.522594
751.191821	5954.547909
751.520039	5954.081602
751.848210	5862.241861
752.176334	5885.786570
752.504411	5932.966729
752.832440	5862.806470
753.160421	5788.283093
753.488356	5835.798489
753.816243	5866.788982
754.144082	5720.086364
754.471875	5692.183577
754.799620	5736.124795
755.127318	5751.591055
755.454969	5704.045412
755.782572	5667.035781
756.110129	5708.353078
756.437638	5692.493608
756.765100	5630.681500
757.092515	5637.862624
757.419882	5682.539850
757.747203	5665.518394
758.074477	5724.688937
758.401703	5714.848605
758.728882	5662.491181
759.056014	5722.836313
759.383099	5849.311302
759.710138	5864.210432
760.037129	5852.068813
760.364073	5852.116704
760.690970	5928.971615
761.017820	5915.703298
761.344623	5870.766452
761.671379	5973.351413
761.998088	6090.754844
762.324751	6334.262740
762.651366	6934.318844
762.977935	8248.633351
763.304456	9878.146003
763.630931	10768.189441
763.957359	10374.429955
764.283740	9434.489176
764.610074	8597.352648
764.936362	7601.472706
765.262602	7010.246183
765.588796	6474.182485
765.914943	6140.793338
766.241044	5978.241332
766.567097	5773.704076
766.893104	5514.072050
767.219064	5337.782900
767.544978	5273.104896
767.870845	5199.720820
768.196665	5092.477833
768.522438	5020.482595
768.848165	4988.320033
769.173846	4922.694292
769.499479	4878.619484
769.825066	4823.817101
770.150607	4764.467597
770.476101	4740.048248
770.801548	4735.642279
771.126949	4659.747708
771.452303	4608.678299
771.777611	4563.438984
772.102872	4583.159978
772.428087	4547.783681
772.753256	4507.030993
773.078378	4463.266216
773.403453	4393.441194
773.728482	4381.891911
774.053465	4331.727389
774.378401	4319.396727
774.703291	4321.002334
775.028135	4250.443824
775.352932	4197.070608
775.677683	4186.925286
776.002388	4204.080332
776.327046	4218.525759
776.651658	4141.625477
776.976224	4082.764965
777.300743	4085.260336
777.625216	4107.360755
777.949643	4102.516206
778.274024	4060.397365
778.598359	4014.742156
778.922647	4035.920043
779.246889	4028.685987
779.571086	4025.147097
779.895236	4008.228985
780.219339	3995.830267
780.543397	3987.298114
780.867409	4038.717883
781.191374	4054.640368
781.515294	3992.205677
781.839167	3984.747290
782.162995	4002.182121
782.486776	3989.808609
782.810511	4000.067357
783.134201	3998.028210
783.457844	3954.008855
783.781441	3899.856780
784.104993	3905.941453
784.428498	3923.477106
784.751958	3922.698248
785.075372	3896.731265
785.398739	3861.201212
785.722061	3870.146740
786.045337	3916.096857
786.368568	3948.133390
786.691752	3859.330944
787.014891	3910.332298
787.337983	4031.327552
787.661030	4199.034137
787.984031	4358.400134
788.306987	4528.972615
788.629897	4609.371457
788.952760	4567.386208
789.275579	4496.043798
789.598351	4433.228501
789.921078	4294.639620
790.243759	4091.491202
790.566395	4073.365734
790.888984	4070.139395
791.211529	3963.108137
791.534027	3904.471956
791.856480	3891.861510
792.178888	3828.867252
792.501249	3784.936116
792.823566	3793.133032
793.145836	3818.706806
793.468062	3770.074795
793.790241	3720.595870
794.112375	3756.186416
794.434464	3817.580108
794.756507	3842.317050
795.078505	3823.029595
795.400457	3856.394472
795.722364	3993.191223
796.044226	4102.995115
796.366042	4171.958100
796.687812	4151.254081
797.009538	4157.379083
797.331218	4114.861992
797.652852	4088.098506
797.974442	4070.240218
798.295986	4066.552614
798.617484	3985.258967
798.938938	3896.431316
799.260346	3943.185497
799.581709	3940.715332
799.903026	3863.089124
800.224299	3826.218125
800.545526	3820.715706
800.866708	3780.779685
801.187845	3722.080490
801.508936	3756.307404
801.829983	3755.510901
802.150984	3676.954601
802.471940	3667.396573
802.792851	3674.923016
803.113717	3678.247657
803.434538	3677.841844
803.755314	3621.607773
804.076045	3596.863269
804.396731	3616.513687
804.717372	3644.829848
805.037967	3627.495841
805.358518	3615.903707
805.679024	3642.677275
805.999485	3657.372239
806.319901	3661.460615
806.640272	3672.551153
806.960598	3688.466076
807.280879	3663.963548
807.601115	3672.924198
807.921306	3693.187116
808.241453	3734.393508
808.561554	3708.935681
808.881611	3641.147285
809.201623	3677.862009
809.521590	3691.717620
809.841513	3660.916170
810.161390	3691.800799
810.481223	3669.113086
810.801011	3617.310189
811.120755	3607.938684
811.440453	3643.093171
811.760107	3644.292965
812.079716	3602.290071
812.399281	3572.711101
812.718801	3592.563165
813.038276	3571.675144
813.357707	3563.309349
813.677093	3584.325920
813.996434	3533.712735
814.315731	3538.600134
814.634983	3545.161195
814.954191	3561.124009
815.273354	3589.724995
815.592473	3582.629571
815.911547	3587.779110
816.230577	3626.974081
816.549562	3676.808408
816.868502	3723.645768
817.187399	3747.941609
817.506250	3745.259715
817.825058	3716.036146
818.143821	3811.024088
818.462539	3909.341711
818.781213	3957.333496
819.099843	4011.727546
819.418429	4258.653343
819.736970	4500.719469
820.055466	4742.682250
820.373919	5110.257983
820.692327	5510.424775
821.010691	5960.199042
821.329011	7340.406471
821.647286	10088.175595
821.965517	14653.870496
822.283704	18671.271860
822.601847	20822.594346
822.919945	18998.664556
823.237999	16403.753298
823.556010	13923.641717
823.873976	11838.134015
824.191897	9752.223021
824.509775	8399.603306
824.827609	7278.279291
825.145398	6734.394244
825.463144	6616.385874
825.780845	6733.885088
826.098502	6917.511637
826.416116	7800.878067
826.733685	9126.141960
827.051210	10235.455426
827.368692	10269.624366
827.686129	9010.863374
828.003522	7501.562078
828.320872	6493.250650
828.638177	5787.486591
828.955439	5231.759873
829.272656	4735.110437
829.589830	4454.466882
829.906960	4276.970376
830.224046	4096.711317
830.541088	3973.177842
830.858086	3922.269750
831.175041	3844.056248
831.491952	3827.034792
831.808819	3840.179601
832.125642	3913.979572
832.442421	4060.992222
832.759157	4334.585723
833.075849	4886.004775
833.392497	5752.811014
833.709101	6522.423807
834.025662	6860.755806
834.342179	6492.721329
834.658653	5828.393034
834.975083	5183.551319
835.291469	4604.957927
835.607811	4199.838201
835.924110	4064.049681
836.240366	3866.239846
836.556578	3659.960871
836.872746	3553.222000
837.188871	3514.513501
837.504952	3445.421967
837.820990	3364.909698
838.136984	3319.355312
838.452935	3342.078313
838.768842	3339.149402
839.084706	3360.420551
839.400526	3519.645395
839.716303	3858.625183
840.032037	4382.219586
840.347727	4643.958814
840.663373	4367.073439
840.978977	3981.583966
841.294537	3674.607944
841.610054	3451.995631
841.925527	3344.671986
842.240957	3273.243877
842.556344	3222.073645
842.871687	3164.838905
843.186987	3115.985083
843.502244	3074.761048
843.817458	3040.221582
844.132629	3008.369052
844.447756	3019.376411
844.762840	3006.513907
845.077881	2971.886221
845.392879	2958.582616
845.707833	2950.214301
846.022745	2950.567182
846.337613	2952.137501
846.652438	2939.799277
846.967221	2938.067641
847.281960	2924.670774
847.596656	2919.047367
847.911309	2920.552152
848.225919	2915.997469
848.540485	2906.792322
848.855009	2906.999009
849.169490	2896.261352
849.483928	2886.650392
849.798323	2888.954199
850.112675	2883.751728
850.426984	2895.462329
850.741251	2896.732700
851.055474	2884.434805
851.369654	2875.290152
851.683792	2881.581512
851.997887	2890.143912
852.311938	2894.002915
852.625947	2882.496481
852.939914	2885.455638
853.253837	2886.577295
853.567718	2876.033722
853.881555	2874.029863
854.195350	2889.607029
854.509103	2882.146121
854.822812	2876.217724
855.136479	2873.485419
855.450103	2875.882487
855.763685	2868.393853
856.077224	2863.753471
856.390720	2880.220400
856.704173	2890.201885
857.017584	2880.366594
857.330953	2878.105636
857.644278	2888.319014
857.957561	2898.126579
858.270802	2899.144892
858.584000	2899.699419
858.897155	2886.249620
859.210268	2885.551420
859.523339	2882.942623
859.836367	2882.209135
860.149352	2877.178064
860.462295	2874.062631
860.775195	2881.289125
861.088054	2875.196890
861.400869	2863.075436
861.713642	2859.206350
862.026373	2878.055225
862.339062	2881.737788
862.651708	2884.991852
862.964312	2887.267933
863.276873	2879.983466
863.589392	2888.777759
863.901869	2901.373082
864.214303	2921.930907
864.526696	2939.993361
864.839045	2931.829213
865.151353	2934.564039
865.463619	2933.560849
865.775842	2933.785180
866.088023	2953.811164
866.400162	2958.638069
866.712258	2930.914243
867.024313	2919.191040
867.336325	2927.088008
867.648296	2948.800257
867.960224	2940.600820
868.272110	2928.479366
868.583954	2933.883483
868.895755	2947.471913
869.207515	2934.743000
869.519233	2939.199380
869.830909	2950.741101
870.142542	2959.041361
870.454134	2956.576237
870.765684	2961.214098
871.077191	2964.400108
871.388657	2969.045531
871.700081	2982.888539
872.011463	2991.753408
872.322803	2993.936228
872.634101	2993.084273
872.945357	3010.728312
873.256571	3035.573638
873.567744	3029.730941
873.878874	3019.235259
874.189963	3044.546892
874.501010	3046.127294
874.812015	3039.553629
875.122979	3037.915254
875.433900	3034.361241
875.744780	3036.312167
876.055618	3045.393806
876.366415	3043.226110
876.677169	3051.841442
876.987882	3051.692728
877.298554	3045.527397
877.609183	3064.363668
877.919771	3090.146649
878.230317	3116.690845
878.540822	3164.506189
878.851285	3205.926830
879.161707	3250.846031
879.472087	3352.868903
879.782425	3579.708223
880.092722	4014.792567
880.402977	4542.913926
880.713191	5173.602602
881.023363	6335.016392
881.333494	7610.566947
881.643583	8167.710229
881.953631	7861.752520
882.263637	7227.724080
882.573602	6644.568444
882.883526	6064.198046
883.193408	5495.172764
883.503248	5031.336199
883.813048	4727.455445
884.122806	4424.713992
884.432522	4109.871249
884.742197	3874.580435
885.051831	3681.879808
885.361424	3547.732184
885.670975	3471.746872
885.980485	3393.150242
886.289954	3315.355156
886.599382	3270.977879
886.908768	3232.135788
887.218113	3188.726413
887.527417	3128.567803
887.836680	3078.589804
888.145901	3072.159812
888.455082	3063.670509
888.764221	3012.782582
889.073319	2984.970536
889.382376	2982.863334
889.691392	2988.703510
890.000366	2985.706544
890.309300	2974.923516
890.618193	2981.434167
890.927044	3002.783453
891.235855	3004.600789
891.544625	2988.877430
891.853353	2996.789521
892.162041	3013.793333
892.470687	3056.073490
892.779293	3107.117694
893.087858	3154.829694
893.396381	3224.453070
893.704864	3350.688603
894.013306	3588.414295
894.321707	3888.799009
894.630068	4095.919856
894.938387	4089.278136
895.246665	4044.293399
895.554903	3920.656581
895.863100	3722.355233
896.171256	3556.017320
896.479371	3418.439191
896.787446	3296.561735
897.095480	3191.741023
897.403473	3129.024028
897.711425	3094.721496
898.019336	3082.368149
898.327207	3058.349571
898.635038	3019.676360
898.942827	3003.451406
899.250576	2992.073522
899.558284	2963.404480
899.865952	2942.592076
900.173579	2920.370670
900.481165	2914.096954
900.788711	2901.456261
901.096216	2875.118753
901.403681	2868.086343
901.711105	2871.688247
902.018489	2871.083309
902.325832	2868.494676
902.633135	2877.230996
902.940397	2915.778179
903.247619	2994.573934
903.554800	3187.806402
903.861941	3533.488404
904.169041	3957.454483
904.476101	4255.074124
904.783121	4211.561405
905.090100	3967.829178
905.397039	3693.434133
905.703938	3444.244857
906.010796	3259.473966
906.317614	3151.525218
906.624391	3054.447718
906.931129	2984.773931
907.237826	2922.608942
907.544483	2878.403064
907.851099	2845.940554
908.157675	2823.817450
908.464211	2804.938329
908.770707	2791.617080
909.077163	2777.070831
909.383578	2762.731269
909.689954	2753.236255
909.996289	2749.677201
910.302584	2755.761873
910.608839	2752.638879
910.915054	2748.830287
911.221229	2739.085737
911.527363	2739.975500
911.833458	2748.069073
912.139513	2753.200967
912.445527	2757.014600
912.751502	2767.157402
913.057436	2773.612599
913.363331	2788.862090
913.669186	2808.177271
913.975000	2844.085409
914.280775	2904.644791
914.586510	2974.184987
914.892205	3052.645506
915.197859	3180.963036
915.503475	3374.739948
915.809050	3586.821291
916.114585	3732.276223
916.420081	3750.041249
916.725536	3691.697455
917.030952	3572.028025
917.336328	3444.738890
917.641665	3317.386741
917.946961	3215.600804
918.252218	3147.993890
918.557435	3066.997671
918.862612	3008.061541
919.167750	2957.690332
919.472848	2922.868562
919.777906	2895.013666
920.082925	2867.133565
920.387904	2837.332784
920.692843	2820.623879
920.997743	2808.646098
921.302603	2793.366361
921.607423	2786.470062
921.912204	2771.719646
922.216946	2761.624735
922.521647	2751.789444
922.826310	2744.366345
923.130932	2739.874677
923.435516	2729.351268
923.740059	2721.718962
924.044564	2716.617314
924.349028	2706.736652
924.653454	2701.970241
924.957840	2696.621577
925.262186	2690.589837
925.566493	2687.187058
925.870761	2682.392920
926.174989	2679.733712
926.479178	2675.143741
926.783328	2671.405726
927.087438	2668.527227
927.391509	2667.750889
927.695541	2662.979437
927.999533	2659.735454
928.303486	2657.318221
928.607400	2657.913077
928.911275	2656.630104
929.215110	2653.398724
929.518906	2656.985505
929.822663	2653.146666
930.126381	2653.305463
930.430060	2653.393683
930.733699	2655.510967
931.037299	2658.543222
931.340861	2659.165804
931.644383	2657.910557
931.947866	2657.590443
932.251309	2654.815288
932.554714	2656.468787
932.858080	2653.827222
933.161407	2653.491985
933.464694	2651.145328
933.767943	2646.368835
934.071153	2649.335554
934.374323	2649.421254
934.677455	2648.702889
934.980548	2645.877322
935.283602	2646.207518
935.586617	2648.042498
935.889593	2649.053249
936.192530	2648.380255
936.495428	2647.422436
936.798287	2651.488127
937.101108	2652.945020
937.403890	2657.776966
937.706632	2659.637152
938.009336	2666.810714
938.312002	2674.730367
938.614628	2683.960719
938.917216	2689.390042
939.219765	2692.233253
939.522275	2692.079497
939.824747	2688.031451
940.127179	2687.746626
940.429573	2680.958712
940.731929	2678.770851
941.034246	2675.990655
941.336524	2673.031498
941.638763	2671.297341
941.940964	2668.653256
942.243126	2669.114521
942.545250	2665.550425
942.847335	2663.271824
943.149381	2658.255876
943.451389	2653.960813
943.753359	2654.774959
944.055290	2651.026861
944.357182	2649.511994
944.659036	2651.316728
944.960851	2650.915956
945.262628	2648.143321
945.564367	2648.279432
945.866067	2649.312869
946.167729	2650.242962
946.469352	2651.170534
946.770937	2647.462765
947.072484	2649.000317
947.373992	2647.457724
947.675462	2645.521921
947.976893	2641.461272
948.278286	2641.481436
948.579641	2641.899852
948.880958	2639.028915
949.182236	2642.320788
949.483476	2637.297279
949.784678	2641.544451
950.085841	2639.013792
950.386967	2640.810963
950.688054	2639.391878
950.989103	2642.161992
951.290114	2641.579739
951.591087	2643.308855
951.892021	2645.897487
952.192917	2649.607776
952.493776	2652.917294
952.794596	2653.978457
953.095378	2651.110040
953.396122	2649.549803
953.696828	2651.236069
953.997496	2648.453352
954.298126	2646.101654
954.598718	2645.221972
954.899272	2639.066724
955.199788	2637.352731
955.500266	2635.255611
955.800706	2632.603964
956.101108	2631.089098
956.401472	2632.056999
956.701798	2629.400311
957.002087	2623.572737
957.302337	2624.555762
957.602550	2623.368571
957.902724	2623.902933
958.202861	2621.929321
958.502960	2619.897736
958.803022	2621.200874
959.103045	2618.566872
959.403031	2619.176851
959.702979	2616.898250
960.002889	2617.604011
960.302762	2616.767180
960.602596	2616.338682
960.902393	2617.578805
961.202153	2616.449587
961.501875	2616.565533
961.801559	2614.929679
962.101205	2613.087137
962.400814	2616.726850
962.700385	2615.297683
962.999918	2610.468258
963.299414	2610.150665
963.598873	2610.576643
963.898293	2607.057917
964.197677	2614.743156
964.497022	2614.168465
964.796331	2613.293825
965.095601	2612.681324
965.394835	2612.275512
965.694030	2614.297014
965.993189	2611.045470
966.292309	2609.989348
966.591393	2612.094030
966.890439	2612.215018
967.189447	2611.650408
967.488419	2610.057404
967.787353	2612.492281
968.086249	2609.941457
968.385108	2611.158896
968.683930	2610.964812
968.982714	2612.194853
969.281462	2611.282404
969.580172	2611.899946
969.878844	2612.252826
970.177480	2614.390276
970.476078	2611.849534
970.774639	2611.378186
971.073162	2613.321551
971.371649	2613.465224
971.670098	2612.814915
971.968510	2614.107971
972.266885	2611.695779
972.565223	2613.654267
972.863524	2611.088320
973.161788	2610.874071
973.460014	2611.070676
973.758204	2611.032867
974.056356	2613.470265
974.354471	2612.522528
974.652550	2612.139400
974.950591	2613.311469
975.248595	2613.379524
975.546563	2610.405243
975.844493	2614.667539
976.142386	2612.197374
976.440243	2609.959101
976.738062	2609.656632
977.035845	2608.781992
977.333590	2611.012702
977.631299	2609.931375
977.928971	2606.299224
978.226606	2605.374172
978.524204	2604.507093
978.821765	2608.671087
979.119290	2608.421549
979.416777	2607.501539
979.714228	2608.746704
980.011642	2608.739142
980.309020	2609.825511
980.606360	2607.289810
980.903664	2607.436004
981.200931	2612.283073
981.498162	2610.296859
981.795356	2612.356170
982.092513	2614.665018
982.389633	2617.205760
982.686717	2618.372787
982.983764	2622.224229
983.280775	2627.121710
983.577749	2626.912502
983.874686	2628.376957
984.171587	2623.262706
984.468451	2623.343365
984.765279	2618.261882
985.062070	2617.377159
985.358824	2615.620317
985.655543	2615.579988
985.952224	2611.277363
986.248869	2609.936416
986.545478	2609.825511
986.842050	2609.386930
987.138586	2611.247116
987.435086	2606.460541
987.731549	2609.913731
988.027975	2608.895418
988.324366	2608.933227
988.620719	2607.136055
988.917037	2606.531117
989.213318	2605.109511
989.509563	2604.771754
989.805772	2607.052876
990.101944	2605.752258
990.398080	2607.226796
990.694180	2604.746548
990.990244	2606.115222
991.286271	2604.731425
991.582262	2605.664038
991.878217	2608.691251
992.174136	2610.339708
992.470019	2605.590942
992.765865	2602.296548
993.061676	2601.132041
993.357450	2604.648246
993.653188	2602.974583
993.948890	2607.030191
994.244556	2606.546240
994.540186	2604.958277
994.835780	2608.517331
995.131337	2610.042280
995.426859	2610.445573
995.722345	2610.609410
996.017795	2609.956581
996.313208	2610.170830
996.608586	2609.444904
996.903928	2609.044132
997.199234	2610.826180
997.494504	2612.260388
997.789738	2609.099585
998.084936	2611.544544
998.380099	2609.669235
998.675225	2611.335336
998.970316	2606.747886
999.265371	2608.708895
999.560390	2606.793257
999.855373	2605.742176
1000.150320	2607.015067
1000.445232	2606.231168
1000.740108	2604.887701
1001.034948	2604.202104
1001.329752	2606.891559
1001.624521	2606.702516
1001.919254	2604.958277
1002.213951	2605.837958
1002.508613	2605.459872
1002.803239	2604.106322
1003.097829	2603.433328
1003.392384	2605.177567
1003.686903	2604.451641
1003.981386	2605.548092
1004.275834	2605.999275
1004.570246	2604.071034
1004.864623	2604.935592
1005.158964	2605.936261
1005.453270	2604.605396
1005.747540	2601.540374
1006.041775	2602.863677
1006.335974	2603.476177
1006.630138	2603.060282
1006.924266	2601.600868
1007.218359	2603.254367
1007.512416	2601.618512
1007.806438	2601.573142
1008.100425	2601.184973
1008.394376	2599.501228
1008.688292	2605.752258
1008.982172	2603.123297
1009.276017	2602.783019
1009.569827	2602.415015
1009.863602	2602.420056
1010.157341	2604.857454
1010.451045	2602.115066
1010.744714	2605.112032
1011.038347	2604.585231
1011.331945	2605.220417
1011.625508	2603.163626
1011.919036	2603.685385
1012.212528	2605.386775
1012.505986	2604.731425
1012.799408	2604.355859
1013.092795	2604.580190
1013.386147	2604.464244
1013.679464	2603.564398
1013.972745	2603.145982
1014.265992	2604.151692
1014.559204	2603.214037
1014.852380	2602.571290
1015.145521	2602.722525
1015.438628	2605.270828
1015.731699	2602.762854
1016.024736	2602.989706
1016.317737	2600.088522
1016.610703	2602.689757
1016.903635	2601.626074
1017.196531	2600.156578
1017.489393	2605.661518
1017.782219	2601.895776
1018.075011	2604.207145
1018.367768	2603.561877
1018.660490	2602.072216
1018.953177	2602.072216
1019.245829	2602.072216
