Dividing Wavelength (nm)	Counts (n)	Blue Motor Position (mm): 40.600000	Red Motor Position (mm): 0.000000	
326.493990	2050.121323
326.888308	2050.121323
327.282561	2050.121323
327.676750	2024.386232
328.070874	2028.376306
328.464933	2031.390916
328.858929	2040.485157
329.252859	2050.665767
329.646726	2063.719835
330.040528	2084.660788
330.434265	2096.699064
330.827938	2121.839298
331.221547	2143.377628
331.615091	2161.389670
332.008571	2180.566220
332.401986	2200.219158
332.795338	2222.516181
333.188625	2244.019223
333.581847	2258.104207
333.975006	2278.568771
334.368100	2296.802624
334.761129	2311.099337
335.154095	2330.291009
335.546996	2379.291025
335.939833	2490.798827
336.332606	2498.027842
336.725315	2515.477796
337.117960	2520.118178
337.510540	2530.636546
337.903056	2537.850437
338.295508	2549.538352
338.687896	2556.590926
339.080220	2558.151163
339.472480	2560.981771
339.864676	2570.315467
340.256807	2571.520303
340.648875	2572.533575
341.040879	2572.977197
341.432818	2572.876374
341.824694	2577.279822
342.216506	2575.528021
342.608253	2575.575912
342.999937	2573.834193
343.391557	2575.013823
343.783113	2571.265725
344.174605	2567.409242
344.566033	2568.571228
344.957397	2568.490570
345.348697	2564.797925
345.739934	2561.450598
346.131106	2561.816082
346.522215	2562.605023
346.913260	2558.718293
347.304241	2560.379353
347.695159	2553.258723
348.086012	2556.096893
348.476802	2552.202602
348.867528	2546.352343
349.258191	2547.363094
349.648789	2547.723537
350.039324	2541.049049
350.429796	2548.925852
350.820203	2546.054915
351.210548	2546.299411
351.600828	2544.968546
351.991045	2544.310675
352.381198	2542.062321
352.771288	2543.814122
353.161314	2539.178781
353.551276	2542.165664
353.941175	2542.551313
354.331010	2539.786240
354.720782	2546.271684
355.110490	2548.772097
355.500135	2543.120963
355.889717	2544.507280
356.279235	2544.507280
356.668689	2545.071890
357.058080	2544.789585
357.447408	2544.976108
357.836672	2544.277908
358.225873	2547.529452
358.615010	2545.268495
359.004084	2547.869730
359.393095	2547.748742
359.782043	2550.312169
360.170927	2548.429298
360.559748	2549.931562
360.948505	2546.087682
361.337199	2552.079093
361.725830	2552.593291
362.114398	2551.285112
362.502903	2550.276881
362.891344	2552.313507
363.279722	2552.212684
363.668037	2554.645041
364.056289	2554.259393
364.444478	2552.442057
364.832603	2555.733930
365.220665	2554.932387
365.608665	2558.713252
365.996601	2557.881462
366.384474	2555.807027
366.772284	2555.171841
367.160031	2557.533622
367.547715	2557.344579
367.935336	2557.621842
368.322893	2558.499003
368.710388	2554.710576
369.097820	2555.885165
369.485189	2555.219732
369.872495	2560.744837
370.259738	2558.874569
370.646918	2561.818603
371.034035	2561.871535
371.421090	2558.136040
371.808081	2561.027142
372.195010	2561.322049
372.581875	2562.146278
372.968678	2562.915054
373.355418	2564.238357
373.742096	2560.278530
374.128710	2564.727348
374.515262	2565.967472
374.901751	2564.981927
375.288177	2567.457133
375.674540	2568.145251
376.060841	2569.284552
376.447079	2568.724983
376.833254	2567.315981
377.219367	2567.245405
377.605417	2570.088616
377.991404	2565.954869
378.377329	2569.400498
378.763191	2568.120045
379.148991	2569.622309
379.534727	2571.772361
379.920402	2572.422670
380.306013	2568.740107
380.691563	2571.790005
381.077049	2569.524006
381.462474	2571.575756
381.847835	2574.570201
382.233134	2574.035839
382.618371	2573.758576
383.003545	2575.404512
383.388657	2575.782599
383.773706	2575.825449
384.158693	2576.553895
384.543618	2578.703947
384.928480	2576.949626
385.313280	2577.332754
385.698017	2575.538103
386.082692	2577.357959
386.467305	2579.850810
386.851856	2579.576067
387.236344	2578.829976
387.620770	2577.836869
388.005133	2578.789647
388.389435	2579.278639
388.773674	2579.321489
389.157851	2584.168558
389.541965	2586.242993
389.926018	2589.048395
390.310008	2588.035123
390.693936	2591.016966
391.077802	2592.776328
391.461606	2595.884200
391.845348	2595.455702
392.229027	2600.091043
392.612645	2602.949377
392.996200	2607.055397
393.379694	2610.385079
393.763125	2618.675256
394.146494	2623.865124
394.529801	2628.467698
394.913047	2637.418266
395.296230	2641.922537
395.679351	2651.858652
396.062410	2662.482883
396.445408	2669.916065
396.828343	2682.866789
397.211217	2697.569314
397.594028	2701.488811
397.976778	2719.826008
398.359466	2734.163050
398.742092	2745.135121
399.124656	2761.962493
399.507158	2783.037036
399.889598	2799.070426
400.271977	2823.744354
400.654294	2838.890500
401.036549	2866.891589
401.418742	2884.270967
401.800874	2917.124167
402.182944	2940.966304
402.564952	2981.209835
402.946898	3000.333452
403.328783	3022.348171
403.710606	3056.864952
404.092367	3101.499328
404.474067	3142.630102
404.855705	3164.100376
405.237282	3178.331553
405.618797	3239.516038
406.000250	3295.840850
406.381642	3351.790096
406.762972	3379.695403
407.144240	3389.863410
407.525447	3448.292904
407.906593	3483.144921
408.287677	3550.640930
408.668700	3594.521653
409.049661	3648.144407
409.430560	3696.554607
409.811399	3723.297928
410.192176	3776.862708
410.572891	3848.865509
410.953545	3941.716001
411.334138	3912.792381
411.714669	4009.837113
412.095139	3991.935976
412.475547	4087.226386
412.855894	4123.537817
413.236180	4217.635995
413.616405	4201.721072
413.996568	4304.026248
414.376670	4340.453626
414.756711	4356.723950
415.136691	4439.285447
415.516609	4533.479407
415.896466	4593.075928
416.276262	4681.754865
416.655997	4794.187719
417.035670	4891.981063
417.415283	5022.398233
417.794834	5097.939924
418.174324	5089.085137
418.553753	5120.151248
418.933121	5275.262510
419.312428	5311.757943
419.691674	5279.988592
420.070859	5485.917206
420.449983	5410.025155
420.829045	5596.709165
421.208047	5553.791301
421.586988	5714.992278
421.965867	5792.230317
422.344686	5883.888576
422.723444	6050.957455
423.102141	5736.765021
423.480777	6090.288538
423.859352	5945.279747
424.237866	6289.870339
424.616319	6296.023067
424.994712	6454.022911
425.373044	6395.041411
425.751314	6687.476225
426.129524	6449.402694
426.507673	6704.724533
426.885762	6754.198417
427.263789	6795.127545
427.641756	6894.438276
428.019662	6959.073430
428.397508	7002.419791
428.775292	7010.440267
429.153016	7157.480642
429.530679	7115.079497
429.908282	7169.168557
430.285824	7117.831967
430.663305	7370.587859
431.040726	7281.500589
431.418086	7282.579396
431.795385	7418.965292
432.172624	7605.392203
432.549802	7482.609860
432.926920	7618.105993
433.303977	7576.839107
433.680974	7624.752754
434.057910	7814.466497
434.434786	7861.858384
434.811601	7825.236922
435.188355	8158.963827
435.565050	8055.035399
435.941683	8059.383395
436.318257	8377.270994
436.694770	8323.499527
437.071222	8538.293010
437.447614	8313.903691
437.823946	8293.514744
438.200218	8431.690250
438.576429	8327.663520
438.952580	8479.908887
439.328670	8496.829520
439.704700	8569.414573
440.080670	8470.365983
440.456580	8721.037357
440.832429	8704.270480
441.208218	8451.711193
441.583947	8566.891476
441.959616	8668.201024
442.335224	8711.761634
442.710773	8787.610835
443.086261	8963.940314
443.461689	8703.446251
443.837057	8853.133232
444.212365	9057.703255
444.587612	9051.421978
444.962800	8947.995145
445.337927	9079.682686
445.712995	8639.579873
446.088002	9283.557030
446.462949	9338.125000
446.837837	9350.153193
447.212664	9406.735104
447.587431	10309.147012
447.962139	11269.804413
448.336786	12029.584435
448.711374	11624.021088
449.085901	10487.853396
449.460369	10468.523091
449.834776	10388.832531
450.209124	11309.596761
450.583412	11078.850546
450.957640	11280.542071
451.331808	10876.722962
451.705917	10391.181709
452.079965	10315.503908
452.453954	10516.529999
452.827883	10472.714811
453.201752	10431.742833
453.575562	10462.193923
453.949311	10807.170163
454.323001	10888.703264
454.696632	10810.499845
455.070202	11396.297045
455.443713	11445.917123
455.817164	11599.014444
456.190556	11906.812175
456.563888	11743.929973
456.937160	11960.727315
457.310373	11464.201387
457.683526	11503.729075
458.056619	11541.958665
458.429653	11621.790377
458.802628	11798.059363
459.175542	11854.152282
459.548398	12403.774162
459.921194	12981.399652
460.293930	13294.682158
460.666607	14125.118993
461.039224	14851.539179
461.411782	15114.730260
461.784280	14726.024531
462.156719	14650.510567
462.529099	14551.658581
462.901419	13980.362260
463.273680	13630.344866
463.645882	13861.272562
464.018024	13815.440912
464.390106	14220.180031
464.762130	15375.584766
465.134094	17030.217487
465.505999	19293.602302
465.877845	21306.466978
466.249631	22208.808310
466.621358	21594.531111
466.993026	20766.219123
467.364634	20080.236552
467.736184	19366.903200
468.107674	18824.273400
468.479105	18683.751237
468.850477	18415.841636
469.221790	17993.544178
469.593043	17365.943210
469.964238	17018.471598
470.335373	17121.530427
470.706449	17991.192480
471.077467	19125.472260
471.448425	21461.943724
471.819324	22950.735087
472.190164	22433.895830
472.560945	20762.097980
472.931667	19361.524289
473.302330	19113.411299
473.672934	18666.757507
474.043479	19101.612479
474.413965	18914.121885
474.784393	18749.074508
475.154761	19371.871257
475.525070	19511.917032
475.895321	19357.806438
476.265513	19870.164109
476.635645	20453.523912
477.005719	20518.577481
477.375734	20897.243752
477.745691	21499.306236
478.115588	22162.563286
478.485427	23412.867742
478.855207	25291.025225
479.224928	26990.554462
479.594591	28187.158027
479.964194	27666.835333
480.333739	28032.495427
480.703226	28333.913577
481.072653	28842.608850
481.442022	29328.941564
481.811333	29628.247471
482.180584	29137.017276
482.549777	28927.423743
482.918912	28733.054495
483.287988	28681.465847
483.657005	28501.191665
484.025964	28169.456015
484.394864	28365.811478
484.763706	28304.369895
485.132489	27814.102560
485.501213	27888.000834
485.869879	28076.867663
486.238487	28043.802735
486.607036	28307.603795
486.975527	28025.105095
487.343959	28359.668832
487.712333	28691.903556
488.080648	28660.416509
488.448905	29091.903990
488.817104	29029.512149
489.185244	29925.378120
489.553326	31077.062484
489.921350	32994.288909
490.289315	35389.928395
490.657222	36056.394140
491.025070	36458.421118
491.392861	36084.354899
491.760593	35279.882527
492.128267	34297.396931
492.495883	33361.577296
492.863440	32526.421941
493.230939	31651.975833
493.598380	31141.516156
493.965763	31011.751815
494.333088	30573.524311
494.700354	30392.438503
495.067563	30364.951612
495.434713	30297.150613
495.801805	30586.926219
496.168839	30442.519846
496.535815	30319.094756
496.902733	30464.521962
497.269593	30287.247267
497.636395	30449.136361
498.003139	30751.315725
498.369825	30526.833144
498.736453	30928.958425
499.103023	30773.585022
499.469535	30883.179707
499.835989	31030.078930
500.202385	30890.156664
500.568723	30981.076394
500.935003	31304.771403
501.301226	31208.059387
501.667390	31898.926836
502.033497	32105.077261
502.399546	31901.039080
502.765537	31524.893386
503.131470	31984.891112
503.497345	32421.573503
503.863163	31418.154515
504.228923	32193.559593
504.594625	32587.772783
504.960269	32105.944340
505.325856	32762.015225
505.691385	32456.642289
506.056856	32776.516104
506.422270	33290.948210
506.787625	32811.378203
507.152924	33287.941161
507.518164	33487.601101
507.883347	33063.405648
508.248472	33229.194075
508.613540	33908.179525
508.978550	34160.708565
509.343503	34020.405692
509.708398	34374.748396
510.073236	34987.762786
510.438016	35104.606649
510.802738	34797.567613
511.167403	35369.960385
511.532010	35619.522706
511.896561	36103.647395
512.261053	36848.918977
512.625488	36654.922774
512.989866	36591.719308
513.354186	36651.285582
513.718449	36617.156970
514.082655	37505.572115
514.446803	37221.258600
514.810894	37857.043882
515.174927	37863.340283
515.538904	37868.837661
515.902822	38512.242647
516.266684	38218.194664
516.630488	38571.844209
516.994235	38599.530226
517.357925	39174.748565
517.721558	39449.166295
518.085133	39831.414306
518.448651	40036.143126
518.812112	39914.457234
519.175516	40087.983831
519.538863	40511.879335
519.902152	40594.317324
520.265385	41133.612400
520.628560	41168.378718
520.991678	41117.624381
521.354739	41350.412263
521.717743	41726.857906
522.080690	41635.618062
522.443580	42323.975017
522.806413	42338.135618
523.169189	42493.012467
523.531908	42704.015002
523.894569	42571.057090
524.257174	42780.368319
524.619722	43123.282727
524.982213	43269.811425
525.344647	43303.501456
525.707025	43431.662710
526.069345	43868.854257
526.431608	43787.172441
526.793815	44175.991596
527.155964	43719.275661
527.518057	43978.489271
527.880093	43849.549158
528.242072	44468.227285
528.603995	44212.754211
528.965860	44119.729799
529.327669	44347.494171
529.689421	44411.975570
530.051117	44351.310324
530.412755	44656.920194
530.774337	44709.184356
531.135862	44656.970605
531.497331	44807.209593
531.858743	44803.380837
532.220098	45206.637856
532.581396	44931.995795
532.942638	44695.449733
533.303824	44946.854596
533.664953	45012.792888
534.026025	44683.580336
534.387040	45249.021357
534.747999	45341.072826
535.108902	45648.855433
535.469748	44973.882742
535.830537	45221.305093
536.191270	45476.715153
536.551947	45212.906531
536.912567	45501.494945
537.273131	45647.922820
537.633638	45274.396005
537.994089	45474.071068
538.354483	45222.366256
538.714821	45865.650254
539.075103	46146.001423
539.435328	46004.897006
539.795497	45762.926663
540.155609	45892.738895
540.515665	46460.143445
540.875665	45774.715401
541.235609	46056.543627
541.595496	46181.896959
541.955328	46749.551046
542.315102	46182.136413
542.674821	46070.681543
543.034483	45980.167626
543.394090	45973.823334
543.753640	45964.535008
544.113134	47034.676187
544.472571	46125.678011
544.831953	47272.474976
545.191278	46519.072013
545.550548	46204.042747
545.909761	46873.661733
546.268918	47006.110489
546.628019	47436.826674
546.987064	46858.906276
547.346053	46144.738614
547.704986	47045.509627
548.063863	46710.323308
548.422684	46905.985612
548.781449	46501.526277
549.140158	47032.919345
549.498811	46799.269426
549.857408	46185.859306
550.215949	47041.348154
550.574434	46876.885551
550.932864	46788.806511
551.291237	47524.159623
551.649555	47279.262890
552.007817	47452.461812
552.366022	47124.418808
552.724173	47182.293775
553.082267	47609.418137
553.440305	47958.286148
553.798288	47200.094089
554.156215	47605.559134
554.514086	47799.323444
554.871902	47432.458514
555.229661	47581.454857
555.587365	47261.535672
555.945014	47403.975995
556.302606	47416.687264
556.660143	47535.497178
557.017625	47741.418230
557.375050	47453.303685
557.732421	47858.758648
558.089735	47917.447761
558.446994	47794.642732
558.804197	48281.474521
559.161345	48141.799272
559.518437	47468.273391
559.875474	47731.441787
560.232455	47958.026529
560.589381	48029.258032
560.946251	47820.229109
561.303065	48482.994646
561.659825	48177.979633
562.016528	47992.543309
562.373177	47565.837362
562.729770	48194.103763
563.086307	47719.348059
563.442789	48257.450902
563.799216	48120.681878
564.155587	47997.715533
564.511904	47957.242629
564.868164	48016.539201
565.224370	48326.449175
565.580520	48058.032939
565.936615	48266.988766
566.292654	47901.026202
566.648638	48282.523081
567.004567	48209.118840
567.360441	48310.945107
567.716260	48028.774082
568.072023	48397.287469
568.427732	48332.087706
568.783385	47857.667238
569.138982	48287.899472
569.494525	48394.529958
569.850013	47993.198659
570.205445	48131.893404
570.560823	47900.179288
570.916145	47776.552552
571.271412	48012.622225
571.626625	47663.159358
571.981782	47737.700379
572.336884	47324.192173
572.691931	47666.350408
573.046923	47312.025348
573.401860	47170.905808
573.756743	47169.890016
574.111570	47334.705500
574.466342	47243.931963
574.821059	47372.829226
575.175722	46882.219092
575.530330	46983.142992
575.884882	46623.849875
576.239380	46516.571601
576.593823	46611.234388
576.948211	46542.709983
577.302544	46078.190342
577.656823	46077.063644
578.011047	46346.067175
578.365216	46169.649475
578.719330	45872.914557
579.073389	45850.506628
579.427394	45909.505772
579.781344	45848.074272
580.135239	45597.518843
580.489080	45659.514953
580.842866	45145.730635
581.196597	45640.282951
581.550273	45617.771679
581.903895	45569.384163
582.257463	45997.458783
582.610975	45413.307520
582.964434	45758.918945
583.317837	45259.015445
583.671186	45236.894862
584.024481	45507.340163
584.377721	45051.629937
584.730906	45258.196257
585.084037	45369.273041
585.437113	45093.640393
585.790135	45205.601899
586.143103	44765.090753
586.496016	44927.587306
586.848874	45036.589655
587.201679	45053.391820
587.554428	44556.462601
587.907124	44823.522767
588.259765	44595.957520
588.612352	44771.384633
588.964884	44217.175303
589.317362	44540.608172
589.669786	44538.866453
590.022155	44385.685952
590.374470	44836.677658
590.726731	44409.059262
591.078937	43748.942851
591.431090	44097.112662
591.783188	43631.599913
592.135232	43406.151951
592.487222	43674.497612
592.839157	43826.349768
593.191038	43466.000530
593.542866	43264.266156
593.894639	42678.615149
594.246358	42986.037313
594.598022	42977.411899
594.949633	42548.984398
595.301190	42531.932695
595.652692	42463.108342
596.004141	42950.277888
596.355535	41847.190248
596.706876	41873.368960
597.058162	41591.094591
597.409395	42087.222268
597.760573	42297.771099
598.111698	41895.313102
598.462768	41813.984168
598.813785	41847.777542
599.164748	41439.602877
599.515657	41725.098543
599.866511	41214.535522
600.217312	41905.690318
600.568060	40843.403256
600.918753	41671.649709
601.269392	41592.591814
601.619978	41302.919552
601.970510	41520.546164
602.320988	41662.527741
602.671412	41935.349946
603.021783	41791.399798
603.372100	41360.081196
603.722363	41468.770993
604.072572	41508.918742
604.422728	41490.763027
604.772830	41276.370316
605.122878	41432.585591
605.472872	41297.845631
605.822813	41548.574979
606.172701	41302.397793
606.522534	41627.065745
606.872314	41826.287103
607.222041	41664.067814
607.571714	41992.758606
607.921333	41488.310506
608.270899	41704.323948
608.620411	42085.868718
608.969870	41822.261742
609.319276	41853.373223
609.668627	41871.470965
610.017926	42274.743108
610.367171	42414.274685
610.716362	42448.025210
611.065500	42336.419105
611.414585	42553.695357
611.763616	42738.962802
612.112594	42627.644042
612.461518	42757.539453
612.810389	43159.228674
613.159207	42937.027216
613.507971	42907.113009
613.856682	43403.497784
614.205340	43226.349117
614.553945	43920.725210
614.902496	43246.977519
615.250994	43665.655428
615.599439	43736.105553
615.947830	43854.365981
616.296169	43831.627857
616.644454	43868.972724
616.992686	44043.217686
617.340864	44471.478829
617.688990	44011.211401
618.037063	44691.323548
618.385082	44492.399617
618.733048	44843.521024
619.080961	44708.806270
619.428821	44731.551956
619.776628	44755.658754
620.124382	44570.247636
620.472083	44684.112178
620.819731	44785.588084
621.167326	44349.613976
621.514868	44332.960524
621.862357	43817.124457
622.209793	43888.555086
622.557176	43462.864932
622.904506	43219.909043
623.251783	42845.610932
623.599007	42549.990108
623.946179	42455.470994
624.293297	42201.290976
624.640363	41650.824703
624.987376	41494.622030
625.334336	41297.659108
625.681243	40871.043902
626.028097	40787.854782
626.374899	40593.311613
626.721647	40567.853787
627.068343	40357.234379
627.414987	40064.560110
627.761577	39821.866361
628.108115	40138.823868
628.454600	39373.009584
628.801032	39597.454356
629.147412	39493.054581
629.493739	39405.845140
629.840014	38948.448648
630.186236	39405.129296
630.532405	38834.901699
630.878521	39068.690250
631.224585	38844.432001
631.570597	38502.208231
631.916556	38661.561624
632.262462	38549.229593
632.608316	38497.225050
632.954117	38349.292390
633.299866	38307.415525
633.645562	38238.197963
633.991206	37692.845939
634.336797	37294.269631
634.682336	37179.366612
635.027823	36947.176107
635.373257	36821.084246
635.718639	36485.968503
636.063968	36387.844964
636.409245	35724.771916
636.754470	35687.485022
637.099642	35460.486905
637.444762	34887.645470
637.789829	35027.043456
638.134845	34655.480171
638.479808	34576.800362
638.824719	34520.687279
639.169577	34002.817106
639.514383	34104.837457
639.859137	33709.936150
640.203839	33882.106677
640.548489	33576.307764
640.893086	33577.915892
641.237632	33303.291475
641.582125	33403.242432
641.926566	33193.270813
642.270955	33236.370158
642.615292	33155.888136
642.959576	33037.279869
643.303809	33055.191088
643.647990	33137.424910
643.992118	33081.047166
644.336195	32921.648402
644.680219	33012.265663
645.024192	33211.880232
645.368112	33737.977568
645.711981	33757.885085
646.055797	34467.213239
646.399562	34282.404539
646.743274	35148.653731
647.086935	35553.251698
647.430544	35511.145460
647.774101	35550.106018
648.117606	35837.381211
648.461059	35993.457854
648.804460	35586.049445
649.147810	35088.560657
649.491108	34736.514198
649.834354	34600.987818
650.177548	33759.241155
650.520690	33273.760396
650.863781	33264.255300
651.206820	33078.541713
651.549807	32672.534744
651.892742	32082.969281
652.235626	31994.844871
652.578458	31864.150437
652.921238	31174.722237
653.263967	31486.726810
653.606644	31178.906394
653.949269	31083.565572
654.291843	30697.597190
654.634365	31068.971432
654.976836	30594.374523
655.319255	30655.468267
655.661622	30537.243127
656.003938	30414.738047
656.346203	30222.710415
656.688416	30471.705606
657.030577	30240.750184
657.372687	30065.340715
657.714746	30221.366947
658.056753	30404.486861
658.398708	29791.686720
658.740612	29858.514776
659.082465	30068.982949
659.424266	29954.644539
659.766016	29965.641816
660.107715	29816.605143
660.449362	29927.069427
660.790958	29910.300029
661.132503	29830.705251
661.473996	29904.409441
661.815438	29979.441974
662.156829	30103.514853
662.498168	29911.214998
662.839456	29875.591685
663.180693	30011.760812
663.521879	30103.598032
663.863013	30053.317563
664.204097	30042.169052
664.545129	30438.000452
664.886110	30375.785052
665.227040	30489.059778
665.567918	30477.697018
665.908746	30547.925332
666.249522	30647.775466
666.590248	30662.107467
666.930922	30756.586251
667.271545	30773.605187
667.612118	30817.503554
667.952639	30632.475564
668.293109	30657.646045
668.633528	30517.708656
668.973896	30488.248153
669.314213	30469.527828
669.654480	30282.254004
669.994695	30265.666087
670.334859	30192.133296
670.674973	30019.355310
671.015035	30204.957992
671.355047	30134.540634
671.695008	30078.432592
672.034918	29974.037858
672.374777	30070.270964
672.714585	29941.794637
673.054342	30077.285729
673.394049	29916.979558
673.733705	30147.284671
674.073310	29861.642812
674.412864	29923.782595
674.752368	29617.340935
675.091820	29851.200062
675.431223	29456.679362
675.770574	29243.423431
676.109875	29081.935108
676.449125	28875.951042
676.788324	28787.319995
677.127473	28302.618094
677.466571	28203.889617
677.805619	27921.035515
678.144616	27858.013531
678.483562	27814.165574
678.822458	27488.330596
679.161303	27426.523529
679.500098	27349.837497
679.838842	27271.997040
680.177535	27356.574999
680.516179	27588.561337
680.854771	27712.835862
681.193314	28466.697569
681.531805	29473.017741
681.870247	30198.898525
682.208638	30938.143407
682.546978	31216.475593
682.885268	31366.442358
683.223508	30928.718970
683.561697	30664.002940
683.899836	30504.180719
684.237925	30091.055641
684.575963	29950.866194
684.913951	29568.141794
685.251889	29734.043646
685.589776	29764.111608
685.927614	29759.909807
686.265401	29937.156776
686.603137	30049.030062
686.940824	30536.232376
687.278460	30874.241741
687.616046	31040.050332
687.953582	31702.591538
688.291068	31608.085027
688.628504	31953.222584
688.965889	31959.178707
689.303224	31701.681610
689.640510	31430.691864
689.977745	30812.364098
690.314930	30081.641286
690.652065	29647.411417
690.989150	28995.665842
691.326185	28147.269897
691.663170	27495.804106
692.000105	26758.222805
692.336990	26152.147563
692.673825	25733.610806
693.010610	25246.451342
693.347345	24741.098354
693.684030	24105.199647
694.020665	23907.946858
694.357251	23215.612433
694.693786	23223.012847
695.030272	22986.078616
695.366707	22487.269046
695.703093	22213.075647
696.039429	22275.938836
696.375716	22035.253986
696.711952	22042.941746
697.048139	21899.563769
697.384276	21733.787945
697.720363	21849.560564
698.056400	21733.803069
698.392388	21578.036456
698.728326	21593.444743
699.064214	21419.159451
699.400053	21418.085686
699.735842	21042.214734
700.071581	20840.722336
700.407270	20594.020869
700.742910	20409.423898
701.078501	20164.527164
701.414042	19962.991916
701.749533	19657.195524
702.084974	19345.916877
702.420366	19570.482636
702.755709	19159.759668
703.091002	18858.535602
703.426246	18922.260828
703.761440	18840.440380
704.096584	18612.958313
704.431679	18543.065236
704.766725	18484.802100
705.101721	18417.590916
705.436668	18539.284370
705.771565	18258.852543
706.106413	18571.913238
706.441212	18646.290422
706.775961	18748.862780
707.110661	18818.057657
707.445311	19181.187092
707.779913	19049.822185
708.114465	19332.290638
708.448967	19657.954217
708.783421	20268.979872
709.117825	20637.715070
709.452180	20867.652179
709.786485	21308.090229
710.120742	22073.165984
710.454949	22178.029546
710.789107	22682.908665
711.123216	23395.987438
711.457275	23610.977526
711.791286	24178.523229
712.125247	24341.755791
712.459159	24068.981477
712.793023	24824.980634
713.126837	23814.264576
713.460602	24082.219547
713.794318	23750.924998
714.127985	23486.271983
714.461602	22595.863062
714.795171	22576.318508
715.128691	21594.576482
715.462162	21073.787481
715.795584	20651.187554
716.128957	20386.048067
716.462281	20002.570015
716.795556	19729.667151
717.128782	19253.273072
717.461960	18640.601480
717.795088	18591.049458
718.128167	18249.097911
718.461198	17792.074465
718.794180	17666.043098
719.127113	17329.238568
719.459997	17141.362326
719.792833	16764.427692
720.125619	16801.495296
720.458357	16476.260214
720.791046	16326.139694
721.123686	16171.983730
721.456278	15948.728670
721.788821	15956.222345
722.121315	15675.591393
722.453761	15785.433094
722.786158	15672.649880
723.118506	15740.503810
723.450805	15622.326561
723.783056	15802.275589
724.115259	15689.842735
724.447412	15677.779254
724.779518	15893.487706
725.111574	15942.989316
725.443582	16207.463371
725.775542	16162.947462
726.107453	16681.843509
726.439315	16601.537928
726.771129	17008.969023
727.102895	17432.965350
727.434612	17705.908543
727.766281	17867.520373
728.097901	18200.415488
728.429473	18280.315256
728.760996	18303.093710
729.092471	18429.679603
729.423897	18327.134972
729.755276	18189.503911
730.086606	18309.231314
730.417887	18891.398884
730.749120	19437.146638
731.080305	19635.367328
731.411442	20058.431041
731.742530	20170.357259
732.073570	20332.392546
732.404562	20664.491159
732.735506	20502.090388
733.066401	20304.436828
733.397249	19820.337344
733.728048	19193.726962
734.058798	18348.968210
734.389501	17584.068895
734.720156	17057.863175
735.050762	16484.217676
735.381320	16091.403406
735.711831	15808.254397
736.042293	15434.815803
736.372707	15470.320649
736.703073	15258.899698
737.033391	15456.790193
737.363661	15446.165961
737.693883	15565.396811
738.024056	15749.691313
738.354182	15967.617873
738.684260	16328.992987
739.014290	16596.869820
739.344272	16820.722257
739.674207	17167.425092
740.004093	17353.148761
740.333931	17409.692863
740.663722	17503.851535
740.993464	17542.834778
741.323159	17394.471099
741.652806	17099.646778
741.982405	16936.010924
742.311956	16583.306596
742.641460	16480.252808
742.970915	16144.408618
743.300323	15806.457226
743.629683	15586.226859
743.958996	15273.103149
744.288260	14961.912722
744.617477	14647.211132
744.946647	14624.735147
745.275768	14303.164985
745.604842	14094.052882
745.933869	13923.321604
746.262847	13889.122416
746.591778	13801.398778
746.920662	13682.419985
747.249498	13683.894523
747.578286	13854.671171
747.907027	14018.551521
748.235720	14286.763591
748.564365	14361.539026
748.892963	14267.821455
749.221514	14378.429412
749.550017	14246.797323
749.878473	14213.329103
750.206881	13992.019928
750.535242	13910.955654
750.863555	13837.899252
751.191821	13740.700765
751.520039	13756.104010
751.848210	13678.923945
752.176334	13727.671903
752.504411	13648.969409
752.832440	13471.820742
753.160421	13582.378287
753.488356	13477.199653
753.816243	13386.441240
754.144082	13225.799832
754.471875	13172.477027
754.799620	13147.029282
755.127318	13115.058284
755.454969	13101.558074
755.782572	13071.192684
756.110129	13083.679622
756.437638	12993.788287
756.765100	12992.253256
757.092515	13022.527906
757.419882	13048.441957
757.747203	13056.366651
758.074477	13153.413903
758.401703	13138.585349
758.728882	13329.352693
759.056014	13363.350235
759.383099	13537.950598
759.710138	13663.860977
760.037129	13778.615283
760.364073	13848.868803
760.690970	13874.729922
761.017820	13893.115010
761.344623	14120.415596
761.671379	14485.816071
761.998088	15184.709037
762.324751	16933.450018
762.651366	20310.536624
762.977935	24762.518217
763.304456	27746.251150
763.630931	28854.505973
763.957359	27692.348612
764.283740	25463.778005
764.610074	23208.043141
764.936362	20585.213973
765.262602	18713.637717
765.588796	16771.402128
765.914943	15481.950591
766.241044	14362.360734
766.567097	13569.107450
766.893104	12851.189169
767.219064	12379.143084
767.544978	11898.433777
767.870845	11500.134732
768.196665	11282.646752
768.522438	11045.551205
768.848165	10841.931439
769.173846	10630.230704
769.499479	10506.450212
769.825066	10333.997380
770.150607	10108.486404
770.476101	10029.673005
770.801548	9897.251976
771.126949	9737.026462
771.452303	9635.444692
771.777611	9428.951469
772.102872	9421.669522
772.428087	9284.812277
772.753256	9121.952761
773.078378	9035.993526
773.403453	8850.809260
773.728482	8743.888908
774.053465	8664.674737
774.378401	8563.234119
774.703291	8436.350797
775.028135	8311.985532
775.352932	8278.456817
775.677683	8173.646188
776.002388	8063.360865
776.327046	8076.664470
776.651658	7982.485634
776.976224	7872.535548
777.300743	7875.834983
777.625216	7790.694936
777.949643	7740.182574
778.274024	7758.580265
778.598359	7669.127511
778.922647	7687.116868
779.246889	7634.638457
779.571086	7645.555075
779.895236	7651.506158
780.219339	7655.680233
780.543397	7655.728124
780.867409	7738.753407
781.191374	7749.763287
781.515294	7714.480251
781.839167	7810.937689
782.162995	7783.309645
782.486776	7729.512972
782.810511	7682.325252
783.134201	7599.166378
783.457844	7597.260822
783.781441	7534.921913
784.104993	7474.284394
784.428498	7450.280940
784.751958	7433.700585
785.075372	7408.194867
785.398739	7352.878286
785.722061	7395.211375
786.045337	7397.573156
786.368568	7552.838174
786.691752	7577.378511
787.014891	7917.469873
787.337983	8268.505580
787.661030	8850.637861
787.984031	9477.192790
788.306987	9883.111539
788.629897	10093.592315
788.952760	10052.660667
789.275579	9834.824847
789.598351	9438.638046
789.921078	9084.585208
790.243759	8680.236779
790.566395	8388.664002
790.888984	8135.136813
791.211529	7921.424658
791.534027	7705.171761
791.856480	7502.557705
792.178888	7423.230108
792.501249	7329.073957
792.823566	7173.077972
793.145836	7168.298958
793.468062	7140.716285
793.790241	7090.463543
794.112375	7157.684809
794.434464	7306.779455
794.756507	7344.391503
795.078505	7505.652974
795.400457	7810.184037
795.722364	8159.478025
796.044226	8447.073331
796.366042	8728.594047
796.687812	8675.692179
797.009538	8761.079242
797.331218	8655.356164
797.652852	8576.396571
797.974442	8424.042820
798.295986	8343.112136
798.617484	8144.919172
798.938938	8006.360538
799.260346	7902.802636
799.581709	7701.695885
799.903026	7625.803835
800.224299	7513.950713
800.545526	7346.775969
800.866708	7250.177379
801.187845	7181.509302
801.508936	7076.653302
801.829983	7042.315483
802.150984	6883.042748
802.471940	6838.940213
802.792851	6824.716597
803.113717	6794.184849
803.434538	6756.046000
803.755314	6702.813936
804.076045	6698.460899
804.396731	6646.524412
804.717372	6676.010121
805.037967	6672.219173
805.358518	6717.897068
805.679024	6795.384644
805.999485	6807.586757
806.319901	6846.023034
806.640272	6868.461210
806.960598	6945.016172
807.280879	6948.794517
807.601115	7024.981475
807.921306	6977.294680
808.241453	6993.197000
808.561554	7017.384456
808.881611	6977.597150
809.201623	6988.798593
809.521590	6932.375479
809.841513	6918.764364
810.161390	6959.063347
810.481223	6829.062072
810.801011	6816.630587
811.120755	6791.117307
811.440453	6714.683333
811.760107	6676.967940
812.079716	6650.322921
812.399281	6586.045689
812.718801	6577.238793
813.038276	6533.025354
813.357707	6471.520756
813.677093	6509.954513
813.996434	6416.020173
814.315731	6456.530885
814.634983	6451.651048
814.954191	6462.749148
815.273354	6566.102885
815.592473	6635.247351
815.911547	6762.400374
816.230577	6840.238310
816.549562	6988.854046
816.868502	7088.610919
817.187399	7192.650252
817.506250	7346.251689
817.825058	7376.967440
818.143821	7646.830487
818.462539	7919.667816
818.781213	8281.373125
819.099843	8829.258328
819.418429	9825.019803
819.736970	10793.246496
820.055466	11975.639048
820.373919	13513.669881
820.692327	15862.993767
821.010691	19996.190435
821.329011	28961.738877
821.647286	41958.977834
821.965517	55452.089890
822.283704	60899.515366
822.601847	62945.891111
822.919945	60312.924183
823.237999	56219.358546
823.556010	50151.223359
823.873976	43423.140640
824.191897	36859.263425
824.509775	31996.571466
824.827609	27411.745386
825.145398	24769.046511
825.463144	23355.660728
825.780845	23639.969202
826.098502	25376.482865
826.416116	29114.500962
826.733685	32732.300143
827.051210	33892.811567
827.368692	32145.887922
827.686129	28213.482932
828.003522	24104.700572
828.320872	20401.179091
828.638177	17539.164817
828.955439	15379.065682
829.272656	13554.271334
829.589830	12070.115312
829.906960	10783.146544
830.224046	9839.112348
830.541088	9076.257222
830.858086	8611.644319
831.175041	8223.031851
831.491952	8103.019622
831.808819	8145.723237
832.125642	8541.375676
832.442421	9418.826311
832.759157	11192.455469
833.075849	14105.720633
833.392497	17323.942836
833.709101	19521.147384
834.025662	19386.246107
834.342179	17720.593424
834.658653	15533.481266
834.975083	13608.050363
835.291469	11988.589772
835.607811	10658.695579
835.924110	9743.458975
836.240366	8872.085450
836.556578	8061.604023
836.872746	7414.634941
837.188871	6910.428816
837.504952	6487.246636
837.820990	6170.891547
838.136984	5950.736796
838.452935	5854.022260
838.768842	5882.701384
839.084706	6296.265043
839.400526	7496.684761
839.716303	9074.581038
840.032037	10181.492394
840.347727	10125.901070
840.663373	9165.377260
840.978977	8120.635934
841.294537	7299.678989
841.610054	6703.950716
841.925527	6262.827069
842.240957	5897.938272
842.556344	5565.993414
842.871687	5279.981030
843.186987	4994.026619
843.502244	4770.201909
843.817458	4601.366105
844.132629	4459.286225
844.447756	4369.097462
844.762840	4289.391779
845.077881	4214.376889
845.392879	4150.462620
845.707833	4104.383953
846.022745	4057.113054
846.337613	4031.292264
846.652438	3986.057990
846.967221	3967.861945
847.281960	3932.178138
847.596656	3916.643822
847.911309	3894.399731
848.225919	3868.450392
848.540485	3853.354656
848.855009	3842.526258
849.169490	3824.196622
849.483928	3807.303716
849.798323	3800.861121
850.112675	3781.765231
850.426984	3785.089872
850.741251	3772.164353
851.055474	3770.233591
851.369654	3772.991102
851.683792	3768.411214
851.997887	3775.577214
852.311938	3774.528654
852.625947	3782.334881
852.939914	3765.111779
853.253837	3777.066875
853.567718	3775.592338
853.881555	3765.426851
854.195350	3781.233389
854.509103	3777.061834
854.822812	3774.707615
855.136479	3766.369547
855.450103	3773.895989
855.763685	3762.056840
856.077224	3765.870473
856.390720	3780.063841
856.704173	3801.392963
857.017584	3813.511897
857.330953	3827.659895
857.644278	3844.698995
857.957561	3857.664843
858.270802	3851.703678
858.584000	3857.004452
858.897155	3844.328470
859.210268	3833.691636
859.523339	3813.567350
859.836367	3811.051814
860.149352	3804.062254
860.462295	3796.092190
860.775195	3785.122639
861.088054	3781.709778
861.400869	3776.834982
861.713642	3778.324643
862.026373	3791.585398
862.339062	3790.201602
862.651708	3812.042401
862.964312	3851.965818
863.276873	3859.933362
863.589392	3918.791354
863.901869	3959.924649
864.214303	4006.207482
864.526696	4042.155950
864.839045	4086.361828
865.151353	4114.249491
865.463619	4124.500678
865.775842	4129.660299
866.088023	4149.802229
866.400162	4138.552894
866.712258	4147.810973
867.024313	4147.379954
867.336325	4149.230058
867.648296	4156.388496
867.960224	4151.062517
868.272110	4162.016945
868.583954	4169.792924
868.895755	4182.615099
869.207515	4175.645704
869.519233	4219.135738
869.830909	4231.042944
870.142542	4258.789454
870.454134	4274.517854
870.765684	4304.890806
871.077191	4340.428420
871.388657	4360.827449
871.700081	4400.261875
872.011463	4443.303247
872.322803	4480.696006
872.634101	4510.718597
872.945357	4550.394999
873.256571	4605.081436
873.567744	4639.290706
873.878874	4653.723529
874.189963	4691.499415
874.501010	4701.301939
874.812015	4700.722206
875.122979	4740.144029
875.433900	4740.600254
875.744780	4755.567440
876.055618	4781.365544
876.366415	4782.734218
876.677169	4802.976971
876.987882	4848.697716
877.298554	4901.226539
877.609183	4988.176360
877.919771	5093.201239
878.230317	5242.351337
878.540822	5457.651456
878.851285	5783.428462
879.161707	6241.311425
879.472087	7002.802919
879.782425	8239.511383
880.092722	10425.333006
880.402977	13747.541611
880.713191	17527.214762
881.023363	21290.957868
881.333494	23544.240211
881.643583	24786.748523
881.953631	24796.914010
882.263637	23968.632268
882.573602	22485.892811
882.883526	20940.932912
883.193408	19254.193082
883.503248	17542.360909
883.813048	15991.419681
884.122806	14537.266087
884.432522	13061.319584
884.742197	11767.507450
885.051831	10669.314770
885.361424	9651.493205
885.670975	8820.131319
885.980485	8114.624358
886.289954	7528.043259
886.599382	7054.683954
886.908768	6662.651063
887.218113	6297.185053
887.527417	6006.174365
887.836680	5734.012551
888.145901	5513.411659
888.455082	5342.100648
888.764221	5194.833421
889.073319	5058.316454
889.382376	4986.792564
889.691392	4925.678656
890.000366	4893.979880
890.309300	4881.102253
890.618193	4879.597468
890.927044	4866.936610
891.235855	4885.170464
891.544625	4920.574487
891.853353	4983.583869
892.162041	5100.735243
892.470687	5286.809273
892.779293	5537.379825
893.087858	5909.301032
893.396381	6491.766030
893.704864	7292.079450
894.013306	8445.560985
894.321707	9621.642013
894.630068	10443.856726
894.938387	10655.547378
895.246665	10423.697151
895.554903	9824.550976
895.863100	9132.256880
896.171256	8569.464985
896.479371	8061.135196
896.787446	7564.831079
897.095480	7129.933257
897.403473	6811.591953
897.711425	6485.618343
898.019336	6222.820472
898.327207	5945.846877
898.635038	5711.254262
898.942827	5465.452642
899.250576	5270.057519
899.558284	5076.013425
899.865952	4954.446000
900.173579	4805.404287
900.481165	4695.960837
900.788711	4600.642700
901.096216	4527.833315
901.403681	4467.009273
901.711105	4437.223615
902.018489	4424.698869
902.325832	4490.483406
902.633135	4612.131489
902.940397	4956.795178
903.247619	5752.884111
903.554800	7186.568100
903.861941	9109.304506
904.169041	10654.627368
904.476101	11303.605349
904.783121	10968.106479
905.090100	10229.320341
905.397039	9388.299604
905.703938	8636.459399
906.010796	7927.857170
906.317614	7372.354784
906.624391	6831.363359
906.931129	6402.043574
907.237826	5998.332850
907.544483	5613.879335
907.851099	5240.097942
908.157675	4879.743662
908.464211	4549.550605
908.770707	4314.363134
909.077163	4108.800004
909.383578	3965.764825
909.689954	3844.704036
909.996289	3771.393057
910.302584	3707.113304
910.608839	3676.720187
910.915054	3640.557470
911.221229	3625.847383
911.527363	3634.971872
911.833458	3653.258657
912.139513	3680.349818
912.445527	3710.826114
912.751502	3791.713948
913.057436	3895.488620
913.363331	4031.950134
913.669186	4237.903954
913.975000	4496.845342
914.280775	4921.250002
914.586510	5503.392366
914.892205	6307.559748
915.197859	7345.687080
915.503475	8567.962721
915.809050	9630.090987
916.114585	10288.178333
916.420081	10552.899404
916.725536	10524.837821
917.030952	10085.902035
917.336328	9676.492287
917.641665	9266.001212
917.946961	8784.591184
918.252218	8367.259263
918.557435	7850.546035
918.862612	7412.847852
919.167750	7037.717950
919.472848	6607.158042
919.777906	6231.448407
920.082925	5870.043047
920.387904	5503.762891
920.692843	5235.412189
920.997743	4983.830886
921.302603	4748.189711
921.607423	4581.458589
921.912204	4414.573711
922.216946	4296.426709
922.521647	4175.544881
922.826310	4067.339034
923.130932	3970.188438
923.435516	3873.942729
923.740059	3800.535967
924.044564	3724.472517
924.349028	3663.703928
924.653454	3600.263528
924.957840	3527.597815
925.262186	3482.867657
925.566493	3420.558996
925.870761	3363.268803
926.174989	3325.505519
926.479178	3287.825415
926.783328	3246.601379
927.087438	3216.314127
927.391509	3183.150897
927.695541	3151.903304
927.999533	3123.433388
928.303486	3102.658793
928.607400	3088.533480
928.911275	3075.280287
929.215110	3053.189950
929.518906	3047.311965
929.822663	3045.759290
930.126381	3041.307951
930.430060	3048.657953
930.733699	3053.144580
931.037299	3061.767474
931.340861	3059.367884
931.644383	3065.976837
931.947866	3065.853329
932.251309	3061.691856
932.554714	3062.422824
932.858080	3055.052657
933.161407	3046.515463
933.464694	3038.000954
933.767943	3030.242618
934.071153	3028.044675
934.374323	3018.158972
934.677455	3012.137314
934.980548	3003.489215
935.283602	2999.368071
935.586617	2999.632732
935.889593	3005.188083
936.192530	3011.066069
936.495428	3026.209695
936.798287	3044.705688
937.101108	3073.747776
937.403890	3127.552011
937.706632	3187.635003
938.009336	3267.471756
938.312002	3340.921368
938.614628	3405.725401
938.917216	3455.221970
939.219765	3488.730519
939.522275	3522.292001
939.824747	3528.457332
940.127179	3528.341386
940.429573	3523.491796
940.731929	3519.753780
941.034246	3505.325998
941.336524	3494.837877
941.638763	3478.421360
941.940964	3468.003815
942.243126	3422.109151
942.545250	3399.975965
942.847335	3365.794421
943.149381	3326.536435
943.451389	3295.099800
943.753359	3260.583020
944.055290	3233.844740
944.357182	3212.941595
944.659036	3193.392001
944.960851	3185.200126
945.262628	3169.791839
945.564367	3172.960204
945.866067	3164.123061
946.167729	3162.759429
946.469352	3162.041065
946.770937	3155.890857
947.072484	3140.603558
947.373992	3143.272849
947.675462	3136.114411
947.976893	3117.903242
948.278286	3110.623816
948.579641	3102.585696
948.880958	3097.350458
949.182236	3099.936570
949.483476	3093.917432
949.784678	3094.650920
950.085841	3094.527412
950.386967	3104.340018
950.688054	3120.973305
950.989103	3142.723363
951.290114	3164.178514
951.591087	3191.703214
951.892021	3220.442832
952.192917	3245.157089
952.493776	3268.699277
952.794596	3280.430042
953.095378	3284.629323
953.396122	3279.089095
953.696828	3277.309568
953.997496	3261.061929
954.298126	3242.132397
954.598718	3218.000393
954.899272	3192.025848
955.199788	3167.351920
955.500266	3134.634832
955.800706	3098.656117
956.101108	3061.238152
956.401472	3031.681868
956.701798	2998.795900
957.002087	2956.845939
957.302337	2931.831733
957.602550	2902.557753
957.902724	2869.379399
958.202861	2845.159175
958.502960	2823.635969
958.803022	2802.727783
959.103045	2780.077879
959.403031	2763.961310
959.702979	2751.945720
960.002889	2737.291086
960.302762	2723.614435
960.602596	2713.159082
960.902393	2704.337063
961.202153	2695.454550
961.501875	2688.217974
961.801559	2681.964422
962.101205	2677.326561
962.400814	2668.764161
962.700385	2661.898109
962.999918	2656.141112
963.299414	2649.393527
963.598873	2647.906387
963.898293	2641.418422
964.197677	2642.192239
964.497022	2640.211066
964.796331	2635.384161
965.095601	2632.735034
965.394835	2630.587503
965.694030	2628.941566
965.993189	2628.354272
966.292309	2626.050464
966.591393	2624.724641
966.890439	2626.211781
967.189447	2625.085083
967.488419	2623.613067
967.787353	2624.056688
968.086249	2631.056330
968.385108	2630.176649
968.683930	2633.196300
968.982714	2635.787453
969.281462	2639.873308
969.580172	2646.789771
969.878844	2651.881337
970.177480	2661.015907
970.476078	2666.173008
970.774639	2674.062414
971.073162	2683.070956
971.371649	2686.264527
971.670098	2690.287367
971.968510	2699.800025
972.266885	2702.401260
972.565223	2708.662373
972.863524	2708.233875
973.161788	2713.630430
973.460014	2716.970195
973.758204	2719.972202
974.056356	2718.752242
974.354471	2723.863972
974.652550	2722.538149
974.950591	2723.155690
975.248595	2720.267109
975.546563	2717.552448
975.844493	2715.067159
976.142386	2710.726726
976.440243	2702.227340
976.738062	2697.849098
977.035845	2692.707121
977.333590	2689.319466
977.631299	2682.266892
977.928971	2676.018381
978.226606	2668.572597
978.524204	2667.322391
978.821765	2659.858963
979.119290	2663.659993
979.416777	2664.854746
979.714228	2668.058399
980.011642	2671.100736
980.309020	2681.104906
980.606360	2692.011442
980.903664	2717.703682
981.200931	2752.641399
981.498162	2801.291054
981.795356	2879.474309
982.092513	2966.557722
982.389633	3069.727456
982.686717	3170.409380
982.983764	3247.768407
983.280775	3295.918987
983.577749	3304.569608
983.874686	3289.189047
984.171587	3256.151845
984.468451	3216.218345
984.765279	3174.694361
985.062070	3124.635703
985.358824	3079.845051
985.655543	3023.056453
985.952224	2972.286993
986.248869	2909.650656
986.545478	2848.120853
986.842050	2790.271092
987.138586	2744.532703
987.435086	2706.401416
987.731549	2675.524348
988.027975	2650.565596
988.324366	2628.921402
988.620719	2617.311624
988.917037	2608.086313
989.213318	2595.700198
989.509563	2588.375401
989.805772	2588.380442
990.101944	2579.134966
990.398080	2579.918866
990.694180	2574.615572
990.990244	2576.765624
991.286271	2575.318813
991.582262	2580.942220
991.878217	2580.067580
992.174136	2584.034968
992.470019	2587.624269
992.765865	2589.020669
993.061676	2594.568459
993.357450	2603.811414
993.653188	2609.674276
993.948890	2627.179683
994.244556	2646.893115
994.540186	2669.784995
994.835780	2699.253059
995.131337	2740.651015
995.426859	2780.435801
995.722345	2828.198213
996.017795	2880.263250
996.313208	2917.673653
996.608586	2944.250616
996.903928	2959.008594
997.199234	2958.544808
997.494504	2955.845270
997.789738	2942.987807
998.084936	2916.599887
998.380099	2888.934035
998.675225	2854.941534
998.970316	2826.310301
999.265371	2791.165897
999.560390	2751.287849
999.855373	2721.965978
1000.150320	2694.526978
1000.445232	2668.111332
1000.740108	2646.746922
1001.034948	2628.200517
1001.329752	2611.957919
1001.624521	2598.586258
1001.919254	2584.672674
1002.213951	2581.819381
1002.508613	2570.501990
1002.803239	2566.711043
1003.097829	2555.446584
1003.392384	2553.654454
1003.686903	2549.112374
1003.981386	2546.574153
1004.275834	2543.181457
1004.570246	2540.189532
1004.864623	2535.715508
1005.158964	2535.002185
1005.453270	2533.373892
1005.747540	2531.133099
1006.041775	2529.910619
1006.335974	2526.754857
1006.630138	2525.562624
1006.924266	2527.581606
1007.218359	2523.238652
1007.512416	2524.292253
1007.806438	2518.510050
1008.100425	2523.210926
1008.394376	2515.608866
1008.688292	2523.750329
1008.982172	2520.168590
1009.276017	2520.617252
1009.569827	2519.601460
1009.863602	2520.995339
1010.157341	2521.736388
1010.451045	2519.089783
1010.744714	2515.941582
1011.038347	2516.700276
1011.331945	2514.865296
1011.625508	2516.027282
1011.919036	2514.910666
1012.212528	2514.043588
1012.505986	2512.253978
1012.799408	2511.820439
1013.092795	2510.781961
1013.386147	2512.032167
1013.679464	2509.282218
1013.972745	2509.138545
1014.265992	2509.897239
1014.559204	2510.466889
1014.852380	2508.042094
1015.145521	2508.732732
1015.438628	2511.394461
1015.731699	2509.166271
1016.024736	2512.687517
1016.317737	2514.003258
1016.610703	2511.553258
1016.903635	2516.566685
1017.196531	2515.346726
1017.489393	2515.692045
1017.782219	2516.034843
1018.075011	2519.946779
1018.367768	2519.790503
1018.660490	2521.912829
1018.953177	2521.912829
1019.245829	2521.912829
