Dividing Wavelength (nm)	Counts (n)	Blue Motor Position (mm): 13.000000	Red Motor Position (mm): 0.000000	
326.493990	2104.916144
326.888308	2104.916144
327.282561	2104.916144
327.676750	2079.133163
328.070874	2081.520149
328.464933	2089.167580
328.858929	2098.271904
329.252859	2112.162803
329.646726	2126.086470
330.040528	2140.622637
330.434265	2161.576193
330.827938	2181.057732
331.221547	2201.416432
331.615091	2222.029710
332.008571	2242.234655
332.401986	2260.907088
332.795338	2280.411313
333.188625	2301.639612
333.581847	2320.266675
333.975006	2338.666887
334.368100	2356.603312
334.761129	2375.293390
335.154095	2388.271840
335.546996	2423.086049
335.939833	2476.393730
336.332606	2487.968219
336.725315	2502.027998
337.117960	2510.686179
337.510540	2517.287570
337.903056	2525.600433
338.295508	2531.649818
338.687896	2539.234233
339.080220	2546.342260
339.472480	2553.029351
339.864676	2555.237376
340.256807	2559.776935
340.648875	2558.453632
341.040879	2562.393294
341.432818	2563.537636
341.824694	2561.304405
342.216506	2562.413459
342.608253	2561.501010
342.999937	2559.212326
343.391557	2559.174518
343.783113	2559.882800
344.174605	2557.246276
344.566033	2553.803168
344.957397	2554.929866
345.348697	2554.022458
345.739934	2552.721841
346.131106	2549.099772
346.522215	2548.807385
346.913260	2543.410829
347.304241	2543.335212
347.695159	2541.480068
348.086012	2543.307486
348.476802	2540.184491
348.867528	2538.462937
349.258191	2534.913965
349.648789	2536.065868
350.039324	2533.820034
350.429796	2536.257432
350.820203	2533.043697
351.210548	2532.816845
351.600828	2529.197296
351.991045	2531.433048
352.381198	2529.585465
352.771288	2528.486493
353.161314	2526.558252
353.551276	2529.502286
353.941175	2529.134282
354.331010	2529.915661
354.720782	2534.286341
355.110490	2534.145189
355.500135	2530.921371
355.889717	2530.268541
356.279235	2532.395908
356.668689	2532.426155
357.058080	2531.969931
357.447408	2532.048069
357.836672	2529.782070
358.225873	2532.907585
358.615010	2531.435568
359.004084	2534.185518
359.393095	2532.713501
359.782043	2535.463450
360.170927	2533.560415
360.559748	2535.037473
360.948505	2537.484953
361.337199	2537.248019
361.725830	2539.541744
362.114398	2541.086857
362.502903	2536.640560
362.891344	2539.662732
363.279722	2538.135262
363.668037	2540.605427
364.056289	2539.987886
364.444478	2542.137938
364.832603	2541.780016
365.220665	2539.811446
365.608665	2540.255067
365.996601	2543.005017
366.384474	2541.490150
366.772284	2542.097609
367.160031	2544.761859
367.547715	2542.795809
367.935336	2542.931920
368.322893	2543.488967
368.710388	2546.286808
369.097820	2548.525080
369.485189	2544.890408
369.872495	2545.447456
370.259738	2548.089020
370.646918	2543.073072
371.034035	2549.278732
371.421090	2548.857796
371.808081	2546.909390
372.195010	2545.205480
372.581875	2548.512477
372.968678	2545.732281
373.355418	2545.757487
373.742096	2546.760676
374.128710	2546.995090
374.515262	2551.902653
374.901751	2547.194215
375.288177	2548.825029
375.674540	2547.126160
376.060841	2548.625903
376.447079	2551.980791
376.833254	2551.154042
377.219367	2544.252702
377.605417	2548.305790
377.991404	2547.617672
378.377329	2547.242106
378.763191	2545.427291
379.148991	2553.246121
379.534727	2550.924669
379.920402	2552.121943
380.306013	2553.233518
380.691563	2553.692263
381.077049	2551.068342
381.462474	2551.007848
381.847835	2551.895091
382.233134	2552.489947
382.618371	2553.588919
383.003545	2555.224773
383.388657	2553.465411
383.773706	2552.810061
384.158693	2554.566903
384.543618	2554.493806
384.928480	2553.495658
385.313280	2555.325597
385.698017	2556.986657
386.082692	2556.016235
386.467305	2555.222253
386.851856	2556.283416
387.236344	2556.348951
387.620770	2558.448591
388.005133	2556.845504
388.389435	2556.167469
388.773674	2557.384908
389.157851	2556.953889
389.541965	2555.759136
389.926018	2558.907336
390.310008	2559.950855
390.693936	2561.359858
391.077802	2558.380536
391.461606	2559.502192
391.845348	2558.020093
392.229027	2559.446740
392.612645	2558.246945
392.996200	2560.679302
393.379694	2560.094528
393.763125	2560.540670
394.146494	2562.108469
394.529801	2563.204920
394.913047	2559.482028
395.296230	2563.106617
395.679351	2561.632080
396.062410	2563.502348
396.445408	2563.157029
396.828343	2559.696277
397.211217	2560.074363
397.594028	2560.974209
397.976778	2558.723334
398.359466	2564.192986
398.742092	2560.449929
399.124656	2563.295661
399.507158	2563.439334
399.889598	2563.956052
400.271977	2564.382029
400.654294	2566.832030
401.036549	2563.991340
401.418742	2563.449416
401.800874	2565.536454
402.182944	2567.273131
402.564952	2565.828841
402.946898	2566.290106
403.328783	2565.937225
403.710606	2567.227761
404.092367	2567.121897
404.474067	2565.128120
404.855705	2566.779098
405.237282	2566.915209
405.618797	2568.901424
406.000250	2564.898748
406.381642	2567.026115
406.762972	2566.340518
407.144240	2568.876218
407.525447	2568.301527
407.906593	2567.946125
408.287677	2566.751372
408.668700	2568.616599
409.049661	2568.165415
409.430560	2568.225909
409.811399	2570.983420
410.192176	2569.123235
410.572891	2569.430745
410.953545	2569.828996
411.334138	2569.529048
411.714669	2569.440827
412.095139	2572.624316
412.475547	2572.223544
412.855894	2569.201373
413.236180	2572.349573
413.616405	2573.100705
413.996568	2571.595921
414.376670	2568.820765
414.756711	2572.021898
415.136691	2571.729511
415.516609	2569.748338
415.896466	2573.665314
416.276262	2572.846127
416.655997	2567.043759
417.035670	2569.312278
417.415283	2573.002402
417.794834	2566.973182
418.174324	2570.980900
418.553753	2572.052145
418.933121	2572.495767
419.312428	2574.144224
419.691674	2569.584500
420.070859	2575.752352
420.449983	2570.764130
420.829045	2573.047773
421.208047	2574.408884
421.586988	2574.287897
421.965867	2572.904100
422.344686	2573.756055
422.723444	2574.139183
423.102141	2572.934347
423.480777	2574.560119
423.859352	2577.783937
424.237866	2576.609348
424.616319	2576.712692
424.994712	2575.079358
425.373044	2574.121539
425.751314	2574.849985
426.129524	2575.575912
426.507673	2576.468196
426.885762	2576.944585
427.263789	2576.223700
427.641756	2575.754872
428.019662	2578.588001
428.397508	2575.812846
428.775292	2577.867116
429.153016	2576.422825
429.530679	2578.053639
429.908282	2577.269739
430.285824	2575.311251
430.663305	2574.933164
431.040726	2576.712692
431.418086	2575.913669
431.795385	2578.950964
432.172624	2577.607497
432.549802	2575.560788
432.926920	2575.560788
433.303977	2578.829976
433.680974	2576.536251
434.057910	2578.129256
434.434786	2579.031623
434.811601	2579.465162
435.188355	2577.307548
435.565050	2577.892322
435.941683	2578.189750
436.318257	2577.768813
436.694770	2573.718246
437.071222	2576.105233
437.447614	2573.763617
437.823946	2573.693041
438.200218	2581.113619
438.576429	2580.831314
438.952580	2576.816035
439.328670	2579.631520
439.704700	2579.828125
440.080670	2579.906263
440.456580	2580.811150
440.832429	2579.664287
441.208218	2579.606314
441.583947	2579.707137
441.959616	2576.561457
442.335224	2580.740574
442.710773	2577.052970
443.086261	2578.595563
443.461689	2580.390213
443.837057	2581.272415
444.212365	2579.921386
444.587612	2579.631520
444.962800	2579.336612
445.337927	2581.708475
445.712995	2582.847776
446.088002	2582.068918
446.462949	2583.276274
446.837837	2585.496902
447.212664	2579.460121
447.587431	2583.480441
447.962139	2582.638568
448.336786	2584.352560
448.711374	2584.881882
449.085901	2584.718044
449.460369	2582.535224
449.834776	2584.660071
450.209124	2584.818867
450.583412	2585.537232
450.957640	2586.517736
451.331808	2587.258786
451.705917	2585.852304
452.079965	2587.624269
452.453954	2585.547314
452.827883	2588.287181
453.201752	2586.263158
453.575562	2584.612180
453.949311	2588.924887
454.323001	2588.062850
454.696632	2588.793817
455.070202	2590.696852
455.443713	2589.814651
455.817164	2586.089238
456.190556	2589.121492
456.563888	2587.626790
456.937160	2584.433219
457.310373	2588.801379
457.683526	2588.206522
458.056619	2588.234249
458.429653	2590.507809
458.802628	2591.775659
459.175542	2592.007552
459.548398	2592.156267
459.921194	2592.920001
460.293930	2595.370002
460.666607	2596.201792
461.039224	2596.002667
461.411782	2597.288161
461.784280	2596.408480
462.156719	2595.571648
462.529099	2598.356886
462.901419	2595.914447
463.273680	2596.267328
463.645882	2593.091401
464.018024	2596.353027
464.390106	2597.179776
464.762130	2599.259252
465.134094	2601.283276
465.505999	2605.830396
465.877845	2609.724688
466.249631	2612.542693
466.621358	2609.102105
466.993026	2610.556478
467.364634	2609.192846
467.736184	2606.775613
468.107674	2604.169336
468.479105	2604.930550
468.850477	2603.093050
469.221790	2603.445931
469.593043	2603.057762
469.964238	2604.885180
470.335373	2599.715477
470.706449	2604.935592
471.077467	2605.369131
471.448425	2610.274173
471.819324	2611.355501
472.190164	2609.250819
472.560945	2608.696292
472.931667	2603.577001
473.302330	2605.152361
473.672934	2604.199583
474.043479	2605.217896
474.413965	2604.247474
474.784393	2600.801845
475.154761	2605.036415
475.525070	2604.736466
475.895321	2602.599017
476.265513	2600.146495
476.635645	2609.631426
477.005719	2608.154368
477.375734	2608.713936
477.745691	2607.398195
478.115588	2612.903135
478.485427	2612.915738
478.855207	2614.576798
479.224928	2616.172323
479.594591	2621.231121
479.964194	2617.490585
480.333739	2619.438991
480.703226	2618.713065
481.072653	2621.566358
481.442022	2622.171297
481.811333	2622.488889
482.180584	2622.128447
482.549777	2620.197685
482.918912	2618.420678
483.287988	2624.520474
483.657005	2621.677263
484.025964	2621.457973
484.394864	2620.669033
484.763706	2620.805144
485.132489	2621.878910
485.501213	2622.975361
485.869879	2623.678602
486.238487	2624.621297
486.607036	2626.161370
486.975527	2628.094652
487.343959	2625.788324
487.712333	2628.238325
488.080648	2628.860908
488.448905	2632.787967
488.817104	2631.368882
489.185244	2636.893986
489.553326	2640.319450
489.921350	2644.150727
490.289315	2650.363949
490.657222	2653.675987
491.025070	2655.926863
491.392861	2656.196564
491.760593	2656.811585
492.128267	2654.578354
492.495883	2654.651451
492.863440	2653.421409
493.230939	2654.028868
493.598380	2656.620021
493.965763	2653.875113
494.333088	2655.084990
494.700354	2654.182623
495.067563	2656.889723
495.434713	2662.321566
495.801805	2664.713594
496.168839	2666.261228
496.535815	2668.900272
496.902733	2669.023780
497.269593	2673.533092
497.636395	2675.421005
498.003139	2677.631551
498.369825	2678.118022
498.736453	2682.980215
499.103023	2682.231603
499.469535	2690.660413
499.835989	2689.137984
500.202385	2691.096472
500.568723	2692.104703
500.935003	2694.897502
501.301226	2698.811958
501.667390	2703.301106
502.033497	2704.876467
502.399546	2706.724049
502.765537	2707.626416
503.131470	2714.363918
503.497345	2714.265616
503.863163	2713.960626
504.228923	2716.914742
504.594625	2724.022769
504.960269	2724.431102
505.325856	2730.200703
505.691385	2727.347410
506.056856	2733.663976
506.422270	2736.426528
506.787625	2739.849471
507.152924	2744.043711
507.518164	2748.900863
507.883347	2748.505132
508.248472	2750.153590
508.613540	2755.078797
508.978550	2759.877976
509.343503	2761.198758
509.708398	2764.276382
510.073236	2771.734769
510.438016	2771.644029
510.802738	2774.378855
511.167403	2779.782972
511.532010	2784.809002
511.896561	2789.666154
512.261053	2795.284520
512.625488	2794.344344
512.989866	2798.057154
513.354186	2800.958338
513.718449	2799.914819
514.082655	2808.262970
514.446803	2812.550472
514.810894	2819.426605
515.174927	2819.734116
515.538904	2823.840136
515.902822	2826.675785
516.266684	2826.010352
516.630488	2833.574604
516.994235	2835.109635
517.357925	2843.583815
517.721558	2846.994155
518.085133	2850.822912
518.448651	2857.058819
518.812112	2856.887420
519.175516	2858.281299
519.538863	2863.685416
519.902152	2865.293544
520.265385	2872.399050
520.628560	2875.698485
520.991678	2874.841489
521.354739	2881.999928
521.717743	2887.194837
522.080690	2890.635424
522.443580	2896.614233
522.806413	2900.037176
523.169189	2899.351579
523.531908	2903.792836
523.894569	2908.513876
524.257174	2909.043197
524.619722	2916.040319
524.982213	2920.557193
525.344647	2923.344951
525.707025	2923.294539
526.069345	2932.600509
526.431608	2932.393822
526.793815	2937.225768
527.155964	2938.445727
527.518057	2942.231634
527.880093	2942.690379
528.242072	2948.714558
528.603995	2953.118005
528.965860	2955.517595
529.327669	2957.828964
529.689421	2958.464149
530.051117	2964.692495
530.412755	2967.525623
530.774337	2969.085860
531.135862	2972.072744
531.497331	2977.209680
531.858743	2975.866212
532.220098	2982.273519
532.581396	2982.505412
532.942638	2984.826863
533.303824	2995.161228
533.664953	3000.046107
534.026025	2997.586023
534.387040	3007.602796
534.747999	3011.058507
535.108902	3018.030423
535.469748	3015.494722
535.830537	3021.350023
536.191270	3030.973585
536.551947	3030.739172
536.912567	3035.326622
537.273131	3046.444887
537.633638	3044.970349
537.994089	3054.525856
538.354483	3058.188254
538.714821	3069.301478
539.075103	3079.701378
539.435328	3082.569795
539.795497	3087.192533
540.155609	3095.084459
540.515665	3108.756069
540.875665	3110.016357
541.235609	3121.742081
541.595496	3129.777680
541.955328	3147.162099
542.315102	3144.278559
542.674821	3153.234169
543.034483	3160.478307
543.394090	3173.731501
543.753640	3181.389013
544.113134	3203.791901
544.472571	3206.773743
544.831953	3227.535736
545.191278	3232.655027
545.550548	3237.998650
545.909761	3259.935231
546.268918	3275.078858
546.628019	3295.354378
546.987064	3298.280768
547.346053	3304.025163
547.704986	3331.617918
548.063863	3337.957169
548.422684	3358.066332
548.781449	3373.462016
549.140158	3397.404976
549.498811	3409.579363
549.857408	3415.485074
550.215949	3446.281483
550.574434	3467.093887
550.932864	3477.587049
551.291237	3511.468644
551.649555	3523.292670
552.007817	3554.804923
552.366022	3565.091397
552.724173	3594.922425
553.082267	3627.964668
553.440305	3656.283350
553.798288	3666.854649
554.156215	3699.100390
554.514086	3731.439392
554.871902	3748.816249
555.229661	3776.802215
555.587365	3802.670896
555.945014	3832.015452
556.302606	3858.499154
556.660143	3899.445926
557.017625	3927.590688
557.375050	3956.713434
557.732421	4001.854446
558.089735	4029.724465
558.446994	4064.339548
558.804197	4115.794605
559.161345	4150.170233
559.518437	4158.730112
559.875474	4208.781208
560.232455	4250.998351
560.589381	4299.186741
560.946251	4327.707069
561.303065	4391.200401
561.659825	4428.492337
562.016528	4456.934527
562.373177	4492.245289
562.729770	4558.561668
563.086307	4579.547991
563.442789	4652.788395
563.799216	4700.896126
564.155587	4742.213423
564.511904	4797.771980
564.868164	4854.333726
565.224370	4920.531638
565.580520	4960.664263
565.936615	5029.584398
566.292654	5075.799176
566.648638	5143.852232
567.004567	5202.866500
567.360441	5272.502478
567.716260	5331.027754
568.072023	5412.001288
568.427732	5474.239373
568.783385	5515.864180
569.138982	5611.300784
569.494525	5678.703532
569.850013	5739.285598
570.205445	5813.246887
570.560823	5881.829264
570.916145	5951.397188
571.271412	6029.963570
571.626625	6091.062355
571.981782	6173.838101
572.336884	6229.237861
572.691931	6342.694070
573.046923	6388.097222
573.401860	6455.517613
573.756743	6539.803185
574.111570	6633.689634
574.466342	6708.649071
574.821059	6803.463093
575.175722	6844.694690
575.530330	6932.012516
575.884882	6993.277659
576.239380	7080.749240
576.593823	7170.680904
576.948211	7259.132989
577.302544	7299.711757
577.656823	7395.682723
578.011047	7525.573093
578.365216	7591.657579
578.719330	7668.356214
579.073389	7756.437775
579.427394	7869.281483
579.781344	7967.856205
580.135239	8026.653703
580.489080	8146.567630
580.842866	8193.987243
581.196597	8360.342800
581.550273	8468.387330
581.903895	8569.132269
582.257463	8740.967559
582.610975	8769.235829
582.964434	8924.644520
583.317837	8992.692535
583.671186	9085.016227
584.024481	9232.583403
584.377721	9273.121842
584.730906	9434.065719
585.084037	9559.827384
585.437113	9631.830185
585.790135	9752.913659
586.143103	9805.061875
586.496016	9946.824162
586.848874	10078.456251
587.201679	10211.373834
587.554428	10237.343338
587.907124	10409.902034
588.259765	10497.328244
588.612352	10675.878352
588.964884	10693.683707
589.317362	10878.288241
589.669786	10997.501447
590.022155	11074.817623
590.374470	11304.311111
590.726731	11327.971767
591.078937	11352.774243
591.431090	11502.262099
591.783188	11553.402084
592.135232	11610.936773
592.487222	11800.368211
592.839157	11964.092285
593.191038	12004.459325
593.542866	12090.542068
593.894639	12075.572361
594.246358	12275.610387
594.598022	12416.845874
594.949633	12445.398969
595.301190	12568.526631
595.652692	12658.720435
596.004141	12892.735838
596.355535	12757.567380
596.706876	12881.196637
597.058162	12968.917755
597.409395	13235.617479
597.760573	13408.004776
598.111698	13425.928598
598.462768	13566.569229
598.813785	13716.664543
599.164748	13690.876521
599.515657	13947.940079
599.866511	13936.421042
600.217312	14260.751237
600.568060	14088.605915
600.918753	14461.810096
601.269392	14583.493468
601.619978	14622.285147
601.970510	14830.184852
602.320988	15032.569535
602.671412	15278.610610
603.021783	15347.006465
603.372100	15370.906575
603.722363	15541.015270
604.072572	15727.046450
604.422728	15870.076588
604.772830	15948.683300
605.122878	16139.755633
605.472872	16256.095382
605.822813	16508.876480
606.172701	16593.895539
606.522534	16839.238415
606.872314	17080.412256
607.222041	17144.044220
607.571714	17453.263556
607.921333	17381.154891
608.270899	17659.930699
608.620411	17965.457390
608.969870	18034.125467
609.319276	18186.070885
609.668627	18366.372793
610.017926	18725.865036
610.367171	18950.824006
610.716362	19149.415220
611.065500	19279.338358
611.414585	19518.856180
611.763616	19816.042281
612.112594	19933.483522
612.461518	20195.593275
612.810389	20491.287195
613.159207	20593.846949
613.507971	20787.081938
613.856682	21169.773571
614.205340	21276.207452
614.553945	21783.077827
614.902496	21662.969816
615.250994	22059.340619
615.599439	22243.993044
615.947830	22508.993898
616.296169	22714.367986
616.644454	22946.515641
616.992686	23197.555020
617.340864	23627.789774
617.688990	23651.382374
618.037063	24134.483709
618.385082	24277.541573
618.733048	24602.292704
619.080961	24759.057465
619.428821	24923.777167
619.776628	25131.911286
620.124382	25206.981628
620.472083	25411.707927
620.819731	25645.360367
621.167326	25594.553098
621.514868	25732.058131
621.862357	25621.548477
622.209793	25777.143690
622.557176	25730.291206
622.904506	25714.230090
623.251783	25645.259544
623.599007	25664.642780
623.946179	25676.481930
624.293297	25784.405472
624.640363	25570.572329
624.987376	25698.426073
625.334336	25700.732401
625.681243	25607.841579
626.028097	25730.969241
626.374899	25769.539109
626.721647	25890.257100
627.068343	25957.259076
627.414987	25935.471209
627.761577	25930.377123
628.108115	26277.697499
628.454600	26038.645984
628.801032	26299.137527
629.147412	26392.441723
629.493739	26521.281012
629.840014	26397.261066
630.186236	26756.455880
630.532405	26603.222447
630.878521	26873.501390
631.224585	26909.066731
631.570597	26822.210170
631.916556	27051.169296
632.262462	27120.860727
632.608316	27260.442715
632.954117	27294.843549
633.299866	27386.491726
633.645562	27449.382641
633.991206	27221.872847
634.336797	27031.544084
634.682336	27148.168657
635.027823	27091.309483
635.373257	27070.297954
635.718639	27014.452052
636.063968	27004.803283
636.409245	26722.349954
636.754470	26857.435233
637.099642	26797.185883
637.444762	26554.194706
637.789829	26752.664933
638.134845	26613.574457
638.479808	26672.671903
638.824719	26699.367333
639.169577	26517.089293
639.514383	26653.984346
639.859137	26525.997012
640.203839	26791.151622
640.548489	26622.167103
640.893086	26755.392197
641.237632	26660.426941
641.582125	26830.865832
641.926566	26869.496193
642.270955	26921.551148
642.615292	27028.405966
642.959576	27092.085821
643.303809	27189.700203
643.647990	27383.366211
643.992118	27446.811652
644.336195	27505.362134
644.680219	27666.011104
645.024192	27973.355131
645.368112	28460.040726
645.711981	28550.854592
646.055797	29300.481730
646.399562	29309.704521
646.743274	30113.158580
647.086935	30519.967093
647.430544	30494.317702
647.774101	30658.014050
648.117606	30941.732709
648.461059	31236.357904
648.804460	31010.050426
649.147810	30608.283067
649.491108	30489.354686
649.834354	30277.454825
650.177548	29693.089312
650.520690	29420.483877
650.863781	29508.908236
651.206820	29467.815271
651.549807	29187.393526
651.892742	28857.994452
652.235626	28795.264854
652.578458	28749.297092
652.921238	28324.297576
653.263967	28651.357555
653.606644	28459.382855
653.949269	28459.932341
654.291843	28187.904118
654.634365	28580.448685
654.976836	28323.110384
655.319255	28380.377892
655.661622	28448.967831
656.003938	28326.130036
656.346203	28274.806048
656.688416	28507.092335
657.030577	28401.240707
657.372687	28327.070211
657.714746	28601.462735
658.056753	28762.580533
658.398708	28368.712662
658.740612	28469.129926
659.082465	28747.288193
659.424266	28664.212498
659.766016	28810.148860
660.107715	28758.592980
660.449362	28917.918647
660.790958	28941.009653
661.132503	28992.273146
661.473996	29083.613812
661.815438	29243.763708
662.156829	29463.469796
662.498168	29295.344795
662.839456	29371.146104
663.180693	29549.436593
663.521879	29743.251314
663.863013	29749.542674
664.204097	29798.401537
664.545129	30229.382382
664.886110	30236.944113
665.227040	30355.812000
665.567918	30501.753404
665.908746	30596.116242
666.249522	30779.105086
666.590248	30822.625367
666.930922	30957.662755
667.271545	30957.413218
667.612118	31060.562787
667.952639	30903.457748
668.293109	31012.964213
668.633528	30949.591867
668.973896	30934.236513
669.314213	31019.739523
669.654480	30827.280872
669.994695	30884.082073
670.334859	30826.179380
670.674973	30779.077359
671.015035	30953.546653
671.355047	30946.647834
671.695008	30933.772727
672.034918	30894.179504
672.374777	30998.717912
672.714585	30880.127288
673.054342	31121.782559
673.394049	30935.973190
673.733705	31211.031147
674.073310	30940.371597
674.412864	31041.308100
674.752368	30732.479454
675.091820	31037.406247
675.431223	30670.004434
675.770574	30467.551696
676.109875	30359.839882
676.449125	30149.389353
676.788324	30114.169332
677.127473	29647.834874
677.466571	29607.593864
677.805619	29322.163733
678.144616	29356.443579
678.483562	29313.868514
678.822458	29038.876093
679.161303	29015.321301
679.500098	28957.590008
679.838842	28876.319046
680.177535	29045.250632
680.516179	29354.608599
680.854771	29602.585478
681.193314	30447.986977
681.531805	31516.693949
681.870247	32222.878944
682.208638	32884.026271
682.546978	33104.836371
682.885268	33198.914384
683.223508	32732.227047
683.561697	32440.571091
683.899836	32280.564868
684.237925	31824.015290
684.575963	31703.960211
684.913951	31299.609261
685.251889	31450.604422
685.589776	31473.513946
685.927614	31487.790493
686.265401	31634.369603
686.603137	31738.618144
686.940824	32226.730386
687.278460	32595.339555
687.616046	32703.699157
687.953582	33286.075934
688.291068	33137.921464
688.628504	33416.689710
688.965889	33345.901828
689.303224	32998.442819
689.640510	32708.450444
689.977745	32031.756199
690.314930	31299.251339
690.652065	30848.287360
690.989150	30187.394612
691.326185	29345.501755
691.663170	28719.103101
692.000105	28015.796605
692.336990	27407.314212
692.673825	26990.924987
693.010610	26524.318307
693.347345	26010.402920
693.684030	25390.633383
694.020665	25142.895960
694.357251	24532.702096
694.693786	24499.180943
695.030272	24291.407267
695.366707	23787.266676
695.703093	23530.314024
696.039429	23526.883518
696.375716	23294.952633
696.711952	23267.001955
697.048139	23119.565849
697.384276	22961.258495
697.720363	23092.063835
698.056400	22904.439650
698.392388	22695.279657
698.728326	22669.368126
699.064214	22489.416577
699.400053	22442.864042
699.735842	22103.780911
700.071581	21861.064477
700.407270	21583.611972
700.742910	21414.592166
701.078501	21175.631391
701.414042	20904.712222
701.749533	20640.649022
702.084974	20311.045780
702.420366	20518.330465
702.755709	20112.126891
703.091002	19824.481173
703.426246	19859.481904
703.761440	19766.787688
704.096584	19513.230252
704.431679	19484.339399
704.766725	19404.994158
705.101721	19353.559266
705.436668	19440.176371
705.771565	19138.964908
706.106413	19491.298712
706.441212	19483.656323
706.775961	19627.818200
707.110661	19688.654844
707.445311	20054.201513
707.779913	19900.244674
708.114465	20146.444546
708.448967	20428.260169
708.783421	21099.797314
709.117825	21365.952593
709.452180	21572.662586
709.786485	21972.582362
710.120742	22741.822109
710.454949	22750.245877
710.789107	23200.594836
711.123216	23882.194124
711.457275	23980.904957
711.791286	24496.831765
712.125247	24562.795263
712.459159	24258.886783
712.793023	24895.811366
713.126837	23812.275841
713.460602	24074.403238
713.794318	23709.353123
714.127985	23342.500796
714.461602	22481.524651
714.795171	22459.971198
715.128691	21479.229841
715.462162	20969.775874
715.795584	20573.367262
716.128957	20323.981381
716.462281	19948.498599
716.795556	19720.802282
717.128782	19232.516121
717.461960	18708.546152
717.795088	18645.055340
718.128167	18250.446419
718.461198	17795.527655
718.794180	17666.630393
719.127113	17325.664390
719.459997	17130.758259
719.792833	16786.656659
720.125619	16762.353257
720.458357	16455.972091
720.791046	16302.524409
721.123686	16134.764891
721.456278	15912.714667
721.788821	15884.443876
722.121315	15625.689011
722.453761	15705.674478
722.786158	15628.411234
723.118506	15641.251053
723.450805	15516.124573
723.783056	15669.519323
724.115259	15568.872687
724.447412	15499.405587
724.779518	15740.266876
725.111574	15768.502379
725.443582	15974.844368
725.775542	15963.363140
726.107453	16420.835248
726.439315	16308.669575
726.771129	16704.259000
727.102895	17062.435501
727.434612	17256.855161
727.766281	17371.647275
728.097901	17625.870143
728.429473	17655.900297
728.760996	17639.090569
729.092471	17739.333913
729.423897	17615.944111
729.755276	17494.613620
730.086606	17617.816900
730.417887	18139.110016
730.749120	18656.864242
731.080305	18829.518721
731.411442	19139.630341
731.742530	19208.472338
732.073570	19304.241658
732.404562	19579.544110
732.735506	19396.794722
733.066401	19095.936140
733.397249	18567.091375
733.728048	17935.396989
734.058798	17129.192981
734.389501	16457.802029
734.720156	16022.647109
735.050762	15509.558470
735.381320	15167.823692
735.711831	14937.042190
736.042293	14601.233288
736.372707	14622.711124
736.703073	14413.415019
737.033391	14599.098359
737.363661	14574.661366
737.693883	14677.490822
738.024056	14850.152862
738.354182	15026.666343
738.684260	15303.332428
739.014290	15524.021541
739.344272	15692.731316
739.674207	15967.328007
740.004093	16078.261118
740.333931	16054.814712
740.663722	16088.623210
740.993464	16082.125162
741.323159	15913.518731
741.652806	15637.260980
741.982405	15427.770790
742.311956	15088.165900
742.641460	14978.954343
742.970915	14680.245813
743.300323	14354.720865
743.629683	14145.616324
743.958996	13878.258730
744.288260	13612.171506
744.617477	13314.637565
744.946647	13250.299839
745.275768	12976.247593
745.604842	12803.275522
745.933869	12626.394036
746.262847	12582.495669
746.591778	12509.570337
746.920662	12408.301118
747.249498	12422.910382
747.578286	12533.853575
747.907027	12681.012418
748.235720	12892.224161
748.564365	12917.198037
748.892963	12817.196668
749.221514	12882.005742
749.550017	12725.747617
749.878473	12685.012573
750.206881	12468.696662
750.535242	12376.715769
750.863555	12295.041515
751.191821	12201.860827
751.520039	12215.797097
751.848210	12122.719753
752.176334	12160.772902
752.504411	12074.286867
752.832440	11903.074159
753.160421	11964.939199
753.488356	11850.227743
753.816243	11762.511666
754.144082	11618.465736
754.471875	11563.668394
754.799620	11509.554128
755.127318	11469.925618
755.454969	11437.543766
755.782572	11389.589790
756.110129	11405.754250
756.437638	11317.823924
756.765100	11313.022225
757.092515	11322.270222
757.419882	11335.079793
757.747203	11340.093221
758.074477	11405.048488
758.401703	11366.312262
758.728882	11530.686645
759.056014	11569.805999
759.383099	11681.021414
759.710138	11782.265428
760.037129	11863.657377
760.364073	11880.220088
760.690970	11862.802902
761.017820	11872.144160
761.344623	12057.159547
761.671379	12398.995148
761.998088	13069.824011
762.324751	14688.195713
762.651366	17605.317359
762.977935	21168.717449
763.304456	23221.528227
763.630931	23539.433471
763.957359	22322.251916
764.283740	20405.993393
764.610074	18556.562925
764.936362	16476.361037
765.262602	14991.562269
765.588796	13562.702664
765.914943	12570.175089
766.241044	11743.607339
766.567097	11131.815429
766.893104	10597.599315
767.219064	10255.826728
767.544978	9886.098423
767.870845	9574.199714
768.196665	9394.994256
768.522438	9199.647024
768.848165	9037.281541
769.173846	8871.924133
769.499479	8754.404755
769.825066	8601.035211
770.150607	8417.207015
770.476101	8362.094601
770.801548	8246.427846
771.126949	8112.096220
771.452303	8026.888117
771.777611	7865.094805
772.102872	7843.765683
772.428087	7729.893579
772.753256	7601.402129
773.078378	7517.991198
773.403453	7375.686987
773.728482	7274.493385
774.053465	7206.921759
774.378401	7124.400591
774.703291	7033.143103
775.028135	6931.863802
775.352932	6898.430870
775.677683	6821.016391
776.002388	6725.579787
776.327046	6730.510035
776.651658	6643.315718
776.976224	6569.389717
777.300743	6557.175001
777.625216	6490.538509
777.949643	6447.653413
778.274024	6454.017870
778.598359	6383.890379
778.922647	6389.334825
779.246889	6354.248394
779.571086	6358.729980
779.895236	6368.575353
780.219339	6363.473706
780.543397	6364.476895
780.867409	6409.232259
781.191374	6405.562299
781.515294	6378.093052
781.839167	6422.873622
782.162995	6391.691564
782.486776	6349.479463
782.810511	6304.431712
783.134201	6229.953705
783.457844	6218.439710
783.781441	6176.688873
784.104993	6127.940916
784.428498	6101.999138
784.751958	6085.998516
785.075372	6059.005657
785.398739	6021.133989
785.722061	6048.222629
786.045337	6047.763884
786.368568	6163.047511
786.691752	6182.002250
787.014891	6443.819616
787.337983	6722.913016
787.661030	7155.847308
787.984031	7572.312151
788.306987	7810.214283
788.629897	7887.076756
788.952760	7784.055736
789.275579	7607.688448
789.598351	7312.818757
789.921078	7048.949641
790.243759	6776.230780
790.566395	6577.747950
790.888984	6395.686679
791.211529	6254.393219
791.534027	6097.789775
791.856480	5967.198684
792.178888	5905.351288
792.501249	5840.171690
792.823566	5738.070680
793.145836	5737.866513
793.468062	5718.594182
793.790241	5680.939284
794.112375	5721.782712
794.434464	5821.494215
794.756507	5853.873546
795.078505	5977.270910
795.400457	6190.234454
795.722364	6425.530310
796.044226	6610.984277
796.366042	6761.913903
796.687812	6703.318051
797.009538	6722.736576
797.331218	6631.713502
797.652852	6564.913172
797.974442	6441.672084
798.295986	6376.694132
798.617484	6246.438278
798.938938	6144.228884
799.260346	6075.999387
799.581709	5938.937976
799.903026	5890.928547
800.224299	5815.971631
800.545526	5707.049940
800.866708	5643.969982
801.187845	5599.373414
801.508936	5517.351321
801.829983	5490.807125
802.150984	5388.244850
802.471940	5360.763000
802.792851	5346.178942
803.113717	5323.403009
803.434538	5293.980314
803.755314	5267.350419
804.076045	5257.626033
804.396731	5222.017843
804.717372	5237.935287
805.037967	5242.023662
805.358518	5266.364874
805.679024	5327.183874
805.999485	5334.044885
806.319901	5351.068861
806.640272	5367.618969
806.960598	5414.872225
807.280879	5404.636162
807.601115	5437.454073
807.921306	5404.941152
808.241453	5398.974946
808.561554	5402.745729
808.881611	5369.930338
809.201623	5366.701479
809.521590	5316.547040
809.841513	5306.835257
810.161390	5318.233306
810.481223	5235.013938
810.801011	5221.606989
811.120755	5195.967681
811.440453	5140.308301
811.760107	5114.704281
812.079716	5088.263429
812.399281	5039.777611
812.718801	5030.789234
813.038276	5001.666488
813.357707	4965.014779
813.677093	4989.870188
813.996434	4928.869706
814.315731	4950.695382
814.634983	4950.685299
814.954191	4952.984065
815.273354	5009.545812
815.592473	5051.523500
815.911547	5125.688955
816.230577	5176.468498
816.549562	5263.977887
816.868502	5312.297347
817.187399	5365.539493
817.506250	5445.144354
817.825058	5475.315659
818.143821	5628.037415
818.462539	5799.734074
818.781213	6030.898704
819.099843	6396.271453
819.418429	7027.302927
819.736970	7631.202910
820.055466	8335.129469
820.373919	9250.766845
820.692327	10734.940510
821.010691	13535.374569
821.329011	19869.100426
821.647286	29241.661547
821.965517	39038.728152
822.283704	43798.089060
822.601847	44837.418707
822.919945	40239.367161
823.237999	35298.350795
823.556010	30334.210656
823.873976	25855.876431
824.191897	21873.654759
824.509775	18953.485735
824.827609	16330.573389
825.145398	14891.034099
825.463144	14240.760541
825.780845	14613.435401
826.098502	15926.973571
826.416116	18337.340788
826.733685	20450.539548
827.051210	20777.407964
827.368692	19271.723695
827.686129	16768.405162
828.003522	14400.895314
828.320872	12286.088425
828.638177	10722.418284
828.955439	9538.578921
829.272656	8515.801902
829.589830	7706.295938
829.906960	7006.702251
830.224046	6499.937740
830.541088	6110.236383
830.858086	5866.693200
831.175041	5673.039796
831.491952	5631.273836
831.808819	5672.601215
832.125642	5928.444814
832.442421	6501.286249
832.759157	7639.813201
833.075849	9393.260099
833.392497	11148.539457
833.709101	12141.818164
834.025662	11797.562809
834.342179	10738.333207
834.658653	9466.873548
834.975083	8421.376049
835.291469	7557.644914
835.607811	6857.290013
835.924110	6355.884249
836.240366	5883.170211
836.556578	5447.143171
836.872746	5109.075833
837.188871	4846.769474
837.504952	4638.022855
837.820990	4478.578721
838.136984	4371.549984
838.452935	4331.271164
838.768842	4368.762226
839.084706	4677.979041
839.400526	5431.485347
839.716303	6294.356966
840.032037	6795.152751
840.347727	6598.875426
840.663373	6004.263768
840.978977	5455.158606
841.294537	5036.790728
841.610054	4720.876739
841.925527	4492.343592
842.240957	4293.901091
842.556344	4116.182774
842.871687	3960.496820
843.186987	3817.086075
843.502244	3703.866801
843.817458	3621.680870
844.132629	3554.063873
844.447756	3508.864888
844.762840	3464.714462
845.077881	3422.000766
845.392879	3391.978174
845.707833	3367.929350
846.022745	3344.525793
846.337613	3331.549863
846.652438	3308.781492
846.967221	3297.307825
847.281960	3278.423663
847.596656	3271.053496
847.911309	3260.643513
848.225919	3245.633478
848.540485	3241.068713
848.855009	3231.419945
849.169490	3218.297821
849.483928	3212.780278
849.798323	3210.045452
850.112675	3198.019780
850.426984	3200.477342
850.741251	3191.181455
851.055474	3187.919828
851.369654	3188.318079
851.683792	3188.983512
851.997887	3190.294212
852.311938	3189.071732
852.625947	3189.996783
852.939914	3186.299097
853.253837	3194.740509
853.567718	3185.303469
853.881555	3181.560412
854.195350	3187.730785
854.509103	3183.760876
854.822812	3181.704085
855.136479	3179.538910
855.450103	3177.701409
855.763685	3173.204700
856.077224	3175.485822
856.390720	3182.477902
856.704173	3195.844522
857.017584	3198.801159
857.330953	3203.822148
857.644278	3211.845144
857.957561	3214.983262
858.270802	3212.016543
858.584000	3211.547716
858.897155	3202.912220
859.210268	3194.178421
859.523339	3184.224662
859.836367	3180.496729
860.149352	3176.393230
860.462295	3169.771674
860.775195	3160.616939
861.088054	3158.981084
861.400869	3159.447391
861.713642	3157.836742
862.026373	3165.027948
862.339062	3168.667662
862.651708	3178.316430
862.964312	3194.654810
863.276873	3201.528423
863.589392	3233.532188
863.901869	3257.296187
864.214303	3279.472223
864.526696	3298.623567
864.839045	3312.491781
865.151353	3322.894202
865.463619	3323.557113
865.775842	3324.371260
866.088023	3328.762105
866.400162	3322.926969
866.712258	3325.707166
867.024313	3321.848162
867.336325	3322.705158
867.648296	3323.100889
867.960224	3321.535611
868.272110	3325.250941
868.583954	3325.369408
868.895755	3331.494410
869.207515	3328.643638
869.519233	3346.375896
869.830909	3352.831094
870.142542	3365.784339
870.454134	3368.584700
870.765684	3383.007441
871.077191	3401.440420
871.388657	3407.361255
871.700081	3430.232970
872.011463	3449.588480
872.322803	3466.660348
872.634101	3483.177688
872.945357	3506.263652
873.256571	3530.637631
873.567744	3547.465003
873.878874	3549.080693
874.189963	3564.045358
874.501010	3564.534350
874.812015	3565.582910
875.122979	3580.040939
875.433900	3575.750917
875.744780	3576.403746
876.055618	3582.808532
876.366415	3583.836928
876.677169	3590.397989
876.987882	3608.011781
877.298554	3625.585243
877.609183	3665.276768
877.919771	3708.691185
878.230317	3776.202317
878.540822	3882.132083
878.851285	4031.057850
879.161707	4252.959360
879.472087	4631.234942
879.782425	5262.831025
880.092722	6448.255831
880.402977	8347.220676
880.713191	10608.218506
881.023363	12814.744147
881.333494	13980.253875
881.643583	14330.213296
881.953631	13891.726172
882.263637	13088.569542
882.573602	12111.409924
882.883526	11219.581918
883.193408	10319.035236
883.503248	9456.745870
883.813048	8670.570366
884.122806	7952.584030
884.432522	7217.099848
884.742197	6599.780313
885.051831	6067.716771
885.361424	5602.814002
885.670975	5235.747426
885.980485	4932.990849
886.289954	4681.046583
886.599382	4475.044872
886.908768	4304.243018
887.218113	4150.296262
887.527417	4025.356305
887.836680	3905.906165
888.145901	3811.276145
888.455082	3738.686050
888.764221	3673.196421
889.073319	3618.091568
889.382376	3585.258533
889.691392	3564.302457
890.000366	3558.812640
890.309300	3555.891291
890.618193	3555.785427
890.927044	3550.628327
891.235855	3557.842218
891.544625	3575.145978
891.853353	3602.917695
892.162041	3663.550173
892.470687	3756.312445
892.779293	3870.802090
893.087858	4049.208524
893.396381	4322.827232
893.704864	4737.167228
894.013306	5285.748110
894.321707	5819.692002
894.630068	6133.985259
894.938387	6144.473380
895.246665	5955.795594
895.554903	5650.296630
895.863100	5328.970963
896.171256	5075.252211
896.479371	4853.582594
896.787446	4637.165859
897.095480	4451.679124
897.403473	4313.899348
897.711425	4176.573276
898.019336	4057.912077
898.327207	3941.494190
898.635038	3847.012885
898.942827	3747.170312
899.250576	3664.230729
899.558284	3579.735949
899.865952	3533.652241
900.173579	3468.449957
900.481165	3426.343720
900.788711	3385.643964
901.096216	3357.983153
901.403681	3332.222857
901.711105	3320.320693
902.018489	3319.325065
902.325832	3352.856300
902.633135	3416.112698
902.940397	3589.190633
903.247619	4007.797966
903.554800	4749.288682
903.861941	5659.786602
904.169041	6288.131141
904.476101	6438.458349
904.783121	6150.921016
905.090100	5767.775679
905.397039	5380.867122
905.703938	5046.043765
906.010796	4748.131738
906.317614	4506.685674
906.624391	4282.682003
906.931129	4100.098973
907.237826	3928.324176
907.544483	3766.301491
907.851099	3604.944239
908.157675	3450.511011
908.464211	3317.921103
908.770707	3226.643451
909.077163	3148.195536
909.383578	3093.146136
909.689954	3050.218190
909.996289	3023.346320
910.302584	3009.959536
910.608839	2995.965293
910.915054	2981.945844
911.221229	2978.328816
911.527363	2985.325937
911.833458	2992.567555
912.139513	3006.279493
912.445527	3015.812315
912.751502	3048.678118
913.057436	3093.020107
913.363331	3148.271153
913.669186	3238.545616
913.975000	3352.311855
914.280775	3534.378167
914.586510	3803.185093
914.892205	4169.803007
915.197859	4647.086850
915.503475	5200.471952
915.809050	5645.076515
916.114585	5906.679632
916.420081	5943.515343
916.725536	5872.828284
917.030952	5647.471063
917.336328	5453.560560
917.641665	5251.690075
917.946961	5039.593609
918.252218	4848.221327
918.557435	4636.334069
918.862612	4450.403712
919.167750	4286.556130
919.472848	4107.983337
919.777906	3951.344605
920.082925	3796.682005
920.387904	3655.685973
920.692843	3553.358112
920.997743	3455.468986
921.302603	3371.755585
921.607423	3312.252326
921.912204	3249.769745
922.216946	3200.900799
922.521647	3154.673418
922.826310	3114.263529
923.130932	3082.663056
923.435516	3041.285266
923.740059	3018.216946
924.044564	2986.208139
924.349028	2964.296764
924.653454	2936.618309
924.957840	2911.828435
925.262186	2896.064747
925.566493	2869.354193
925.870761	2848.176306
926.174989	2837.839420
926.479178	2825.107986
926.783328	2810.251705
927.087438	2798.364665
927.391509	2785.976029
927.695541	2771.633946
927.999533	2764.324273
928.303486	2756.959147
928.607400	2751.497057
928.911275	2748.124525
929.215110	2741.684451
929.518906	2736.005592
929.822663	2743.317785
930.126381	2736.930643
930.430060	2741.976838
930.733699	2744.608321
931.037299	2745.553537
931.340861	2745.505646
931.644383	2748.636202
931.947866	2746.360122
932.251309	2743.058166
932.554714	2744.134452
932.858080	2745.861047
933.161407	2736.494583
933.464694	2736.655900
933.767943	2732.670868
934.071153	2729.041237
934.374323	2726.152656
934.677455	2723.637121
934.980548	2720.625031
935.283602	2716.614793
935.586617	2713.262426
935.889593	2719.722665
936.192530	2720.473797
936.495428	2727.024776
936.798287	2734.241188
937.101108	2745.132601
937.403890	2766.711260
937.706632	2793.497431
938.009336	2825.591937
938.312002	2851.851307
938.614628	2873.739997
938.917216	2891.951165
939.219765	2898.759243
939.522275	2910.479926
939.824747	2909.501942
940.127179	2901.529358
940.429573	2897.612381
940.731929	2895.505179
941.034246	2889.183572
941.336524	2884.810371
941.638763	2879.232334
941.940964	2874.929709
942.243126	2856.307687
942.545250	2850.263343
942.847335	2834.855057
943.149381	2820.817964
943.451389	2812.772282
943.753359	2797.369037
944.055290	2788.612552
944.357182	2782.739608
944.659036	2776.261726
944.960851	2773.960439
945.262628	2768.216044
945.564367	2772.178391
945.866067	2768.122783
946.167729	2769.287289
946.469352	2764.334356
946.770937	2766.653286
947.072484	2757.397728
947.373992	2754.816657
947.675462	2752.868251
947.976893	2747.834659
948.278286	2744.298290
948.579641	2744.250399
948.880958	2741.071951
949.182236	2739.657907
949.483476	2738.241343
949.784678	2736.807135
950.085841	2736.544995
950.386967	2741.172774
950.688054	2747.532190
950.989103	2753.420257
951.290114	2763.510127
951.591087	2776.382713
951.892021	2781.365894
952.192917	2798.228553
952.493776	2806.395223
952.794596	2809.261119
953.095378	2810.720533
953.396122	2808.409164
953.696828	2804.749286
953.997496	2803.909934
954.298126	2792.020372
954.598718	2783.362191
954.899272	2770.650921
955.199788	2762.862339
955.500266	2752.986718
955.800706	2738.009450
956.101108	2724.542008
956.401472	2712.438197
956.701798	2698.849767
957.002087	2685.561286
957.302337	2676.093999
957.602550	2667.881959
957.902724	2659.097748
958.202861	2651.026861
958.502960	2645.292549
958.803022	2634.592700
959.103045	2631.242853
959.403031	2623.897892
959.702979	2619.363374
960.002889	2616.799947
960.302762	2612.280553
960.602596	2609.034050
960.902393	2606.674790
961.202153	2600.895107
961.501875	2602.649428
961.801559	2596.562235
962.101205	2594.442430
962.400814	2593.219950
962.700385	2593.262800
962.999918	2589.124012
963.299414	2589.781883
963.598873	2586.830287
963.898293	2585.151583
964.197677	2586.227870
964.497022	2584.188723
964.796331	2585.585122
965.095601	2578.772003
965.394835	2583.480441
965.694030	2580.846438
965.993189	2581.998342
966.292309	2579.366859
966.591393	2574.814697
966.890439	2580.680080
967.189447	2579.467682
967.488419	2578.623289
967.787353	2581.854669
968.086249	2578.628330
968.385108	2579.583629
968.683930	2580.848958
968.982714	2582.373907
969.281462	2584.783579
969.580172	2588.269537
969.878844	2586.681573
970.177480	2591.329517
970.476078	2592.977975
970.774639	2597.257914
971.073162	2595.886720
971.371649	2596.925198
971.670098	2600.111207
971.968510	2600.683378
972.266885	2599.864191
972.565223	2606.074892
972.863524	2607.022629
973.161788	2608.981117
973.460014	2608.643360
973.758204	2608.847527
974.056356	2607.241919
974.354471	2608.902980
974.652550	2611.365583
974.950591	2608.255191
975.248595	2610.080089
975.546563	2606.649584
975.844493	2608.315685
976.142386	2604.945674
976.440243	2603.314861
976.738062	2600.471650
977.035845	2597.157091
977.333590	2597.167173
977.631299	2592.680547
977.928971	2592.509147
978.226606	2589.928077
978.524204	2588.413210
978.821765	2588.642582
979.119290	2589.106368
979.416777	2589.371029
979.714228	2587.036975
980.011642	2589.522264
980.309020	2593.477049
980.606360	2598.316557
980.903664	2605.311157
981.200931	2620.550566
981.498162	2634.895169
981.795356	2663.365085
982.092513	2699.716846
982.389633	2736.701271
982.686717	2775.253495
982.983764	2803.247022
983.280775	2817.662202
983.577749	2819.996256
983.874686	2809.619041
984.171587	2792.776546
984.468451	2781.502005
984.765279	2764.185642
985.062070	2746.569329
985.358824	2730.077195
985.655543	2709.786550
985.952224	2691.759384
986.248869	2666.551094
986.545478	2641.214255
986.842050	2625.203551
987.138586	2608.235027
987.435086	2596.078284
987.731549	2584.062694
988.027975	2580.455748
988.324366	2578.247723
988.620719	2572.037022
988.917037	2568.926630
989.213318	2568.059551
989.509563	2564.702143
989.805772	2562.509241
990.101944	2559.144271
990.398080	2561.294323
990.694180	2559.250135
990.990244	2560.064281
991.286271	2562.431103
991.582262	2560.875907
991.878217	2560.865825
992.174136	2562.715928
992.470019	2565.082750
992.765865	2564.447564
993.061676	2567.542833
993.357450	2570.396126
993.653188	2570.605334
993.948890	2576.465675
994.244556	2583.470358
994.540186	2592.441092
994.835780	2602.909048
995.131337	2617.031840
995.426859	2628.840743
995.722345	2647.634165
996.017795	2665.051351
996.313208	2678.980059
996.608586	2684.643796
996.903928	2689.349713
997.199234	2687.164372
997.494504	2683.640606
997.789738	2675.100891
998.084936	2668.441527
998.380099	2659.228818
998.675225	2644.833804
998.970316	2639.076806
999.265371	2625.500979
999.560390	2611.194184
999.855373	2601.447113
1000.150320	2593.464446
1000.445232	2584.367684
1000.740108	2580.029771
1001.034948	2573.078020
1001.329752	2565.128120
1001.624521	2564.190466
1001.919254	2556.638817
1002.213951	2558.869528
1002.508613	2555.877603
1002.803239	2553.999773
1003.097829	2550.977601
1003.392384	2554.539177
1003.686903	2551.723692
1003.981386	2550.329813
1004.275834	2547.141283
1004.570246	2549.029195
1004.864623	2545.548279
1005.158964	2549.608928
1005.453270	2547.375697
1005.747540	2546.037271
1006.041775	2547.048022
1006.335974	2544.691283
1006.630138	2544.678680
1006.924266	2542.876467
1007.218359	2543.315048
1007.512416	2543.942671
1007.806438	2541.580891
1008.100425	2543.156251
1008.394376	2545.258412
1008.688292	2544.086344
1008.982172	2541.250695
1009.276017	2543.335212
1009.569827	2542.720191
1009.863602	2544.051056
1010.157341	2544.328319
1010.451045	2544.938299
1010.744714	2541.671631
1011.038347	2544.156920
1011.331945	2542.483257
1011.625508	2540.814635
1011.919036	2540.902855
1012.212528	2540.454193
1012.505986	2540.580222
1012.799408	2541.974101
1013.092795	2540.270191
1013.386147	2542.216076
1013.679464	2537.878163
1013.972745	2541.714481
1014.265992	2541.966539
1014.559204	2539.100643
1014.852380	2539.990407
1015.145521	2539.824048
1015.438628	2539.224151
1015.731699	2539.982845
1016.024736	2541.512835
1016.317737	2539.609799
1016.610703	2539.123328
1016.903635	2540.121477
1017.196531	2538.004192
1017.489393	2539.980324
1017.782219	2537.137113
1018.075011	2539.440921
1018.367768	2541.772454
1018.660490	2540.350849
1018.953177	2540.350849
1019.245829	2540.350849
