Dividing Wavelength (nm)	Counts (n)	Blue Motor Position (mm): 49.400000	Red Motor Position (mm): 0.000000	
326.493990	2284.071190
326.888308	2284.071190
327.282561	2284.071190
327.676750	2243.918400
328.070874	2240.729870
328.464933	2245.161044
328.858929	2245.544172
329.252859	2250.176993
329.646726	2257.380801
330.040528	2273.315889
330.434265	2284.497168
330.827938	2304.112298
331.221547	2321.930256
331.615091	2337.406598
332.008571	2358.778570
332.401986	2381.037785
332.795338	2397.623181
333.188625	2418.652354
333.581847	2436.868563
333.975006	2456.677777
334.368100	2475.854327
334.761129	2491.653303
335.154095	2508.440345
335.546996	2536.680889
335.939833	2577.678073
336.332606	2590.069229
336.725315	2604.111363
337.117960	2617.936727
337.510540	2625.440485
337.903056	2637.385499
338.295508	2648.007210
338.687896	2653.935607
339.080220	2660.403407
339.472480	2669.800118
339.864676	2675.337826
340.256807	2680.187416
340.648875	2683.829649
341.040879	2683.285205
341.432818	2688.603622
341.824694	2689.153108
342.216506	2690.277285
342.608253	2690.148736
342.999937	2690.584795
343.391557	2694.852132
343.783113	2692.737368
344.174605	2692.460105
344.566033	2691.580423
344.957397	2689.775690
345.348697	2689.989939
345.739934	2687.297963
346.131106	2685.107582
346.522215	2683.323013
346.913260	2684.853003
347.304241	2681.437622
347.695159	2677.886129
348.086012	2677.155162
348.476802	2677.384534
348.867528	2671.904800
349.258191	2670.193328
349.648789	2668.023111
350.039324	2664.660662
350.429796	2668.645694
350.820203	2669.175015
351.210548	2665.915909
351.600828	2664.522030
351.991045	2663.818789
352.381198	2664.055723
352.771288	2663.932215
353.161314	2661.668737
353.551276	2662.704694
353.941175	2661.280568
354.331010	2663.486073
354.720782	2659.606905
355.110490	2662.684529
355.500135	2662.969355
355.889717	2661.910712
356.279235	2661.641011
356.668689	2661.255362
357.058080	2662.248470
357.447408	2664.580003
357.836672	2661.134375
358.225873	2664.365754
358.615010	2663.206289
359.004084	2666.009170
359.393095	2665.774757
359.782043	2667.153512
360.170927	2665.011022
360.559748	2665.431958
360.948505	2668.696105
361.337199	2668.197031
361.725830	2669.288441
362.114398	2668.454130
362.502903	2669.643842
362.891344	2671.456137
363.279722	2670.952022
363.668037	2669.424552
364.056289	2671.183915
364.444478	2675.426046
364.832603	2673.444872
365.220665	2673.767506
365.608665	2676.081396
365.996601	2676.151972
366.384474	2674.130469
366.772284	2678.072652
367.160031	2677.192970
367.547715	2678.057528
367.935336	2677.354287
368.322893	2678.531397
368.710388	2677.518125
369.097820	2678.803619
369.485189	2680.809998
369.872495	2684.661440
370.259738	2688.568334
370.646918	2689.979857
371.034035	2696.745085
371.421090	2700.752803
371.808081	2709.950388
372.195010	2713.816953
372.581875	2724.466390
372.968678	2730.079715
373.355418	2742.092785
373.742096	2757.100300
374.128710	2770.582866
374.515262	2787.410237
374.901751	2801.399439
375.288177	2816.195226
375.674540	2838.383864
376.060841	2860.517050
376.447079	2883.431615
376.833254	2912.030081
377.219367	2929.606064
377.605417	2968.682568
377.991404	2986.334168
378.377329	3024.904036
378.763191	3044.367931
379.148991	3089.390476
379.534727	3128.257772
379.920402	3163.238339
380.306013	3184.847245
380.691563	3246.540886
381.077049	3267.252466
381.462474	3310.228303
381.847835	3368.504041
382.233134	3410.443921
382.618371	3433.638269
383.003545	3502.036645
383.388657	3522.251672
383.773706	3584.270467
384.158693	3611.706947
384.543618	3645.404540
384.928480	3704.943087
385.313280	3758.492744
385.698017	3783.874953
386.082692	3869.337635
386.467305	3875.661762
386.851856	3911.582504
387.236344	3987.393896
387.620770	4011.730066
388.005133	4062.449115
388.389435	4109.901496
388.773674	4122.542189
389.157851	4193.935010
389.541965	4265.758850
389.926018	4226.480699
390.310008	4329.446267
390.693936	4385.675297
391.077802	4419.279628
391.461606	4413.320984
391.845348	4482.099967
392.229027	4540.438720
392.612645	4542.256056
392.996200	4639.925891
393.379694	4698.771280
393.763125	4803.849091
394.146494	4832.394624
394.529801	4889.170619
394.913047	4976.372499
395.296230	4924.274694
395.679351	5028.266136
396.062410	5080.482408
396.445408	5051.820928
396.828343	5118.769971
397.211217	5177.312891
397.594028	5054.162544
397.976778	5172.087735
398.359466	5217.372420
398.742092	5240.420575
399.124656	5166.061036
399.507158	5284.268532
399.889598	5339.207026
400.271977	5459.985511
400.654294	5463.219411
401.036549	5512.655486
401.418742	5430.913176
401.800874	5630.862982
402.182944	5701.648344
402.564952	5797.505884
402.946898	5860.059042
403.328783	5688.463206
403.710606	5718.579059
404.092367	6041.429675
404.474067	6067.346247
404.855705	5958.411953
405.237282	5896.340226
405.618797	6159.927037
406.000250	6130.700947
406.381642	6337.166444
406.762972	6361.777357
407.144240	6415.213588
407.525447	6402.610704
407.906593	6407.190592
408.287677	6573.478093
408.668700	6497.034036
409.049661	6600.917093
409.430560	6631.665611
409.811399	6497.477657
410.192176	6762.223934
410.572891	6788.518592
410.953545	6967.020809
411.334138	6700.227824
411.714669	6869.285439
412.095139	6666.217679
412.475547	6909.899495
412.855894	6983.313818
413.236180	7176.405134
413.616405	6819.042779
413.996568	7040.546038
414.376670	7108.135308
414.756711	6997.421487
415.136691	7091.469253
415.516609	7299.590769
415.896466	7275.171420
416.276262	7480.666495
416.655997	7478.423181
417.035670	7640.082903
417.415283	7992.199937
417.794834	8065.198366
418.174324	7923.887262
418.553753	7843.415323
418.933121	8133.697564
419.312428	8239.811332
419.691674	8009.259202
420.070859	8493.908171
420.449983	8170.669386
420.829045	8537.441055
421.208047	8304.683420
421.586988	8620.264692
421.965867	8646.970205
422.344686	8730.446671
422.723444	8827.834202
423.102141	8138.799212
423.480777	8918.484230
423.859352	8444.363711
424.237866	9052.982215
424.616319	8920.241072
424.994712	9362.327579
425.373044	8892.300477
425.751314	9381.821721
426.129524	9268.509186
426.507673	9336.461419
426.885762	9487.834666
427.263789	9416.346063
427.641756	9369.730514
428.019662	9436.586296
428.397508	9725.978774
428.775292	9361.279019
429.153016	9758.060677
429.530679	9597.111758
429.908282	9589.993649
430.285824	9325.469183
430.663305	10011.804635
431.040726	9466.681985
431.418086	9443.575856
431.795385	9779.634295
432.172624	9884.316375
432.549802	9785.287949
432.926920	9853.129277
433.303977	9717.998627
433.680974	9924.101161
434.057910	10032.281802
434.434786	10109.870201
434.811601	9916.433566
435.188355	10482.229989
435.565050	10240.292413
435.941683	10148.838320
436.318257	10633.134408
436.694770	10817.746503
437.071222	10856.828049
437.447614	10674.048413
437.823946	10620.607141
438.200218	10683.165340
438.576429	10545.030163
438.952580	10796.253544
439.328670	10802.129009
439.704700	10614.852664
440.080670	10602.101065
440.456580	11103.872313
440.832429	10916.167471
441.208218	10519.577377
441.583947	10787.348346
441.959616	10988.944088
442.335224	10803.984153
442.710773	10893.633513
443.086261	11135.490430
443.461689	10399.260158
443.837057	11096.928124
444.212365	11309.211113
444.587612	10949.277769
444.962800	11147.135496
445.337927	10887.364838
445.712995	10593.964643
446.088002	11615.453647
446.462949	11327.497898
446.837837	11289.512804
447.212664	11184.276197
447.587431	11820.595841
447.962139	12585.999271
448.336786	14894.827567
448.711374	15356.937538
449.085901	13149.537256
449.460369	12815.565855
449.834776	12260.786874
450.209124	13214.938666
450.583412	13642.042863
450.957640	14554.186720
451.331808	13563.446234
451.705917	12666.942557
452.079965	11886.471119
452.453954	12798.388123
452.827883	12474.746046
453.201752	12754.953542
453.575562	12330.190960
453.949311	12734.788926
454.323001	12726.750807
454.696632	12965.106643
455.070202	13243.358170
455.443713	13415.274119
455.817164	13919.979319
456.190556	13892.379002
456.563888	14243.976797
456.937160	14376.344894
457.310373	13750.707455
457.683526	13870.197925
458.056619	13370.032284
458.429653	13619.592085
458.802628	12945.037809
459.175542	13366.793343
459.548398	14323.342203
459.921194	14700.987640
460.293930	14772.302323
460.666607	15597.352685
461.039224	16669.601067
461.411782	17416.579079
461.784280	17142.312584
462.156719	17279.164787
462.529099	16933.465142
462.901419	15913.614513
463.273680	15661.647561
463.645882	15582.748462
464.018024	15293.386232
464.390106	15525.359967
464.762130	16229.785600
465.134094	17045.739200
465.505999	19145.082348
465.877845	22426.422319
466.249631	25210.021444
466.621358	24798.091119
466.993026	23362.040308
467.364634	22763.715841
467.736184	21294.625307
468.107674	20506.652632
468.479105	20641.669855
468.850477	20085.887685
469.221790	19695.679692
469.593043	19004.529938
469.964238	18422.259025
470.335373	18052.147592
470.706449	18588.115507
471.077467	18187.421914
471.448425	20086.384239
471.819324	24262.211424
472.190164	26011.345615
472.560945	22285.232203
472.931667	20032.421207
473.302330	19429.673127
473.672934	19105.869733
474.043479	19287.328587
474.413965	19096.467981
474.784393	18674.047015
475.154761	19474.274736
475.525070	19366.464620
475.895321	19110.424416
476.265513	19726.450895
476.635645	20313.795730
477.005719	20060.076977
477.375734	20240.946016
477.745691	20728.750747
478.115588	21286.103237
478.485427	21864.023634
478.855207	22980.457730
479.224928	24778.723006
479.594591	27013.224531
479.964194	26856.903391
480.333739	27108.812369
480.703226	26702.576028
481.072653	26434.822703
481.442022	27083.354542
481.811333	28015.489094
482.180584	27861.902781
482.549777	26919.559892
482.918912	26607.227644
483.287988	26748.563954
483.657005	26344.487747
484.025964	26151.887943
484.394864	26008.046180
484.763706	25645.506560
485.132489	25139.644416
485.501213	25319.054040
485.869879	25233.729991
486.238487	25096.434166
486.607036	25206.855599
486.975527	24974.103006
487.343959	25253.824030
487.712333	25149.615818
488.080648	24807.881040
488.448905	25321.153681
488.817104	25109.042091
489.185244	25822.115823
489.553326	25762.998212
489.921350	26844.229930
490.289315	29219.440141
490.657222	30900.284342
491.025070	31419.535791
491.392861	31148.029327
491.760593	30273.356367
492.128267	29347.750109
492.495883	28267.425799
492.863440	27426.634434
493.230939	26550.996093
493.598380	26381.958643
493.965763	26007.211869
494.333088	25483.393135
494.700354	25475.211342
495.067563	25303.353366
495.434713	25053.415479
495.801805	25253.642548
496.168839	25004.536452
496.535815	24897.351438
496.902733	25119.089111
497.269593	24833.001110
497.636395	24974.171061
498.003139	24896.239864
498.369825	24631.193639
498.736453	24863.240471
499.103023	24724.092022
499.469535	24711.902512
499.835989	24949.240035
500.202385	24964.119001
500.568723	24532.167733
500.935003	24681.234652
501.301226	24396.243102
501.667390	25249.108030
502.033497	25420.976088
502.399546	25167.121225
502.765537	24681.267420
503.131470	25067.553395
503.497345	25220.562497
503.863163	24475.432067
504.228923	24997.098229
504.594625	25264.851554
504.960269	24837.770041
505.325856	25309.001979
505.691385	24694.215624
506.056856	25305.226155
506.422270	25314.123792
506.787625	24792.747496
507.152924	25242.864561
507.518164	25286.866273
507.883347	25099.786533
508.248472	24776.089003
508.613540	25538.689551
508.978550	25345.905746
509.343503	25377.445725
509.708398	25558.954990
510.073236	25733.268008
510.438016	25949.616687
510.802738	25602.190446
511.167403	25860.703336
511.532010	25624.815144
511.896561	26353.292122
512.261053	26330.072567
512.625488	26152.071946
512.989866	26046.331223
513.354186	25873.255809
513.718449	25998.815827
514.082655	26385.550465
514.446803	26084.049136
514.810894	26587.294922
515.174927	26085.679949
515.538904	26108.972601
515.902822	26621.796579
516.266684	26371.626798
516.630488	26267.368175
516.994235	26196.623143
517.357925	26575.175988
517.721558	26708.829579
518.085133	26840.615423
518.448651	26709.847892
518.812112	26502.502714
519.175516	26726.589564
519.538863	26872.283952
519.902152	26663.358372
520.265385	26917.924038
520.628560	26731.976037
520.991678	26691.361981
521.354739	26738.060710
521.717743	26871.452161
522.080690	26626.699101
522.443580	26966.283827
522.806413	26910.384992
523.169189	27039.229323
523.531908	27076.561588
523.894569	26721.906332
524.257174	26819.924007
524.619722	26926.120954
524.982213	26669.138054
525.344647	26660.215212
525.707025	26840.638108
526.069345	26781.749870
526.431608	26753.658040
526.793815	26918.715499
527.155964	26448.741329
527.518057	26611.096730
527.880093	26526.231425
528.242072	26736.946615
528.603995	26468.540461
528.965860	26248.017706
529.327669	26296.891693
529.689421	26285.017255
530.051117	26132.625695
530.412755	26291.452288
530.774337	26058.359416
531.135862	25980.405534
531.497331	26159.714335
531.858743	25767.943584
532.220098	26189.888161
532.581396	25908.402733
532.942638	25783.145184
533.303824	25906.217393
533.664953	25884.772325
534.026025	25572.540899
534.387040	25809.865820
534.747999	25838.575191
535.108902	26004.847568
535.469748	25519.175245
535.830537	25658.404352
536.191270	25810.518649
536.551947	25624.348837
536.912567	25232.555402
537.273131	25715.699586
537.633638	25360.552818
537.994089	25591.190648
538.354483	25058.527209
538.714821	25569.909417
539.075103	25626.002336
539.435328	25384.263886
539.795497	25003.976883
540.155609	25324.077550
540.515665	25633.339735
540.875665	24845.404869
541.235609	25218.462856
541.595496	25127.270904
541.955328	25495.837223
542.315102	25411.115592
542.674821	24921.377578
543.034483	24809.456401
543.394090	24975.950589
543.753640	24799.230420
544.113134	25430.108139
544.472571	24990.416180
544.831953	25306.307483
545.191278	24965.165040
545.550548	24838.614434
545.909761	25041.828387
546.268918	25282.029286
546.628019	25275.359839
546.987064	24939.165289
547.346053	24665.637322
547.704986	24766.571305
548.063863	24930.043321
548.422684	24966.206038
548.781449	24441.613487
549.140158	24866.194587
549.498811	24435.856489
549.857408	24215.895823
550.215949	24575.216667
550.574434	24292.355004
550.932864	24474.123888
551.291237	24690.328894
551.649555	24503.128167
552.007817	24589.089922
552.366022	24428.425828
552.724173	24426.676548
553.082267	24431.047228
553.440305	24893.099225
553.798288	24119.864363
554.156215	24600.495533
554.514086	24752.952628
554.871902	24158.651001
555.229661	24411.540483
555.587365	24253.071812
555.945014	24179.665051
556.302606	24370.349215
556.660143	24376.378435
557.017625	24601.609627
557.375050	24119.445947
557.732421	24504.645554
558.089735	24323.897503
558.446994	24365.383679
558.804197	24429.219810
559.161345	24285.851915
559.518437	24113.615853
559.875474	24263.922896
560.232455	24454.223933
560.589381	24255.801597
560.946251	24273.299442
561.303065	24568.179216
561.659825	24644.469518
562.016528	24261.223358
562.373177	23983.196162
562.729770	24352.211144
563.086307	24191.743655
563.442789	24365.701272
563.799216	24221.128541
564.155587	24200.205232
564.511904	24188.368603
564.868164	24157.234437
565.224370	24111.027220
565.580520	24059.410846
565.936615	24166.444625
566.292654	23878.826633
566.648638	24089.173818
567.004567	23931.516773
567.360441	23872.442012
567.716260	23587.077416
568.072023	23881.485842
568.427732	23688.951573
568.783385	23438.502009
569.138982	23705.915056
569.494525	23729.981525
569.850013	23491.557633
570.205445	23611.879893
570.560823	23418.360079
570.916145	23199.105175
571.271412	23393.557602
571.626625	23139.463284
571.981782	23232.386873
572.336884	23044.077091
572.691931	23176.908974
573.046923	22925.378083
573.401860	22801.642962
573.756743	22851.585673
574.111570	22724.447773
574.466342	22647.978510
574.821059	22726.781827
575.175722	22428.927772
575.530330	22375.118496
575.884882	22372.809648
576.239380	22301.447074
576.593823	22196.051671
576.948211	22169.878000
577.302544	22024.397862
577.656823	21890.295607
578.011047	21995.534735
578.365216	21862.856607
578.719330	21728.487172
579.073389	21606.617278
579.427394	21777.451899
579.781344	21509.237309
580.135239	21409.571177
580.489080	21345.566167
580.842866	21138.019343
581.196597	21358.209381
581.550273	21301.609826
581.903895	21191.584123
582.257463	21493.075370
582.610975	21030.236953
582.964434	21370.910568
583.317837	21018.327227
583.671186	21103.305957
584.024481	21104.241091
584.377721	20860.057681
584.730906	20969.939712
585.084037	20927.011766
585.437113	20876.728777
585.790135	21085.160324
586.143103	20527.197854
586.496016	20562.339738
586.848874	20792.428082
587.201679	20688.227432
587.554428	20405.668238
587.907124	20732.398022
588.259765	20476.143569
588.612352	20557.288502
588.964884	20131.134561
589.317362	20288.040475
589.669786	20359.771053
590.022155	20325.453398
590.374470	20598.646128
590.726731	20341.113743
591.078937	20155.765639
591.431090	20222.586133
591.783188	20003.094295
592.135232	19949.370718
592.487222	20050.975174
592.839157	20052.195133
593.191038	19924.737120
593.542866	19829.101390
593.894639	19527.292551
594.246358	19739.986393
594.598022	19623.949114
594.949633	19391.887158
595.301190	19375.163131
595.652692	19548.268792
596.004141	19750.668598
596.355535	19076.409230
596.706876	19112.748388
597.058162	19004.547582
597.409395	19247.805940
597.760573	19280.969171
598.111698	19047.657009
598.462768	19009.404734
598.813785	18993.910747
599.164748	18774.159290
599.515657	18843.802830
599.866511	18634.312641
600.217312	18998.480553
600.568060	18471.957240
600.918753	18801.636099
601.269392	18701.070121
601.619978	18504.787754
601.970510	18677.497685
602.320988	18633.407754
602.671412	18827.061158
603.021783	18774.018137
603.372100	18462.043811
603.722363	18629.979769
604.072572	18569.619513
604.422728	18729.550119
604.772830	18456.566597
605.122878	18433.858720
605.472872	18408.345440
605.822813	18393.776506
606.172701	18392.619561
606.522534	18552.020845
606.872314	18589.108614
607.222041	18427.363193
607.571714	18636.316499
607.921333	18459.803018
608.270899	18540.204381
608.620411	18684.610753
608.969870	18503.053597
609.319276	18479.148446
609.668627	18508.182972
610.017926	18644.107603
610.367171	18752.867976
610.716362	18811.103386
611.065500	18623.847205
611.414585	18778.708931
611.763616	18754.317308
612.112594	18684.131844
612.461518	18665.666097
612.810389	18859.856384
613.159207	18715.487821
613.507971	18624.701681
613.856682	18867.539103
614.205340	18779.722203
614.553945	18941.291184
614.902496	18695.003092
615.250994	18874.027068
615.599439	18841.781327
615.947830	18827.328339
616.296169	18913.693387
616.644454	18863.324698
616.992686	18848.755764
617.340864	19071.610052
617.688990	18808.003076
618.037063	18985.040837
618.385082	18847.072018
618.733048	19108.533983
619.080961	19010.549076
619.428821	19032.304175
619.776628	18900.483043
620.124382	18837.319906
620.472083	18894.841992
620.819731	18896.145130
621.167326	18589.305219
621.514868	18637.357498
621.862357	18421.243232
622.209793	18409.789731
622.557176	18240.843021
622.904506	18069.466476
623.251783	18031.630096
623.599007	17754.001150
623.946179	17698.435032
624.293297	17630.676883
624.640363	17347.968976
624.987376	17379.435858
625.334336	17174.994384
625.681243	17031.571037
626.028097	17059.400727
626.374899	16957.975232
626.721647	16833.541911
627.068343	16666.936817
627.414987	16605.528002
627.761577	16557.851289
628.108115	16586.298520
628.454600	16321.257336
628.801032	16419.280052
629.147412	16362.861979
629.493739	16360.747215
629.840014	16168.986764
630.186236	16276.053310
630.532405	16034.458532
630.878521	16234.206692
631.224585	16142.820655
631.570597	15958.500947
631.916556	15988.321892
632.262462	15963.022862
632.608316	15884.942950
632.954117	15829.180227
633.299866	15808.287165
633.645562	15725.786162
633.991206	15504.706360
634.336797	15382.256733
634.682336	15339.711915
635.027823	15203.348703
635.373257	15065.614298
635.718639	14984.033305
636.063968	14922.984932
636.409245	14676.280945
636.754470	14712.610021
637.099642	14564.768102
637.444762	14348.610987
637.789829	14384.004928
638.134845	14212.767014
638.479808	14241.831786
638.824719	14147.771417
639.169577	14018.206202
639.514383	14050.585533
639.859137	13879.410633
640.203839	13977.831601
640.548489	13833.810876
640.893086	13818.521057
641.237632	13697.074619
641.582125	13862.689126
641.926566	13671.909179
642.270955	13687.924925
642.615292	13646.597546
642.959576	13649.803720
643.303809	13671.689889
643.647990	13598.825052
643.992118	13673.812215
644.336195	13439.930403
644.680219	13673.723995
645.024192	13576.649016
645.368112	13827.050689
645.711981	13846.721271
646.055797	14036.838306
646.399562	14026.133416
646.743274	14288.820381
647.086935	14554.461463
647.430544	14520.282440
647.774101	14568.188525
648.117606	14697.710890
648.461059	14684.263613
648.804460	14654.442667
649.147810	14380.740781
649.491108	14291.736689
649.834354	14314.678980
650.177548	13983.346623
650.520690	13792.581800
650.863781	13719.774935
651.206820	13770.171350
651.549807	13602.426956
651.892742	13378.443449
652.235626	13313.221001
652.578458	13322.811796
652.921238	13033.394113
653.263967	13234.828538
653.606644	13064.853433
653.949269	13039.924927
654.291843	12819.255980
654.634365	13005.640040
654.976836	12849.079446
655.319255	12828.050272
655.661622	12802.973053
656.003938	12735.983680
656.346203	12640.405923
656.688416	12741.140780
657.030577	12680.566276
657.372687	12579.574320
657.714746	12579.513826
658.056753	12765.592897
658.398708	12561.721074
658.740612	12569.749111
659.082465	12691.712267
659.424266	12671.847600
659.766016	12693.776619
660.107715	12609.541459
660.449362	12687.830578
660.790958	12624.826237
661.132503	12571.601735
661.473996	12654.911844
661.815438	12654.314467
662.156829	12692.803677
662.498168	12652.597954
662.839456	12663.224706
663.180693	12667.449193
663.521879	12775.430709
663.863013	12738.126170
664.204097	12711.771018
664.545129	12850.037265
664.886110	12821.368223
665.227040	12919.360692
665.567918	12908.023137
665.908746	12927.658431
666.249522	12922.760950
666.590248	12982.284374
666.930922	13095.175974
667.271545	13056.492680
667.612118	13147.248572
667.952639	13043.988097
668.293109	13076.735433
668.633528	13012.498530
668.973896	13001.095440
669.314213	13053.677195
669.654480	12793.392340
669.994695	12892.488822
670.334859	12918.377667
670.674973	12848.098941
671.015035	12879.316287
671.355047	12835.307013
671.695008	12808.155359
672.034918	12820.428048
672.374777	12857.561187
672.714585	12775.881892
673.054342	12815.659116
673.394049	12773.474741
673.733705	12865.556457
674.073310	12750.776946
674.412864	12766.989297
674.752368	12615.396759
675.091820	12676.442612
675.431223	12643.995225
675.770574	12504.327537
676.109875	12410.262127
676.449125	12375.742826
676.788324	12337.251096
677.127473	12160.031853
677.466571	12155.245277
677.805619	12045.474152
678.144616	11976.259110
678.483562	11963.142028
678.822458	11821.649442
679.161303	11798.112295
679.500098	11783.175356
679.838842	11748.270407
680.177535	11788.455965
680.516179	11855.528517
680.854771	11786.162240
681.193314	12008.121723
681.531805	12180.882065
681.870247	12630.810087
682.208638	13030.366900
682.546978	13316.971619
682.885268	13336.165813
683.223508	13046.690156
683.561697	12900.940316
683.899836	12800.354173
684.237925	12598.995365
684.575963	12514.203158
684.913951	12426.487081
685.251889	12391.942574
685.589776	12491.517965
685.927614	12396.232596
686.265401	12387.201369
686.603137	12434.048811
686.940824	12588.015732
687.278460	12726.846588
687.616046	12750.416503
687.953582	12895.989903
688.291068	12852.681350
688.628504	13084.982761
688.965889	13086.308584
689.303224	13026.626364
689.640510	12914.135536
689.977745	12585.598499
690.314930	12373.736447
690.652065	12289.183694
690.989150	11985.933084
691.326185	11763.610638
691.663170	11554.586755
692.000105	11328.838845
692.336990	11202.638600
692.673825	10935.712024
693.010610	10826.563482
693.347345	10626.144849
693.684030	10428.113202
694.020665	10369.401404
694.357251	10173.292958
694.693786	10085.344988
695.030272	9941.311660
695.366707	9830.446605
695.703093	9768.856308
696.039429	9759.199978
696.375716	9658.054267
696.711952	9542.314416
697.048139	9603.405639
697.384276	9547.957987
697.720363	9562.131192
698.056400	9494.388166
698.392388	9442.630640
698.728326	9410.488243
699.064214	9353.946661
699.400053	9383.134942
699.735842	9202.165081
700.071581	9167.799535
700.407270	9099.791849
700.742910	9008.630143
701.078501	8918.426257
701.414042	8771.617775
701.749533	8738.058813
702.084974	8590.342923
702.420366	8714.163744
702.755709	8585.198426
703.091002	8453.944424
703.426246	8482.290832
703.761440	8444.119215
704.096584	8391.542501
704.431679	8331.895569
704.766725	8313.959143
705.101721	8271.862988
705.436668	8322.866862
705.771565	8214.189667
706.106413	8297.593037
706.441212	8324.119589
706.775961	8290.117006
707.110661	8349.630348
707.445311	8464.407339
707.779913	8367.584417
708.114465	8488.995567
708.448967	8522.965382
708.783421	8696.509623
709.117825	8864.533802
709.452180	8898.740551
709.786485	8977.553950
710.120742	9270.422304
710.454949	9282.493347
710.789107	9389.733812
711.123216	9612.273028
711.457275	9791.047467
711.791286	9922.223331
712.125247	9939.821999
712.459159	9925.706769
712.793023	10139.489500
713.126837	9717.060973
713.460602	9881.659687
713.794318	9705.841885
714.127985	9723.838804
714.461602	9384.579233
714.795171	9343.448458
715.128691	9092.552752
715.462162	8849.798509
715.795584	8791.636197
716.128957	8624.824416
716.462281	8455.660937
716.795556	8498.833378
717.128782	8280.926983
717.461960	8040.131228
717.795088	8106.906352
718.128167	8007.827514
718.461198	7852.756581
718.794180	7806.476268
719.127113	7798.828837
719.459997	7614.405786
719.792833	7399.975266
720.125619	7471.930175
720.458357	7326.528175
720.791046	7317.121382
721.123686	7304.377345
721.456278	7144.224928
721.788821	7163.104049
722.121315	7070.460245
722.453761	7140.968343
722.786158	7071.004689
723.118506	7082.400218
723.450805	7047.936369
723.783056	7100.238340
724.115259	7023.968203
724.447412	7028.381733
724.779518	7080.101451
725.111574	7084.290650
725.443582	7152.938563
725.775542	7128.483925
726.107453	7322.974161
726.439315	7228.487815
726.771129	7317.053326
727.102895	7498.154258
727.434612	7600.209897
727.766281	7639.891339
728.097901	7702.507511
728.429473	7730.090184
728.760996	7717.094090
729.092471	7690.270110
729.423897	7625.468598
729.755276	7612.434695
730.086606	7526.621653
730.417887	7637.355639
730.749120	7865.316616
731.080305	8045.127012
731.411442	8142.204511
731.742530	8126.476111
732.073570	8231.702636
732.404562	8315.756315
732.735506	8189.646810
733.066401	8320.048857
733.397249	8229.013180
733.728048	7979.957495
734.058798	7644.677915
734.389501	7418.355313
734.720156	7250.729386
735.050762	7033.143103
735.381320	6948.827285
735.711831	6881.290947
736.042293	6773.841273
736.372707	6783.908457
736.703073	6661.736094
737.033391	6708.555810
737.363661	6712.243414
737.693883	6750.835967
738.024056	6832.656415
738.354182	6858.628439
738.684260	6903.908083
739.014290	7031.716457
739.344272	7135.266798
739.674207	7165.727970
740.004093	7241.945175
740.333931	7255.183245
740.663722	7260.446210
740.993464	7340.497212
741.323159	7305.304917
741.652806	7065.424132
741.982405	7112.468180
742.311956	7142.515977
742.641460	6947.466173
742.970915	6769.949502
743.300323	6758.564056
743.629683	6726.504838
743.958996	6576.711993
744.288260	6479.947045
744.617477	6437.639161
744.946647	6422.064516
745.275768	6270.461897
745.604842	6227.932202
745.933869	6210.280602
746.262847	6164.711092
746.591778	6148.266848
746.920662	6104.527277
747.249498	6113.172856
747.578286	6163.392830
747.907027	6232.292800
748.235720	6295.118180
748.564365	6270.325786
748.892963	6323.184804
749.221514	6441.659481
749.550017	6246.433237
749.878473	6149.990923
750.206881	6208.783379
750.535242	6161.915772
750.863555	6094.026553
751.191821	6102.034426
751.520039	6097.116781
751.848210	6002.978274
752.176334	6043.713317
752.504411	6080.977527
752.832440	5997.359908
753.160421	5933.755670
753.488356	5982.828782
753.816243	6004.992215
754.144082	5860.245564
754.471875	5840.053223
754.799620	5878.073605
755.127318	5893.660853
755.454969	5851.962948
755.782572	5814.360982
756.110129	5860.855544
756.437638	5832.105843
756.765100	5779.065343
757.092515	5790.319719
757.419882	5849.946487
757.747203	5811.414428
758.074477	5874.806937
758.401703	5850.730386
758.728882	5819.981868
759.056014	5892.035080
759.383099	5999.532645
759.710138	6008.831053
760.037129	5999.212532
760.364073	6002.774107
760.690970	6080.153298
761.017820	6055.181942
761.344623	6027.944588
761.671379	6138.754191
761.998088	6268.279077
762.324751	6531.336567
762.651366	7196.229471
762.977935	8583.192047
763.304456	10240.531868
763.630931	11075.263765
763.957359	10592.762328
764.283740	9630.645513
764.610074	8736.128052
764.936362	7739.582677
765.262602	7152.729355
765.588796	6625.691844
765.914943	6304.363656
766.241044	6122.957735
766.567097	5901.419188
766.893104	5648.625487
767.219064	5478.380681
767.544978	5417.087812
767.870845	5329.916180
768.196665	5228.435232
768.522438	5153.995034
768.848165	5116.335094
769.173846	5047.805649
769.499479	4999.435778
769.825066	4956.787616
770.150607	4892.979211
770.476101	4876.867683
770.801548	4867.075242
771.126949	4777.980410
771.452303	4726.109457
771.777611	4691.086041
772.102872	4712.095049
772.428087	4671.871683
772.753256	4628.306031
773.078378	4578.136468
773.403453	4508.102238
773.728482	4497.268799
774.053465	4452.392447
774.378401	4442.310140
774.703291	4430.042492
775.028135	4355.927448
775.352932	4314.612672
775.677683	4300.754540
776.002388	4314.932785
776.327046	4321.009896
776.651658	4250.088423
776.976224	4188.346891
777.300743	4195.981719
777.625216	4214.664235
777.949643	4200.354920
778.274024	4167.380732
778.598359	4130.940752
778.922647	4158.606604
779.246889	4139.057009
779.571086	4133.161380
779.895236	4119.426756
780.219339	4110.904686
780.543397	4105.064509
780.867409	4158.994773
781.191374	4167.332841
781.515294	4102.974951
781.839167	4098.611832
782.162995	4126.781800
782.486776	4111.267649
782.810511	4122.027992
783.134201	4107.648100
783.457844	4054.786561
783.781441	4009.721166
784.104993	4015.997403
784.428498	4031.836708
784.751958	4023.586860
785.075372	4005.166484
785.398739	3968.978561
785.722061	3982.002382
786.045337	4027.375287
786.368568	4053.301941
786.691752	3963.423209
787.014891	4029.353940
787.337983	4161.404444
787.661030	4333.131350
787.984031	4488.673632
788.306987	4649.403260
788.629897	4737.205037
788.952760	4690.854148
789.275579	4626.115650
789.598351	4547.256880
789.921078	4395.482862
790.243759	4198.396431
790.566395	4195.570865
790.888984	4180.729708
791.211529	4073.148964
791.534027	4014.626209
791.856480	3995.444619
792.178888	3936.049744
792.501249	3894.750091
792.823566	3905.195362
793.145836	3924.651695
793.468062	3873.632698
793.790241	3835.892099
794.112375	3862.232128
794.434464	3935.744754
794.756507	3953.882826
795.078505	3925.874175
795.400457	3975.090960
795.722364	4123.754587
796.044226	4224.975915
796.366042	4298.302018
796.687812	4263.220629
797.009538	4269.499386
797.331218	4234.259200
797.652852	4209.464285
797.974442	4181.798432
798.295986	4178.294830
798.617484	4093.469855
798.938938	4014.908514
799.260346	4061.229156
799.581709	4045.306671
799.903026	3965.268272
800.224299	3934.247532
800.545526	3926.211932
800.866708	3886.293556
801.187845	3836.978468
801.508936	3867.633725
801.829983	3850.304758
802.150984	3781.982000
802.471940	3776.650980
802.792851	3778.596865
803.113717	3785.039460
803.434538	3779.012761
803.755314	3720.978997
804.076045	3704.118858
804.396731	3725.780697
804.717372	3746.966146
805.037967	3732.213209
805.358518	3718.922207
805.679024	3748.397833
805.999485	3766.455246
806.319901	3768.721245
806.640272	3781.374541
806.960598	3795.409113
807.280879	3769.467336
807.601115	3787.658339
807.921306	3802.880103
808.241453	3840.295547
808.561554	3807.764982
808.881611	3742.971031
809.201623	3791.373670
809.521590	3796.785348
809.841513	3766.616563
810.161390	3797.155873
810.481223	3768.849794
810.801011	3720.802557
811.120755	3719.665777
811.440453	3750.626023
811.760107	3744.649735
812.079716	3698.881100
812.399281	3678.038449
812.718801	3699.556614
813.038276	3672.962007
813.357707	3672.835978
813.677093	3683.568595
813.996434	3631.483393
814.315731	3645.853202
814.634983	3651.290087
814.954191	3670.186852
815.273354	3691.752908
815.592473	3682.882998
815.911547	3699.652396
816.230577	3748.755755
816.549562	3793.271664
816.868502	3835.287161
817.187399	3855.313145
817.506250	3854.221735
817.825058	3837.210361
818.143821	3937.355403
818.462539	4030.362171
818.781213	4075.205755
819.099843	4142.472391
819.418429	4421.323816
819.736970	4660.123274
820.055466	4921.529786
820.373919	5291.220283
820.692327	5708.746288
821.010691	6225.472119
821.329011	7752.566169
821.647286	10707.284740
821.965517	15504.519837
822.283704	19488.989864
822.601847	21393.729351
822.919945	19426.620708
823.237999	16737.127323
823.556010	14217.205750
823.873976	12029.869261
824.191897	9915.770654
824.509775	8594.766536
824.827609	7469.107129
825.145398	6959.456558
825.463144	6829.989644
825.780845	6940.849659
826.098502	7188.047679
826.416116	8167.259046
826.733685	9543.642760
827.051210	10629.592998
827.368692	10527.708758
827.686129	9178.632974
828.003522	7678.985487
828.320872	6648.422406
828.638177	5924.069093
828.955439	5347.547615
829.272656	4844.687478
829.589830	4582.297941
829.906960	4400.723141
830.224046	4206.341290
830.541088	4087.470882
830.858086	4038.470867
831.175041	3959.181078
831.491952	3953.131694
831.808819	3959.468424
832.125642	4042.894479
832.442421	4201.262327
832.759157	4506.821785
833.075849	5101.587198
833.392497	6007.474983
833.709101	6802.774975
834.025662	7090.004798
834.342179	6648.676985
834.658653	5965.923272
834.975083	5301.181603
835.291469	4720.165937
835.607811	4325.204136
835.924110	4176.293492
836.240366	3971.269765
836.556578	3764.973147
836.872746	3658.491375
837.188871	3613.494036
837.504952	3545.229251
837.820990	3459.421251
838.136984	3422.804830
838.452935	3445.973973
838.768842	3439.148251
839.084706	3467.139257
839.400526	3641.502687
839.716303	4017.643340
840.032037	4580.059668
840.347727	4794.855672
840.663373	4471.669820
840.978977	4075.238522
841.294537	3767.181173
841.610054	3542.716236
841.925527	3438.581121
842.240957	3367.533619
842.556344	3312.506904
842.871687	3249.815115
843.186987	3197.006508
843.502244	3165.947959
843.817458	3127.234418
844.132629	3101.988320
844.447756	3109.131635
844.762840	3087.989035
845.077881	3059.297308
845.392879	3040.203938
845.707833	3038.129503
846.022745	3036.677651
846.337613	3036.803680
846.652438	3022.990918
846.967221	3018.290042
847.281960	3007.055831
847.596656	3002.833865
847.911309	3005.687158
848.225919	2999.189110
848.540485	2994.546208
848.855009	2994.011845
849.169490	2980.214207
849.483928	2971.437558
849.798323	2972.486118
850.112675	2968.987558
850.426984	2985.182264
850.741251	2977.381079
851.055474	2966.197279
851.369654	2959.099334
851.683792	2967.717187
851.997887	2974.338743
852.311938	2979.508446
852.625947	2964.175776
852.939914	2970.202476
853.253837	2975.377220
853.567718	2955.714200
853.881555	2960.057154
854.195350	2973.322950
854.509103	2965.032773
854.822812	2957.352575
855.136479	2954.264868
855.450103	2960.094962
855.763685	2953.763273
856.077224	2951.298149
856.390720	2964.687453
856.704173	2971.477888
857.017584	2961.904737
857.330953	2961.196454
857.644278	2972.823876
857.957561	2980.912407
858.270802	2984.373159
858.584000	2982.563385
858.897155	2967.883545
859.210268	2968.652321
859.523339	2966.439254
859.836367	2967.875983
860.149352	2963.167546
860.462295	2959.064046
860.775195	2965.163843
861.088054	2961.766105
861.400869	2946.637602
861.713642	2948.154989
862.026373	2961.927422
862.339062	2965.733493
862.651708	2968.916982
862.964312	2969.645428
863.276873	2964.657207
863.589392	2975.939309
863.901869	2987.609580
864.214303	3012.354084
864.526696	3023.784900
864.839045	3019.598222
865.151353	3021.917153
865.463619	3020.951772
865.775842	3024.316742
866.088023	3043.463044
866.400162	3045.560164
866.712258	3013.352232
867.024313	3004.845285
867.336325	3014.781399
867.648296	3037.002805
867.960224	3031.744882
868.272110	3014.983045
868.583954	3019.469672
868.895755	3035.641694
869.207515	3020.694673
869.519233	3029.912423
869.830909	3041.035728
870.142542	3045.207283
870.454134	3046.197870
870.765684	3051.382697
871.077191	3053.343706
871.388657	3060.308060
871.700081	3071.849781
872.011463	3085.821339
872.322803	3083.794795
872.634101	3079.958477
872.945357	3103.278855
873.256571	3127.972947
873.567744	3121.386680
873.878874	3116.065742
874.189963	3138.796304
874.501010	3133.251035
874.812015	3126.145529
875.122979	3125.525467
875.433900	3128.908081
875.744780	3133.803042
876.055618	3141.122797
876.366415	3137.132724
876.677169	3144.238230
876.987882	3141.049700
877.298554	3141.155564
877.609183	3165.559790
877.919771	3188.010569
878.230317	3217.566854
878.540822	3271.391253
878.851285	3308.053045
879.161707	3361.562372
879.472087	3479.159889
879.782425	3737.385433
880.092722	4204.163511
880.402977	4750.944702
880.713191	5426.350932
881.023363	6673.630696
881.333494	7995.827047
881.643583	8492.864652
881.953631	8153.075759
882.263637	7451.135416
882.573602	6816.068498
882.883526	6230.977059
883.193408	5662.216438
883.503248	5210.501327
883.813048	4887.567532
884.122806	4551.289803
884.432522	4223.566913
884.742197	3984.752331
885.051831	3793.516160
885.361424	3667.139474
885.670975	3589.742639
885.980485	3495.228567
886.289954	3416.059766
886.599382	3371.606871
886.908768	3336.832992
887.218113	3290.998821
887.527417	3226.648492
887.836680	3179.261646
888.145901	3174.074299
888.455082	3160.727844
888.764221	3105.983434
889.073319	3076.646439
889.382376	3075.146696
889.691392	3081.317068
890.000366	3078.037798
890.309300	3065.051785
890.618193	3075.449165
890.927044	3095.664192
891.235855	3090.653285
891.544625	3081.611976
891.853353	3096.485900
892.162041	3114.868468
892.470687	3158.464366
892.779293	3205.954556
893.087858	3256.686208
893.396381	3336.250739
893.704864	3471.915751
894.013306	3730.635328
894.321707	4050.834297
894.630068	4235.814396
894.938387	4220.973239
895.246665	4183.146941
895.554903	4046.614851
895.863100	3840.625743
896.171256	3670.340607
896.479371	3521.997093
896.787446	3390.876682
897.095480	3286.345836
897.403473	3225.184037
897.711425	3190.190868
898.019336	3183.198787
898.327207	3142.919968
898.635038	3109.177005
898.942827	3098.663679
899.250576	3085.796133
899.558284	3053.900753
899.865952	3032.732948
900.173579	3009.004237
900.481165	3001.780263
900.788711	2985.245279
901.096216	2966.552680
901.403681	2953.634724
901.711105	2960.977164
902.018489	2960.546146
902.325832	2958.769139
902.633135	2971.067034
902.940397	3006.483660
903.247619	3104.513938
903.554800	3315.700475
903.861941	3697.131819
904.169041	4147.664780
904.476101	4436.515333
904.783121	4354.200853
905.090100	4085.494750
905.397039	3795.194864
905.703938	3541.350083
906.010796	3357.673122
906.317614	3241.290524
906.624391	3143.610606
906.931129	3071.146540
907.237826	3006.836541
907.544483	2959.484983
907.851099	2931.088163
908.157675	2908.506314
908.464211	2888.460166
908.770707	2869.598689
909.077163	2859.123171
909.383578	2841.126252
909.689954	2834.028307
909.996289	2831.747185
910.302584	2831.636280
910.608839	2830.491938
910.915054	2822.567244
911.221229	2820.202943
911.527363	2823.721668
911.833458	2830.312977
912.139513	2835.638956
912.445527	2837.675582
912.751502	2845.101202
913.057436	2857.792307
913.363331	2870.067516
913.669186	2895.268244
913.975000	2934.606888
914.280775	3000.204903
914.586510	3069.397260
914.892205	3153.637461
915.197859	3296.531488
915.503475	3510.712471
915.809050	3739.270824
916.114585	3886.364132
916.420081	3888.378073
916.725536	3819.271415
917.030952	3692.123433
917.336328	3557.227197
917.641665	3424.465890
917.946961	3320.794561
918.252218	3244.446286
918.557435	3160.473266
918.862612	3097.778956
919.167750	3048.476472
919.472848	3007.030625
919.777906	2979.707571
920.082925	2955.066411
920.387904	2922.112389
920.692843	2903.747465
920.997743	2892.351937
921.302603	2877.840976
921.607423	2865.580889
921.912204	2854.802902
922.216946	2841.665656
922.521647	2835.560818
922.826310	2823.265444
923.130932	2817.881492
923.435516	2807.385809
923.740059	2800.764254
924.044564	2792.050619
924.349028	2786.948972
924.653454	2781.232303
924.957840	2771.835592
925.262186	2768.357196
925.566493	2764.296547
925.870761	2758.907553
926.174989	2756.018972
926.479178	2751.373549
926.783328	2746.700399
927.087438	2745.856006
927.391509	2742.468351
927.695541	2736.673544
927.999533	2736.066085
928.303486	2732.713718
928.607400	2731.748337
928.911275	2732.975858
929.215110	2729.573079
929.518906	2730.435117
929.822663	2731.564335
930.126381	2727.768346
930.430060	2727.876731
930.733699	2730.354458
931.037299	2734.654562
931.340861	2732.716239
931.644383	2732.804459
931.947866	2734.291599
932.251309	2731.960066
932.554714	2732.771691
932.858080	2728.073336
933.161407	2727.407904
933.464694	2723.697614
933.767943	2719.531101
934.071153	2725.462018
934.374323	2723.805999
934.677455	2722.933880
934.980548	2721.461863
935.283602	2723.100238
935.586617	2721.618138
935.889593	2721.814743
936.192530	2720.451111
936.495428	2720.841801
936.798287	2723.579147
937.101108	2724.584857
937.403890	2731.599623
937.706632	2738.243864
938.009336	2744.348701
938.312002	2752.953951
938.614628	2763.772267
938.917216	2767.482556
939.219765	2767.409459
939.522275	2767.091867
939.824747	2767.472474
940.127179	2762.733789
940.429573	2759.091556
940.731929	2756.180289
941.034246	2752.462438
941.336524	2750.282139
941.638763	2748.369021
941.940964	2746.818867
942.243126	2742.559092
942.545250	2743.612693
942.847335	2740.136817
943.149381	2737.361662
943.451389	2731.206413
943.753359	2729.023593
944.055290	2729.396639
944.357182	2728.514437
944.659036	2728.431258
944.960851	2724.481514
945.262628	2721.512274
945.564367	2722.056719
945.866067	2722.840618
946.167729	2725.396483
946.469352	2726.639128
946.770937	2722.865824
947.072484	2720.851883
947.373992	2723.443036
947.675462	2718.666543
947.976893	2717.108826
948.278286	2713.902652
948.579641	2713.776624
948.880958	2712.866695
949.182236	2715.868702
949.483476	2713.413661
949.784678	2715.069680
950.085841	2716.647561
950.386967	2715.046994
950.688054	2716.355174
950.989103	2717.378528
951.290114	2717.950699
951.591087	2722.011348
951.892021	2722.006307
952.192917	2727.377657
952.493776	2727.700291
952.794596	2726.833212
953.095378	2726.744992
953.396122	2726.482852
953.696828	2725.174672
953.997496	2724.174003
954.298126	2719.636965
954.598718	2718.802654
954.899272	2712.375183
955.199788	2714.505070
955.500266	2710.278063
955.800706	2709.403423
956.101108	2706.146837
956.401472	2706.333360
956.701798	2701.264480
957.002087	2698.968234
957.302337	2699.023687
957.602550	2701.705581
957.902724	2695.852801
958.202861	2695.837678
958.502960	2694.153932
958.803022	2693.372553
959.103045	2692.644107
959.403031	2690.340299
959.702979	2692.709642
960.002889	2690.930114
960.302762	2689.773170
960.602596	2689.747964
960.902393	2686.622448
961.202153	2686.929959
961.501875	2688.878365
961.801559	2688.568334
962.101205	2688.623787
962.400814	2689.014476
962.700385	2691.119158
962.999918	2685.435257
963.299414	2684.300997
963.598873	2685.110102
963.898293	2683.431398
964.197677	2689.195957
964.497022	2686.753518
964.796331	2689.702593
965.095601	2684.600946
965.394835	2685.871317
965.694030	2685.722602
965.993189	2684.719413
966.292309	2684.578261
966.591393	2685.478107
966.890439	2685.959537
967.189447	2686.670339
967.488419	2683.953157
967.787353	2686.078004
968.086249	2685.929290
968.385108	2688.457428
968.683930	2687.393745
968.982714	2687.146728
969.281462	2684.989115
969.580172	2685.566327
969.878844	2687.035823
970.177480	2686.350226
970.476078	2688.742254
970.774639	2686.561955
971.073162	2687.393745
971.371649	2684.948785
971.670098	2686.927438
971.968510	2686.561955
972.266885	2687.940710
972.565223	2688.333920
972.863524	2685.092458
973.161788	2684.850483
973.460014	2683.965760
973.758204	2686.264527
974.056356	2685.641944
974.354471	2687.315607
974.652550	2685.246213
974.950591	2685.047088
975.248595	2684.535411
975.546563	2687.890299
975.844493	2684.288394
976.142386	2684.900894
976.440243	2684.454752
976.738062	2682.831501
977.035845	2685.064732
977.333590	2686.133457
977.631299	2685.417613
977.928971	2680.142045
978.226606	2682.072807
978.524204	2679.282528
978.821765	2679.012827
979.119290	2683.295287
979.416777	2685.788137
979.714228	2684.550534
980.011642	2683.242355
980.309020	2681.624144
980.606360	2684.973991
980.903664	2683.554906
981.200931	2680.789833
981.498162	2686.002387
981.795356	2686.141018
982.092513	2690.526822
982.389633	2689.609332
982.686717	2692.160156
982.983764	2699.056454
983.280775	2700.026877
983.577749	2701.461085
983.874686	2701.503935
984.171587	2696.755168
984.468451	2694.736186
984.765279	2694.221988
985.062070	2691.310722
985.358824	2690.398273
985.655543	2688.177644
985.952224	2686.014989
986.248869	2687.194619
986.545478	2684.361491
986.842050	2684.973991
987.138586	2679.832014
987.435086	2680.976356
987.731549	2682.047601
988.027975	2683.532221
988.324366	2679.625327
988.620719	2680.378979
988.917037	2679.451407
989.213318	2680.003413
989.509563	2679.055677
989.805772	2680.817560
990.101944	2682.740760
990.398080	2679.965605
990.694180	2680.895698
990.990244	2681.157838
991.286271	2683.065914
991.582262	2682.105575
991.878217	2680.479802
992.174136	2680.915862
992.470019	2680.187416
992.765865	2678.866633
993.061676	2677.366890
993.357450	2675.231961
993.653188	2673.543175
993.948890	2679.083403
994.244556	2680.973836
994.540186	2681.031809
994.835780	2678.848989
995.131337	2682.523990
995.426859	2682.294618
995.722345	2683.678415
996.017795	2682.249247
996.313208	2684.600946
996.608586	2684.222859
996.903928	2683.968281
997.199234	2686.125895
997.494504	2686.254444
997.789738	2683.799402
998.084936	2684.066583
998.380099	2683.292766
998.675225	2684.013651
998.970316	2681.820749
999.265371	2681.692200
999.560390	2682.503826
999.855373	2680.104237
1000.150320	2680.678928
1000.445232	2680.147086
1000.740108	2678.909483
1001.034948	2678.332271
1001.329752	2675.841941
1001.624521	2677.732374
1001.919254	2678.639781
1002.213951	2677.840758
1002.508613	2680.812519
1002.803239	2678.115501
1003.097829	2679.312775
1003.392384	2676.943433
1003.686903	2677.596262
1003.981386	2676.691375
1004.275834	2679.637930
1004.570246	2680.565502
1004.864623	2675.761282
1005.158964	2677.208094
1005.453270	2676.280521
1005.747540	2678.932168
1006.041775	2677.384534
1006.335974	2678.705316
1006.630138	2678.768331
1006.924266	2679.602642
1007.218359	2679.791685
1007.512416	2674.500994
1007.806438	2673.021415
1008.100425	2674.178360
1008.394376	2674.135510
1008.688292	2677.994514
1008.982172	2677.568536
1009.276017	2677.503001
1009.569827	2676.167095
1009.863602	2680.489885
1010.157341	2676.318330
1010.451045	2678.964936
1010.744714	2676.830007
1011.038347	2679.040553
1011.331945	2677.752538
1011.625508	2677.114832
1011.919036	2677.356808
1012.212528	2676.802281
1012.505986	2677.356808
1012.799408	2676.046108
1013.092795	2677.833197
1013.386147	2679.413598
1013.679464	2677.818073
1013.972745	2676.709019
1014.265992	2676.966118
1014.559204	2675.973011
1014.852380	2676.149451
1015.145521	2678.226407
1015.438628	2676.673731
1015.731699	2677.790347
1016.024736	2676.088957
1016.317737	2677.223217
1016.610703	2676.882939
1016.903635	2675.708350
1017.196531	2676.303207
1017.489393	2677.578618
1017.782219	2675.196673
1018.075011	2675.408402
1018.367768	2675.899914
1018.660490	2679.350584
1018.953177	2679.350584
1019.245829	2679.350584
