Dividing Wavelength (nm)	Counts (n)	Blue Motor Position (mm): 8.500000	Red Motor Position (mm): 0.000000	
326.493990	2160.557880
326.888308	2160.557880
327.282561	2160.557880
327.676750	2119.550614
328.070874	2115.361415
328.464933	2114.993411
328.858929	2117.682867
329.252859	2123.651593
329.646726	2133.499487
330.040528	2145.580612
330.434265	2156.237611
330.827938	2176.233348
331.221547	2190.618280
331.615091	2208.998327
332.008571	2228.711759
332.401986	2245.758421
332.795338	2266.999323
333.188625	2285.767539
333.581847	2299.033335
333.975006	2320.097796
334.368100	2338.659325
334.761129	2354.987622
335.154095	2374.759028
335.546996	2393.640669
335.939833	2412.852507
336.332606	2429.591658
336.725315	2441.065324
337.117960	2452.498661
337.510540	2464.264714
337.903056	2475.052783
338.295508	2483.423619
338.687896	2493.319404
339.080220	2497.432986
339.472480	2505.372803
339.864676	2511.638957
340.256807	2519.840915
340.648875	2519.815709
341.040879	2525.693694
341.432818	2526.623787
341.824694	2530.024045
342.216506	2528.935156
342.608253	2529.051103
342.999937	2530.180321
343.391557	2534.966897
343.783113	2533.472195
344.174605	2531.554036
344.566033	2529.905578
344.957397	2530.170239
345.348697	2523.785618
345.739934	2523.150432
346.131106	2527.160670
346.522215	2521.660771
346.913260	2520.907119
347.304241	2515.160203
347.695159	2515.321520
348.086012	2513.504184
348.476802	2511.845645
348.867528	2508.463030
349.258191	2506.118894
349.648789	2506.597803
350.039324	2502.385919
350.429796	2505.367762
350.820203	2501.702843
351.210548	2501.392812
351.600828	2502.796773
351.991045	2500.424911
352.381198	2498.501710
352.771288	2500.127483
353.161314	2499.898110
353.551276	2499.988851
353.941175	2496.460043
354.331010	2497.609426
354.720782	2493.193375
355.110490	2498.080774
355.500135	2495.280413
355.889717	2496.528099
356.279235	2497.727893
356.668689	2498.363079
357.058080	2495.111534
357.447408	2498.247132
357.836672	2495.734117
358.225873	2498.269817
358.615010	2496.906185
359.004084	2498.829385
359.393095	2499.343583
359.782043	2499.020949
360.170927	2499.973727
360.559748	2500.540857
360.948505	2502.189314
361.337199	2502.915241
361.725830	2503.585714
362.114398	2502.690909
362.502903	2506.756600
362.891344	2502.605210
363.279722	2503.154695
363.668037	2502.522031
364.056289	2504.500683
364.444478	2506.494460
364.832603	2508.563853
365.220665	2506.776764
365.608665	2504.273832
365.996601	2506.386075
366.384474	2506.953205
366.772284	2506.640653
367.160031	2508.115191
367.547715	2507.858092
367.935336	2507.520335
368.322893	2504.770385
368.710388	2505.145951
369.097820	2507.195180
369.485189	2503.484891
369.872495	2511.197856
370.259738	2509.395644
370.646918	2509.972856
371.034035	2509.335150
371.421090	2509.987979
371.808081	2509.849348
372.195010	2512.737929
372.581875	2510.580315
372.968678	2514.817405
373.355418	2514.615759
373.742096	2511.656601
374.128710	2511.323885
374.515262	2512.017044
374.901751	2510.993690
375.288177	2514.827487
375.674540	2515.777745
376.060841	2516.133146
376.447079	2514.620800
376.833254	2517.292611
377.219367	2516.765811
377.605417	2516.788496
377.991404	2515.515605
378.377329	2515.553413
378.763191	2516.239010
379.148991	2515.641633
379.534727	2514.787158
379.920402	2515.245903
380.306013	2515.906294
380.691563	2517.234638
381.077049	2517.413599
381.462474	2519.117509
381.847835	2516.022241
382.233134	2516.702796
382.618371	2517.204391
383.003545	2517.111130
383.388657	2519.268744
383.773706	2517.738753
384.158693	2517.814371
384.543618	2519.576254
384.928480	2515.253465
385.313280	2517.892509
385.698017	2518.729340
386.082692	2517.148938
386.467305	2520.055164
386.851856	2520.135822
387.236344	2519.044412
387.620770	2516.785975
388.005133	2518.807478
388.389435	2520.123219
388.773674	2517.716068
389.157851	2520.282016
389.541965	2519.755215
389.926018	2522.285874
390.310008	2523.452901
390.693936	2521.746471
391.077802	2520.569361
391.461606	2520.350071
391.845348	2524.135978
392.229027	2524.251924
392.612645	2524.229239
392.996200	2524.020031
393.379694	2523.515916
393.763125	2522.283354
394.146494	2524.408200
394.529801	2525.350896
394.913047	2524.413241
395.296230	2524.125895
395.679351	2522.472397
396.062410	2525.091276
396.445408	2525.050947
396.828343	2523.934332
397.211217	2527.274096
397.594028	2525.262676
397.976778	2524.650175
398.359466	2528.821730
398.742092	2524.498941
399.124656	2528.032790
399.507158	2526.906092
399.889598	2526.462470
400.271977	2524.337624
400.654294	2526.275948
401.036549	2527.788294
401.418742	2523.238652
401.800874	2528.879703
402.182944	2529.424148
402.564952	2526.197810
402.946898	2527.669827
403.328783	2528.262162
403.710606	2528.748633
404.092367	2527.453057
404.474067	2527.223684
404.855705	2530.893644
405.237282	2528.446164
405.618797	2529.514889
406.000250	2532.433717
406.381642	2529.348531
406.762972	2528.118489
407.144240	2526.210413
407.525447	2526.681760
407.906593	2523.193282
408.287677	2529.905578
408.668700	2526.480114
409.049661	2530.336597
409.430560	2529.837523
409.811399	2531.904396
410.192176	2532.920188
410.572891	2529.366175
410.953545	2530.271062
411.334138	2530.487832
411.714669	2529.013294
412.095139	2532.912627
412.475547	2532.035466
412.855894	2532.237112
413.236180	2531.937163
413.616405	2533.008408
413.996568	2532.879859
414.376670	2531.372554
414.756711	2532.428676
415.136691	2528.733510
415.516609	2532.542102
415.896466	2530.790301
416.276262	2535.090405
416.655997	2534.798018
417.035670	2531.637215
417.415283	2533.336083
417.794834	2533.489839
418.174324	2533.467153
418.553753	2533.605785
418.933121	2534.044366
419.312428	2534.994623
419.691674	2531.861546
420.070859	2532.317770
420.449983	2530.200486
420.829045	2535.544109
421.208047	2533.867925
421.586988	2534.266176
421.965867	2534.218285
422.344686	2533.459592
422.723444	2535.589479
423.102141	2535.322298
423.480777	2534.523275
423.859352	2538.215920
424.237866	2538.215920
424.616319	2535.720549
424.994712	2537.038811
425.373044	2541.265818
425.751314	2533.895652
426.129524	2533.373892
426.507673	2533.013450
426.885762	2530.238294
427.263789	2537.343801
427.641756	2533.270548
428.019662	2536.335570
428.397508	2534.830786
428.775292	2537.535365
429.153016	2536.322967
429.530679	2540.371014
429.908282	2536.242309
430.285824	2536.345652
430.663305	2536.844727
431.040726	2536.781712
431.418086	2537.933616
431.795385	2537.938657
432.172624	2535.831455
432.549802	2539.864378
432.926920	2537.084181
433.303977	2538.470499
433.680974	2536.330529
434.057910	2542.616848
434.434786	2538.508307
434.811601	2540.917979
435.188355	2539.624923
435.565050	2537.401774
435.941683	2539.088040
436.318257	2537.457227
436.694770	2538.238606
437.071222	2541.069213
437.447614	2539.403112
437.823946	2537.631147
438.200218	2538.939326
438.576429	2540.436549
438.952580	2539.196425
439.328670	2542.596683
439.704700	2541.452341
440.080670	2540.166847
440.456580	2538.001671
440.832429	2540.907897
441.208218	2536.257432
441.583947	2539.680376
441.959616	2540.514687
442.335224	2539.614841
442.710773	2540.219779
443.086261	2538.241126
443.461689	2541.162475
443.837057	2540.779347
444.212365	2540.434028
444.587612	2537.837834
444.962800	2535.760878
445.337927	2539.486291
445.712995	2536.048224
446.088002	2541.641384
446.462949	2541.288504
446.837837	2542.158103
447.212664	2543.441076
447.587431	2540.229861
447.962139	2543.304965
448.336786	2542.271529
448.711374	2542.014430
449.085901	2542.102650
449.460369	2543.032743
449.834776	2543.257074
450.209124	2541.321271
450.583412	2543.665408
450.957640	2540.595345
451.331808	2542.899152
451.705917	2543.433515
452.079965	2543.332692
452.453954	2545.510470
452.827883	2541.152392
453.201752	2543.501570
453.575562	2545.081972
453.949311	2542.642053
454.323001	2542.770603
454.696632	2543.209183
455.070202	2543.761190
455.443713	2543.660367
455.817164	2542.374872
456.190556	2543.904862
456.563888	2544.189688
456.937160	2543.907383
457.310373	2544.167003
457.683526	2542.702547
458.056619	2545.139945
458.429653	2542.939482
458.802628	2544.267826
459.175542	2543.882177
459.548398	2545.873433
459.921194	2542.637012
460.293930	2544.724050
460.666607	2545.611293
461.039224	2544.408978
461.411782	2543.466282
461.784280	2545.192877
462.156719	2546.556509
462.529099	2546.997610
462.901419	2543.173895
463.273680	2545.505429
463.645882	2542.246323
464.018024	2543.451159
464.390106	2539.922351
464.762130	2543.499050
465.134094	2547.189174
465.505999	2541.810263
465.877845	2545.006355
466.249631	2542.755479
466.621358	2546.521221
466.993026	2545.437373
467.364634	2550.544062
467.736184	2544.774462
468.107674	2544.671118
468.479105	2545.404606
468.850477	2545.258412
469.221790	2549.999618
469.593043	2547.968032
469.964238	2547.542055
470.335373	2545.893598
470.706449	2544.862682
471.077467	2546.596839
471.448425	2545.875954
471.819324	2547.433670
472.190164	2545.984338
472.560945	2547.136242
472.931667	2547.100954
473.302330	2546.702703
473.672934	2548.915769
474.043479	2543.675490
474.413965	2545.880995
474.784393	2546.133053
475.154761	2546.516180
475.525070	2547.179092
475.895321	2546.198588
476.265513	2546.780841
476.635645	2547.226983
477.005719	2546.896787
477.375734	2550.380225
477.745691	2548.230172
478.115588	2547.048022
478.485427	2542.140459
478.855207	2550.193702
479.224928	2547.705892
479.594591	2548.270502
479.964194	2549.175389
480.333739	2546.465769
480.703226	2549.412323
481.072653	2545.903680
481.442022	2546.818649
481.811333	2547.224462
482.180584	2546.763197
482.549777	2549.240924
482.918912	2543.604914
483.287988	2550.130688
483.657005	2548.073897
484.025964	2551.569937
484.394864	2550.448280
484.763706	2549.072045
485.132489	2552.384083
485.501213	2548.464586
485.869879	2550.400389
486.238487	2553.026830
486.607036	2550.896943
486.975527	2550.574309
487.343959	2548.789741
487.712333	2550.652447
488.080648	2551.832077
488.448905	2550.662529
488.817104	2550.498692
489.185244	2548.993907
489.553326	2553.283929
489.921350	2551.096068
490.289315	2552.404248
490.657222	2551.562375
491.025070	2551.322920
491.392861	2552.991542
491.760593	2550.347457
492.128267	2550.420554
492.495883	2551.383414
492.863440	2554.539177
493.230939	2551.149001
493.598380	2552.666388
493.965763	2552.071532
494.333088	2551.204453
494.700354	2549.298897
495.067563	2553.830894
495.434713	2552.857952
495.801805	2552.510112
496.168839	2550.735626
496.535815	2553.336861
496.902733	2551.733774
497.269593	2552.739485
497.636395	2553.278888
498.003139	2552.857952
498.369825	2552.807540
498.736453	2551.637992
499.103023	2550.486089
499.469535	2552.389124
499.835989	2552.648744
500.202385	2550.591953
500.568723	2547.960471
500.935003	2549.651778
501.301226	2546.864020
501.667390	2549.702189
502.033497	2554.788714
502.399546	2550.712941
502.765537	2553.556152
503.131470	2553.394835
503.497345	2553.344423
503.863163	2552.890719
504.228923	2553.662016
504.594625	2552.643703
504.960269	2551.423743
505.325856	2554.133364
505.691385	2553.634289
506.056856	2553.425082
506.422270	2550.831408
506.787625	2551.068342
507.152924	2553.084804
507.518164	2552.326110
507.883347	2554.592109
508.248472	2553.878785
508.613540	2552.812581
508.978550	2553.760318
509.343503	2554.219063
509.708398	2554.723179
510.073236	2554.327448
510.438016	2554.249310
510.802738	2554.561862
511.167403	2554.274516
511.532010	2553.702345
511.896561	2551.872406
512.261053	2553.909032
512.625488	2554.549259
512.989866	2553.440205
513.354186	2556.079249
513.718449	2551.688404
514.082655	2553.520863
514.446803	2554.569423
514.810894	2554.221584
515.174927	2556.306101
515.538904	2554.793755
515.902822	2555.471790
516.266684	2556.059084
516.630488	2554.829043
516.994235	2553.450287
517.357925	2553.024310
517.721558	2552.149670
518.085133	2553.951882
518.448651	2553.399876
518.812112	2552.497509
519.175516	2552.363919
519.538863	2549.445091
519.902152	2552.731923
520.265385	2554.052705
520.628560	2554.423230
520.991678	2552.865513
521.354739	2557.062274
521.717743	2553.084804
522.080690	2554.433312
522.443580	2554.808878
522.806413	2559.018242
523.169189	2556.532953
523.531908	2554.919784
523.894569	2554.019938
524.257174	2556.122099
524.619722	2556.772408
524.982213	2555.542366
525.344647	2554.952551
525.707025	2556.346430
526.069345	2554.239228
526.431608	2555.736451
526.793815	2556.535473
527.155964	2556.303580
527.518057	2556.951369
527.880093	2556.331307
528.242072	2558.143602
528.603995	2559.078736
528.965860	2557.354661
529.327669	2556.258210
529.689421	2561.231308
530.051117	2558.839281
530.412755	2556.258210
530.774337	2559.378684
531.135862	2559.320711
531.497331	2558.672923
531.858743	2557.561348
532.220098	2561.271637
532.581396	2557.672254
532.942638	2560.896072
533.303824	2560.341545
533.664953	2563.827502
534.026025	2561.453119
534.387040	2562.622667
534.747999	2563.293140
535.108902	2563.036041
535.469748	2563.643500
535.830537	2561.090156
536.191270	2564.863460
536.551947	2563.401525
536.912567	2561.692574
537.273131	2565.256670
537.633638	2561.803479
537.994089	2565.566701
538.354483	2565.569221
538.714821	2569.135837
539.075103	2567.895714
539.435328	2568.397308
539.795497	2567.109294
540.155609	2567.898234
540.515665	2571.606003
540.875665	2567.658779
541.235609	2570.174315
541.595496	2573.811508
541.955328	2573.501477
542.315102	2573.642629
542.674821	2573.861919
543.034483	2573.383010
543.394090	2574.504666
543.753640	2575.414595
544.113134	2575.286045
544.472571	2575.434759
544.831953	2575.870819
545.191278	2578.267888
545.550548	2578.676221
545.909761	2577.156313
546.268918	2577.612538
546.628019	2579.954154
546.987064	2578.973649
547.346053	2580.294432
547.704986	2577.279822
548.063863	2581.632858
548.422684	2582.373907
548.781449	2583.787951
549.140158	2581.375759
549.498811	2580.937179
549.857408	2580.974987
550.215949	2581.539597
550.574434	2583.868610
550.932864	2586.396748
551.291237	2582.880543
551.649555	2583.903898
552.007817	2585.227201
552.366022	2583.835842
552.724173	2584.430698
553.082267	2586.235431
553.440305	2585.118816
553.798288	2584.972622
554.156215	2588.330031
554.514086	2582.706624
554.871902	2581.516911
555.229661	2582.416757
555.587365	2582.736871
555.945014	2584.783579
556.302606	2587.253744
556.660143	2587.296594
557.017625	2586.474886
557.375050	2588.728282
557.732421	2589.237438
558.089735	2588.393045
558.446994	2591.695001
558.804197	2589.764239
559.161345	2590.326328
559.518437	2586.782397
559.875474	2587.599063
560.232455	2589.562593
560.589381	2588.508992
560.946251	2588.360278
561.303065	2587.243662
561.659825	2590.278437
562.016528	2588.579568
562.373177	2592.083170
562.729770	2585.958168
563.086307	2591.964703
563.442789	2589.867583
563.799216	2592.035279
564.155587	2591.669795
564.511904	2593.076277
564.868164	2589.925556
565.224370	2591.352203
565.580520	2589.802048
565.936615	2589.739033
566.292654	2588.020000
566.648638	2589.618046
567.004567	2589.199630
567.360441	2589.824733
567.716260	2588.614856
568.072023	2591.069898
568.427732	2590.273396
568.783385	2588.340113
569.138982	2586.157293
569.494525	2587.246183
569.850013	2588.393045
570.205445	2590.704414
570.560823	2586.590833
570.916145	2589.224836
571.271412	2587.843559
571.626625	2589.910432
571.981782	2587.853642
572.336884	2584.844073
572.691931	2585.136460
573.046923	2579.568505
573.401860	2580.901891
573.756743	2584.851635
574.111570	2588.561924
574.466342	2585.660740
574.821059	2586.878178
575.175722	2583.394741
575.530330	2585.169227
575.884882	2584.206367
576.239380	2586.540421
576.593823	2584.385328
576.948211	2583.059504
577.302544	2582.298290
577.656823	2582.721747
578.011047	2584.055132
578.365216	2585.144022
578.719330	2583.747622
579.073389	2581.753846
579.427394	2584.788620
579.781344	2581.216963
580.135239	2582.623445
580.489080	2581.721078
580.842866	2578.582960
581.196597	2585.512026
581.550273	2580.730491
581.903895	2581.388362
582.257463	2581.862230
582.610975	2580.153279
582.964434	2579.533217
583.317837	2582.847776
583.671186	2584.468507
584.024481	2582.542786
584.377721	2582.252920
584.730906	2581.254771
585.084037	2579.102199
585.437113	2582.053794
585.790135	2582.247879
586.143103	2578.905594
586.496016	2582.318455
586.848874	2582.177302
587.201679	2579.535738
587.554428	2577.244533
587.907124	2577.715881
588.259765	2577.902404
588.612352	2579.107240
588.964884	2579.805440
589.317362	2577.267219
589.669786	2578.703948
590.022155	2576.281673
590.374470	2575.008782
590.726731	2576.044739
591.078937	2574.565160
591.431090	2578.514904
591.783188	2579.013978
592.135232	2579.810481
592.487222	2578.396437
592.839157	2580.009606
593.191038	2578.003227
593.542866	2577.521797
593.894639	2578.585480
594.246358	2575.447362
594.598022	2576.437949
594.949633	2577.108422
595.301190	2574.081209
595.652692	2576.876529
596.004141	2577.042887
596.355535	2576.536251
596.706876	2574.489543
597.058162	2577.068093
597.409395	2575.525500
597.760573	2577.824266
598.111698	2574.401323
598.462768	2578.305696
598.813785	2575.956519
599.164748	2574.872671
599.515657	2577.748649
599.866511	2577.166396
600.217312	2575.689337
600.568060	2575.593556
600.918753	2580.044894
601.269392	2575.548185
601.619978	2573.894687
601.970510	2578.519945
602.320988	2577.481468
602.671412	2578.403999
603.021783	2578.504822
603.372100	2578.993814
603.722363	2577.133628
604.072572	2580.521283
604.422728	2579.092116
604.772830	2580.102868
605.122878	2579.611355
605.472872	2580.034812
605.822813	2580.405337
606.172701	2581.612693
606.522534	2578.885429
606.872314	2582.126891
607.222041	2579.994483
607.571714	2580.445666
607.921333	2574.038360
608.270899	2580.105388
608.620411	2575.157496
608.969870	2581.685790
609.319276	2585.648137
609.668627	2593.106524
610.017926	2595.632142
610.367171	2595.985023
610.716362	2596.153902
611.065500	2596.597523
611.414585	2592.932604
611.763616	2596.340424
612.112594	2590.832964
612.461518	2590.215422
612.810389	2591.528643
613.159207	2590.129723
613.507971	2588.879517
613.856682	2590.442274
614.205340	2590.114599
614.553945	2593.766915
614.902496	2589.665937
615.250994	2590.767429
615.599439	2591.644589
615.947830	2591.531163
616.296169	2590.427151
616.644454	2593.295567
616.992686	2589.527305
617.340864	2592.491503
617.688990	2593.056112
618.037063	2594.850763
618.385082	2596.685743
618.733048	2595.102821
619.080961	2595.158274
619.428821	2597.101638
619.776628	2597.971237
620.124382	2597.328490
620.472083	2596.736155
620.819731	2600.995930
621.167326	2598.624067
621.514868	2600.849736
621.862357	2596.390836
622.209793	2599.181114
622.557176	2600.564911
622.904506	2598.490476
623.251783	2596.829416
623.599007	2600.912751
623.946179	2600.007864
624.293297	2601.429469
624.640363	2600.869901
624.987376	2598.525764
625.334336	2595.339755
625.681243	2596.133737
626.028097	2595.150712
626.374899	2600.670775
626.721647	2600.504417
627.068343	2598.374530
627.414987	2599.717997
627.761577	2604.726384
628.108115	2606.289141
628.454600	2602.858636
628.801032	2604.940633
629.147412	2603.655138
629.493739	2606.979779
629.840014	2608.708895
630.186236	2609.883484
630.532405	2611.179061
630.878521	2607.887187
631.224585	2609.860799
631.570597	2610.178392
631.916556	2611.174019
632.262462	2610.438011
632.608316	2613.646705
632.954117	2612.512446
633.299866	2616.583177
633.645562	2613.392127
633.991206	2615.942951
634.336797	2616.252982
634.682336	2617.702314
635.027823	2614.987652
635.373257	2617.863631
635.718639	2614.019751
636.063968	2618.597118
636.409245	2615.479165
636.754470	2614.581839
637.099642	2615.549741
637.444762	2616.235338
637.789829	2618.544186
638.134845	2619.721296
638.479808	2616.963785
638.824719	2619.441512
639.169577	2619.965792
639.514383	2623.850001
639.859137	2622.929990
640.203839	2621.152983
640.548489	2622.380504
640.893086	2626.078191
641.237632	2624.039044
641.582125	2629.488531
641.926566	2630.320322
642.270955	2627.953500
642.615292	2627.245218
642.959576	2629.901906
643.303809	2630.562297
643.647990	2635.056486
643.992118	2638.827269
644.336195	2638.512197
644.680219	2640.458082
645.024192	2642.023360
645.368112	2647.205667
645.711981	2648.700369
646.055797	2652.329999
646.399562	2657.696308
646.743274	2660.889879
647.086935	2668.953204
647.430544	2671.080571
647.774101	2672.252639
648.117606	2682.239165
648.461059	2679.390913
648.804460	2688.641431
649.147810	2686.219156
649.491108	2680.394103
649.834354	2688.132274
650.177548	2687.650844
650.520690	2685.145390
650.863781	2686.977850
651.206820	2686.030113
651.549807	2688.717048
651.892742	2693.004549
652.235626	2692.613860
652.578458	2694.128727
652.921238	2693.612008
653.263967	2700.626774
653.606644	2701.203986
653.949269	2700.107535
654.291843	2703.681713
654.634365	2705.862012
654.976836	2707.749924
655.319255	2712.342415
655.661622	2716.161089
656.003938	2718.182592
656.346203	2717.711244
656.688416	2721.968499
657.030577	2724.789024
657.372687	2731.927298
657.714746	2728.867318
658.056753	2730.740106
658.398708	2734.483163
658.740612	2741.497929
659.082465	2747.017992
659.424266	2742.727970
659.766016	2750.040164
660.107715	2754.957809
660.449362	2757.473345
660.790958	2766.713780
661.132503	2770.136724
661.473996	2775.404729
661.815438	2781.128960
662.156829	2787.621966
662.498168	2785.852521
662.839456	2794.982050
663.180693	2798.762916
663.521879	2803.710808
663.863013	2808.658701
664.204097	2816.018785
664.545129	2816.530462
664.886110	2822.894919
665.227040	2831.835406
665.567918	2838.207424
665.908746	2849.648323
666.249522	2848.849300
666.590248	2859.987729
666.930922	2873.500542
667.271545	2876.137066
667.612118	2885.596791
667.952639	2888.208108
668.293109	2892.571227
668.633528	2898.320663
668.973896	2896.989798
669.314213	2918.255906
669.654480	2905.516910
669.994695	2908.733166
670.334859	2918.888571
670.674973	2926.561207
671.015035	2936.388936
671.355047	2940.747014
671.695008	2940.121911
672.034918	2944.543003
672.374777	2961.138481
672.714585	2961.196454
673.054342	2978.207828
673.394049	2979.266470
673.733705	2985.325937
674.073310	2996.398832
674.412864	3015.131759
674.752368	3003.337980
675.091820	3002.183556
675.431223	3027.215405
675.770574	3014.579753
676.109875	3020.356915
676.449125	3024.984695
676.788324	3022.459077
677.127473	3019.255423
677.466571	3025.405631
677.805619	3032.347300
678.144616	3030.986188
678.483562	3044.196532
678.822458	3038.258053
679.161303	3036.307126
679.500098	3059.579613
679.838842	3060.444171
680.177535	3056.786814
680.516179	3070.092939
680.854771	3083.830083
681.193314	3100.554111
681.531805	3111.886625
681.870247	3166.416786
682.208638	3194.493493
682.546978	3237.910430
682.885268	3254.246289
683.223508	3226.645972
683.561697	3222.552555
683.899836	3233.035634
684.237925	3225.209243
684.575963	3229.032958
684.913951	3259.567227
685.251889	3242.881008
685.589776	3276.991975
685.927614	3285.261988
686.265401	3271.655914
686.603137	3307.589259
686.940824	3332.608505
687.278460	3356.153214
687.616046	3382.122718
687.953582	3413.508942
688.291068	3403.010739
688.628504	3434.447375
688.965889	3459.822023
689.303224	3479.553099
689.640510	3474.199393
689.977745	3439.710339
690.314930	3435.634566
690.652065	3439.125565
690.989150	3401.052251
691.326185	3393.929101
691.663170	3375.233982
692.000105	3353.625076
692.336990	3365.257538
692.673825	3334.766119
693.010610	3334.362827
693.347345	3315.390444
693.684030	3294.731796
694.020665	3297.310346
694.357251	3293.632824
694.693786	3313.961277
695.030272	3271.164402
695.366707	3276.109773
695.703093	3280.702265
696.039429	3286.471865
696.375716	3301.340748
696.711952	3272.770009
697.048139	3297.280099
697.384276	3311.113025
697.720363	3305.630770
698.056400	3308.920123
698.392388	3319.940086
698.728326	3315.385403
699.064214	3309.058755
699.400053	3343.157120
699.735842	3318.221052
700.071581	3316.582677
700.407270	3306.099598
700.742910	3308.932726
701.078501	3312.373314
701.414042	3295.563586
701.749533	3293.572330
702.084974	3276.455093
702.420366	3291.931435
702.755709	3292.362453
703.091002	3281.229065
703.426246	3290.782052
703.761440	3291.329017
704.096584	3292.939666
704.431679	3283.101854
704.766725	3296.463432
705.101721	3294.779687
705.436668	3303.332004
705.771565	3297.101138
706.106413	3316.333140
706.441212	3340.986903
706.775961	3327.859738
707.110661	3332.084225
707.445311	3380.812018
707.779913	3360.433154
708.114465	3397.362126
708.448967	3412.084816
708.783421	3420.463214
709.117825	3477.085454
709.452180	3487.097185
709.786485	3493.996004
710.120742	3563.062333
710.454949	3571.218920
710.789107	3589.528390
711.123216	3623.898977
711.457275	3679.049200
711.791286	3725.702559
712.125247	3710.175805
712.459159	3745.441197
712.793023	3789.072383
713.126837	3721.679718
713.460602	3750.726846
713.794318	3703.667675
714.127985	3755.092486
714.461602	3712.131773
714.795171	3683.808050
715.128691	3669.171059
715.462162	3617.350518
715.795584	3635.526399
716.128957	3608.972121
716.462281	3548.102709
716.795556	3610.227368
717.128782	3559.828432
717.461960	3500.567148
717.795088	3536.192983
718.128167	3527.675953
718.461198	3497.537415
718.794180	3487.782782
719.127113	3517.144983
719.459997	3492.639934
719.792833	3432.546860
720.125619	3459.464101
720.458357	3423.825663
720.791046	3434.197838
721.123686	3472.051862
721.456278	3429.557455
721.788821	3432.546860
722.121315	3411.774785
722.453761	3444.801905
722.786158	3449.326340
723.118506	3448.474385
723.450805	3448.953295
723.783056	3465.619349
724.115259	3435.306891
724.447412	3455.279943
724.779518	3457.508133
725.111574	3464.099442
725.443582	3495.082373
725.775542	3492.536590
726.107453	3539.237840
726.439315	3527.128988
726.771129	3536.003939
727.102895	3575.070361
727.434612	3614.537555
727.766281	3618.225159
728.097901	3643.798932
728.429473	3640.197028
728.760996	3647.884787
729.092471	3651.159017
729.423897	3659.187054
729.755276	3682.315868
730.086606	3670.461595
730.417887	3682.502391
730.749120	3718.528997
731.080305	3809.917554
731.411442	3834.185669
731.742530	3821.184533
732.073570	3892.547107
732.404562	3918.985438
732.735506	3844.759489
733.066401	3909.109818
733.397249	3899.942480
733.728048	3842.564067
734.058798	3771.894651
734.389501	3738.348293
734.720156	3699.445709
735.050762	3621.801857
735.381320	3600.560956
735.711831	3613.136114
736.042293	3583.839448
736.372707	3612.702575
736.703073	3570.089701
737.033391	3573.936102
737.363661	3580.570260
737.693883	3597.044751
738.024056	3638.011687
738.354182	3650.165909
738.684260	3653.465345
739.014290	3688.917259
739.344272	3723.607959
739.674207	3718.730643
740.004093	3744.022112
740.333931	3758.606170
740.663722	3759.281684
740.993464	3809.748676
741.323159	3835.531657
741.652806	3716.394068
741.982405	3714.186043
742.311956	3804.021925
742.641460	3751.593925
742.970915	3666.632838
743.300323	3703.975186
743.629683	3680.155734
743.958996	3645.223058
744.288260	3628.927528
744.617477	3634.641676
744.946647	3645.459992
745.275768	3583.310127
745.604842	3587.746343
745.933869	3582.632092
746.262847	3560.793813
746.591778	3577.175043
746.920662	3572.965679
747.249498	3566.938980
747.578286	3585.729881
747.907027	3626.323772
748.235720	3646.740445
748.564365	3611.278449
748.892963	3617.947895
749.221514	3714.304510
749.550017	3660.555727
749.878473	3596.225563
750.206881	3643.362872
750.535242	3627.609267
750.863555	3594.614915
751.191821	3625.522229
751.520039	3638.503200
751.848210	3595.081221
752.176334	3596.555759
752.504411	3650.738080
752.832440	3619.142649
753.160421	3556.019841
753.488356	3603.625977
753.816243	3654.095489
754.144082	3574.946853
754.471875	3555.863565
754.799620	3590.450922
755.127318	3601.543981
755.454969	3577.797625
755.782572	3564.055440
756.110129	3599.794700
756.437638	3616.798512
756.765100	3571.723035
757.092515	3569.590627
757.419882	3602.234619
757.747203	3594.869493
758.074477	3634.195534
758.401703	3644.038387
758.728882	3591.953185
759.056014	3606.741410
759.383099	3702.566183
759.710138	3692.614945
760.037129	3664.792817
760.364073	3669.133251
760.690970	3734.252356
761.017820	3740.231164
761.344623	3689.113864
761.671379	3731.308322
761.998088	3793.674957
762.324751	3868.662120
762.651366	4083.198504
762.977935	4523.513046
763.304456	5060.406013
763.630931	5364.939596
763.957359	5263.569554
764.283740	5027.167165
764.610074	4816.388961
764.936362	4440.397022
765.262602	4205.988409
765.588796	3996.871265
765.914943	3859.378835
766.241044	3834.321780
766.567097	3776.272893
766.893104	3658.718227
767.219064	3580.396340
767.544978	3579.173860
767.870845	3565.434196
768.196665	3506.810617
768.522438	3475.615958
768.848165	3471.514979
769.173846	3465.251345
769.499479	3446.836010
769.825066	3417.738470
770.150607	3403.439237
770.476101	3390.594377
770.801548	3404.893610
771.126949	3385.775034
771.452303	3361.257383
771.777611	3338.415914
772.102872	3350.862523
772.428087	3343.131914
772.753256	3334.740913
773.078378	3322.367401
773.403453	3289.627627
773.728482	3292.445633
774.053465	3270.960235
774.378401	3270.093156
774.703291	3282.693520
775.028135	3251.148500
775.352932	3220.470558
775.677683	3213.324723
776.002388	3240.526789
776.327046	3254.533635
776.651658	3204.091850
776.976224	3165.121210
777.300743	3180.491688
777.625216	3202.274514
777.949643	3211.361193
778.274024	3178.059331
778.598359	3151.323572
778.922647	3163.046775
779.246889	3173.640760
779.571086	3177.018333
779.895236	3166.731858
780.219339	3150.910197
780.543397	3146.191677
780.867409	3176.088240
781.191374	3190.614325
781.515294	3163.434944
781.839167	3154.882626
782.162995	3168.516427
782.486776	3163.255983
782.810511	3175.561439
783.134201	3187.360260
783.457844	3167.498114
783.781441	3128.164511
784.104993	3135.385964
784.428498	3155.038902
784.751958	3163.422341
785.075372	3148.797954
785.398739	3121.016155
785.722061	3132.018473
786.045337	3165.758916
786.368568	3190.427802
786.691752	3135.829585
787.014891	3152.561175
787.337983	3213.498643
787.661030	3274.194135
787.984031	3345.844055
788.306987	3425.620314
788.629897	3458.995273
788.952760	3437.666151
789.275579	3423.303904
789.598351	3426.005963
789.921078	3368.635111
790.243759	3259.973040
790.566395	3255.418357
790.888984	3268.981582
791.211529	3212.500494
791.534027	3187.503933
791.856480	3197.538350
792.178888	3156.263902
792.501249	3118.528345
792.823566	3131.158956
793.145836	3162.792197
793.468062	3133.878659
793.790241	3101.211982
794.112375	3117.484827
794.434464	3156.778100
794.756507	3177.953467
795.078505	3159.664161
795.400457	3154.128974
795.722364	3225.635221
796.044226	3271.711367
796.366042	3304.025163
796.687812	3311.095381
797.009538	3316.310455
797.331218	3290.398924
797.652852	3279.033643
797.974442	3283.737039
798.295986	3296.541570
798.617484	3256.550097
798.938938	3201.067157
799.260346	3232.667630
799.581709	3241.529979
799.903026	3203.060934
800.224299	3180.988242
800.545526	3185.590815
800.866708	3162.025941
801.187845	3120.254941
801.508936	3153.118222
801.829983	3164.740603
802.150984	3111.773199
802.471940	3102.197527
802.792851	3112.431070
803.113717	3118.692183
803.434538	3124.791979
803.755314	3088.248655
804.076045	3062.747978
804.396731	3076.979155
804.717372	3100.995212
805.037967	3092.735282
805.358518	3084.498036
805.679024	3096.881631
805.999485	3099.124944
806.319901	3103.573763
806.640272	3115.818725
806.960598	3123.738378
807.280879	3102.036211
807.601115	3106.522837
807.921306	3125.485138
808.241453	3152.321720
808.561554	3142.829227
808.881611	3101.935387
809.201623	3119.604632
809.521590	3135.239770
809.841513	3120.164200
810.161390	3143.071203
810.481223	3139.822179
810.801011	3095.651589
811.120755	3087.890733
811.440453	3122.316772
811.760107	3132.499903
812.079716	3106.548043
812.399281	3082.960484
812.718801	3102.210130
813.038276	3084.210691
813.357707	3090.590271
813.677093	3107.712550
813.996434	3076.301120
814.315731	3079.227510
814.634983	3078.002510
814.954191	3089.735795
815.273354	3116.673201
815.592473	3117.550362
815.911547	3110.787654
816.230577	3127.632669
816.549562	3166.169770
816.868502	3201.541026
817.187399	3218.292780
817.506250	3210.922613
817.825058	3190.029551
818.143821	3250.767893
818.462539	3325.732371
818.781213	3357.179089
819.099843	3379.539127
819.418429	3507.367665
819.736970	3642.175681
820.055466	3767.647479
820.373919	3999.669106
820.692327	4263.351699
821.010691	4470.525478
821.329011	5171.200492
821.647286	6434.748059
821.965517	8271.026157
822.283704	9759.643599
822.601847	10739.780018
822.919945	10374.634122
823.237999	9655.911777
823.556010	8712.442190
823.873976	7834.590783
824.191897	6716.102417
824.509775	5956.781140
824.827609	5317.683820
825.145398	4997.789841
825.463144	4950.274445
825.780845	5018.035115
826.098502	5040.750554
826.416116	5420.150313
826.733685	6082.454585
827.051210	6733.701085
827.368692	6899.113946
827.686129	6300.822246
828.003522	5465.558506
828.320872	4908.145522
828.638177	4526.850290
828.955439	4201.610167
829.272656	3888.388155
829.589830	3697.144422
829.906960	3597.407714
830.224046	3480.291628
830.541088	3405.286820
830.858086	3380.060886
831.175041	3339.910617
831.491952	3323.284891
831.808819	3334.380471
832.125642	3376.736245
832.442421	3470.542036
832.759157	3631.765698
833.075849	3940.125517
833.392497	4400.287081
833.709101	4793.557575
834.025662	5029.024830
834.342179	4917.423766
834.658653	4574.690840
834.975083	4204.922205
835.291469	3852.661498
835.607811	3578.810897
835.924110	3505.129393
836.240366	3372.494114
836.556578	3234.381622
836.872746	3162.391425
837.188871	3148.361894
837.504952	3107.165585
837.820990	3047.778272
838.136984	3012.195287
838.452935	3029.957793
838.768842	3034.983823
839.084706	3047.574105
839.400526	3138.506438
839.716303	3310.487922
840.032037	3601.259155
840.347727	3804.115186
840.663373	3689.426416
840.978977	3468.172694
841.294537	3275.141872
841.610054	3114.485340
841.925527	3043.107643
842.240957	2995.141064
842.556344	2964.198462
842.871687	2925.452153
843.186987	2892.172976
843.502244	2866.543750
843.817458	2843.084740
844.132629	2813.258754
844.447756	2826.164107
844.762840	2818.214208
845.077881	2794.901392
845.392879	2783.178189
845.707833	2778.981428
846.022745	2775.629061
846.337613	2780.334978
846.652438	2770.774430
846.967221	2773.471447
847.281960	2759.880496
847.596656	2759.341093
847.911309	2757.364960
848.225919	2752.202819
848.540485	2748.681573
848.855009	2753.574013
849.169490	2746.486150
849.483928	2741.223186
849.798323	2734.836044
850.112675	2733.422000
850.426984	2743.272415
850.741251	2744.928434
851.055474	2736.625653
851.369654	2733.787484
851.683792	2735.403174
851.997887	2738.175808
852.311938	2741.208062
852.625947	2735.332597
852.939914	2740.996334
853.253837	2743.451376
853.567718	2730.974520
853.881555	2724.305073
854.195350	2738.639594
854.509103	2737.487691
854.822812	2735.622464
855.136479	2731.488718
855.450103	2732.464181
855.763685	2726.926473
856.077224	2722.081925
856.390720	2732.953173
856.704173	2742.937178
857.017584	2736.734038
857.330953	2732.771691
857.644278	2739.161354
857.957561	2746.196284
858.270802	2748.837849
858.584000	2752.734661
858.897155	2743.206880
859.210268	2739.877198
859.523339	2741.908783
859.836367	2741.245871
860.149352	2739.141189
860.462295	2731.037534
860.775195	2741.671848
861.088054	2744.658732
861.400869	2725.958572
861.713642	2721.769373
862.026373	2735.030128
862.339062	2739.194121
862.651708	2739.030284
862.964312	2744.308372
863.276873	2738.213617
863.589392	2744.767117
863.901869	2748.500091
864.214303	2764.427617
864.526696	2778.961263
864.839045	2776.602003
865.151353	2773.158895
865.463619	2775.298865
865.775842	2775.825666
866.088023	2788.894857
866.400162	2797.132102
866.712258	2776.954884
867.024313	2768.258894
867.336325	2773.862136
867.648296	2791.435599
867.960224	2785.194650
868.272110	2774.260387
868.583954	2779.732560
868.895755	2791.503654
869.207515	2785.824794
869.519233	2781.184412
869.830909	2790.558438
870.142542	2799.980354
870.454134	2800.073616
870.765684	2803.110911
871.077191	2803.541930
871.388657	2806.117959
871.700081	2812.628609
872.011463	2824.946669
872.322803	2825.649910
872.634101	2824.921463
872.945357	2834.950839
873.256571	2853.212418
873.567744	2846.255626
873.878874	2837.521827
874.189963	2859.438243
874.501010	2862.041999
874.812015	2857.424302
875.122979	2859.322297
875.433900	2853.068746
875.744780	2855.841380
876.055618	2867.483925
876.366415	2861.404293
876.677169	2875.481716
876.987882	2877.208311
877.298554	2870.135572
877.609183	2882.435987
877.919771	2901.494069
878.230317	2926.047009
878.540822	2968.337249
878.851285	2998.690036
879.161707	3028.183307
879.472087	3100.453288
879.782425	3254.571444
880.092722	3571.297057
880.402977	3930.370884
880.713191	4253.246706
881.023363	4812.910565
881.333494	5451.254232
881.643583	5749.904789
881.953631	5698.182550
882.263637	5497.423640
882.573602	5269.568527
882.883526	4946.077685
883.193408	4568.119696
883.503248	4243.008122
883.813048	4056.303948
884.122806	3882.051425
884.432522	3660.858197
884.742197	3486.136846
885.051831	3338.494052
885.361424	3233.522106
885.670975	3184.680887
885.980485	3125.956486
886.289954	3066.899368
886.599382	3035.528268
886.908768	3007.849813
887.218113	2974.454689
887.527417	2935.108483
887.836680	2897.773698
888.145901	2894.633059
888.455082	2894.534757
888.764221	2853.504805
889.073319	2830.222236
889.382376	2833.410766
889.691392	2831.434634
890.000366	2829.708039
890.309300	2821.806030
890.618193	2833.874552
890.927044	2847.044567
891.235855	2846.182529
891.544625	2833.700632
891.853353	2838.950994
892.162041	2852.156297
892.470687	2880.812736
892.779293	2919.506112
893.087858	2954.345526
893.396381	3000.817403
893.704864	3081.821184
894.013306	3246.563571
894.321707	3455.484110
894.630068	3614.867750
894.938387	3627.221098
895.246665	3602.022890
895.554903	3530.050337
895.863100	3388.582957
896.171256	3262.544028
896.479371	3164.816220
896.787446	3074.776171
897.095480	2996.693739
897.403473	2940.913372
897.711425	2910.288362
898.019336	2905.199318
898.327207	2887.288098
898.635038	2859.203830
898.942827	2849.754187
899.250576	2839.442507
899.558284	2811.912766
899.865952	2795.506330
900.173579	2782.842952
900.481165	2780.624844
900.788711	2769.667896
901.096216	2749.460431
901.403681	2739.826786
901.711105	2746.450862
902.018489	2744.361304
902.325832	2744.968763
902.633135	2752.182654
902.940397	2773.327774
903.247619	2830.529747
903.554800	2966.603092
903.861941	3195.531970
904.169041	3494.729492
904.476101	3725.780697
904.783121	3728.409658
905.090100	3570.571131
905.397039	3375.392778
905.703938	3185.109385
906.010796	3045.098898
906.317614	2963.800210
906.624391	2889.856566
906.931129	2833.761126
907.237826	2786.495268
907.544483	2749.780544
907.851099	2727.798593
908.157675	2709.473999
908.464211	2694.716021
908.770707	2684.674042
909.077163	2675.622651
909.383578	2664.431289
909.689954	2655.785710
909.996289	2651.800678
910.302584	2654.757315
910.608839	2655.218581
910.915054	2651.599032
911.221229	2643.898670
911.527363	2647.188022
911.833458	2651.084834
912.139513	2652.153559
912.445527	2656.839312
912.751502	2666.152843
913.057436	2674.248936
913.363331	2680.757066
913.669186	2694.463963
913.975000	2720.798951
914.280775	2766.431476
914.586510	2818.199084
914.892205	2873.359390
915.197859	2964.873976
915.503475	3098.154522
915.809050	3243.886718
916.114585	3357.456353
916.420081	3388.414078
916.725536	3353.700693
917.030952	3278.595062
917.336328	3181.706606
917.641665	3083.119281
917.946961	3005.122548
918.252218	2955.073973
918.557435	2898.618091
918.862612	2852.766276
919.167750	2812.507622
919.472848	2785.020730
919.777906	2761.937287
920.082925	2743.504308
920.387904	2721.416492
920.692843	2705.436035
920.997743	2697.833975
921.302603	2687.444157
921.607423	2681.964422
921.912204	2670.825993
922.216946	2662.364416
922.521647	2655.813437
922.826310	2650.938641
923.130932	2641.332722
923.435516	2635.613533
923.740059	2631.313429
924.044564	2624.636421
924.349028	2620.106944
924.653454	2614.100409
924.957840	2607.413319
925.262186	2607.350304
925.566493	2602.084819
925.870761	2602.422576
926.174989	2597.822523
926.479178	2594.341607
926.783328	2586.943713
927.087438	2586.979002
927.391509	2585.859865
927.695541	2583.735019
927.999533	2581.539597
928.303486	2577.420974
928.607400	2579.313927
928.911275	2577.899883
929.215110	2577.519276
929.518906	2576.977352
929.822663	2577.804102
930.126381	2574.653380
930.430060	2578.071283
930.733699	2576.322002
931.037299	2578.797209
931.340861	2576.364852
931.644383	2577.156313
931.947866	2581.199319
932.251309	2575.991807
932.554714	2573.372927
932.858080	2572.092474
933.161407	2571.749676
933.464694	2571.979048
933.767943	2568.427555
934.071153	2569.902093
934.374323	2571.772361
934.677455	2572.152968
934.980548	2569.939902
935.283602	2569.027453
935.586617	2568.583831
935.889593	2571.842937
936.192530	2570.935529
936.495428	2571.815211
936.798287	2571.343863
937.101108	2575.359142
937.403890	2577.587332
937.706632	2581.872313
938.009336	2588.020000
938.312002	2593.363623
938.614628	2600.638008
938.917216	2610.929523
939.219765	2607.297372
939.522275	2608.502208
939.824747	2602.699840
940.127179	2601.404263
940.429573	2601.048862
940.731929	2597.537698
941.034246	2595.690115
941.336524	2591.803386
941.638763	2589.849939
941.940964	2589.209712
942.243126	2589.726430
942.545250	2587.969588
942.847335	2583.215780
943.149381	2580.274267
943.451389	2576.770665
943.753359	2576.566498
944.055290	2575.399471
944.357182	2575.165057
944.659036	2574.610531
944.960851	2573.975345
945.262628	2571.858061
945.564367	2573.314954
945.866067	2571.447207
946.167729	2572.374779
946.469352	2576.011971
946.770937	2572.969635
947.072484	2571.510221
947.373992	2574.522310
947.675462	2569.614747
947.976893	2564.853377
948.278286	2565.060065
948.579641	2562.678119
948.880958	2563.441854
949.182236	2562.423541
949.483476	2566.476629
949.784678	2564.460167
950.085841	2566.010322
950.386967	2564.999571
950.688054	2565.584345
950.989103	2566.741289
951.290114	2566.733728
951.591087	2568.934191
951.892021	2571.548030
952.192917	2575.006261
952.493776	2575.084399
952.794596	2577.972980
953.095378	2575.409553
953.396122	2574.456775
953.696828	2575.467527
953.997496	2576.344687
954.298126	2569.009809
954.598718	2568.903944
954.899272	2567.328584
955.199788	2565.579303
955.500266	2565.826320
955.800706	2563.608212
956.101108	2560.263407
956.401472	2556.797613
956.701798	2557.057233
957.002087	2555.673436
957.302337	2554.282078
957.602550	2553.646892
957.902724	2550.985163
958.202861	2548.986346
958.502960	2552.898281
958.803022	2550.284443
959.103045	2549.876109
959.403031	2548.779658
959.702979	2548.051212
960.002889	2545.996941
960.302762	2547.158927
960.602596	2544.822352
960.902393	2545.432332
961.202153	2549.039278
961.501875	2542.175747
961.801559	2545.533155
962.101205	2544.035932
962.400814	2546.201108
962.700385	2546.536345
962.999918	2544.451828
963.299414	2541.086858
963.598873	2540.507125
963.898293	2541.215407
964.197677	2545.533155
964.497022	2541.538041
964.796331	2543.093237
965.095601	2544.847558
965.394835	2544.880326
965.694030	2546.102806
965.993189	2542.863864
966.292309	2542.183308
966.591393	2543.294883
966.890439	2544.499719
967.189447	2543.662887
967.488419	2543.302445
967.787353	2545.581046
968.086249	2544.426622
968.385108	2542.848741
968.683930	2545.644061
968.982714	2543.995603
969.281462	2543.483926
969.580172	2542.221117
969.878844	2545.593649
970.177480	2542.863864
970.476078	2545.076931
970.774639	2544.557692
971.073162	2545.336550
971.371649	2544.247661
971.670098	2542.077444
971.968510	2544.719009
972.266885	2545.586087
972.565223	2545.170192
972.863524	2544.819832
973.161788	2545.863351
973.460014	2544.756817
973.758204	2542.377393
974.056356	2544.681200
974.354471	2541.157434
974.652550	2545.215562
974.950591	2544.996272
975.248595	2546.102806
975.546563	2545.699513
975.844493	2542.037115
976.142386	2545.555840
976.440243	2545.767569
976.738062	2544.028371
977.035845	2544.328319
977.333590	2546.667415
977.631299	2542.684903
977.928971	2540.759183
978.226606	2539.864378
978.524204	2545.291180
978.821765	2535.849099
979.119290	2544.141797
979.416777	2542.228679
979.714228	2543.967877
980.011642	2542.959646
980.309020	2543.622558
980.606360	2542.957126
980.903664	2540.449152
981.200931	2541.790098
981.498162	2546.243958
981.795356	2543.514173
982.092513	2546.508618
982.389633	2547.219421
982.686717	2552.217725
982.983764	2552.656306
983.280775	2558.249466
983.577749	2556.568241
983.874686	2557.591595
984.171587	2555.035730
984.468451	2552.174875
984.765279	2551.844680
985.062070	2549.225800
985.358824	2552.018600
985.655543	2548.033567
985.952224	2544.116591
986.248869	2545.432332
986.545478	2547.443752
986.842050	2546.012065
987.138586	2541.969059
987.435086	2544.073741
987.731549	2542.815973
988.027975	2542.626930
988.324366	2541.694317
988.620719	2541.744728
988.917037	2540.754141
989.213318	2542.437887
989.509563	2541.444779
989.805772	2541.200283
990.101944	2543.998124
990.398080	2542.027033
990.694180	2537.583256
990.990244	2539.554347
991.286271	2540.892773
991.582262	2539.650129
991.878217	2542.132897
992.174136	2541.911086
992.470019	2541.661549
992.765865	2537.210210
993.061676	2541.548123
993.357450	2537.742052
993.653188	2534.475384
993.948890	2539.045190
994.244556	2541.956457
994.540186	2544.232538
994.835780	2541.583411
995.131337	2544.272867
995.426859	2542.478216
995.722345	2544.131714
996.017795	2543.279759
996.313208	2541.696837
996.608586	2544.484595
996.903928	2542.760521
997.199234	2547.796633
997.494504	2546.642209
997.789738	2545.031560
998.084936	2546.317055
998.380099	2541.878319
998.675225	2546.090203
998.970316	2541.664070
999.265371	2544.262784
999.560390	2542.823535
999.855373	2543.199101
1000.150320	2539.887063
1000.445232	2542.039636
1000.740108	2540.413863
1001.034948	2540.945705
1001.329752	2541.787578
1001.624521	2542.352187
1001.919254	2542.329502
1002.213951	2540.562577
1002.508613	2538.341949
1002.803239	2540.711292
1003.097829	2539.622402
1003.392384	2543.216745
1003.686903	2537.691640
1003.981386	2540.620551
1004.275834	2540.849923
1004.570246	2541.475026
1004.864623	2540.978473
1005.158964	2540.181970
1005.453270	2539.662732
1005.747540	2541.593493
1006.041775	2544.149358
1006.335974	2540.890253
1006.630138	2541.774975
1006.924266	2542.079965
1007.218359	2538.485622
1007.512416	2539.662732
1007.806438	2538.533513
1008.100425	2536.050745
1008.394376	2534.765251
1008.688292	2541.780016
1008.982172	2540.587783
1009.276017	2538.039480
1009.569827	2538.490663
1009.863602	2540.096271
1010.157341	2538.049562
1010.451045	2540.736497
1010.744714	2540.174409
1011.038347	2538.934285
1011.331945	2542.621889
1011.625508	2543.577188
1011.919036	2537.537885
1012.212528	2543.413350
1012.505986	2538.357073
1012.799408	2540.532331
1013.092795	2537.142155
1013.386147	2537.623585
1013.679464	2542.178267
1013.972745	2539.677855
1014.265992	2542.090047
1014.559204	2539.118287
1014.852380	2539.876981
1015.145521	2540.696168
1015.438628	2539.813966
1015.731699	2540.134079
1016.024736	2540.481919
1016.317737	2538.173071
1016.610703	2537.071578
1016.903635	2540.355890
1017.196531	2540.164326
1017.489393	2539.816487
1017.782219	2539.924872
1018.075011	2540.827238
1018.367768	2538.105015
1018.660490	2542.117773
1018.953177	2542.117773
1019.245829	2542.117773
