Dividing Wavelength (nm)	Counts (n)	Blue Motor Position (mm): 26.000000	Red Motor Position (mm): 0.000000	
326.493990	2059.172714
326.888308	2059.172714
327.282561	2059.172714
327.676750	2028.792201
328.070874	2032.731862
328.464933	2041.621937
328.858929	2049.307176
329.252859	2057.131047
329.646726	2072.879612
330.040528	2091.181521
330.434265	2106.244488
330.827938	2129.085957
331.221547	2147.377783
331.615091	2167.398726
332.008571	2187.807837
332.401986	2207.133100
332.795338	2227.993395
333.188625	2248.808319
333.581847	2266.787594
333.975006	2287.189144
334.368100	2302.852009
334.761129	2319.129895
335.154095	2335.881649
335.546996	2384.889226
335.939833	2489.909064
336.332606	2494.859477
336.725315	2509.677948
337.117960	2524.786287
337.510540	2528.433561
337.903056	2537.283307
338.295508	2547.806716
338.687896	2551.365770
339.080220	2555.237376
339.472480	2562.158881
339.864676	2566.287586
340.256807	2563.819941
340.648875	2572.059707
341.040879	2571.152299
341.432818	2571.301013
341.824694	2574.393761
342.216506	2572.498287
342.608253	2571.343863
342.999937	2575.643967
343.391557	2572.616754
343.783113	2569.329922
344.174605	2566.111145
344.566033	2567.903275
344.957397	2563.698953
345.348697	2563.588048
345.739934	2559.406411
346.131106	2559.126627
346.522215	2560.265927
346.913260	2555.686039
347.304241	2557.987326
347.695159	2555.590257
348.086012	2552.885678
348.476802	2551.060780
348.867528	2548.663712
349.258191	2546.362425
349.648789	2543.741025
350.039324	2541.482588
350.429796	2546.785882
350.820203	2546.715306
351.210548	2543.541899
351.600828	2539.995448
351.991045	2540.612989
352.381198	2539.473688
352.771288	2544.345963
353.161314	2538.523431
353.551276	2539.869419
353.941175	2536.358255
354.331010	2538.268853
354.720782	2547.068187
355.110490	2546.170861
355.500135	2541.457382
355.889717	2540.660880
356.279235	2543.925027
356.668689	2542.442928
357.058080	2541.941333
357.447408	2547.345450
357.836672	2543.428473
358.225873	2544.991231
358.615010	2544.928217
359.004084	2545.455017
359.393095	2545.712116
359.782043	2546.959802
360.170927	2545.172713
360.559748	2547.927703
360.948505	2544.154400
361.337199	2546.891746
361.725830	2547.403423
362.114398	2549.692107
362.502903	2548.457024
362.891344	2552.081614
363.279722	2546.750594
363.668037	2552.474824
364.056289	2550.654967
364.444478	2553.183106
364.832603	2551.068342
365.220665	2551.038095
365.608665	2551.549772
365.996601	2553.170503
366.384474	2556.618652
366.772284	2555.446584
367.160031	2553.926676
367.547715	2558.042778
367.935336	2552.961295
368.322893	2550.733105
368.710388	2550.607077
369.097820	2551.859803
369.485189	2553.094886
369.872495	2556.595967
370.259738	2557.074877
370.646918	2555.297870
371.034035	2557.001780
371.421090	2557.422717
371.808081	2556.981616
372.195010	2557.578992
372.581875	2556.464897
372.968678	2556.903478
373.355418	2557.372305
373.742096	2558.088149
374.128710	2560.780125
374.515262	2559.615618
374.901751	2560.044117
375.288177	2562.332800
375.674540	2558.491441
376.060841	2562.849519
376.447079	2559.449260
376.833254	2558.201575
377.219367	2562.978068
377.605417	2562.415979
377.991404	2562.723490
378.377329	2561.571586
378.763191	2560.298695
379.148991	2562.075702
379.534727	2564.830692
379.920402	2564.359344
380.306013	2565.680127
380.691563	2564.240877
381.077049	2564.011505
381.462474	2561.417831
381.847835	2565.654921
382.233134	2566.491752
382.618371	2562.927657
383.003545	2565.962431
383.388657	2564.268603
383.773706	2565.463357
384.158693	2567.515107
384.543618	2568.561146
384.928480	2565.826320
385.313280	2567.179870
385.698017	2569.952504
386.082692	2568.193142
386.467305	2568.346897
386.851856	2567.938563
387.236344	2568.634243
387.620770	2568.203224
388.005133	2566.237174
388.389435	2570.950653
388.773674	2562.685681
389.157851	2571.341342
389.541965	2572.052145
389.926018	2572.473081
390.310008	2571.691702
390.693936	2571.971487
391.077802	2571.444686
391.461606	2573.272104
391.845348	2569.758420
392.229027	2574.547516
392.612645	2571.679100
392.996200	2573.728329
393.379694	2575.182702
393.763125	2572.815880
394.146494	2572.309244
394.529801	2574.469378
394.913047	2574.161868
395.296230	2576.052301
395.679351	2577.715881
396.062410	2574.565160
396.445408	2574.086251
396.828343	2574.645819
397.211217	2577.504153
397.594028	2579.480285
397.976778	2575.069276
398.359466	2576.304358
398.742092	2577.690676
399.124656	2578.383834
399.507158	2575.807805
399.889598	2579.278639
400.271977	2577.083217
400.654294	2578.189750
401.036549	2578.978690
401.418742	2581.239648
401.800874	2579.911304
402.182944	2579.757549
402.564952	2582.323496
402.946898	2581.708475
403.328783	2581.554720
403.710606	2582.056315
404.092367	2582.331058
404.474067	2578.892991
404.855705	2582.371387
405.237282	2580.758218
405.618797	2583.056984
406.000250	2581.277457
406.381642	2582.003383
406.762972	2579.477765
407.144240	2580.249061
407.525447	2585.096131
407.906593	2578.260326
408.287677	2586.948755
408.668700	2585.144022
409.049661	2586.991604
409.430560	2587.233580
409.811399	2586.139649
410.192176	2587.193251
410.572891	2587.137798
410.953545	2587.331882
411.334138	2586.507654
411.714669	2590.011256
412.095139	2586.474886
412.475547	2589.129054
412.855894	2589.423961
413.236180	2586.265678
413.616405	2590.467480
413.996568	2586.605956
414.376670	2589.494537
414.756711	2587.357088
415.136691	2591.566452
415.516609	2592.307501
415.896466	2590.187696
416.276262	2589.063519
416.655997	2593.537543
417.035670	2589.643251
417.415283	2594.122317
417.794834	2592.647779
418.174324	2590.343972
418.553753	2593.230032
418.933121	2591.284147
419.312428	2594.240784
419.691674	2591.858838
420.070859	2592.418407
420.449983	2592.856987
420.829045	2591.989908
421.208047	2593.701380
421.586988	2592.990577
421.965867	2594.966710
422.344686	2593.860177
422.723444	2596.418562
423.102141	2596.325301
423.480777	2594.097111
423.859352	2592.862028
424.237866	2597.109200
424.616319	2593.812286
424.994712	2598.482915
425.373044	2596.179107
425.751314	2594.639035
426.129524	2594.538212
426.507673	2596.355548
426.885762	2592.962851
427.263789	2596.453850
427.641756	2601.754623
428.019662	2597.131885
428.397508	2596.930239
428.775292	2603.435848
429.153016	2601.028697
429.530679	2599.206320
429.908282	2601.686568
430.285824	2602.609099
430.663305	2600.804366
431.040726	2601.477360
431.418086	2604.020622
431.795385	2605.338884
432.172624	2604.786877
432.549802	2603.375354
432.926920	2606.324429
433.303977	2609.044132
433.680974	2607.630088
434.057910	2607.022629
434.434786	2610.407764
434.811601	2609.578494
435.188355	2611.234513
435.565050	2609.079420
435.941683	2609.235696
436.318257	2612.134359
436.694770	2615.050667
437.071222	2615.070831
437.447614	2615.683332
437.823946	2614.949844
438.200218	2615.451438
438.576429	2616.951182
438.952580	2618.995370
439.328670	2617.984618
439.704700	2618.571913
440.080670	2617.898919
440.456580	2618.826491
440.832429	2621.425206
441.208218	2622.123406
441.583947	2622.037706
441.959616	2624.011318
442.335224	2625.344703
442.710773	2630.622791
443.086261	2630.254787
443.461689	2631.061371
443.837057	2631.646145
444.212365	2635.116980
444.587612	2634.358286
444.962800	2636.067237
445.337927	2639.711991
445.712995	2635.409367
446.088002	2647.629123
446.462949	2652.415699
446.837837	2653.560041
447.212664	2660.002636
447.587431	2668.507062
447.962139	2684.447191
448.336786	2696.208202
448.711374	2699.527802
449.085901	2691.517409
449.460369	2700.767926
449.834776	2708.269163
450.209124	2730.379664
450.583412	2736.923082
450.957640	2749.036974
451.331808	2754.010072
451.705917	2757.450660
452.079965	2769.171343
452.453954	2786.717079
452.827883	2800.310550
453.201752	2810.856644
453.575562	2832.011846
453.949311	2858.795496
454.323001	2880.205277
454.696632	2899.046589
455.070202	2937.981941
455.443713	2967.397074
455.817164	2999.355468
456.190556	3038.132024
456.563888	3065.379460
456.937160	3099.676951
457.310373	3107.586521
457.683526	3141.185811
458.056619	3180.232068
458.429653	3216.805640
458.802628	3267.171808
459.175542	3312.910197
459.548398	3399.055954
459.921194	3490.605828
460.293930	3570.911409
460.666607	3699.228939
461.039224	3819.001713
461.411782	3900.688570
461.784280	3920.580963
462.156719	3964.219712
462.529099	4012.105632
462.901419	4008.365096
463.273680	4026.772869
463.645882	4109.891414
464.018024	4178.194007
464.390106	4297.450063
464.762130	4545.379051
465.134094	4896.197988
465.505999	5339.506975
465.877845	5746.817082
466.249631	5984.683926
466.621358	5982.793494
466.993026	5942.514674
467.364634	5929.062355
467.736184	5904.453963
468.107674	5910.944448
468.479105	5983.279965
468.850477	6038.901536
469.221790	6050.801180
469.593043	6015.543350
469.964238	6043.431013
470.335373	6171.030178
470.706449	6487.453323
471.077467	6893.694706
471.448425	7604.799867
471.819324	8115.811550
472.190164	8108.007844
472.560945	7778.447452
472.931667	7513.620518
473.302330	7565.882159
473.672934	7559.376550
474.043479	7812.124881
474.413965	7877.438070
474.784393	7951.905995
475.154761	8271.565560
475.525070	8442.574101
475.895321	8521.994960
476.265513	8823.650044
476.635645	9161.823247
477.005719	9323.054470
477.375734	9590.230583
477.745691	9970.515065
478.115588	10361.212049
478.485427	11016.577173
478.855207	11921.338259
479.224928	12824.133296
479.594591	13490.359585
479.964194	13460.284062
480.333739	13808.209377
480.703226	14120.377787
481.072653	14550.065577
481.442022	14971.591738
481.811333	15315.521938
482.180584	15284.453307
482.549777	15377.916299
482.918912	15479.654346
483.287988	15654.400903
483.657005	15771.413645
484.025964	15783.404030
484.394864	16083.183805
484.763706	16244.873773
485.132489	16174.063206
485.501213	16411.660348
485.869879	16708.486007
486.238487	16870.596912
486.607036	17229.154021
486.975527	17256.769461
487.343959	17635.145866
487.712333	18029.543058
488.080648	18221.177480
488.448905	18665.701385
488.817104	18826.819183
489.185244	19574.407175
489.553326	20525.214160
489.921350	21967.994912
490.289315	23726.939188
490.657222	24399.020778
491.025070	24883.914243
491.392861	24845.324210
491.760593	24528.182701
492.128267	24071.580192
492.495883	23641.426096
492.863440	23272.219550
493.230939	22872.219115
493.598380	22700.582950
493.965763	22818.931599
494.333088	22673.816944
494.700354	22734.454463
495.067563	22903.557448
495.434713	23011.654910
495.801805	23415.690788
496.168839	23485.651921
496.535815	23575.976795
496.902733	23854.223282
497.269593	23887.409198
497.636395	24182.286451
498.003139	24568.655605
498.369825	24568.247271
498.736453	25053.518823
499.103023	25095.831748
499.469535	25339.727812
499.835989	25615.073114
500.202385	25651.066953
500.568723	25869.704316
500.935003	26284.727388
501.301226	26352.430085
501.667390	27076.427997
502.033497	27402.736844
502.399546	27356.580040
502.765537	27168.976020
503.131470	27719.545637
503.497345	28229.418020
503.863163	27486.397313
504.228923	28297.430747
504.594625	28786.707495
504.960269	28457.532752
505.325856	29179.647793
505.691385	29019.598720
506.056856	29426.601317
506.422270	29986.355917
506.787625	29679.561376
507.152924	30215.075588
507.518164	30503.550575
507.883347	30202.001355
508.248472	30465.701592
508.613540	31187.425944
508.978550	31510.208504
509.343503	31466.834417
509.708398	31891.445764
510.073236	32542.480536
510.438016	32741.293562
510.802738	32546.266443
511.167403	33150.282373
511.532010	33479.832682
511.896561	34014.414280
512.261053	34811.720652
512.625488	34678.737534
512.989866	34688.066189
513.354186	34800.642717
513.718449	34844.304150
514.082655	35753.156133
514.446803	35536.114295
514.810894	36195.540068
515.174927	36258.834275
515.538904	36323.945818
515.902822	37001.691144
516.266684	36764.681296
516.630488	37163.131576
516.994235	37219.542087
517.357925	37848.332768
517.721558	38151.878285
518.085133	38551.135149
518.448651	38782.004872
518.812112	38716.989111
519.175516	38911.522197
519.538863	39380.863702
519.902152	39480.524793
520.265385	40044.566894
520.628560	40104.977561
520.991678	40086.683214
521.354739	40358.698834
521.717743	40733.657337
522.080690	40686.094050
522.443580	41389.448438
522.806413	41422.016812
523.169189	41586.549991
523.531908	41812.993581
523.894569	41726.603327
524.257174	41943.123406
524.619722	42294.958135
524.982213	42451.049902
525.344647	42497.728467
525.707025	42652.784277
526.069345	43106.863689
526.431608	43024.125751
526.793815	43438.934575
527.155964	42997.236237
527.518057	43274.918114
527.880093	43154.411852
528.242072	43786.449036
528.603995	43545.464238
528.965860	43479.362108
529.327669	43720.775404
529.689421	43775.729022
530.051117	43724.999891
530.412755	44013.820198
530.774337	44111.336278
531.135862	44052.949634
531.497331	44201.782139
531.858743	44215.133635
532.220098	44625.763343
532.581396	44383.135128
532.942638	44133.484587
533.303824	44387.941869
533.664953	44452.778669
534.026025	44154.498637
534.387040	44733.787708
534.747999	44818.335419
535.108902	45121.465041
535.469748	44463.778467
535.830537	44717.792127
536.191270	44975.425335
536.551947	44721.303290
536.912567	45006.254511
537.273131	45179.816397
537.633638	44782.762517
537.994089	45006.562022
538.354483	44764.505979
538.714821	45387.159055
539.075103	45692.809254
539.435328	45560.423512
539.795497	45309.109390
540.155609	45432.862156
540.515665	46033.661830
540.875665	45335.804821
541.235609	45611.583662
541.595496	45749.973418
541.955328	46305.001936
542.315102	45754.013903
542.674821	45646.944836
543.034483	45545.975566
543.394090	45553.766669
543.753640	45539.850564
544.113134	46605.288347
544.472571	45714.259363
544.831953	46842.363730
545.191278	46106.047758
545.550548	45790.375745
545.909761	46447.911085
546.268918	46580.468226
546.628019	47003.736106
546.987064	46434.118488
547.346053	45714.463530
547.704986	46643.066754
548.063863	46304.218036
548.422684	46494.440935
548.781449	46088.050839
549.140158	46618.854092
549.498811	46385.438586
549.857408	45769.028979
550.215949	46614.498535
550.574434	46454.245295
550.932864	46365.982253
551.291237	47115.805997
551.649555	46855.170781
552.007817	47043.881334
552.366022	46703.762246
552.724173	46765.478572
553.082267	47186.571194
553.440305	47533.392496
553.798288	46765.707944
554.156215	47171.107454
554.514086	47359.195425
554.871902	47001.702000
555.229661	47153.314702
555.587365	46841.625201
555.945014	46974.903226
556.302606	47002.987494
556.660143	47089.166019
557.017625	47299.984553
557.375050	47012.820265
557.732421	47425.105991
558.089735	47476.860997
558.446994	47353.352728
558.804197	47817.506886
559.161345	47686.472174
559.518437	47017.735390
559.875474	47296.901887
560.232455	47508.942900
560.589381	47568.206705
560.946251	47371.500882
561.303065	48026.913896
561.659825	47706.437664
562.016528	47519.693161
562.373177	47098.043491
562.729770	47720.835199
563.086307	47244.138650
563.442789	47784.462122
563.799216	47646.500865
564.155587	47529.440232
564.511904	47507.657406
564.868164	47534.025161
565.224370	47859.169502
565.580520	47601.637116
565.936615	47793.135428
566.292654	47424.425435
566.648638	47796.180284
567.004567	47748.498531
567.360441	47833.913321
567.716260	47556.420487
568.072023	47930.126263
568.427732	47874.429074
568.783385	47388.918068
569.138982	47795.726581
569.494525	47941.229404
569.850013	47520.111576
570.205445	47650.369951
570.560823	47445.016028
570.916145	47316.910227
571.271412	47542.562355
571.626625	47192.421453
571.981782	47272.696787
572.336884	46865.812657
572.691931	47184.103549
573.046923	46856.640278
573.401860	46700.188068
573.756743	46708.115282
574.111570	46861.613376
574.466342	46755.567663
574.821059	46914.820234
575.175722	46412.648214
575.530330	46503.376381
575.884882	46160.469534
576.239380	46038.483693
576.593823	46147.276835
576.948211	46072.725731
577.302544	45620.929962
577.656823	45607.517972
578.011047	45882.041566
578.365216	45690.197936
578.719330	45424.705569
579.073389	45392.835394
579.427394	45444.532427
579.781344	45373.200100
580.135239	45151.643909
580.489080	45202.438575
580.842866	44704.806114
581.196597	45197.299119
581.550273	45201.639552
581.903895	45110.102281
582.257463	45549.121246
582.610975	44987.682901
582.964434	45324.555486
583.317837	44834.179766
583.671186	44778.525428
584.024481	45059.985650
584.377721	44602.669817
584.730906	44824.450339
585.084037	44943.545078
585.437113	44627.079084
585.790135	44769.395898
586.143103	44310.645857
586.496016	44482.294625
586.848874	44572.831227
587.201679	44619.625738
587.554428	44122.189882
587.907124	44395.972427
588.259765	44162.889637
588.612352	44325.335779
588.964884	43792.223678
589.317362	44084.771917
589.669786	44090.196199
590.022155	43936.100729
590.374470	44393.378753
590.726731	43982.345754
591.078937	43321.911750
591.431090	43647.015762
591.783188	43172.174357
592.135232	42973.331085
592.487222	43236.086106
592.839157	43384.376687
593.191038	43029.731514
593.542866	42844.660674
593.894639	42244.881834
594.246358	42552.694687
594.598022	42540.663974
594.949633	42107.565844
595.301190	42080.663727
595.652692	42027.535006
596.004141	42513.000642
596.355535	41416.504310
596.706876	41440.840480
597.058162	41163.324961
597.409395	41643.963692
597.760573	41863.589121
598.111698	41455.457306
598.462768	41386.940463
598.813785	41425.399426
599.164748	41017.670903
599.515657	41281.381223
599.866511	40788.631119
600.217312	41486.044507
600.568060	40430.366398
600.918753	41249.216140
601.269392	41172.797289
601.619978	40888.997972
601.970510	41092.499270
602.320988	41228.567574
602.671412	41475.140491
603.021783	41362.634540
603.372100	40927.857706
603.722363	41043.043030
604.072572	41067.727040
604.422728	41053.498383
604.772830	40846.909378
605.122878	41006.547597
605.472872	40867.235311
605.822813	41121.506069
606.172701	40854.599658
606.522534	41198.544982
606.872314	41424.963366
607.222041	41240.542835
607.571714	41576.452560
607.921333	41055.998796
608.270899	41275.614143
608.620411	41667.924297
608.969870	41406.762280
609.319276	41422.326843
609.668627	41441.246293
610.017926	41853.035466
610.367171	41980.911895
610.716362	42025.740355
611.065500	41912.959662
611.414585	42140.371153
611.763616	42322.084584
612.112594	42216.225395
612.461518	42335.224352
612.810389	42724.419073
613.159207	42514.830581
613.507971	42494.643280
613.856682	42988.593178
614.205340	42817.680419
614.553945	43495.357689
614.902496	42837.540044
615.250994	43247.587498
615.599439	43321.153056
615.947830	43440.378865
616.296169	43436.406436
616.644454	43471.896159
616.992686	43642.125842
617.340864	44093.659472
617.688990	43620.252276
618.037063	44290.564420
618.385082	44113.440959
618.733048	44436.571359
619.080961	44316.483513
619.428821	44334.382130
619.776628	44362.063105
620.124382	44171.535216
620.472083	44281.933965
620.819731	44371.427049
621.167326	43923.011373
621.514868	43912.172892
621.862357	43389.127975
622.209793	43465.745952
622.557176	43030.956515
622.904506	42789.906182
623.251783	42409.863676
623.599007	42109.360495
623.946179	42049.153994
624.293297	41774.335492
624.640363	41239.642989
624.987376	41075.192989
625.334336	40876.558925
625.681243	40469.329476
626.028097	40390.818546
626.374899	40190.276405
626.721647	40171.409886
627.068343	39957.241506
627.414987	39663.722844
627.761577	39411.176160
628.108115	39740.817210
628.454600	38995.041513
628.801032	39225.671781
629.147412	39128.899271
629.493739	39034.531392
629.840014	38588.936241
630.186236	39020.973208
630.532405	38465.249011
630.878521	38695.284423
631.224585	38475.832914
631.570597	38137.079978
631.916556	38297.620563
632.262462	38184.923049
632.608316	38134.362796
632.954117	37980.705906
633.299866	37946.751215
633.645562	37849.111626
633.991206	37329.966042
634.336797	36920.989833
634.682336	36817.449574
635.027823	36579.242452
635.373257	36430.097395
635.718639	36118.957379
636.063968	36011.762284
636.409245	35364.193305
636.754470	35333.293553
637.099642	35093.148107
637.444762	34540.163777
637.789829	34675.501113
638.134845	34291.143380
638.479808	34210.641194
638.824719	34169.097045
639.169577	33652.877850
639.514383	33754.147069
639.859137	33368.037534
640.203839	33519.720812
640.548489	33236.667586
640.893086	33231.455033
641.237632	32953.974801
641.582125	33068.736669
641.926566	32869.989178
642.270955	32894.053126
642.615292	32826.315142
642.959576	32704.717470
643.303809	32732.458940
643.647990	32804.388643
643.992118	32754.950048
644.336195	32615.766310
644.680219	32693.158104
645.024192	32901.667789
645.368112	33433.585137
645.711981	33442.694502
646.055797	34179.776729
646.399562	33992.409644
646.743274	34862.825349
647.086935	35262.782934
647.430544	35202.679777
647.774101	35259.014671
648.117606	35541.329369
648.461059	35666.226476
648.804460	35255.609372
649.147810	34769.775732
649.491108	34398.010800
649.834354	34247.676031
650.177548	33414.096036
650.520690	32930.931687
650.863781	32918.916097
651.206820	32733.131934
651.549807	32332.062775
651.892742	31757.817378
652.235626	31662.143840
652.578458	31520.716790
652.921238	30841.912821
653.263967	31154.197179
653.606644	30868.305782
653.949269	30774.749529
654.291843	30373.090555
654.634365	30736.625803
654.976836	30278.410124
655.319255	30362.244512
655.661622	30245.418293
656.003938	30091.577401
656.346203	29909.964792
656.688416	30166.425932
657.030577	29933.335581
657.372687	29748.201727
657.714746	29916.578786
658.056753	30100.570819
658.398708	29474.767022
658.740612	29561.109384
659.082465	29775.010583
659.424266	29652.324022
659.766016	29666.777010
660.107715	29518.640184
660.449362	29616.630132
660.790958	29608.677712
661.132503	29534.774397
661.473996	29615.916809
661.815438	29677.736478
662.156829	29809.940738
662.498168	29619.947211
662.839456	29591.378993
663.180693	29710.743433
663.521879	29802.981425
663.863013	29757.096843
664.204097	29746.409597
664.545129	30155.582410
664.886110	30072.370604
665.227040	30186.078871
665.567918	30186.066268
665.908746	30264.201632
666.249522	30353.535919
666.590248	30378.706400
666.930922	30470.571347
667.271545	30463.622116
667.612118	30527.208710
667.952639	30329.081282
668.293109	30370.285153
668.633528	30230.930016
668.973896	30185.327739
669.314213	30172.011531
669.654480	29973.415275
669.994695	29958.974890
670.334859	29885.253056
670.674973	29718.960514
671.015035	29911.051161
671.355047	29859.364210
671.695008	29776.840522
672.034918	29690.145279
672.374777	29795.608738
672.714585	29639.232145
673.054342	29798.215014
673.394049	29655.318467
673.733705	29870.883247
674.073310	29586.882283
674.412864	29632.643357
674.752368	29337.204016
675.091820	29561.376565
675.431223	29158.316151
675.770574	28970.089548
676.109875	28801.765422
676.449125	28583.503625
676.788324	28494.108843
677.127473	28016.260391
677.466571	27914.396316
677.805619	27644.001426
678.144616	27578.673114
678.483562	27531.447584
678.822458	27202.194703
679.161303	27155.710224
679.500098	27078.323471
679.838842	27012.836362
680.177535	27082.731960
680.516179	27329.957706
680.854771	27472.982803
681.193314	28238.955883
681.531805	29269.067780
681.870247	30018.160557
682.208638	30734.894166
682.546978	30994.574083
682.885268	31139.862658
683.223508	30700.145493
683.561697	30422.612330
683.899836	30260.851785
684.237925	29853.501348
684.575963	29709.704956
684.913951	29344.047382
685.251889	29506.102834
685.589776	29554.006398
685.927614	29559.181143
686.265401	29736.682690
686.603137	29857.640136
686.940824	30354.385353
687.278460	30710.454652
687.616046	30872.154703
687.953582	31544.818546
688.291068	31454.566769
688.628504	31794.244756
688.965889	31770.884049
689.303224	31508.164317
689.640510	31222.978682
689.977745	30567.449721
690.314930	29841.820995
690.652065	29389.785771
690.989150	28735.930473
691.326185	27890.450835
691.663170	27228.625473
692.000105	26510.876071
692.336990	25905.476343
692.673825	25475.322248
693.010610	24994.693599
693.347345	24495.543751
693.684030	23885.175966
694.020665	23674.095293
694.357251	23009.769519
694.693786	23007.869004
695.030272	22773.127675
695.366707	22291.891567
695.703093	22020.932068
696.039429	22085.287438
696.375716	21853.971573
696.711952	21862.405424
697.048139	21721.059032
697.384276	21556.543497
697.720363	21680.565963
698.056400	21572.355076
698.392388	21416.618710
698.728326	21420.649112
699.064214	21248.465982
699.400053	21257.577868
699.735842	20865.159329
700.071581	20667.571304
700.407270	20420.887482
700.742910	20252.651575
701.078501	20004.402474
701.414042	19800.500404
701.749533	19488.969699
702.084974	19180.758594
702.420366	19413.133101
702.755709	19001.890894
703.091002	18706.814515
703.426246	18763.497249
703.761440	18701.657415
704.096584	18468.602352
704.431679	18394.746928
704.766725	18337.771807
705.101721	18284.698539
705.436668	18395.639212
705.771565	18118.640411
706.106413	18449.655175
706.441212	18510.370832
706.775961	18624.121948
707.110661	18702.892498
707.445311	19070.228776
707.779913	18945.679508
708.114465	19249.295601
708.448967	19561.199352
708.783421	20189.647234
709.117825	20570.672765
709.452180	20785.564551
709.786485	21252.415726
710.120742	22007.552846
710.454949	22121.828242
710.789107	22631.924956
711.123216	23349.649152
711.457275	23572.261465
711.791286	24127.184118
712.125247	24277.591985
712.459159	24001.697196
712.793023	24737.430915
713.126837	23709.355644
713.460602	23959.777482
713.794318	23627.197439
714.127985	23347.625129
714.461602	22451.060958
714.795171	22415.004106
715.128691	21442.177360
715.462162	20923.689646
715.795584	20494.455560
716.128957	20226.074612
716.462281	19856.530308
716.795556	19578.167875
717.128782	19099.719526
717.461960	18492.923399
717.795088	18460.367627
718.128167	18121.478581
718.461198	17658.829207
718.794180	17535.197429
719.127113	17205.727779
719.459997	17018.015374
719.792833	16653.834858
720.125619	16691.149479
720.458357	16359.035743
720.791046	16221.689507
721.123686	16072.161322
721.456278	15845.710171
721.788821	15852.704772
722.121315	15577.944243
722.453761	15680.884604
722.786158	15569.525516
723.118506	15649.717671
723.450805	15530.817016
723.783056	15717.896756
724.115259	15613.247443
724.447412	15607.830723
724.779518	15823.718137
725.111574	15865.524426
725.443582	16138.760005
725.775542	16098.778614
726.107453	16616.084178
726.439315	16539.834205
726.771129	16959.064121
727.102895	17374.979478
727.434612	17648.547774
727.766281	17806.887895
728.097901	18138.154718
728.429473	18222.697388
728.760996	18233.208194
729.092471	18354.324436
729.423897	18237.974605
729.755276	18114.902395
730.086606	18232.182319
730.417887	18811.426019
730.749120	19362.570328
731.080305	19591.733620
731.411442	19977.858279
731.742530	20096.247256
732.073570	20255.782131
732.404562	20571.590255
732.735506	20416.083262
733.066401	20200.170643
733.397249	19699.546257
733.728048	19074.677594
734.058798	18214.679433
734.389501	17454.717929
734.720156	16944.147347
735.050762	16370.131323
735.381320	15986.915410
735.711831	15727.117026
736.042293	15355.248751
736.372707	15391.817281
736.703073	15188.691549
737.033391	15386.342588
737.363661	15385.384769
737.693883	15514.493760
738.024056	15709.951897
738.354182	15934.913388
738.684260	16296.971578
739.014290	16575.124803
739.344272	16795.009851
739.674207	17147.656207
740.004093	17323.042990
740.333931	17375.453346
740.663722	17457.006613
740.993464	17491.573805
741.323159	17327.713619
741.652806	17034.041202
741.982405	16858.598966
742.311956	16512.264135
742.641460	16392.274591
742.970915	16056.548868
743.300323	15709.104984
743.629683	15496.693446
743.958996	15183.552092
744.288260	14869.992323
744.617477	14563.086877
744.946647	14532.696281
745.275768	14223.734044
745.604842	14014.556406
745.933869	13835.749200
746.262847	13813.416888
746.591778	13733.696082
746.920662	13609.804685
747.249498	13620.393628
747.578286	13788.004432
747.907027	13954.705307
748.235720	14220.469897
748.564365	14296.692143
748.892963	14218.249269
749.221514	14325.903109
749.550017	14190.109548
749.878473	14158.148632
750.206881	13936.514304
750.535242	13854.262837
750.863555	13770.441052
751.191821	13683.723123
751.520039	13695.542109
751.848210	13618.959420
752.176334	13670.633768
752.504411	13594.406480
752.832440	13421.580603
753.160421	13529.451213
753.488356	13421.383998
753.816243	13331.243126
754.144082	13171.299917
754.471875	13118.990384
754.799620	13088.428389
755.127318	13065.793608
755.454969	13050.662585
755.782572	13014.711597
756.110129	13035.302189
756.437638	12944.521091
756.765100	12944.546297
757.092515	12966.200573
757.419882	13004.634330
757.747203	13018.452133
758.074477	13116.913429
758.401703	13100.529679
758.728882	13291.158391
759.056014	13342.129498
759.383099	13507.985980
759.710138	13626.198517
760.037129	13752.789452
760.364073	13813.124502
760.690970	13849.007435
761.017820	13864.105690
761.344623	14093.626904
761.671379	14463.014932
761.998088	15173.517676
762.324751	16951.141948
762.651366	20372.668845
762.977935	24843.174158
763.304456	27794.797461
763.630931	28827.717282
763.957359	27606.641435
764.283740	25338.565826
764.610074	23073.530033
764.936362	20450.345464
765.262602	18576.094876
765.588796	16640.155687
765.914943	15366.919022
766.241044	14257.323252
766.567097	13483.811127
766.893104	12760.269438
767.219064	12309.522229
767.544978	11819.900162
767.870845	11440.581061
768.196665	11214.618902
768.522438	10987.580456
768.848165	10786.713160
769.173846	10572.572507
769.499479	10451.242016
769.825066	10277.642322
770.150607	10041.557525
770.476101	9970.946083
770.801548	9845.207103
771.126949	9685.838586
771.452303	9575.878418
771.777611	9376.679744
772.102872	9366.640287
772.428087	9228.457218
772.753256	9071.914268
773.078378	8980.782809
773.403453	8798.340931
773.728482	8689.933438
774.053465	8616.123384
774.378401	8513.556068
774.703291	8395.928305
775.028135	8269.019777
775.352932	8232.118531
775.677683	8131.088767
776.002388	8014.880088
776.327046	8034.520424
776.651658	7931.413704
776.976224	7836.957605
777.300743	7836.226637
777.625216	7748.908812
777.949643	7702.106739
778.274024	7717.416723
778.598359	7627.974051
778.922647	7650.366857
779.246889	7600.383816
779.571086	7606.208870
779.895236	7621.047506
780.219339	7630.681151
780.543397	7628.662169
780.867409	7708.743418
781.191374	7720.091056
781.515294	7687.573093
781.839167	7778.606249
782.162995	7751.283195
782.486776	7693.435955
782.810511	7645.522308
783.134201	7560.873773
783.457844	7555.469656
783.781441	7494.567477
784.104993	7431.679082
784.428498	7415.728872
784.751958	7394.626602
785.075372	7370.580298
785.398739	7308.014537
785.722061	7357.934563
786.045337	7359.910696
786.368568	7518.560848
786.691752	7545.677215
787.014891	7886.749081
787.337983	8249.959175
787.661030	8842.375410
787.984031	9463.143095
788.306987	9868.547646
788.629897	10079.046066
788.952760	10022.819556
789.275579	9797.691708
789.598351	9396.367971
789.921078	9040.515441
790.243759	8630.752813
790.566395	8338.013009
790.888984	8088.513702
791.211529	7878.002679
791.534027	7660.184504
791.856480	7456.799152
792.178888	7385.653348
792.501249	7289.170704
792.823566	7134.540872
793.145836	7131.838813
793.468062	7108.498271
793.790241	7060.559418
794.112375	7122.991588
794.434464	7280.573016
794.756507	7320.776218
795.078505	7484.737227
795.400457	7802.118190
795.722364	8152.967375
796.044226	8434.755272
796.366042	8709.115029
796.687812	8658.458994
797.009538	8737.968073
797.331218	8627.186196
797.652852	8540.274183
797.974442	8388.323724
798.295986	8302.220817
798.617484	8114.498330
798.938938	7967.969631
799.260346	7865.122531
799.581709	7660.134092
799.903026	7585.159532
800.224299	7477.934189
800.545526	7309.756256
800.866708	7208.943261
801.187845	7144.494630
801.508936	7039.689042
801.829983	7001.857702
802.150984	6845.561769
802.471940	6807.294370
802.792851	6789.589838
803.113717	6757.482729
803.434538	6728.274283
803.755314	6668.372773
804.076045	6671.823443
804.396731	6618.520802
804.717372	6651.389125
805.037967	6652.457850
805.358518	6697.301434
805.679024	6778.027951
805.999485	6788.884076
806.319901	6833.490726
806.640272	6854.406473
806.960598	6936.985614
807.280879	6935.455624
807.601115	7012.166862
807.921306	6954.342307
808.241453	6974.897612
808.561554	6999.009451
808.881611	6955.118645
809.201623	6966.463761
809.521590	6910.461583
809.841513	6893.757720
810.161390	6931.677279
810.481223	6795.984541
810.801011	6781.266892
811.120755	6757.833089
811.440453	6681.295771
811.760107	6647.451984
812.079716	6615.811182
812.399281	6549.378857
812.718801	6538.255551
813.038276	6498.317009
813.357707	6430.357214
813.677093	6475.478062
813.996434	6376.855449
814.315731	6421.872952
814.634983	6411.084883
814.954191	6427.395537
815.273354	6532.266660
815.592473	6595.875939
815.911547	6724.637091
816.230577	6800.410674
816.549562	6948.605474
816.868502	7054.731845
817.187399	7148.056205
817.506250	7296.729914
817.825058	7331.438259
818.143821	7602.463292
818.462539	7875.529993
818.781213	8238.719922
819.099843	8790.630486
819.418429	9790.591243
819.736970	10756.163768
820.055466	11933.615990
820.373919	13466.257829
820.692327	15804.092925
821.010691	19943.500295
821.329011	28913.734490
821.647286	41839.598270
821.965517	55247.494661
822.283704	60648.637303
822.601847	62629.180621
822.919945	59891.524051
823.237999	55664.345152
823.556010	49463.539398
823.873976	42780.764049
824.191897	36284.115662
824.509775	31472.601497
824.827609	26969.863046
825.145398	24404.470265
825.463144	23055.429770
825.780845	23379.480180
826.098502	25154.498176
826.416116	28937.163252
826.733685	32575.384148
827.051210	33722.665063
827.368692	31942.711778
827.686129	27981.408374
828.003522	23877.243711
828.320872	20173.926396
828.638177	17337.190989
828.955439	15194.025089
829.272656	13391.827713
829.589830	11927.097778
829.906960	10652.686524
830.224046	9717.804543
830.541088	8974.738466
830.858086	8515.002879
831.175041	8143.331209
831.491952	8023.402159
831.808819	8070.587359
832.125642	8475.344122
832.442421	9362.040234
832.759157	11155.571867
833.075849	14088.311008
833.392497	17295.500646
833.709101	19465.747624
834.025662	19289.723135
834.342179	17592.822859
834.658653	15396.200564
834.975083	13476.009941
835.291469	11866.563602
835.607811	10556.133304
835.924110	9647.979521
836.240366	8786.637892
836.556578	7981.091755
836.872746	7342.017120
837.188871	6842.111099
837.504952	6427.962666
837.820990	6116.061437
838.136984	5899.067490
838.452935	5806.915198
838.768842	5840.083469
839.084706	6267.719509
839.400526	7472.325906
839.716303	9053.332575
840.032037	10143.230037
840.347727	10063.015197
840.663373	9083.357687
840.978977	8041.310858
841.294537	7238.159268
841.610054	6643.998794
841.925527	6212.503751
842.240957	5850.876580
842.556344	5521.106980
842.871687	5237.310183
843.186987	4959.096464
843.502244	4733.925766
843.817458	4568.573399
844.132629	4440.462557
844.447756	4347.017208
844.762840	4265.806741
845.077881	4192.601625
845.392879	4125.859269
845.707833	4078.641301
846.022745	4035.713356
846.337613	4007.132534
846.652438	3965.671564
846.967221	3950.830407
847.281960	3914.249274
847.596656	3898.581368
847.911309	3878.537740
848.225919	3853.795757
848.540485	3838.112728
848.855009	3826.107220
849.169490	3801.723159
849.483928	3792.500368
849.798323	3784.875623
850.112675	3762.197992
850.426984	3773.530506
850.741251	3758.061725
851.055474	3750.411774
851.369654	3760.867127
851.683792	3753.345726
851.997887	3759.589195
852.311938	3761.484669
852.625947	3763.233949
852.939914	3754.013679
853.253837	3764.645472
853.567718	3762.739916
853.881555	3753.738936
854.195350	3764.718569
854.509103	3762.593722
854.822812	3762.543311
855.136479	3757.862600
855.450103	3760.413423
855.763685	3746.472113
856.077224	3753.237341
856.390720	3768.665792
856.704173	3793.755615
857.017584	3802.333138
857.330953	3813.340498
857.644278	3834.326821
857.957561	3840.950897
858.270802	3839.504086
858.584000	3843.408460
858.897155	3832.958148
859.210268	3821.494564
859.523339	3800.583858
859.836367	3797.884320
860.149352	3790.206643
860.462295	3781.117442
860.775195	3773.996813
861.088054	3769.358951
861.400869	3764.219495
861.713642	3767.423148
862.026373	3777.145013
862.339062	3779.300106
862.651708	3799.462201
862.964312	3836.658355
863.276873	3851.542362
863.589392	3904.330804
863.901869	3949.638174
864.214303	3993.430678
864.526696	4029.550545
864.839045	4073.159046
865.151353	4101.961679
865.463619	4109.238584
865.775842	4116.497846
866.088023	4133.108448
866.400162	4123.255513
866.712258	4129.907315
867.024313	4134.716576
867.336325	4131.374291
867.648296	4137.388388
867.960224	4136.813696
868.272110	4147.599245
868.583954	4151.596880
868.895755	4167.479035
869.207515	4161.732119
869.519233	4201.400959
869.830909	4215.990058
870.142542	4239.431424
870.454134	4254.433898
870.765684	4283.450779
871.077191	4317.173578
871.388657	4344.902444
871.700081	4379.353690
872.011463	4424.993776
872.322803	4463.540959
872.634101	4492.383921
872.945357	4530.457235
873.256571	4584.155606
873.567744	4611.909678
873.878874	4632.769973
874.189963	4669.804810
874.501010	4681.497766
874.812015	4674.656920
875.122979	4719.077047
875.433900	4718.356162
875.744780	4733.043564
876.055618	4755.559878
876.366415	4753.825721
876.677169	4774.043268
876.987882	4823.638140
877.298554	4874.785687
877.609183	4954.491370
877.919771	5059.395261
878.230317	5204.189803
878.540822	5417.168470
878.851285	5738.214353
879.161707	6195.351225
879.472087	6950.654703
879.782425	8176.471754
880.092722	10340.636580
880.402977	13625.568373
880.713191	17338.461359
881.023363	21028.643948
881.333494	23206.230846
881.643583	24420.664972
881.953631	24408.525873
882.263637	23575.361774
882.573602	22099.506013
882.883526	20564.182280
883.193408	18906.590401
883.503248	17223.132362
883.813048	15681.978535
884.122806	14277.916366
884.432522	12807.620997
884.742197	11562.942468
885.051831	10482.711419
885.361424	9488.560592
885.670975	8684.695679
885.980485	7997.467943
886.289954	7428.984586
886.599382	6963.247505
886.908768	6586.645587
887.218113	6222.999433
887.527417	5939.179951
887.836680	5675.320918
888.145901	5460.527435
888.455082	5297.373011
888.764221	5148.086802
889.073319	5016.207696
889.382376	4944.746820
889.691392	4886.425711
890.000366	4861.656002
890.309300	4841.418290
890.618193	4849.925237
890.927044	4828.984284
891.235855	4856.768603
891.544625	4884.111822
891.853353	4946.649856
892.162041	5065.366508
892.470687	5253.094036
892.779293	5496.813660
893.087858	5866.151276
893.396381	6441.677125
893.704864	7244.657316
894.013306	8386.095534
894.321707	9559.451818
894.630068	10373.701508
894.938387	10571.760881
895.246665	10332.210291
895.554903	9726.422395
895.863100	9032.126961
896.171256	8479.293866
896.479371	7975.942216
896.787446	7483.250086
897.095480	7054.474746
897.403473	6745.232725
897.711425	6423.765906
898.019336	6160.955432
898.327207	5885.136261
898.635038	5659.819370
898.942827	5417.420528
899.250576	5223.245364
899.558284	5032.178072
899.865952	4911.442437
900.173579	4770.574955
900.481165	4659.246113
900.788711	4564.197678
901.096216	4492.416688
901.403681	4428.830094
901.711105	4403.228594
902.018489	4388.188312
902.325832	4460.599446
902.633135	4581.355245
902.940397	4925.040950
903.247619	5715.342638
903.554800	7143.892212
903.861941	9046.166575
904.169041	10549.862109
904.476101	11166.337251
904.783121	10808.692591
905.090100	10076.616230
905.397039	9253.476465
905.703938	8498.488059
906.010796	7808.578429
906.317614	7262.495439
906.624391	6737.529842
906.931129	6311.484286
907.237826	5918.181025
907.544483	5543.827461
907.851099	5172.987581
908.157675	4826.738450
908.464211	4502.859438
908.770707	4271.856125
909.077163	4074.381526
909.383578	3929.612191
909.689954	3817.091116
909.996289	3749.222062
910.302584	3682.575488
910.608839	3655.338133
910.915054	3623.019296
911.221229	3607.421966
911.527363	3619.682052
911.833458	3631.770739
912.139513	3659.348371
912.445527	3691.415151
912.751502	3771.496400
913.057436	3869.748489
913.363331	4002.386287
913.669186	4204.970096
913.975000	4463.719920
914.280775	4880.978744
914.586510	5456.683555
914.892205	6252.661583
915.197859	7273.371728
915.503475	8483.213363
915.809050	9532.882417
916.114585	10173.277834
916.420081	10430.447256
916.725536	10388.698941
917.030952	9953.123084
917.336328	9543.305003
917.641665	9139.458168
917.946961	8661.660127
918.252218	8249.439936
918.557435	7743.106443
918.862612	7313.446381
919.167750	6938.858403
919.472848	6525.551843
919.777906	6156.093239
920.082925	5796.250637
920.387904	5434.268064
920.692843	5172.332231
920.997743	4931.075211
921.302603	4699.817319
921.607423	4535.311866
921.912204	4380.699678
922.216946	4258.532356
922.521647	4138.648676
922.826310	4035.441133
923.130932	3942.270528
923.435516	3843.935260
923.740059	3775.620064
924.044564	3704.018035
924.349028	3640.960762
924.653454	3576.426432
924.957840	3509.311030
925.262186	3462.070377
925.566493	3401.889083
925.870761	3345.584435
926.174989	3311.407933
926.479178	3270.922426
926.783328	3232.171077
927.087438	3202.735779
927.391509	3169.912827
927.695541	3140.283445
927.999533	3114.394599
928.303486	3095.490272
928.607400	3080.535689
928.911275	3063.667989
929.215110	3047.251471
929.518906	3042.482540
929.822663	3041.484391
930.126381	3038.890718
930.430060	3043.979762
930.733699	3048.070659
931.037299	3058.329407
931.340861	3053.116854
931.644383	3062.483318
931.947866	3062.495920
932.251309	3056.580126
932.554714	3056.456618
932.858080	3052.390928
933.161407	3042.278373
933.464694	3035.200593
933.767943	3029.541898
934.071153	3020.614014
934.374323	3012.036491
934.677455	3005.147754
934.980548	2995.846825
935.283602	2993.512771
935.586617	2990.450270
935.889593	3001.387053
936.192530	3003.118690
936.495428	3020.641741
936.798287	3039.515821
937.101108	3072.013619
937.403890	3123.682925
937.706632	3184.073428
938.009336	3265.525871
938.312002	3338.796522
938.614628	3400.099473
938.917216	3451.017647
939.219765	3480.410095
939.522275	3516.172040
939.824747	3520.661188
940.127179	3518.007020
940.429573	3509.104343
940.731929	3509.553005
941.034246	3493.721262
941.336524	3481.672904
941.638763	3463.499544
941.940964	3449.971608
942.243126	3410.368303
942.545250	3385.719582
942.847335	3350.464272
943.149381	3313.011020
943.451389	3283.336268
943.753359	3248.461565
944.055290	3224.014490
944.357182	3198.760829
944.659036	3182.997141
944.960851	3175.601769
945.262628	3160.664830
945.564367	3160.115344
945.866067	3157.599808
946.167729	3152.500681
946.469352	3153.604694
946.770937	3148.639157
947.072484	3134.004688
947.373992	3133.956797
947.675462	3128.925725
947.976893	3112.300000
948.278286	3105.267590
948.579641	3095.281064
948.880958	3087.915939
949.182236	3094.870210
949.483476	3085.120619
949.784678	3087.437029
950.085841	3091.081783
950.386967	3096.634614
950.688054	3115.871657
950.989103	3131.811786
951.290114	3157.133502
951.591087	3184.847245
951.892021	3210.443703
952.192917	3236.798856
952.493776	3264.686519
952.794596	3272.991820
953.095378	3278.527007
953.396122	3272.815379
953.696828	3265.805655
953.997496	3253.225456
954.298126	3230.792321
954.598718	3212.049311
954.899272	3185.651309
955.199788	3154.648213
955.500266	3126.306846
955.800706	3092.110179
956.101108	3053.736916
956.401472	3020.825743
956.701798	2988.801813
957.002087	2946.564505
957.302337	2921.814961
957.602550	2893.760939
957.902724	2864.071064
958.202861	2841.867302
958.502960	2817.848724
958.803022	2800.234933
959.103045	2775.676952
959.403031	2763.366454
959.702979	2745.021695
960.002889	2736.209758
960.302762	2724.110989
960.602596	2713.970708
960.902393	2702.098791
961.202153	2696.404807
961.501875	2687.411389
961.801559	2680.908301
962.101205	2675.423525
962.400814	2668.123934
962.700385	2664.146464
962.999918	2657.595485
963.299414	2650.603404
963.598873	2650.495019
963.898293	2642.414050
964.197677	2644.024698
964.497022	2640.082516
964.796331	2638.141672
965.095601	2634.549850
965.394835	2632.490538
965.694030	2632.288892
965.993189	2629.387708
966.292309	2629.967441
966.591393	2628.492903
966.890439	2627.676237
967.189447	2626.756226
967.488419	2629.760754
967.787353	2629.400311
968.086249	2628.530712
968.385108	2630.214457
968.683930	2633.690333
968.982714	2636.750313
969.281462	2643.419760
969.580172	2647.611479
969.878844	2652.551810
970.177480	2662.747544
970.476078	2669.565704
970.774639	2676.353618
971.073162	2685.213446
971.371649	2689.901719
971.670098	2696.510672
971.968510	2700.909078
972.266885	2706.378730
972.565223	2707.770089
972.863524	2711.150182
973.161788	2712.135728
973.460014	2718.404403
973.758204	2719.490772
974.056356	2720.239383
974.354471	2723.745505
974.652550	2725.580485
974.950591	2721.996225
975.248595	2719.642006
975.546563	2718.832901
975.844493	2715.883826
976.142386	2707.873432
976.440243	2704.425283
976.738062	2700.334387
977.035845	2695.010928
977.333590	2689.246369
977.631299	2684.033816
977.928971	2676.711540
978.226606	2670.004285
978.524204	2668.471774
978.821765	2660.536998
979.119290	2667.226609
979.416777	2666.677123
979.714228	2669.074192
980.011642	2672.217351
980.309020	2677.787826
980.606360	2692.361802
980.903664	2715.571274
981.200931	2750.488827
981.498162	2799.163687
981.795356	2872.414173
982.092513	2958.428861
982.389633	3062.957186
982.686717	3158.587874
982.983764	3229.337948
983.280775	3276.530710
983.577749	3287.626289
983.874686	3275.908127
984.171587	3241.716501
984.468451	3203.663352
984.765279	3155.162410
985.062070	3111.213631
985.358824	3067.877352
985.655543	3014.035308
985.952224	2960.180662
986.248869	2898.923081
986.545478	2838.376303
986.842050	2785.061060
987.138586	2742.158320
987.435086	2702.068544
987.731549	2671.662824
988.027975	2649.610297
988.324366	2632.568676
988.620719	2618.735750
988.917037	2606.755448
989.213318	2601.938626
989.509563	2594.003849
989.805772	2587.760380
990.101944	2584.569330
990.398080	2582.361305
990.694180	2578.867785
990.990244	2581.406006
991.286271	2579.336612
991.582262	2579.802919
991.878217	2582.565471
992.174136	2586.847932
992.470019	2589.146698
992.765865	2594.646597
993.061676	2597.605754
993.357450	2606.599172
993.653188	2611.927672
993.948890	2630.211937
994.244556	2649.622900
994.540186	2671.859429
994.835780	2700.982175
995.131337	2739.075654
995.426859	2778.341202
995.722345	2827.638645
996.017795	2876.225286
996.313208	2913.323137
996.608586	2941.535954
996.903928	2952.873509
997.199234	2953.833849
997.494504	2948.749846
997.789738	2933.588575
998.084936	2908.123187
998.380099	2880.353991
998.675225	2851.483303
998.970316	2822.030361
999.265371	2786.903601
999.560390	2749.868765
999.855373	2719.566389
1000.150320	2693.014632
1000.445232	2665.424397
1000.740108	2648.186171
1001.034948	2629.085239
1001.329752	2614.445728
1001.624521	2603.748400
1001.919254	2591.881524
1002.213951	2586.406831
1002.508613	2573.377968
1002.803239	2568.598955
1003.097829	2562.466391
1003.392384	2558.357851
1003.686903	2548.943496
1003.981386	2551.524567
1004.275834	2544.650953
1004.570246	2543.985521
1004.864623	2543.587270
1005.158964	2538.165509
1005.453270	2538.336908
1005.747540	2537.245498
1006.041775	2534.626619
1006.335974	2535.208872
1006.630138	2532.935312
1006.924266	2532.801721
1007.218359	2529.219981
1007.512416	2527.470701
1007.806438	2522.585823
1008.100425	2527.594209
1008.394376	2525.734023
1008.688292	2527.342152
1008.982172	2528.917512
1009.276017	2527.768129
1009.569827	2527.241328
1009.863602	2527.233767
1010.157341	2526.444826
1010.451045	2525.958355
1010.744714	2523.455422
1011.038347	2524.763601
1011.331945	2522.177489
1011.625508	2519.117509
1011.919036	2518.396624
1012.212528	2519.477952
1012.505986	2513.695748
1012.799408	2517.847138
1013.092795	2516.317148
1013.386147	2520.219001
1013.679464	2516.518794
1013.972745	2514.199863
1014.265992	2515.583660
1014.559204	2515.134998
1014.852380	2515.301356
1015.145521	2516.627179
1015.438628	2516.748167
1015.731699	2514.136849
1016.024736	2519.815709
1016.317737	2516.332272
1016.610703	2518.648682
1016.903635	2518.028620
1017.196531	2522.414424
1017.489393	2522.847963
1017.782219	2523.919208
1018.075011	2526.250742
1018.367768	2525.350896
1018.660490	2527.778211
1018.953177	2527.778211
1019.245829	2527.778211
