Dividing Wavelength (nm)	Counts (n)	Blue Motor Position (mm): 21.900000	Red Motor Position (mm): 0.000000	
326.493990	2188.448064
326.888308	2188.448064
327.282561	2188.448064
327.676750	2148.217135
328.070874	2146.601446
328.464933	2148.880047
328.858929	2148.312917
329.252859	2154.195944
329.646726	2163.776657
330.040528	2173.024653
330.434265	2186.240038
330.827938	2207.942206
331.221547	2222.828733
331.615091	2239.598131
332.008571	2258.565473
332.401986	2280.116405
332.795338	2296.048972
333.188625	2315.485141
333.581847	2336.768892
333.975006	2351.879751
334.368100	2369.675024
334.761129	2391.455329
335.154095	2407.037536
335.546996	2430.909920
335.939833	2464.284879
336.332606	2479.055459
336.725315	2493.495845
337.117960	2505.796260
337.510540	2516.478465
337.903056	2525.998684
338.295508	2536.290200
338.687896	2545.303783
339.080220	2552.268137
339.472480	2560.008828
339.864676	2564.044272
340.256807	2571.283369
340.648875	2572.072310
341.040879	2575.591035
341.432818	2579.603793
341.824694	2581.327868
342.216506	2585.416244
342.608253	2583.480441
342.999937	2583.760225
343.391557	2580.208732
343.783113	2584.405492
344.174605	2581.761407
344.566033	2582.194947
344.957397	2579.523135
345.348697	2577.713361
345.739934	2576.269070
346.131106	2575.386868
346.522215	2572.553740
346.913260	2572.233627
347.304241	2569.037535
347.695159	2569.637432
348.086012	2568.301527
348.476802	2565.642318
348.867528	2558.763663
349.258191	2559.000598
349.648789	2557.919270
350.039324	2553.523384
350.429796	2558.385577
350.820203	2555.033210
351.210548	2554.715617
351.600828	2553.412479
351.991045	2550.591953
352.381198	2552.333672
352.771288	2551.365770
353.161314	2549.674463
353.551276	2553.357026
353.941175	2549.029195
354.331010	2549.470296
354.720782	2547.010213
355.110490	2550.412992
355.500135	2546.556509
355.889717	2548.396531
356.279235	2551.451470
356.668689	2551.091027
357.058080	2552.026161
357.447408	2549.024154
357.836672	2549.064483
358.225873	2549.412323
358.615010	2548.356201
359.004084	2552.447098
359.393095	2550.942313
359.782043	2552.247972
360.170927	2551.254865
360.559748	2552.573127
360.948505	2554.183775
361.337199	2556.686708
361.725830	2555.628066
362.114398	2553.520863
362.502903	2554.682849
362.891344	2555.237376
363.279722	2551.403579
363.668037	2557.037068
364.056289	2557.911708
364.444478	2558.914898
364.832603	2560.946483
365.220665	2560.863304
365.608665	2559.015721
365.996601	2560.384394
366.384474	2560.321380
366.772284	2559.245094
367.160031	2558.463715
367.547715	2558.783828
367.935336	2561.054868
368.322893	2559.101421
368.710388	2557.924311
369.097820	2557.813406
369.485189	2555.769218
369.872495	2563.444375
370.259738	2562.862122
370.646918	2563.887996
371.034035	2562.380691
371.421090	2565.123079
371.808081	2560.139898
372.195010	2564.046793
372.581875	2566.030487
372.968678	2563.900599
373.355418	2565.279355
373.742096	2566.131310
374.128710	2565.453275
374.515262	2565.909499
374.901751	2566.953018
375.288177	2565.864129
375.674540	2567.172308
376.060841	2566.940415
376.447079	2566.481670
376.833254	2566.968141
377.219367	2567.956207
377.605417	2567.358831
377.991404	2563.351113
378.377329	2566.839592
378.763191	2566.741289
379.148991	2567.094170
379.534727	2570.181877
379.920402	2569.161043
380.306013	2568.697257
380.691563	2570.113821
381.077049	2570.549881
381.462474	2570.630540
381.847835	2571.676579
382.233134	2572.566343
382.618371	2570.176836
383.003545	2569.062741
383.388657	2571.195149
383.773706	2568.712381
384.158693	2572.236147
384.543618	2574.328226
384.928480	2572.226065
385.313280	2575.563309
385.698017	2572.221024
386.082692	2573.236816
386.467305	2573.904769
386.851856	2577.700758
387.236344	2574.827300
387.620770	2572.236147
388.005133	2568.770354
388.389435	2572.697413
388.773674	2569.148440
389.157851	2573.819069
389.541965	2576.959708
389.926018	2576.178329
390.310008	2574.905438
390.693936	2575.011302
391.077802	2577.567167
391.461606	2576.168247
391.845348	2577.819225
392.229027	2577.408371
392.612645	2576.818556
392.996200	2578.956005
393.379694	2577.889801
393.763125	2578.701427
394.146494	2577.350398
394.529801	2579.964236
394.913047	2577.521797
395.296230	2581.584967
395.679351	2578.189750
396.062410	2581.211922
396.445408	2578.139338
396.828343	2578.063721
397.211217	2580.780903
397.594028	2580.967426
397.976778	2577.105902
398.359466	2582.086562
398.742092	2580.710327
399.124656	2580.569174
399.507158	2578.517425
399.889598	2583.498085
400.271977	2581.272415
400.654294	2580.206211
401.036549	2582.835173
401.418742	2581.612693
401.800874	2582.893146
402.182944	2583.603949
402.564952	2584.032447
402.946898	2585.902715
403.328783	2585.280133
403.710606	2582.865420
404.092367	2580.964905
404.474067	2580.854000
404.855705	2585.075966
405.237282	2582.966243
405.618797	2583.240986
406.000250	2584.866758
406.381642	2583.596387
406.762972	2581.756366
407.144240	2580.304514
407.525447	2583.213260
407.906593	2579.916345
408.287677	2586.767273
408.668700	2586.915987
409.049661	2590.376739
409.430560	2585.600246
409.811399	2587.651996
410.192176	2587.135277
410.572891	2585.761563
410.953545	2587.407500
411.334138	2585.476738
411.714669	2585.070925
412.095139	2589.960844
412.475547	2589.038313
412.855894	2589.222315
413.236180	2590.953951
413.616405	2589.797007
413.996568	2588.161152
414.376670	2589.698704
414.756711	2591.858838
415.136691	2589.602922
415.516609	2588.657706
415.896466	2590.482603
416.276262	2589.963365
416.655997	2590.986719
417.035670	2589.058478
417.415283	2593.562748
417.794834	2594.669282
418.174324	2587.084866
418.553753	2589.923035
418.933121	2592.851946
419.312428	2592.385639
419.691674	2591.934456
420.070859	2592.524271
420.449983	2592.723396
420.829045	2594.306319
421.208047	2593.217429
421.586988	2591.904209
421.965867	2595.128027
422.344686	2595.153232
422.723444	2597.333532
423.102141	2595.422934
423.480777	2597.071392
423.859352	2593.116606
424.237866	2594.439909
424.616319	2595.818665
424.994712	2596.390836
425.373044	2598.974427
425.751314	2595.932091
426.129524	2591.326997
426.507673	2594.639035
426.885762	2589.570155
427.263789	2598.349324
427.641756	2599.160950
428.019662	2597.691453
428.397508	2598.235898
428.775292	2595.286823
429.153016	2598.843357
429.530679	2594.870928
429.908282	2598.137596
430.285824	2596.703387
430.663305	2596.395877
431.040726	2599.491145
431.418086	2598.656834
431.795385	2599.135744
432.172624	2599.624736
432.549802	2599.264293
432.926920	2599.644901
433.303977	2601.021136
433.680974	2599.901999
434.057910	2601.832761
434.434786	2603.304778
434.811601	2600.212030
435.188355	2602.656990
435.565050	2599.370158
435.941683	2598.447627
436.318257	2603.508945
436.694770	2601.071547
437.071222	2601.615992
437.447614	2602.225971
437.823946	2602.099943
438.200218	2603.365272
438.576429	2602.362082
438.952580	2602.311671
439.328670	2602.679675
439.704700	2602.402412
440.080670	2604.439038
440.456580	2602.583893
440.832429	2604.650766
441.208218	2604.204624
441.583947	2604.320571
441.959616	2603.551795
442.335224	2606.553802
442.710773	2605.762341
443.086261	2605.578339
443.461689	2604.570108
443.837057	2608.134204
444.212365	2607.168823
444.587612	2603.589603
444.962800	2602.372165
445.337927	2602.659511
445.712995	2602.236054
446.088002	2603.564398
446.462949	2607.350304
446.837837	2607.017588
447.212664	2607.173864
447.587431	2606.553802
447.962139	2612.638475
448.336786	2611.448762
448.711374	2612.850203
449.085901	2611.962960
449.460369	2611.436159
449.834776	2611.345419
450.209124	2612.184771
450.583412	2613.263578
450.957640	2613.177878
451.331808	2615.763990
451.705917	2612.983794
452.079965	2612.187291
452.453954	2613.054370
452.827883	2613.129987
453.201752	2611.453803
453.575562	2614.057559
453.949311	2613.528238
454.323001	2613.624020
454.696632	2613.719802
455.070202	2615.837087
455.443713	2615.431274
455.817164	2618.823970
456.190556	2617.442694
456.563888	2621.294136
456.937160	2618.995370
457.310373	2618.531583
457.683526	2618.171141
458.056619	2618.892026
458.429653	2618.561830
458.802628	2620.248096
459.175542	2624.195320
459.548398	2622.872017
459.921194	2624.336472
460.293930	2624.447377
460.666607	2627.814868
461.039224	2628.195475
461.411782	2630.290075
461.784280	2632.188069
462.156719	2633.034983
462.529099	2630.400980
462.901419	2630.055661
463.273680	2629.420476
463.645882	2629.372585
464.018024	2631.701598
464.390106	2629.130609
464.762130	2635.308543
465.134094	2638.222330
465.505999	2645.305152
465.877845	2654.553148
466.249631	2661.157060
466.621358	2660.534477
466.993026	2664.093532
467.364634	2662.702173
467.736184	2660.998263
468.107674	2661.028510
468.479105	2664.582524
468.850477	2664.761485
469.221790	2668.743996
469.593043	2669.931188
469.964238	2674.465706
470.335373	2676.857733
470.706449	2681.505677
471.077467	2682.221521
471.448425	2700.888914
471.819324	2725.686350
472.190164	2748.530338
472.560945	2734.238667
472.931667	2733.235477
473.302330	2733.532906
473.672934	2740.056159
474.043479	2753.178282
474.413965	2765.977772
474.784393	2773.284924
475.154761	2792.126237
475.525070	2806.312044
475.895321	2821.564055
476.265513	2845.887622
476.635645	2868.875283
477.005719	2891.598284
477.375734	2912.876995
477.745691	2945.268929
478.115588	2984.312665
478.485427	3021.478572
478.855207	3079.514856
479.224928	3174.245698
479.594591	3290.411527
479.964194	3329.833350
480.333739	3371.400184
480.703226	3393.833319
481.072653	3447.758541
481.442022	3537.785987
481.811333	3644.330774
482.180584	3712.885425
482.549777	3730.166500
482.918912	3790.758649
483.287988	3879.394737
483.657005	3947.662042
484.025964	4007.490456
484.394864	4076.329932
484.763706	4138.361330
485.132489	4204.309705
485.501213	4287.987818
485.869879	4389.841810
486.238487	4446.890028
486.607036	4582.146706
486.975527	4649.551974
487.343959	4780.720277
487.712333	4895.996342
488.080648	4950.544147
488.448905	5126.818173
488.817104	5204.772056
489.185244	5401.840842
489.553326	5545.039858
489.921350	5783.133554
490.289315	6275.175376
490.657222	6723.901082
491.025070	6945.633714
491.392861	7069.346150
491.760593	7086.995229
492.128267	7115.828109
492.495883	7066.485295
492.863440	7078.694969
493.230939	7056.982720
493.598380	7192.914913
493.965763	7257.343379
494.333088	7328.113618
494.700354	7467.246943
495.067563	7621.987681
495.434713	7733.064465
495.801805	7890.290492
496.168839	8054.740492
496.535815	8180.313114
496.902733	8392.361688
497.269593	8435.471116
497.636395	8688.854631
498.003139	8852.135084
498.369825	8989.637596
498.736453	9178.159106
499.103023	9308.964445
499.469535	9504.412501
499.835989	9750.115818
500.202385	9962.393766
500.568723	9974.671496
500.935003	10201.346979
501.301226	10277.213823
501.667390	10696.897443
502.033497	11042.516430
502.399546	11078.290978
502.765537	11165.608804
503.131470	11461.156531
503.497345	11724.513969
503.863163	11573.753222
504.228923	12029.680217
504.594625	12316.600009
504.960269	12256.695978
505.325856	12697.822145
505.691385	12652.177018
506.056856	13090.681785
506.422270	13320.510509
506.787625	13270.509825
507.152924	13721.511613
507.518164	13871.785888
507.883347	13966.640239
508.248472	13993.229805
508.613540	14594.266413
508.978550	14707.412591
509.343503	14876.061872
509.708398	15226.870727
510.073236	15494.382077
510.438016	15797.133612
510.802738	15824.514639
511.167403	16150.331974
511.532010	16148.723846
511.896561	16814.060372
512.261053	17032.670008
512.625488	17094.192250
512.989866	17215.986527
513.354186	17283.311136
513.718449	17585.089729
514.082655	17985.599320
514.446803	18042.017393
514.810894	18530.797588
515.174927	18337.308021
515.538904	18539.160862
515.902822	19041.030412
516.266684	19083.771835
516.630488	19152.208019
516.994235	19338.652574
517.357925	19703.334684
517.721558	20023.896616
518.085133	20261.052658
518.448651	20349.532469
518.812112	20308.762138
519.175516	20580.112326
519.538863	20913.251937
519.902152	20864.869462
520.265385	21282.254316
520.628560	21242.409036
520.991678	21405.772667
521.354739	21609.253801
521.717743	21795.292543
522.080690	21737.888924
522.443580	22182.153209
522.806413	22295.790899
523.169189	22525.949819
523.531908	22669.237056
523.894569	22480.564311
524.257174	22651.502277
524.619722	22958.742959
524.982213	22779.565228
525.344647	22987.117094
525.707025	23167.376153
526.069345	23292.424494
526.431608	23356.923537
526.793815	23642.935921
527.155964	23207.874262
527.518057	23461.547644
527.880093	23507.220498
528.242072	23769.998204
528.603995	23596.516977
528.965860	23500.782944
529.327669	23655.120390
529.689421	23700.762997
530.051117	23614.423155
530.412755	23875.254976
530.774337	23738.790941
531.135862	23686.811604
531.497331	23937.367032
531.858743	23558.486512
532.220098	24105.277784
532.581396	23834.567823
532.942638	23865.896073
533.303824	23977.870183
533.664953	24057.636360
534.026025	23787.443117
534.387040	24066.385283
534.747999	24175.571634
535.108902	24362.787485
535.469748	23925.643829
535.830537	24150.527181
536.191270	24276.997128
536.551947	24234.069183
536.912567	23939.915335
537.273131	24260.431897
537.633638	24023.008674
537.994089	24254.208593
538.354483	23850.543239
538.714821	24357.743810
539.075103	24436.506798
539.435328	24249.008642
539.795497	23820.871008
540.155609	24257.124900
540.515665	24556.640015
540.875665	23832.816022
541.235609	24119.055258
541.595496	24124.545074
541.955328	24481.620084
542.315102	24412.994856
542.674821	24011.527446
543.034483	23904.564244
543.394090	24068.149686
543.753640	23883.857705
544.113134	24517.742472
544.472571	24131.849706
544.831953	24429.832310
545.191278	24039.715058
545.550548	24012.717159
545.909761	24214.842222
546.268918	24461.959584
546.628019	24412.848663
546.987064	24136.439677
547.346053	23895.661566
547.704986	24032.914542
548.063863	24194.072668
548.422684	24191.816752
548.781449	23774.215129
549.140158	24160.266691
549.498811	23745.157918
549.857408	23479.862156
550.215949	23925.779940
550.574434	23613.767805
550.932864	23825.723118
551.291237	23978.374298
551.649555	23867.289952
552.007817	23912.181428
552.366022	23786.397077
552.724173	23832.526156
553.082267	23759.598303
553.440305	24245.479835
553.798288	23514.381457
554.156215	24056.131576
554.514086	24128.893070
554.871902	23502.501978
555.229661	23795.864364
555.587365	23663.834024
555.945014	23504.044571
556.302606	23787.392705
556.660143	23695.038767
557.017625	23977.920594
557.375050	23508.662268
557.732421	23893.012440
558.089735	23705.297515
558.446994	23763.532924
558.804197	23787.105359
559.161345	23762.779272
559.518437	23476.454336
559.875474	23692.659342
560.232455	23876.578278
560.589381	23713.532240
560.946251	23671.592360
561.303065	24009.155583
561.659825	24091.959056
562.016528	23699.792575
562.373177	23437.846659
562.729770	23779.931797
563.086307	23665.053984
563.442789	23828.876360
563.799216	23654.863291
564.155587	23682.083001
564.511904	23652.438496
564.868164	23576.153236
565.224370	23574.895468
565.580520	23476.020797
565.936615	23613.775367
566.292654	23276.781794
566.648638	23601.606021
567.004567	23422.004833
567.360441	23365.763200
567.716260	23083.564449
568.072023	23426.383075
568.427732	23174.973171
568.783385	22976.202996
569.138982	23211.932391
569.494525	23251.336570
569.850013	22996.342405
570.205445	23083.922371
570.560823	22900.157190
570.916145	22675.629239
571.271412	22829.276046
571.626625	22598.587805
571.981782	22702.065050
572.336884	22505.704546
572.691931	22642.637407
573.046923	22374.654710
573.401860	22261.208584
573.756743	22252.535279
574.111570	22180.224968
574.466342	22111.050255
574.821059	22202.411086
575.175722	21900.556876
575.530330	21884.568857
575.884882	21913.016088
576.239380	21814.436324
576.593823	21711.851364
576.948211	21697.080783
577.302544	21529.694311
577.656823	21414.312382
578.011047	21506.888131
578.365216	21380.423225
578.719330	21259.216243
579.073389	21154.655150
579.427394	21314.837814
579.781344	21094.632652
580.135239	20976.220989
580.489080	20949.270981
580.842866	20705.402643
581.196597	20893.793083
581.550273	20871.619567
581.903895	20777.334867
582.257463	21086.660067
582.610975	20612.365628
582.964434	20913.267060
583.317837	20646.895011
583.671186	20726.560366
584.024481	20679.244096
584.377721	20466.537650
584.730906	20514.947851
585.084037	20549.827594
585.437113	20449.763211
585.790135	20646.539610
586.143103	20129.339911
586.496016	20131.631115
586.848874	20381.710154
587.201679	20324.470373
587.554428	19974.417691
587.907124	20306.354987
588.259765	20089.953376
588.612352	20183.618014
588.964884	19745.342619
589.317362	19910.861344
589.669786	19963.554005
590.022155	20021.439054
590.374470	20190.620177
590.726731	19997.463326
591.078937	19738.244675
591.431090	19845.991776
591.783188	19590.037272
592.135232	19566.416946
592.487222	19673.077679
592.839157	19702.835610
593.191038	19584.179451
593.542866	19470.728284
593.894639	19186.908802
594.246358	19407.655888
594.598022	19322.104986
594.949633	19073.646678
595.301190	19027.184883
595.652692	19189.217650
596.004141	19435.561195
596.355535	18767.351211
596.706876	18782.731772
597.058162	18672.605245
597.409395	18886.640035
597.760573	18979.251072
598.111698	18755.930477
598.462768	18697.586683
598.813785	18655.145209
599.164748	18476.766501
599.515657	18510.844701
599.866511	18310.690728
600.217312	18660.725766
600.568060	18197.433646
600.918753	18505.422940
601.269392	18406.671777
601.619978	18170.113112
601.970510	18391.281134
602.320988	18343.458228
602.671412	18554.029745
603.021783	18455.351679
603.372100	18192.442903
603.722363	18321.196493
604.072572	18252.447757
604.422728	18390.666114
604.772830	18153.505031
605.122878	18101.931507
605.472872	18103.222042
605.822813	18087.458354
606.172701	18048.928815
606.522534	18248.387108
606.872314	18277.731665
607.222041	18105.936703
607.571714	18327.339139
607.921333	18151.801121
608.270899	18226.193428
608.620411	18415.352644
608.969870	18173.016817
609.319276	18178.312549
609.668627	18214.026603
610.017926	18349.172376
610.367171	18466.353998
610.716362	18493.556064
611.065500	18318.018046
611.414585	18454.945866
611.763616	18437.604297
612.112594	18379.396614
612.461518	18353.800156
612.810389	18550.601761
613.159207	18393.842041
613.507971	18303.257547
613.856682	18587.208099
614.205340	18516.626904
614.553945	18666.601231
614.902496	18405.950892
615.250994	18643.293456
615.599439	18583.747347
615.947830	18570.501715
616.296169	18607.211398
616.644454	18588.082739
616.992686	18551.874652
617.340864	18767.814997
617.688990	18526.389099
618.037063	18701.848979
618.385082	18545.248055
618.733048	18826.703236
619.080961	18682.233849
619.428821	18730.276045
619.776628	18622.135734
620.124382	18543.894505
620.472083	18572.331654
620.819731	18597.600438
621.167326	18307.393814
621.514868	18339.342126
621.862357	18100.880426
622.209793	18111.749154
622.557176	17950.321325
622.904506	17779.401004
623.251783	17677.267227
623.599007	17448.056044
623.946179	17398.572078
624.293297	17339.764498
624.640363	17098.686438
624.987376	17110.323942
625.334336	16904.884320
625.681243	16752.817914
626.028097	16757.112977
626.374899	16697.619800
626.721647	16563.371353
627.068343	16394.520425
627.414987	16319.992007
627.761577	16294.783717
628.108115	16343.022518
628.454600	16058.222532
628.801032	16150.636964
629.147412	16082.614154
629.493739	16110.322857
629.840014	15924.614311
630.186236	16018.120153
630.532405	15779.895387
630.878521	15983.452138
631.224585	15866.255393
631.570597	15683.901735
631.916556	15721.405399
632.262462	15708.202617
632.608316	15622.460152
632.954117	15562.470421
633.299866	15557.802313
633.645562	15485.524769
633.991206	15237.510083
634.336797	15113.520383
634.682336	15080.387399
635.027823	14970.074350
635.373257	14858.533780
635.718639	14743.935751
636.063968	14703.969483
636.409245	14459.178614
636.754470	14479.577643
637.099642	14332.252442
637.444762	14104.122587
637.789829	14143.650274
638.134845	13978.000479
638.479808	14005.240354
638.824719	13958.904588
639.169577	13804.544458
639.514383	13856.183517
639.859137	13671.702492
640.203839	13762.057613
640.548489	13600.965021
640.893086	13588.135285
641.237632	13452.119913
641.582125	13608.607411
641.926566	13434.034773
642.270955	13447.061115
642.615292	13410.530394
642.959576	13420.489193
643.303809	13460.455461
643.647990	13392.528433
643.992118	13449.092700
644.336195	13224.131210
644.680219	13418.858380
645.024192	13347.641999
645.368112	13586.706118
645.711981	13646.363132
646.055797	13819.108351
646.399562	13786.711376
646.743274	14050.547724
647.086935	14327.977544
647.430544	14292.964210
647.774101	14320.370443
648.117606	14478.788702
648.461059	14451.778200
648.804460	14438.935861
649.147810	14173.889635
649.491108	14061.837388
649.834354	14089.790586
650.177548	13791.644145
650.520690	13598.628447
650.863781	13510.680477
651.206820	13554.029358
651.549807	13394.718815
651.892742	13200.009288
652.235626	13138.134166
652.578458	13135.454793
652.921238	12823.198162
653.263967	13017.335517
653.606644	12845.835463
653.949269	12818.663644
654.291843	12623.119807
654.634365	12781.028910
654.976836	12626.986372
655.319255	12643.329793
655.661622	12600.742125
656.003938	12516.446471
656.346203	12448.123713
656.688416	12512.310204
657.030577	12472.164976
657.372687	12398.173440
657.714746	12368.193698
658.056753	12554.063561
658.398708	12384.529557
658.740612	12382.051830
659.082465	12480.787869
659.424266	12438.437136
659.766016	12461.545785
660.107715	12378.631407
660.449362	12445.766973
660.790958	12410.919998
661.132503	12352.132582
661.473996	12409.014441
661.815438	12437.522166
662.156829	12442.916201
662.498168	12421.385433
662.839456	12420.173035
663.180693	12440.267075
663.521879	12529.306454
663.863013	12502.784944
664.204097	12486.554949
664.545129	12601.563833
664.886110	12572.882188
665.227040	12660.953667
665.567918	12664.966425
665.908746	12705.751880
666.249522	12687.666741
666.590248	12724.726783
666.930922	12845.467459
667.271545	12833.013288
667.612118	12909.933734
667.952639	12810.711224
668.293109	12819.767657
668.633528	12787.630301
668.973896	12756.249118
669.314213	12844.360926
669.654480	12578.019124
669.994695	12640.849545
670.334859	12667.580263
670.674973	12610.075821
671.015035	12652.091318
671.355047	12594.468409
671.695008	12560.695199
672.034918	12574.465111
672.374777	12613.062705
672.714585	12529.142617
673.054342	12558.552708
673.394049	12504.657733
673.733705	12601.377310
674.073310	12518.740196
674.412864	12537.783155
674.752368	12405.170562
675.091820	12415.454515
675.431223	12410.249524
675.770574	12276.432095
676.109875	12200.414016
676.449125	12152.656645
676.788324	12094.506935
677.127473	11939.831732
677.466571	11929.116760
677.805619	11826.176398
678.144616	11745.651527
678.483562	11719.866025
678.822458	11587.465161
679.161303	11562.176212
679.500098	11555.421066
679.838842	11507.565393
680.177535	11530.313600
680.516179	11588.617064
680.854771	11533.182016
681.193314	11748.177145
681.531805	11890.420863
681.870247	12296.800877
682.208638	12711.541645
682.546978	13026.853216
682.885268	13089.978544
683.223508	12774.084721
683.561697	12618.436575
683.899836	12517.749609
684.237925	12323.332470
684.575963	12239.437588
684.913951	12165.287256
685.251889	12111.296498
685.589776	12206.780993
685.927614	12141.868576
686.265401	12089.143147
686.603137	12136.872792
686.940824	12301.955457
687.278460	12402.400448
687.616046	12460.192235
687.953582	12637.920635
688.291068	12551.749671
688.628504	12787.411011
688.965889	12795.446610
689.303224	12760.455961
689.640510	12661.845951
689.977745	12363.455013
690.314930	12131.509004
690.652065	12042.320911
690.989150	11759.411357
691.326185	11539.143181
691.663170	11323.921199
692.000105	11079.967162
692.336990	10976.386574
692.673825	10732.127547
693.010610	10610.045924
693.347345	10410.751468
693.684030	10203.802021
694.020665	10146.342949
694.357251	9952.079565
694.693786	9897.942614
695.030272	9728.741326
695.366707	9611.975600
695.703093	9545.596207
696.039429	9540.335763
696.375716	9468.360689
696.711952	9337.293209
697.048139	9373.687820
697.384276	9327.142846
697.720363	9341.018622
698.056400	9282.425291
698.392388	9234.327642
698.728326	9194.202578
699.064214	9129.494327
699.400053	9175.840175
699.735842	8990.849994
700.071581	8948.716030
700.407270	8873.897745
700.742910	8801.307650
701.078501	8707.542189
701.414042	8588.167666
701.749533	8519.113940
702.084974	8382.533959
702.420366	8486.462387
702.755709	8372.940643
703.091002	8242.624296
703.426246	8266.471474
703.761440	8220.894402
704.096584	8180.343361
704.431679	8110.281404
704.766725	8095.024352
705.101721	8047.929893
705.436668	8086.794669
705.771565	7982.634348
706.106413	8056.290647
706.441212	8112.101261
706.775961	8061.319198
707.110661	8090.757016
707.445311	8241.946261
707.779913	8136.253429
708.114465	8266.705888
708.448967	8312.802198
708.783421	8441.807846
709.117825	8626.593861
709.452180	8662.375971
709.786485	8742.066531
710.120742	9025.540694
710.454949	9025.734778
710.789107	9127.876117
711.123216	9336.675668
711.457275	9498.872272
711.791286	9672.966000
712.125247	9654.346498
712.459159	9641.431062
712.793023	9903.250949
713.126837	9474.437800
713.460602	9620.853072
713.794318	9449.063152
714.127985	9481.485333
714.461602	9171.003188
714.795171	9119.356567
715.128691	8868.415490
715.462162	8621.741750
715.795584	8569.137310
716.128957	8425.623222
716.462281	8245.699400
716.795556	8292.012480
717.128782	8098.182635
717.461960	7829.300092
717.795088	7904.249447
718.128167	7807.154303
718.461198	7642.490054
718.794180	7584.612567
719.127113	7578.784993
719.459997	7434.620596
719.792833	7206.415123
720.125619	7260.400839
720.458357	7115.235773
720.791046	7111.434743
721.123686	7112.090093
721.456278	6951.862059
721.788821	6966.962836
722.121315	6862.386620
722.453761	6926.852895
722.786158	6869.209821
723.118506	6882.780608
723.450805	6848.036975
723.783056	6915.578354
724.115259	6826.415466
724.447412	6824.020918
724.779518	6861.670776
725.111574	6868.932558
725.443582	6949.631349
725.775542	6925.869870
726.107453	7114.794672
726.439315	7030.161261
726.771129	7080.081287
727.102895	7249.869869
727.434612	7363.739452
727.766281	7394.608957
728.097901	7478.299673
728.429473	7471.272305
728.760996	7443.041843
729.092471	7421.201044
729.423897	7364.283897
729.755276	7382.220322
730.086606	7308.846328
730.417887	7410.256699
730.749120	7585.840088
731.080305	7785.663864
731.411442	7909.817401
731.742530	7904.882112
732.073570	8011.505036
732.404562	8097.696164
732.735506	7938.128521
733.066401	8083.928773
733.397249	8020.390070
733.728048	7786.367105
734.058798	7457.341076
734.389501	7235.595842
734.720156	7059.263842
735.050762	6825.586197
735.381320	6721.456123
735.711831	6676.962899
736.042293	6573.379790
736.372707	6588.326811
736.703073	6456.719928
737.033391	6490.253684
737.363661	6499.395816
737.693883	6522.312902
738.024056	6609.247600
738.354182	6654.640670
738.684260	6688.111411
739.014290	6796.465971
739.344272	6909.967550
739.674207	6935.932013
740.004093	7009.840370
740.333931	7018.065012
740.663722	7028.648915
740.993464	7102.988290
741.323159	7105.261850
741.652806	6847.255596
741.982405	6853.370516
742.311956	6920.473315
742.641460	6762.770899
742.970915	6568.129428
743.300323	6559.214148
743.629683	6505.167937
743.958996	6373.031733
744.288260	6284.688033
744.617477	6230.074693
744.946647	6240.497278
745.275768	6066.930351
745.604842	6024.337643
745.933869	6010.996229
746.262847	5969.719261
746.591778	5952.440706
746.920662	5917.550881
747.249498	5900.743674
747.578286	5950.623370
747.907027	6028.574732
748.235720	6085.355769
748.564365	6060.036573
748.892963	6078.010808
749.221514	6234.349591
749.550017	6078.320838
749.878473	5952.110511
750.206881	6005.750908
750.535242	5946.308143
750.863555	5880.879007
751.191821	5893.653291
751.520039	5894.631275
751.848210	5806.837060
752.176334	5822.787271
752.504411	5877.481269
752.832440	5800.696934
753.160421	5726.561726
753.488356	5775.289519
753.816243	5811.981557
754.144082	5663.678373
754.471875	5632.145956
754.799620	5676.583727
755.127318	5693.033012
755.454969	5638.535618
755.782572	5611.731803
756.110129	5647.511392
756.437638	5646.543491
756.765100	5582.140230
757.092515	5575.790897
757.419882	5623.757476
757.747203	5606.524291
758.074477	5674.010218
758.401703	5662.912117
758.728882	5610.884889
759.056014	5655.799049
759.383099	5790.932219
759.710138	5802.267254
760.037129	5783.907372
760.364073	5788.998937
760.690970	5872.130084
761.017820	5854.874215
761.344623	5805.715403
761.671379	5902.591257
761.998088	6024.675400
762.324751	6254.146202
762.651366	6835.227403
762.977935	8114.999924
763.304456	9730.440195
763.630931	10645.770061
763.957359	10283.157344
764.283740	9357.641827
764.610074	8541.232003
764.936362	7553.543935
765.262602	6953.074457
765.588796	6417.116624
765.914943	6080.226395
766.241044	5920.625984
766.567097	5723.635336
766.893104	5466.672601
767.219064	5281.039672
767.544978	5224.195622
767.870845	5147.449096
768.196665	5039.618815
768.522438	4969.045182
768.848165	4936.733906
769.173846	4873.106983
769.499479	4831.396476
769.825066	4776.384884
770.150607	4716.019588
770.476101	4692.759704
770.801548	4690.556720
771.126949	4616.323209
771.452303	4562.813881
771.777611	4518.701264
772.102872	4536.821692
772.428087	4498.385414
772.753256	4459.752532
773.078378	4421.969084
773.403453	4350.062065
773.728482	4335.901464
774.053465	4286.402375
774.378401	4275.301754
774.703291	4277.966004
775.028135	4211.190880
775.352932	4157.363960
775.677683	4143.538595
776.002388	4161.492665
776.327046	4177.299203
776.651658	4101.018983
776.976224	4035.176473
777.300743	4039.592523
777.625216	4065.267120
777.949643	4066.968509
778.274024	4015.952032
778.598359	3967.413283
778.922647	3992.203157
779.246889	3988.134946
779.571086	3980.563132
779.895236	3968.076194
780.219339	3954.896098
780.543397	3945.839665
780.867409	3994.590143
781.191374	4014.658977
781.515294	3952.032722
781.839167	3945.885035
782.162995	3964.587716
782.486776	3950.359059
782.810511	3957.774597
783.134201	3961.472283
783.457844	3913.475457
783.781441	3858.320193
784.104993	3862.123743
784.428498	3883.399933
784.751958	3881.088564
785.075372	3857.427909
785.398739	3817.542299
785.722061	3830.702232
786.045337	3874.111607
786.368568	3908.910692
786.691752	3817.411229
787.014891	3865.370247
787.337983	3988.200481
787.661030	4149.827435
787.984031	4306.655210
788.306987	4479.730625
788.629897	4557.266091
788.952760	4516.246222
789.275579	4449.440852
789.598351	4391.036564
789.921078	4250.728649
790.243759	4048.696847
790.566395	4027.183723
790.888984	4027.239176
791.211529	3921.652209
791.534027	3860.727344
791.856480	3852.169985
792.178888	3792.916263
792.501249	3740.263932
792.823566	3751.510746
793.145836	3783.403606
793.468062	3733.375195
793.790241	3684.970036
794.112375	3713.344170
794.434464	3775.166360
794.756507	3800.104948
795.078505	3781.412350
795.400457	3813.186743
795.722364	3950.185139
796.044226	4052.578536
796.366042	4126.953199
796.687812	4109.914099
797.009538	4113.662197
797.331218	4073.320363
797.652852	4044.288358
797.974442	4023.632230
798.295986	4030.097510
798.617484	3944.629788
798.938938	3854.647712
799.260346	3901.122110
799.581709	3894.709762
799.903026	3826.863393
800.224299	3786.501395
800.545526	3779.920168
800.866708	3739.575814
801.187845	3679.671783
801.508936	3714.836352
801.829983	3720.376580
802.150984	3638.228457
802.471940	3627.684884
802.792851	3637.096718
803.113717	3636.176707
803.434538	3642.611740
803.755314	3585.913883
804.076045	3557.325500
804.396731	3577.343922
804.717372	3602.257304
805.037967	3592.517795
805.358518	3577.238057
805.679024	3605.211420
805.999485	3617.395889
806.319901	3621.491826
806.640272	3634.356851
806.960598	3648.724139
807.280879	3626.969040
807.601115	3640.144096
807.921306	3651.887463
808.241453	3691.155531
808.561554	3666.469001
808.881611	3604.024228
809.201623	3637.459681
809.521590	3651.090961
809.841513	3623.803195
810.161390	3653.702279
810.481223	3635.680154
810.801011	3579.239395
811.120755	3567.722879
811.440453	3605.523972
811.760107	3610.353397
812.079716	3568.305133
812.399281	3533.742982
812.718801	3559.669636
813.038276	3530.637631
813.357707	3531.371119
813.677093	3548.621947
813.996434	3495.830984
814.315731	3501.900534
814.634983	3507.413035
814.954191	3519.741177
815.273354	3548.006927
815.592473	3548.206052
815.911547	3549.640261
816.230577	3587.811877
816.549562	3639.075371
816.868502	3683.190508
817.187399	3706.145402
817.506250	3704.512068
817.825058	3673.761030
818.143821	3760.884771
818.462539	3868.329404
818.781213	3915.121394
819.099843	3962.414979
819.418429	4199.760063
819.736970	4439.638328
820.055466	4678.120193
820.373919	5040.450605
820.692327	5444.191576
821.010691	5861.422674
821.329011	7188.322422
821.647286	9850.815387
821.965517	14302.025684
822.283704	18315.878076
822.601847	20548.554703
822.919945	18789.096228
823.237999	16252.241420
823.556010	13809.008399
823.873976	11748.222516
824.191897	9672.242594
824.509775	8321.767891
824.827609	7200.595111
825.145398	6652.979609
825.463144	6533.844541
825.780845	6655.084291
826.098502	6827.562329
826.416116	7663.667941
826.733685	8964.668761
827.051210	10076.422145
827.368692	10166.124437
827.686129	8949.668808
828.003522	7441.340454
828.320872	6427.347646
828.638177	5737.432974
828.955439	5188.116084
829.272656	4696.192730
829.589830	4408.184049
829.906960	4235.723655
830.224046	4053.450655
830.541088	3927.817540
830.858086	3878.406670
831.175041	3807.646514
831.491952	3788.114564
831.808819	3795.376346
832.125642	3864.795555
832.442421	4009.418697
832.759157	4278.036580
833.075849	4808.411335
833.392497	5657.596221
833.709101	6420.453868
834.025662	6768.517814
834.342179	6435.065652
834.658653	5780.139109
834.975083	5136.562724
835.291469	4573.163370
835.607811	4162.321934
835.924110	4024.448897
836.240366	3828.940348
836.556578	3622.525263
836.872746	3514.014426
837.188871	3478.844817
837.504952	3411.842841
837.820990	3328.996518
838.136984	3284.601597
838.452935	3307.564053
838.768842	3305.527427
839.084706	3324.966116
839.400526	3475.762151
839.716303	3800.878765
840.032037	4310.219306
840.347727	4587.024022
840.663373	4325.120957
840.978977	3949.607927
841.294537	3644.741628
841.610054	3420.969850
841.925527	3309.651091
842.240957	3240.834299
842.556344	3191.020138
842.871687	3132.583082
843.186987	3082.955443
843.502244	3047.770710
843.817458	3011.517252
844.132629	2977.166830
844.447756	2989.618480
844.762840	2973.264977
845.077881	2944.984104
845.392879	2923.473500
845.707833	2920.600043
846.022745	2918.691966
846.337613	2921.182296
846.652438	2911.440266
846.967221	2907.349370
847.281960	2893.818913
847.596656	2891.431926
847.911309	2889.728016
848.225919	2881.957078
848.540485	2878.332488
848.855009	2880.240565
849.169490	2869.066847
849.483928	2856.380784
849.798323	2859.465970
850.112675	2857.814992
850.426984	2868.189687
850.741251	2862.868749
851.055474	2856.176617
851.369654	2848.627489
851.683792	2853.595546
851.997887	2861.404293
852.311938	2862.437730
852.625947	2852.688138
852.939914	2859.370188
853.253837	2862.546115
853.567718	2844.854185
853.881555	2844.037518
854.195350	2859.034951
854.509103	2856.040506
854.822812	2847.775534
855.136479	2845.746470
855.450103	2845.355780
855.763685	2841.274966
856.077224	2835.684327
856.390720	2849.620596
856.704173	2859.246680
857.017584	2850.858200
857.330953	2848.042715
857.644278	2856.232070
857.957561	2864.474356
858.270802	2867.345293
858.584000	2869.235726
858.897155	2856.564786
859.210268	2857.086545
859.523339	2855.561596
859.836367	2853.194774
860.149352	2848.859382
860.462295	2843.780420
860.775195	2851.208560
861.088054	2852.574713
861.400869	2834.368585
861.713642	2831.714418
862.026373	2843.699761
862.339062	2849.338292
862.651708	2853.557737
862.964312	2858.440095
863.276873	2850.147397
863.589392	2857.709128
863.901869	2869.626415
864.214303	2893.415620
864.526696	2909.774165
864.839045	2906.063875
865.151353	2905.479102
865.463619	2904.876684
865.775842	2904.934657
866.088023	2921.252872
866.400162	2929.351486
866.712258	2900.868966
867.024313	2887.930845
867.336325	2897.675395
867.648296	2915.863878
867.960224	2908.912127
868.272110	2897.705642
868.583954	2902.388874
868.895755	2916.718354
869.207515	2904.206210
869.519233	2908.700399
869.830909	2917.386307
870.142542	2930.314346
870.454134	2929.648914
870.765684	2931.587237
871.077191	2928.718821
871.388657	2937.122424
871.700081	2949.821091
872.011463	2963.643935
872.322803	2963.127216
872.634101	2963.003708
872.945357	2976.599700
873.256571	3003.343021
873.567744	2993.006135
873.878874	2989.081597
874.189963	3012.827952
874.501010	3014.335257
874.812015	3005.707322
875.122979	3002.213803
875.433900	2998.392608
875.744780	3007.035666
876.055618	3014.118488
876.366415	3009.231089
876.677169	3020.445136
876.987882	3019.126874
877.298554	3012.767458
877.609183	3031.679347
877.919771	3054.039385
878.230317	3081.906883
878.540822	3131.358082
878.851285	3170.734535
879.161707	3210.794064
879.472087	3305.570277
879.782425	3521.634130
880.092722	3949.539872
880.402977	4462.326041
880.713191	5075.872273
881.023363	6195.328540
881.333494	7453.265303
881.643583	8022.840070
881.953631	7739.459169
882.263637	7130.059286
882.573602	6569.694707
882.883526	5990.632488
883.193408	5421.226599
883.503248	4960.656702
883.813048	4666.719624
884.122806	4375.537536
884.432522	4064.044640
884.742197	3829.096624
885.051831	3640.645690
885.361424	3501.524968
885.670975	3432.206582
885.980485	3349.579550
886.289954	3276.482819
886.599382	3231.591344
886.908768	3191.781352
887.218113	3152.115033
887.527417	3095.686877
887.836680	3044.267108
888.145901	3040.902138
888.455082	3031.054244
888.764221	2976.962663
889.073319	2952.263530
889.382376	2949.339661
889.691392	2953.143211
890.000366	2953.649847
890.309300	2940.018567
890.618193	2954.146401
890.927044	2970.709112
891.235855	2972.019812
891.544625	2955.250413
891.853353	2965.738534
892.162041	2984.491626
892.470687	3022.252389
892.779293	3072.462282
893.087858	3115.473406
893.396381	3187.201464
893.704864	3304.340235
894.013306	3533.488404
894.321707	3829.613342
894.630068	4038.533881
894.938387	4036.456926
895.246665	3986.746108
895.554903	3875.946587
895.863100	3680.047349
896.171256	3515.602390
896.479371	3378.914024
896.787446	3260.623349
897.095480	3157.320024
897.403473	3095.051692
897.711425	3055.115671
898.019336	3047.957233
898.327207	3019.721730
898.635038	2985.436843
898.942827	2973.842189
899.250576	2961.098152
899.558284	2928.670930
899.865952	2907.966911
900.173579	2892.636762
900.481165	2881.876419
900.788711	2873.031715
901.096216	2846.379134
901.403681	2832.584017
901.711105	2840.385202
902.018489	2839.192970
902.325832	2841.431242
902.633135	2849.340812
902.940397	2880.855586
903.247619	2958.088583
903.554800	3143.320740
903.861941	3475.237871
904.169041	3894.104823
904.476101	4191.981563
904.783121	4159.294722
905.090100	3919.572733
905.397039	3653.908966
905.703938	3404.250863
906.010796	3225.667988
906.317614	3113.383848
906.624391	3025.209026
906.931129	2952.550876
907.237826	2892.908984
907.544483	2846.870647
907.851099	2814.929896
908.157675	2795.672688
908.464211	2774.958587
908.770707	2762.736310
909.077163	2750.539238
909.383578	2735.781260
909.689954	2726.319014
909.996289	2722.525546
910.302584	2722.938921
910.608839	2723.952193
910.915054	2718.522870
911.221229	2709.952908
911.527363	2712.818804
911.833458	2720.821636
912.139513	2724.773901
912.445527	2726.533263
912.751502	2737.472567
913.057436	2746.302148
913.363331	2759.978799
913.669186	2780.385389
913.975000	2811.033084
914.280775	2868.847557
914.586510	2938.349945
914.892205	3014.310051
915.197859	3135.305305
915.503475	3325.268585
915.809050	3533.732900
916.114585	3676.914272
916.420081	3700.272458
916.725536	3645.525527
917.030952	3530.498999
917.336328	3403.174577
917.641665	3274.773868
917.946961	3178.714681
918.252218	3110.182715
918.557435	3036.034904
918.862612	2975.198259
919.167750	2925.409303
919.472848	2887.840104
919.777906	2865.560725
920.082925	2832.762978
920.387904	2807.053093
920.692843	2788.824281
920.997743	2779.828342
921.302603	2765.652617
921.607423	2756.621390
921.912204	2744.008423
922.216946	2733.157340
922.521647	2726.737430
922.826310	2717.093703
923.130932	2711.608927
923.435516	2702.492001
923.740059	2695.389015
924.044564	2687.582788
924.349028	2682.201357
924.653454	2676.411591
924.957840	2671.383040
925.262186	2666.609068
925.566493	2661.265445
925.870761	2658.386946
926.174989	2654.585916
926.479178	2649.602735
926.783328	2645.012765
927.087438	2642.262815
927.391509	2642.340953
927.695541	2638.809625
927.999533	2635.240488
928.303486	2633.836527
928.607400	2632.977010
928.911275	2633.095477
929.215110	2632.273769
929.518906	2629.123048
929.822663	2629.422996
930.126381	2626.650362
930.430060	2630.088429
930.733699	2629.354941
931.037299	2632.233440
931.340861	2633.455919
931.644383	2631.898203
931.947866	2632.863584
932.251309	2630.123717
932.554714	2630.892493
932.858080	2631.477267
933.161407	2626.287399
933.464694	2626.854528
933.767943	2621.160545
934.071153	2624.422172
934.374323	2621.745319
934.677455	2625.342182
934.980548	2621.742798
935.283602	2622.720782
935.586617	2623.408900
935.889593	2621.672222
936.192530	2619.738940
936.495428	2623.020731
936.798287	2621.639455
937.101108	2626.090794
937.403890	2631.711680
937.706632	2634.413739
938.009336	2642.547640
938.312002	2651.059629
938.614628	2658.880979
938.917216	2664.819458
939.219765	2665.704181
939.522275	2666.548574
939.824747	2662.515651
940.127179	2660.983140
940.429573	2654.971564
940.731929	2654.585916
941.034246	2650.757159
941.336524	2649.572488
941.638763	2643.830614
941.940964	2644.944709
942.243126	2642.640902
942.545250	2640.218627
942.847335	2637.342649
943.149381	2635.157309
943.451389	2631.852832
943.753359	2629.748151
944.055290	2626.264713
944.357182	2627.393932
944.659036	2624.694394
944.960851	2624.051647
945.262628	2623.595422
945.564367	2622.962758
945.866067	2622.811523
946.167729	2622.317490
946.469352	2623.013169
946.770937	2623.973509
947.072484	2622.365381
947.373992	2624.152470
947.675462	2620.167438
947.976893	2616.988990
948.278286	2614.435646
948.579641	2615.900101
948.880958	2612.567898
949.182236	2615.111161
949.483476	2614.191150
949.784678	2613.573609
950.085841	2616.658795
950.386967	2617.213322
950.688054	2616.988990
950.989103	2618.660133
951.290114	2617.651902
951.591087	2620.371605
951.892021	2623.071142
952.192917	2625.364867
952.493776	2628.639097
952.794596	2627.315794
953.095378	2626.723458
953.396122	2625.702625
953.696828	2625.606843
953.997496	2622.660288
954.298126	2620.578292
954.598718	2616.542848
954.899272	2616.396655
955.199788	2613.155193
955.500266	2610.193515
955.800706	2611.352980
956.101108	2604.234871
956.401472	2602.916609
956.701798	2602.122628
957.002087	2599.876794
957.302337	2600.113728
957.602550	2599.037442
957.902724	2597.409149
958.202861	2597.197420
958.502960	2593.789600
958.803022	2596.300095
959.103045	2592.065526
959.403031	2592.720876
959.702979	2591.206009
960.002889	2593.666092
960.302762	2591.460587
960.602596	2592.700711
960.902393	2592.466297
961.202153	2591.899168
961.501875	2591.836153
961.801559	2587.369691
962.101205	2591.498396
962.400814	2589.184506
962.700385	2589.960844
962.999918	2586.724423
963.299414	2584.786100
963.598873	2587.092427
963.898293	2583.843404
964.197677	2591.359764
964.497022	2586.668971
964.796331	2589.315576
965.095601	2586.742067
965.394835	2586.706779
965.694030	2589.151739
965.993189	2586.036306
966.292309	2586.119485
966.591393	2586.749629
966.890439	2589.081163
967.189447	2589.204671
967.488419	2585.083528
967.787353	2587.261306
968.086249	2587.006728
968.385108	2588.430854
968.683930	2587.778024
968.982714	2585.995977
969.281462	2584.498754
969.580172	2586.943713
969.878844	2585.449011
970.177480	2584.760894
970.476078	2587.576378
970.774639	2585.149063
971.073162	2587.210895
971.371649	2587.979671
971.670098	2587.039495
971.968510	2586.789958
972.266885	2590.969075
972.565223	2586.963878
972.863524	2586.764753
973.161788	2587.959506
973.460014	2587.120154
973.758204	2589.187027
974.056356	2587.067222
974.354471	2585.461614
974.652550	2587.170565
974.950591	2587.347006
975.248595	2588.166193
975.546563	2588.761049
975.844493	2586.605956
976.142386	2586.331213
976.440243	2585.630493
976.738062	2586.651327
977.035845	2585.091089
977.333590	2587.848601
977.631299	2586.807602
977.928971	2581.811819
978.226606	2580.395255
978.524204	2581.426171
978.821765	2580.667477
979.119290	2585.638055
979.416777	2582.915832
979.714228	2584.413054
980.011642	2585.340627
980.309020	2585.121336
980.606360	2583.329206
980.903664	2586.913467
981.200931	2588.209043
981.498162	2585.272571
981.795356	2585.373394
982.092513	2586.477407
982.389633	2591.153077
982.686717	2596.295054
982.983764	2597.636001
983.280775	2603.463575
983.577749	2602.722525
983.874686	2603.468616
984.171587	2600.161619
984.468451	2598.041814
984.765279	2595.571648
985.062070	2593.751792
985.358824	2591.742892
985.655543	2590.018817
985.952224	2586.210226
986.248869	2589.297932
986.545478	2585.431367
986.842050	2584.627303
987.138586	2583.132601
987.435086	2584.685277
987.731549	2581.577405
988.027975	2582.827611
988.324366	2583.785431
988.620719	2581.184195
988.917037	2580.574216
989.213318	2582.620924
989.509563	2583.377097
989.805772	2581.005234
990.101944	2583.631675
990.398080	2581.584967
990.694180	2581.196798
990.990244	2582.348702
991.286271	2580.090265
991.582262	2578.754359
991.878217	2581.073290
992.174136	2582.086562
992.470019	2581.781572
992.765865	2578.182188
993.061676	2576.901735
993.357450	2581.201839
993.653188	2573.433421
993.948890	2580.838876
994.244556	2582.492375
994.540186	2583.503126
994.835780	2582.404154
995.131337	2581.504308
995.426859	2582.618403
995.722345	2585.784248
996.017795	2588.108220
996.313208	2586.396748
996.608586	2586.462283
996.903928	2585.030596
997.199234	2585.587643
997.494504	2587.712489
997.789738	2584.471027
998.084936	2585.050760
998.380099	2584.685277
998.675225	2583.495564
998.970316	2584.400451
999.265371	2583.578743
999.560390	2582.575554
999.855373	2582.784762
1000.150320	2581.897518
1000.445232	2583.424988
1000.740108	2580.244020
1001.034948	2582.641089
1001.329752	2581.481623
1001.624521	2582.860379
1001.919254	2580.942220
1002.213951	2580.851479
1002.508613	2579.618917
1002.803239	2580.060018
1003.097829	2579.197981
1003.392384	2582.192426
1003.686903	2579.339133
1003.981386	2579.205542
1004.275834	2579.598752
1004.570246	2578.134297
1004.864623	2578.759400
1005.158964	2578.204873
1005.453270	2579.528176
1005.747540	2581.869792
1006.041775	2576.616910
1006.335974	2579.344174
1006.630138	2577.660429
1006.924266	2580.175964
1007.218359	2580.596901
1007.512416	2574.146744
1007.806438	2573.960222
1008.100425	2577.002558
1008.394376	2575.167578
1008.688292	2577.758731
1008.982172	2579.427353
1009.276017	2578.328382
1009.569827	2578.928279
1009.863602	2580.165882
1010.157341	2580.743094
1010.451045	2578.109091
1010.744714	2578.703947
1011.038347	2580.934658
1011.331945	2581.063207
1011.625508	2579.873495
1011.919036	2576.349729
1012.212528	2576.412743
1012.505986	2580.944740
1012.799408	2577.715881
1013.092795	2578.318299
1013.386147	2577.219328
1013.679464	2578.189750
1013.972745	2578.202353
1014.265992	2579.825604
1014.559204	2579.417271
1014.852380	2577.736046
1015.145521	2579.011458
1015.438628	2577.935172
1015.731699	2576.805953
1016.024736	2578.464493
1016.317737	2577.020202
1016.610703	2579.145048
1016.903635	2578.346026
1017.196531	2578.348546
1017.489393	2578.459452
1017.782219	2580.959864
1018.075011	2577.960377
1018.367768	2576.662280
1018.660490	2578.749318
1018.953177	2578.749318
1019.245829	2578.749318
