Dividing Wavelength (nm)	Counts (n)	Blue Motor Position (mm): 22.900000	Red Motor Position (mm): 0.000000	
326.493990	2134.981586
326.888308	2134.981586
327.282561	2134.981586
327.676750	2101.137800
328.070874	2098.677717
328.464933	2101.145361
328.858929	2110.136259
329.252859	2119.969030
329.646726	2130.016049
330.040528	2143.934675
330.434265	2162.380257
330.827938	2178.522032
331.221547	2194.010977
331.615091	2217.800182
332.008571	2235.217368
332.401986	2252.909298
332.795338	2271.410333
333.188625	2292.709208
333.581847	2311.109419
333.975006	2331.873932
334.368100	2348.547548
334.761129	2366.393233
335.154095	2382.063659
335.546996	2400.998233
335.939833	2428.638880
336.332606	2437.188677
336.725315	2452.254165
337.117960	2460.781277
337.510540	2470.992134
337.903056	2478.369863
338.295508	2487.189361
338.687896	2497.576659
339.080220	2504.460354
339.472480	2513.161386
339.864676	2516.672549
340.256807	2522.444671
340.648875	2524.204033
341.040879	2526.901051
341.432818	2527.430372
341.824694	2529.073788
342.216506	2532.831968
342.608253	2529.887934
342.999937	2529.078829
343.391557	2530.697039
343.783113	2527.569003
344.174605	2525.242511
344.566033	2524.627490
344.957397	2523.253776
345.348697	2520.523991
345.739934	2519.916532
346.131106	2520.115658
346.522215	2519.556089
346.913260	2515.301356
347.304241	2513.385717
347.695159	2511.535614
348.086012	2508.503360
348.476802	2509.052845
348.867528	2503.862977
349.258191	2502.920282
349.648789	2502.922802
350.039324	2500.860970
350.429796	2502.252329
350.820203	2498.690754
351.210548	2501.024808
351.600828	2496.727224
351.991045	2496.376864
352.381198	2495.381236
352.771288	2494.660351
353.161314	2494.317553
353.551276	2496.026504
353.941175	2496.772595
354.331010	2493.185814
354.720782	2493.417707
355.110490	2493.944507
355.500135	2495.923160
355.889717	2493.818478
356.279235	2497.075064
356.668689	2496.497852
357.058080	2497.435506
357.447408	2495.088849
357.836672	2495.277893
358.225873	2495.340907
358.615010	2493.321925
359.004084	2500.359376
359.393095	2497.990033
359.782043	2500.384581
360.170927	2499.761999
360.559748	2501.163440
360.948505	2501.720487
361.337199	2498.773933
361.725830	2502.794253
362.114398	2505.347597
362.502903	2504.132679
362.891344	2502.552278
363.279722	2503.444562
363.668037	2505.120745
364.056289	2505.458503
364.444478	2503.636126
364.832603	2505.266939
365.220665	2503.608399
365.608665	2506.857423
365.996601	2507.318688
366.384474	2507.661487
366.772284	2507.301044
367.160031	2510.169461
367.547715	2508.402537
367.935336	2507.820283
368.322893	2508.609224
368.710388	2506.963287
369.097820	2513.758762
369.485189	2509.022598
369.872495	2510.086282
370.259738	2510.729029
370.646918	2511.686848
371.034035	2509.103257
371.421090	2510.681138
371.808081	2511.107116
372.195010	2510.721467
372.581875	2510.406395
372.968678	2512.637106
373.355418	2511.850686
373.742096	2514.860255
374.128710	2511.054183
374.515262	2512.475789
374.901751	2512.042250
375.288177	2512.627023
375.674540	2512.412774
376.060841	2515.162724
376.447079	2512.223731
376.833254	2513.461334
377.219367	2510.653412
377.605417	2512.727847
377.991404	2510.066117
378.377329	2513.975532
378.763191	2509.234327
379.148991	2514.872858
379.534727	2513.695748
379.920402	2517.963085
380.306013	2514.784637
380.691563	2517.461490
381.077049	2516.959895
381.462474	2518.235307
381.847835	2516.014679
382.233134	2517.337982
382.618371	2516.670029
383.003545	2518.429392
383.388657	2517.557272
383.773706	2518.600791
384.158693	2516.874196
384.543618	2517.516943
384.928480	2519.609022
385.313280	2516.659947
385.698017	2519.062056
386.082692	2520.350071
386.467305	2518.235307
386.851856	2516.060049
387.236344	2523.329393
387.620770	2522.762263
388.005133	2520.705473
388.389435	2522.243024
388.773674	2519.677077
389.157851	2519.311593
389.541965	2520.839063
389.926018	2521.481810
390.310008	2520.445853
390.693936	2524.786287
391.077802	2523.387366
391.461606	2523.142870
391.845348	2521.360823
392.229027	2523.314270
392.612645	2522.207736
392.996200	2524.539270
393.379694	2525.819723
393.763125	2522.868127
394.146494	2523.014321
394.529801	2524.897192
394.913047	2526.023890
395.296230	2523.578930
395.679351	2522.391738
396.062410	2524.892151
396.445408	2524.466173
396.828343	2526.018849
397.211217	2522.840401
397.594028	2523.815864
397.976778	2521.496934
398.359466	2521.817047
398.742092	2523.621780
399.124656	2524.791328
399.507158	2524.438447
399.889598	2526.762419
400.271977	2526.654034
400.654294	2529.708973
401.036549	2526.648993
401.418742	2526.719569
401.800874	2525.870135
402.182944	2525.592871
402.564952	2527.909281
402.946898	2531.823737
403.328783	2525.527336
403.710606	2528.123530
404.092367	2527.947090
404.474067	2528.700743
404.855705	2526.757378
405.237282	2530.540764
405.618797	2528.839374
406.000250	2527.574045
406.381642	2530.397091
406.762972	2532.095960
407.144240	2528.675537
407.525447	2530.152595
407.906593	2530.185362
408.287677	2529.847605
408.668700	2531.291896
409.049661	2531.140661
409.430560	2534.382123
409.811399	2532.247194
410.192176	2531.548994
410.572891	2532.572349
410.953545	2534.692154
411.334138	2531.551515
411.714669	2532.055630
412.095139	2532.930271
412.475547	2533.346166
412.855894	2533.842719
413.236180	2529.903058
413.616405	2532.158974
413.996568	2531.992616
414.376670	2535.796167
414.756711	2532.083357
415.136691	2532.579910
415.516609	2532.390867
415.896466	2532.385826
416.276262	2532.005219
416.655997	2528.625125
417.035670	2527.503468
417.415283	2534.472864
417.794834	2528.519261
418.174324	2533.988913
418.553753	2535.140817
418.933121	2532.610157
419.312428	2532.342976
419.691674	2538.001671
420.070859	2533.071423
420.449983	2535.037473
420.829045	2536.038142
421.208047	2536.882535
421.586988	2535.909593
421.965867	2537.492515
422.344686	2536.431352
422.723444	2537.641229
423.102141	2537.600900
423.480777	2537.537885
423.859352	2537.321116
424.237866	2537.883204
424.616319	2539.249357
424.994712	2539.032587
425.373044	2536.847247
425.751314	2535.970086
426.129524	2537.046373
426.507673	2534.316588
426.885762	2537.396733
427.263789	2537.230375
427.641756	2539.443441
428.019662	2538.314223
428.397508	2541.616179
428.775292	2540.703730
429.153016	2538.349511
429.530679	2542.304296
429.908282	2539.718184
430.285824	2540.925541
430.663305	2537.593338
431.040726	2537.779861
431.418086	2542.800850
431.795385	2539.861857
432.172624	2540.965870
432.549802	2541.447300
432.926920	2539.781199
433.303977	2539.957639
433.680974	2540.068544
434.057910	2539.418236
434.434786	2539.884542
434.811601	2540.534851
435.188355	2541.366642
435.565050	2539.720705
435.941683	2544.769420
436.318257	2540.181970
436.694770	2538.483102
437.071222	2539.768596
437.447614	2535.952442
437.823946	2540.486960
438.200218	2542.226158
438.576429	2544.860161
438.952580	2542.347146
439.328670	2542.573998
439.704700	2542.914276
440.080670	2544.834955
440.456580	2541.598535
440.832429	2545.729760
441.208218	2541.316230
441.583947	2543.670449
441.959616	2544.661036
442.335224	2543.267157
442.710773	2547.312682
443.086261	2544.908052
443.461689	2545.240768
443.837057	2546.934596
444.212365	2544.668597
444.587612	2546.241437
444.962800	2546.349822
445.337927	2543.761190
445.712995	2544.587939
446.088002	2547.544576
446.462949	2549.525749
446.837837	2543.897301
447.212664	2547.668084
447.587431	2545.903680
447.962139	2546.039791
448.336786	2551.532128
448.711374	2547.479041
449.085901	2551.295194
449.460369	2545.777651
449.834776	2545.606252
450.209124	2548.026006
450.583412	2550.289484
450.957640	2551.527087
451.331808	2548.308310
451.705917	2547.206818
452.079965	2550.612118
452.453954	2546.410316
452.827883	2546.879143
453.201752	2549.724875
453.575562	2549.845862
453.949311	2548.514998
454.323001	2548.595656
454.696632	2553.321738
455.070202	2551.726213
455.443713	2550.065153
455.817164	2548.371325
456.190556	2546.735470
456.563888	2550.317210
456.937160	2548.381407
457.310373	2554.133364
457.683526	2552.883158
458.056619	2552.711758
458.429653	2552.943651
458.802628	2556.490103
459.175542	2552.999104
459.548398	2556.046482
459.921194	2555.549928
460.293930	2558.357851
460.666607	2556.568241
461.039224	2561.001936
461.411782	2560.402038
461.784280	2563.590568
462.156719	2561.367419
462.529099	2562.841957
462.901419	2562.688202
463.273680	2564.525702
463.645882	2566.711043
464.018024	2567.288255
464.390106	2569.047617
464.762130	2571.916034
465.134094	2579.412230
465.505999	2588.519074
465.877845	2601.633636
466.249631	2608.313165
466.621358	2609.916252
466.993026	2613.029164
467.364634	2613.273660
467.736184	2613.755090
468.107674	2617.989659
468.479105	2623.038375
468.850477	2629.584313
469.221790	2630.839561
469.593043	2629.649848
469.964238	2638.126548
470.335373	2643.109729
470.706449	2654.137253
471.077467	2660.121103
471.448425	2696.853470
471.819324	2730.296485
472.190164	2738.846282
472.560945	2719.344578
472.931667	2714.820143
473.302330	2721.895402
473.672934	2726.233315
474.043479	2746.224010
474.413965	2755.227511
474.784393	2765.418204
475.154761	2786.172634
475.525070	2800.698719
475.895321	2806.911941
476.265513	2830.255004
476.635645	2854.417254
477.005719	2877.505739
477.375734	2899.802762
477.745691	2928.922988
478.115588	2957.486165
478.485427	2994.868842
478.855207	3058.289078
479.224928	3152.949344
479.594591	3225.788976
479.964194	3236.352714
480.333739	3247.024836
480.703226	3280.150258
481.072653	3321.187771
481.442022	3399.907909
481.811333	3452.729119
482.180584	3469.964824
482.549777	3481.173830
482.918912	3504.469002
483.287988	3550.940878
483.657005	3593.329420
484.025964	3601.748147
484.394864	3659.683608
484.763706	3701.079043
485.132489	3708.698747
485.501213	3751.903956
485.869879	3803.517809
486.238487	3845.122452
486.607036	3902.599168
486.975527	3928.818209
487.343959	4006.368799
487.712333	4071.150147
488.080648	4111.968369
488.448905	4186.736243
488.817104	4229.263416
489.185244	4342.099563
489.553326	4445.854071
489.921350	4636.394563
490.289315	4958.002534
490.657222	5104.664823
491.025070	5169.302498
491.392861	5206.896902
491.760593	5191.556671
492.128267	5174.124361
492.495883	5158.421167
492.863440	5140.273013
493.230939	5124.748780
493.598380	5177.423796
493.965763	5221.881732
494.333088	5246.908540
494.700354	5303.036747
495.067563	5383.395260
495.434713	5411.124127
495.801805	5524.736611
496.168839	5571.700000
496.535815	5634.553107
496.902733	5696.602149
497.269593	5758.855358
497.636395	5854.576787
498.003139	5942.504592
498.369825	5951.641683
498.736453	6100.292707
499.103023	6135.777389
499.469535	6226.049331
499.835989	6295.319826
500.202385	6361.348859
500.568723	6362.278952
500.935003	6527.235588
501.301226	6537.511981
501.667390	6717.118210
502.033497	6844.125040
502.399546	6849.544280
502.765537	6872.778958
503.131470	6991.979562
503.497345	7162.128586
503.863163	7024.106835
504.228923	7270.702437
504.594625	7376.090279
504.960269	7311.445042
505.325856	7510.384097
505.691385	7469.243240
506.056856	7628.601675
506.422270	7718.175417
506.787625	7709.486988
507.152924	7868.807615
507.518164	7925.175276
507.883347	7946.869882
508.248472	7966.611040
508.613540	8177.701796
508.978550	8182.006941
509.343503	8225.549908
509.708398	8375.239409
510.073236	8516.769804
510.438016	8591.129343
510.802738	8618.956513
511.167403	8720.271102
511.532010	8713.359680
511.896561	8931.187938
512.261053	9045.349908
512.625488	9019.324951
512.989866	9064.460922
513.354186	9113.690310
513.718449	9103.938198
514.082655	9297.200913
514.446803	9281.021330
514.810894	9427.529863
515.174927	9381.052945
515.538904	9446.396382
515.902822	9626.118557
516.266684	9581.721115
516.630488	9586.868133
516.994235	9681.861116
517.357925	9783.735273
517.721558	9904.228933
518.085133	9971.014139
518.448651	10017.866623
518.812112	9958.968302
519.175516	10025.125884
519.538863	10161.002624
519.902152	10138.327514
520.265385	10331.270116
520.628560	10279.837744
520.991678	10309.532661
521.354739	10401.863914
521.717743	10371.001970
522.080690	10399.154294
522.443580	10556.085413
522.806413	10550.025946
523.169189	10603.620973
523.531908	10689.630620
523.894569	10556.198839
524.257174	10601.995201
524.619722	10730.327855
524.982213	10705.381705
525.344647	10787.504622
525.707025	10767.219018
526.069345	10884.549354
526.431608	10827.596918
526.793815	10956.839500
527.155964	10778.027252
527.518057	10849.745228
527.880093	10825.983749
528.242072	10905.276058
528.603995	10842.821203
528.965860	10787.083685
529.327669	10849.674651
529.689421	10819.692389
530.051117	10803.384256
530.412755	10920.588563
530.774337	10829.409213
531.135862	10828.758904
531.497331	10866.091169
531.858743	10729.301980
532.220098	10904.834957
532.581396	10794.118615
532.942638	10790.579725
533.303824	10759.939592
533.664953	10795.136928
534.026025	10716.988962
534.387040	10815.236009
534.747999	10829.298308
535.108902	10899.582074
535.469748	10672.326859
535.830537	10772.938208
536.191270	10762.818091
536.551947	10788.928748
536.912567	10801.299739
537.273131	10720.958870
537.633638	10706.689884
537.994089	10713.341687
538.354483	10665.533904
538.714821	10813.781636
539.075103	10822.810343
539.435328	10793.738008
539.795497	10624.246854
540.155609	10789.596700
540.515665	10879.677078
540.875665	10616.783426
541.235609	10690.016268
541.595496	10686.520228
541.955328	10843.516882
542.315102	10737.783721
542.674821	10692.284787
543.034483	10686.830259
543.394090	10696.922649
543.753640	10629.469490
544.113134	10845.510658
544.472571	10702.046982
544.831953	10847.484270
545.191278	10654.087964
545.550548	10683.372027
545.909761	10826.926445
546.268918	10810.212499
546.628019	10886.782585
546.987064	10746.661193
547.346053	10671.404328
547.704986	10774.097673
548.063863	10760.184088
548.422684	10756.292317
548.781449	10670.426344
549.140158	10779.612695
549.498811	10655.345732
549.857408	10516.398929
550.215949	10739.439740
550.574434	10599.023441
550.932864	10697.159583
551.291237	10754.482543
551.649555	10706.551252
552.007817	10719.806967
552.366022	10683.210710
552.724173	10672.364668
553.082267	10659.272791
553.440305	10793.985025
553.798288	10608.160532
554.156215	10758.210477
554.514086	10730.584953
554.871902	10572.438916
555.229661	10612.959711
555.587365	10600.523184
555.945014	10493.305404
556.302606	10615.510535
556.660143	10513.608651
557.017625	10662.000055
557.375050	10561.572709
557.732421	10695.770745
558.089735	10605.629873
558.446994	10613.849474
558.804197	10644.502210
559.161345	10653.046966
559.518437	10495.440332
559.875474	10589.712430
560.232455	10620.995310
560.589381	10567.874151
560.946251	10565.855169
561.303065	10673.433392
561.659825	10602.302712
562.016528	10537.155880
562.373177	10414.774309
562.729770	10529.810919
563.086307	10452.711512
563.442789	10541.108145
563.799216	10424.211349
564.155587	10466.332710
564.511904	10426.563047
564.868164	10415.661552
565.224370	10429.005486
565.580520	10355.850782
565.936615	10362.142142
566.292654	10231.263706
566.648638	10358.557882
567.004567	10317.472478
567.360441	10304.257093
567.716260	10213.012209
568.072023	10307.954780
568.427732	10257.681873
568.783385	10171.377319
569.138982	10240.761240
569.494525	10254.253888
569.850013	10134.740733
570.205445	10212.765192
570.560823	10113.986303
570.916145	10025.892140
571.271412	10097.746226
571.626625	10044.526765
571.981782	10013.979893
572.336884	9992.726388
572.691931	9998.841308
573.046923	9950.201735
573.401860	9899.112162
573.756743	9845.537299
574.111570	9878.919820
574.466342	9868.335917
574.821059	9896.173169
575.175722	9789.560327
575.530330	9792.711048
575.884882	9789.351119
576.239380	9715.901507
576.593823	9696.891316
576.948211	9710.704078
577.302544	9590.220501
577.656823	9610.841341
578.011047	9605.593499
578.365216	9585.358308
578.719330	9503.774795
579.073389	9520.955047
579.427394	9464.047982
579.781344	9438.285165
580.135239	9390.558041
580.489080	9398.512982
580.842866	9299.464391
581.196597	9310.325557
581.550273	9346.710085
581.903895	9315.704468
582.257463	9379.157472
582.610975	9259.135160
582.964434	9287.610118
583.317837	9211.682779
583.671186	9190.754429
584.024481	9190.232669
584.377721	9103.761758
584.730906	9077.217562
585.084037	9113.997820
585.437113	9048.581287
585.790135	9075.072551
586.143103	8970.478691
586.496016	8946.417264
586.848874	9003.588989
587.201679	8988.387390
587.554428	8881.565340
587.907124	8921.881968
588.259765	8895.831805
588.612352	8898.521261
588.964884	8769.966797
589.317362	8788.792986
589.669786	8786.985732
590.022155	8835.383330
590.374470	8853.723047
590.726731	8790.496896
591.078937	8646.352663
591.431090	8759.950024
591.783188	8626.732493
592.135232	8619.727809
592.487222	8620.428530
592.839157	8671.074482
593.191038	8602.245088
593.542866	8554.321359
593.894639	8451.839742
594.246358	8507.168926
594.598022	8517.805761
594.949633	8418.336234
595.301190	8392.974189
595.652692	8422.149867
596.004141	8529.838995
596.355535	8313.888567
596.706876	8289.759084
597.058162	8224.380360
597.409395	8303.400447
597.760573	8358.598561
598.111698	8268.606403
598.462768	8256.096779
598.813785	8224.866831
599.164748	8198.052934
599.515657	8181.407044
599.866511	8096.650124
600.217312	8215.485244
600.568060	8081.796365
600.918753	8185.185389
601.269392	8156.377715
601.619978	8066.551915
601.970510	8126.576934
602.320988	8128.918550
602.671412	8180.234976
603.021783	8120.278012
603.372100	8089.968075
603.722363	8087.051767
604.072572	8068.588542
604.422728	8084.059843
604.772830	8007.141917
605.122878	8016.077362
605.472872	8010.365735
605.822813	8039.697689
606.172701	7981.933627
606.522534	8061.238539
606.872314	8059.123775
607.222041	8031.742748
607.571714	8083.681756
607.921333	8045.913432
608.270899	8049.177579
608.620411	8139.474726
608.969870	8039.067545
609.319276	8036.486474
609.668627	8050.294194
610.017926	8086.545132
610.367171	8129.722614
610.716362	8113.180068
611.065500	8097.229857
611.414585	8133.979869
611.763616	8117.777600
612.112594	8100.599868
612.461518	8111.909697
612.810389	8174.364552
613.159207	8112.323072
613.507971	8062.176194
613.856682	8181.475100
614.205340	8133.536247
614.553945	8211.442239
614.902496	8116.285419
615.250994	8168.519334
615.599439	8149.224318
615.947830	8156.851584
616.296169	8134.181515
616.644454	8153.930235
616.992686	8147.031416
617.340864	8207.731949
617.688990	8106.855940
618.037063	8198.120990
618.385082	8150.872775
618.733048	8230.432265
619.080961	8164.877101
619.428821	8187.973147
619.776628	8195.219806
620.124382	8144.951940
620.472083	8129.722614
620.819731	8155.510637
621.167326	8043.445787
621.514868	8062.143426
621.862357	7939.973583
622.209793	7960.488559
622.557176	7899.772902
622.904506	7865.205710
623.251783	7802.677758
623.599007	7759.278465
623.946179	7765.027901
624.293297	7719.773463
624.640363	7638.729353
624.987376	7620.465253
625.334336	7573.769045
625.681243	7521.767022
626.028097	7503.339084
626.374899	7481.044581
626.721647	7472.968653
627.068343	7408.678818
627.414987	7379.609004
627.761577	7333.525296
628.108115	7373.685648
628.454600	7261.686333
628.801032	7322.071795
629.147412	7273.520442
629.493739	7268.696058
629.840014	7199.549071
630.186236	7261.625840
630.532405	7144.527397
630.878521	7194.707043
631.224585	7155.043244
631.570597	7076.066008
631.916556	7106.426357
632.262462	7106.433918
632.608316	7066.984369
632.954117	7045.771194
633.299866	7031.267794
633.645562	7021.515682
633.991206	6943.118178
634.336797	6888.696402
634.682336	6841.453228
635.027823	6812.028013
635.373257	6800.824049
635.718639	6733.607824
636.063968	6747.382777
636.409245	6647.492313
636.754470	6640.633824
637.099642	6600.148317
637.444762	6547.085132
637.789829	6556.738941
638.134845	6498.949674
638.479808	6484.761347
638.824719	6486.303940
639.169577	6414.739720
639.514383	6435.163955
639.859137	6359.569332
640.203839	6375.585078
640.548489	6357.716708
640.893086	6335.820456
641.237632	6304.565302
641.582125	6327.989024
641.926566	6298.778058
642.270955	6310.619728
642.615292	6307.290046
642.959576	6321.460730
643.303809	6310.032434
643.647990	6314.239277
643.992118	6307.607639
644.336195	6255.371203
644.680219	6274.867865
645.024192	6268.223624
645.368112	6362.389858
645.711981	6387.593106
646.055797	6459.573222
646.399562	6419.909423
646.743274	6546.207971
647.086935	6602.452124
647.430544	6591.041473
647.774101	6617.094156
648.117606	6622.795701
648.461059	6610.026458
648.804460	6571.491878
649.147810	6483.674978
649.491108	6453.609537
649.834354	6427.531648
650.177548	6346.187589
650.520690	6259.941009
650.863781	6239.040385
651.206820	6259.668786
651.549807	6181.911509
651.892742	6119.718794
652.235626	6126.645339
652.578458	6113.359378
652.921238	6025.025760
653.263967	6063.041101
653.606644	6001.314693
653.949269	6007.195199
654.291843	5947.205468
654.634365	5994.625082
654.976836	5947.931394
655.319255	5946.461898
655.661622	5922.954998
656.003938	5923.864926
656.346203	5888.773454
656.688416	5915.662968
657.030577	5869.233942
657.372687	5840.726217
657.714746	5825.043187
658.056753	5865.626996
658.398708	5805.964940
658.740612	5802.496626
659.082465	5845.134706
659.424266	5834.875958
659.766016	5838.475341
660.107715	5814.877700
660.449362	5826.842879
660.790958	5822.870450
661.132503	5809.284540
661.473996	5848.897927
661.815438	5831.919321
662.156829	5829.791954
662.498168	5822.119318
662.839456	5797.954547
663.180693	5833.466955
663.521879	5836.516853
663.863013	5825.706099
664.204097	5845.038924
664.545129	5881.917485
664.886110	5881.559563
665.227040	5913.207927
665.567918	5877.503954
665.908746	5904.101082
666.249522	5908.935549
666.590248	5899.223766
666.930922	5925.457930
667.271545	5934.269867
667.612118	5941.140960
667.952639	5911.425879
668.293109	5935.260454
668.633528	5890.036263
668.973896	5896.476337
669.314213	5884.332197
669.654480	5868.548345
669.994695	5859.282704
670.334859	5852.867836
670.674973	5846.805848
671.015035	5849.754923
671.355047	5849.598647
671.695008	5837.441905
672.034918	5808.603984
672.374777	5818.134286
672.714585	5805.778418
673.054342	5807.336134
673.394049	5799.345905
673.733705	5827.878836
674.073310	5814.081198
674.412864	5776.852277
674.752368	5771.846411
675.091820	5776.285147
675.431223	5706.744950
675.770574	5712.885076
676.109875	5667.282798
676.449125	5666.965205
676.788324	5635.861286
677.127473	5577.298202
677.466571	5568.685390
677.805619	5558.061159
678.144616	5544.760074
678.483562	5521.424573
678.822458	5493.055480
679.161303	5485.584490
679.500098	5479.220033
679.838842	5464.804854
680.177535	5465.029185
680.516179	5479.983768
680.854771	5489.912320
681.193314	5571.624383
681.531805	5682.081105
681.870247	5833.829918
682.208638	5931.351039
682.546978	5943.724551
682.885268	5922.962559
683.223508	5838.069528
683.561697	5789.727384
683.899836	5750.902937
684.237925	5712.963213
684.575963	5672.709600
684.913951	5634.701821
685.251889	5693.529565
685.589776	5662.947406
685.927614	5636.020082
686.265401	5708.340475
686.603137	5690.598134
686.940824	5766.737202
687.278460	5788.641015
687.616046	5800.369259
687.953582	5865.697572
688.291068	5847.075550
688.628504	5911.589716
688.965889	5870.774014
689.303224	5816.942053
689.640510	5767.049753
689.977745	5694.857909
690.314930	5591.582311
690.652065	5542.138674
690.989150	5445.898006
691.326185	5371.112489
691.663170	5322.848482
692.000105	5245.544908
692.336990	5166.313093
692.673825	5143.630422
693.010610	5069.830450
693.347345	5007.491541
693.684030	4994.689531
694.020665	4950.675217
694.357251	4859.677349
694.693786	4872.633114
695.030272	4837.405531
695.366707	4803.123164
695.703093	4769.191158
696.039429	4794.084376
696.375716	4774.688536
696.711952	4751.925206
697.048139	4735.816199
697.384276	4716.130493
697.720363	4729.877720
698.056400	4740.751488
698.392388	4686.435576
698.728326	4668.607536
699.064214	4648.352180
699.400053	4639.431858
699.735842	4606.966827
700.071581	4579.686623
700.407270	4561.286412
700.742910	4537.416548
701.078501	4484.187005
701.414042	4486.049711
701.749533	4452.959577
702.084974	4387.084299
702.420366	4444.558494
702.755709	4391.084455
703.091002	4333.741330
703.426246	4377.906879
703.761440	4334.805013
704.096584	4297.155156
704.431679	4322.403775
704.766725	4303.633038
705.101721	4294.198519
705.436668	4325.839321
705.771565	4273.096249
706.106413	4300.875527
706.441212	4330.729240
706.775961	4339.142926
707.110661	4322.746573
707.445311	4348.963094
707.779913	4368.580744
708.114465	4382.544740
708.448967	4406.427207
708.783421	4465.204540
709.117825	4506.168956
709.452180	4513.576932
709.786485	4555.259712
710.120742	4643.981499
710.454949	4626.914673
710.789107	4692.389179
711.123216	4762.882154
711.457275	4756.618520
711.791286	4831.693904
712.125247	4843.855687
712.459159	4749.081995
712.793023	4823.776772
713.126837	4789.340650
713.460602	4772.387249
713.794318	4695.633162
714.127985	4707.603381
714.461602	4618.153147
714.795171	4590.857820
715.128691	4526.565464
715.462162	4467.611691
715.795584	4423.688117
716.128957	4402.787493
716.462281	4349.285728
716.795556	4325.199095
717.128782	4286.382210
717.461960	4220.073393
717.795088	4229.187799
718.128167	4187.384031
718.461198	4131.780104
718.794180	4126.451604
719.127113	4105.523254
719.459997	4086.397116
719.792833	4042.546640
720.125619	4033.757388
720.458357	3997.151049
720.791046	4006.986340
721.123686	3976.600786
721.456278	3934.202161
721.788821	3952.299903
722.121315	3924.558434
722.453761	3901.873242
722.786158	3916.671549
723.118506	3935.361627
723.450805	3886.459914
723.783056	3907.670568
724.115259	3926.302673
724.447412	3930.733847
724.779518	3924.434926
725.111574	3928.145215
725.443582	3959.115543
725.775542	3944.730611
726.107453	3991.043691
726.439315	3995.575689
726.771129	4007.180425
727.102895	4041.487997
727.434612	4093.986573
727.766281	4102.942183
728.097901	4104.623408
728.429473	4107.184314
728.760996	4115.860140
729.092471	4110.677834
729.423897	4092.491871
729.755276	4101.865897
730.086606	4098.253910
730.417887	4140.289572
730.749120	4200.826268
731.080305	4267.011576
731.411442	4288.933034
731.742530	4256.974639
732.073570	4267.046864
732.404562	4321.219104
732.735506	4311.739214
733.066401	4273.819655
733.397249	4211.576528
733.728048	4132.241369
734.058798	4050.793967
734.389501	3978.899552
734.720156	3917.962084
735.050762	3871.913664
735.381320	3868.783108
735.711831	3816.939882
736.042293	3787.920479
736.372707	3810.799756
736.703073	3782.344963
737.033391	3772.063530
737.363661	3789.967188
737.693883	3817.481806
738.024056	3823.117816
738.354182	3821.320644
738.684260	3886.669122
739.014290	3899.261924
739.344272	3900.204620
739.674207	3940.269190
740.004093	3943.666927
740.333931	3937.607461
740.663722	3942.638532
740.993464	3934.910443
741.323159	3917.067279
741.652806	3886.898494
741.982405	3859.063763
742.311956	3826.034123
742.641460	3816.382834
742.970915	3793.727889
743.300323	3756.302362
743.629683	3722.388000
743.958996	3709.948953
744.288260	3684.914583
744.617477	3654.092968
744.946647	3637.167294
745.275768	3612.563943
745.604842	3608.440279
745.933869	3561.648289
746.262847	3556.405489
746.591778	3593.490737
746.920662	3564.562076
747.249498	3532.288609
747.578286	3576.615475
747.907027	3594.937548
748.235720	3595.275306
748.564365	3618.179788
748.892963	3616.019654
749.221514	3598.489041
749.550017	3576.139086
749.878473	3575.272007
750.206881	3548.264026
750.535242	3545.133469
750.863555	3546.096329
751.191821	3538.577448
751.520039	3518.579191
751.848210	3498.291068
752.176334	3531.335831
752.504411	3539.348745
752.832440	3498.026407
753.160421	3481.942606
753.488356	3488.680108
753.816243	3501.235101
754.144082	3457.858493
754.471875	3448.421453
754.799620	3467.106490
755.127318	3454.755663
755.454969	3458.108030
755.782572	3465.299236
756.110129	3439.609516
756.437638	3427.835901
756.765100	3443.942388
757.092515	3452.217442
757.419882	3459.542238
757.747203	3431.168104
758.074477	3434.379319
758.401703	3450.228707
758.728882	3471.220071
759.056014	3478.365907
759.383099	3480.284066
759.710138	3478.350783
760.037129	3494.127074
760.364073	3524.920963
760.690970	3511.733304
761.017820	3484.690034
761.344623	3505.852798
761.671379	3550.988769
761.998088	3600.266048
762.324751	3725.763053
762.651366	3971.126092
762.977935	4438.204120
763.304456	4881.412284
763.630931	4970.446622
763.957359	4613.671562
764.283740	4275.851240
764.610074	4082.263370
764.936362	3890.923855
765.262602	3732.094742
765.588796	3621.396044
765.914943	3537.286913
766.241044	3447.647636
766.567097	3421.047988
766.893104	3372.630226
767.219064	3340.170236
767.544978	3315.886998
767.870845	3260.456991
768.196665	3240.554515
768.522438	3248.481730
768.848165	3244.617685
769.173846	3208.182746
769.499479	3194.201106
769.825066	3175.485822
770.150607	3163.815551
770.476101	3175.563960
770.801548	3172.335101
771.126949	3125.928759
771.452303	3105.978393
771.777611	3115.586832
772.102872	3120.340640
772.428087	3096.440530
772.753256	3088.089858
773.078378	3075.381110
773.403453	3042.840462
773.728482	3034.303268
774.053465	3053.414282
774.378401	3042.779968
774.703291	3010.866943
775.028135	3013.805936
775.352932	3008.492560
775.677683	2995.675426
776.002388	2992.171824
776.327046	2995.244408
776.651658	2984.088334
776.976224	2972.281952
777.300743	2971.407312
777.625216	2965.110910
777.949643	2958.290229
778.274024	2961.665282
778.598359	2946.375462
778.922647	2956.309056
779.246889	2953.337296
779.571086	2935.882300
779.895236	2933.263421
780.219339	2943.149124
780.543397	2956.830815
780.867409	2958.575054
781.191374	2952.439970
781.515294	2946.468723
781.839167	2947.502160
782.162995	2942.516459
782.486776	2948.739763
782.810511	2947.126594
783.134201	2935.562187
783.457844	2939.884977
783.781441	2930.904161
784.104993	2910.875657
784.428498	2909.600245
784.751958	2924.189344
785.075372	2921.603232
785.398739	2904.498597
785.722061	2922.142636
786.045337	2928.441557
786.368568	2915.364804
786.691752	2908.612179
787.014891	2955.878037
787.337983	2983.914414
787.661030	3011.895339
787.984031	3077.165678
788.306987	3124.250055
788.629897	3118.067080
788.952760	3103.009153
789.275579	3083.504929
789.598351	3030.648431
789.921078	2983.669918
790.243759	2974.318578
790.566395	2959.825261
790.888984	2932.363575
791.211529	2917.265319
791.534027	2907.916499
791.856480	2899.248235
792.178888	2881.952037
792.501249	2875.453989
792.823566	2872.419215
793.145836	2869.623895
793.468062	2864.466794
793.790241	2866.037114
794.112375	2870.203627
794.434464	2883.141749
794.756507	2886.025289
795.078505	2893.655075
795.400457	2906.396592
795.722364	2941.699792
796.044226	2964.402628
796.366042	2968.677527
796.687812	2958.754015
797.009538	2975.072230
797.331218	2962.020683
797.652852	2948.974177
797.974442	2933.223092
798.295986	2927.793769
798.617484	2923.849066
798.938938	2907.762744
799.260346	2893.617267
799.581709	2888.760115
799.903026	2879.829711
800.224299	2875.940461
800.545526	2865.883359
800.866708	2850.959023
801.187845	2842.439473
801.508936	2845.622961
801.829983	2850.580936
802.150984	2838.618278
802.471940	2823.393993
802.792851	2827.361382
803.113717	2822.647903
803.434538	2828.503203
803.755314	2821.059939
804.076045	2818.224290
804.396731	2816.540545
804.717372	2814.955102
805.037967	2811.786737
805.358518	2818.350319
805.679024	2830.038234
805.999485	2824.460197
806.319901	2830.393636
806.640272	2820.412151
806.960598	2824.971875
807.280879	2835.424707
807.601115	2840.377641
807.921306	2830.350786
808.241453	2827.293326
808.561554	2830.623008
808.881611	2834.640808
809.201623	2824.719817
809.521590	2826.002791
809.841513	2824.160249
810.161390	2826.902637
810.481223	2819.897953
810.801011	2813.044505
811.120755	2808.303299
811.440453	2812.676500
811.760107	2809.561067
812.079716	2810.917138
812.399281	2797.472380
812.718801	2794.427523
813.038276	2788.267233
813.357707	2795.128244
813.677093	2802.742907
813.996434	2794.551032
814.315731	2791.554066
814.634983	2784.967798
814.954191	2789.265382
815.273354	2802.856333
815.592473	2810.831438
815.911547	2811.683393
816.230577	2820.220587
816.549562	2827.994046
816.868502	2826.837102
817.187399	2838.477126
817.506250	2851.498426
817.825058	2847.127746
818.143821	2860.575024
818.462539	2878.476161
818.781213	2902.847619
819.099843	2937.871036
819.418429	2992.842298
819.736970	3055.367729
820.055466	3125.283492
820.373919	3228.743092
820.692327	3367.805841
821.010691	3533.831202
821.329011	3972.504848
821.647286	4858.341443
821.965517	6223.604372
822.283704	6949.684281
822.601847	6918.613129
822.919945	6297.353932
823.237999	5802.103416
823.556010	5223.933482
823.873976	4683.383158
824.191897	4280.229482
824.509775	3989.349864
824.827609	3724.994277
825.145398	3602.809310
825.463144	3592.485027
825.780845	3686.666384
826.098502	3790.322589
826.416116	4064.745361
826.733685	4379.210017
827.051210	4436.837967
827.368692	4323.459897
827.686129	4060.324269
828.003522	3741.083119
828.320872	3487.374449
828.638177	3294.900674
828.955439	3160.526198
829.272656	3079.373703
829.589830	3012.278466
829.906960	2963.419603
830.224046	2919.627100
830.541088	2889.528891
830.858086	2870.150695
831.175041	2850.999352
831.491952	2856.090917
831.808819	2868.093905
832.125642	2891.782287
832.442421	2936.734255
832.759157	3015.799712
833.075849	3193.941486
833.392497	3473.425576
833.709101	3670.237263
834.025662	3615.381948
834.342179	3459.131384
834.658653	3288.634520
834.975083	3137.856129
835.291469	3044.327602
835.607811	2961.435909
835.924110	2904.538926
836.240366	2851.276615
836.556578	2812.631130
836.872746	2790.543314
837.188871	2765.846702
837.504952	2751.575195
837.820990	2743.423649
838.136984	2729.575600
838.452935	2721.421533
838.768842	2722.127295
839.084706	2737.170098
839.400526	2815.605411
839.716303	2946.287242
840.032037	3026.227339
840.347727	3011.146727
840.663373	2951.409054
840.978977	2876.593290
841.294537	2804.905562
841.610054	2760.094745
841.925527	2736.890314
842.240957	2717.985987
842.556344	2695.991433
842.871687	2680.898218
843.186987	2667.622340
843.502244	2664.088491
843.817458	2660.181597
844.132629	2647.838331
844.447756	2639.444810
844.762840	2637.083030
845.077881	2635.842906
845.392879	2636.586476
845.707833	2630.905096
846.022745	2622.990484
846.337613	2627.091463
846.652438	2624.560803
846.967221	2625.127933
847.281960	2622.438478
847.596656	2622.569548
847.911309	2621.276492
848.225919	2619.007972
848.540485	2613.467744
848.855009	2617.193157
849.169490	2614.740636
849.483928	2615.965636
849.798323	2618.022427
850.112675	2613.427415
850.426984	2613.215687
850.741251	2612.651077
851.055474	2613.286263
851.369654	2617.788013
851.683792	2616.409258
851.997887	2614.304576
852.311938	2612.482199
852.625947	2616.769700
852.939914	2615.842128
853.253837	2618.150976
853.567718	2612.857765
853.881555	2614.251644
854.195350	2616.207612
854.509103	2615.421192
854.822812	2615.148969
855.136479	2613.482868
855.450103	2611.985645
855.763685	2616.988990
856.077224	2612.751901
856.390720	2610.679986
856.704173	2613.019082
857.017584	2618.660133
857.330953	2618.453446
857.644278	2621.029475
857.957561	2616.988990
858.270802	2616.111830
858.584000	2617.505709
858.897155	2620.240535
859.210268	2618.433281
859.523339	2616.326079
859.836367	2610.299379
860.149352	2611.763834
860.462295	2613.293825
860.775195	2610.659822
861.088054	2607.161261
861.400869	2608.235027
861.713642	2603.135900
862.026373	2609.460027
862.339062	2608.678648
862.651708	2616.192488
862.964312	2618.057715
863.276873	2616.469752
863.589392	2620.016203
863.901869	2621.954527
864.214303	2625.377470
864.526696	2630.564818
864.839045	2630.244704
865.151353	2632.251084
865.463619	2632.712349
865.775842	2632.440127
866.088023	2633.662607
866.400162	2632.823255
866.712258	2633.755868
867.024313	2631.084057
867.336325	2628.218161
867.648296	2630.723614
867.960224	2635.797535
868.272110	2634.973307
868.583954	2625.112810
868.895755	2628.659262
869.207515	2632.490538
869.519233	2639.946405
869.830909	2633.960035
870.142542	2634.287710
870.454134	2631.711680
870.765684	2638.040849
871.077191	2642.623258
871.388657	2644.939668
871.700081	2642.721560
872.011463	2641.859523
872.322803	2642.648463
872.634101	2647.243475
872.945357	2653.562562
873.256571	2658.029024
873.567744	2654.364105
873.878874	2655.016934
874.189963	2657.310659
874.501010	2660.945331
874.812015	2666.533450
875.122979	2664.325425
875.433900	2658.805362
875.744780	2657.121616
876.055618	2662.049344
876.366415	2664.590086
876.677169	2664.953049
876.987882	2661.444406
877.298554	2658.565907
877.609183	2670.488236
877.919771	2676.663649
878.230317	2684.313600
878.540822	2691.741740
878.851285	2706.214893
879.161707	2730.377143
879.472087	2767.154881
879.782425	2815.239927
880.092722	2924.494334
880.402977	3112.869650
880.713191	3370.371789
881.023363	3649.117349
881.333494	3832.645596
881.643583	4005.441227
881.953631	4005.647914
882.263637	3824.927590
882.573602	3610.701237
882.883526	3484.795899
883.193408	3375.891852
883.503248	3274.302520
883.813048	3162.890499
884.122806	3052.196843
884.432522	2967.172742
884.742197	2905.317785
885.051831	2866.931919
885.361424	2833.758606
885.670975	2800.965900
885.980485	2769.698143
886.289954	2752.326327
886.599382	2738.863926
886.908768	2727.685167
887.218113	2709.829400
887.527417	2695.550332
887.836680	2688.328879
888.145901	2682.453414
888.455082	2675.390758
888.764221	2663.957421
889.073319	2657.540032
889.382376	2656.509116
889.691392	2656.153715
890.000366	2656.425937
890.309300	2654.734630
890.618193	2656.458704
890.927044	2659.120434
891.235855	2659.357368
891.544625	2658.820485
891.853353	2659.064981
892.162041	2664.234684
892.470687	2683.355781
892.779293	2700.107535
893.087858	2705.756148
893.396381	2728.912688
893.704864	2767.774943
894.013306	2835.593586
894.321707	2928.996084
894.630068	2977.532313
894.938387	2996.494614
895.246665	2990.069663
895.554903	2947.050977
895.863100	2904.521282
896.171256	2849.313086
896.479371	2787.803447
896.787446	2750.025040
897.095480	2732.970817
897.403473	2727.246587
897.711425	2711.397199
898.019336	2696.976978
898.327207	2679.516942
898.635038	2682.140863
898.942827	2676.139369
899.250576	2666.321722
899.558284	2658.828047
899.865952	2653.413847
900.173579	2649.640544
900.481165	2647.840852
900.788711	2640.251395
901.096216	2635.111938
901.403681	2629.047430
901.711105	2631.283182
902.018489	2629.939715
902.325832	2633.707977
902.633135	2634.368368
902.940397	2648.518887
903.247619	2683.968281
903.554800	2753.568972
903.861941	2875.970707
904.169041	2997.845643
904.476101	3052.708520
904.783121	3048.607542
905.090100	2994.757936
905.397039	2919.072573
905.703938	2851.178313
906.010796	2788.733540
906.317614	2741.739904
906.624391	2705.798998
906.931129	2679.055677
907.237826	2654.976605
907.544483	2641.715850
907.851099	2627.852677
908.157675	2617.336830
908.464211	2608.645881
908.770707	2601.860488
909.077163	2594.054261
909.383578	2592.176431
909.689954	2591.936976
909.996289	2589.146698
910.302584	2588.745926
910.608839	2588.047726
910.915054	2585.638055
911.221229	2588.665267
911.527363	2594.467636
911.833458	2588.105699
912.139513	2593.109045
912.445527	2593.227512
912.751502	2597.845209
913.057436	2602.687237
913.363331	2609.278546
913.669186	2621.911677
913.975000	2632.863584
914.280775	2650.442087
914.586510	2664.305260
914.892205	2700.810776
915.197859	2765.874428
915.503475	2845.711182
915.809050	2911.102509
916.114585	2923.062646
916.420081	2937.961776
916.725536	2948.457459
917.030952	2924.753953
917.336328	2877.916593
917.641665	2832.367247
917.946961	2780.050153
918.252218	2747.849782
918.557435	2724.317676
918.862612	2704.374872
919.167750	2685.972140
919.472848	2668.338183
919.777906	2653.078611
920.082925	2641.262146
920.387904	2630.912657
920.692843	2628.482821
920.997743	2622.244393
921.302603	2616.462190
921.607423	2610.009513
921.912204	2605.273349
922.216946	2601.860488
922.521647	2597.701536
922.826310	2596.637852
923.130932	2592.723396
923.435516	2587.891450
923.740059	2585.166707
924.044564	2585.915318
924.349028	2580.271746
924.653454	2573.758576
924.957840	2569.894531
925.262186	2572.851168
925.566493	2571.409398
925.870761	2565.707853
926.174989	2568.646846
926.479178	2567.033676
926.783328	2566.819427
927.087438	2564.036710
927.391509	2563.935887
927.695541	2561.624518
927.999533	2558.680484
928.303486	2559.350958
928.607400	2557.556307
928.911275	2556.548076
929.215110	2558.433468
929.518906	2557.795762
929.822663	2555.514640
930.126381	2556.782490
930.430060	2559.436657
930.733699	2556.437171
931.037299	2559.502192
931.340861	2558.188972
931.644383	2557.720145
931.947866	2557.775597
932.251309	2558.153684
932.554714	2558.811554
932.858080	2559.902964
933.161407	2557.518498
933.464694	2557.379867
933.767943	2557.732748
934.071153	2555.065977
934.374323	2554.773590
934.677455	2554.551779
934.980548	2556.321224
935.283602	2555.975905
935.586617	2557.720145
935.889593	2556.243087
936.192530	2555.328117
936.495428	2556.374157
936.798287	2555.625545
937.101108	2556.936245
937.403890	2561.591751
937.706632	2564.936556
938.009336	2566.479149
938.312002	2569.937381
938.614628	2571.762279
938.917216	2576.569019
939.219765	2577.115984
939.522275	2575.757393
939.824747	2579.402147
940.127179	2568.750189
940.429573	2569.145920
940.731929	2570.794377
941.034246	2566.859757
941.336524	2567.777247
941.638763	2568.941753
941.940964	2568.223389
942.243126	2566.579972
942.545250	2564.986968
942.847335	2563.363716
943.149381	2564.127451
943.451389	2560.520506
943.753359	2561.848850
944.055290	2556.585885
944.357182	2556.117058
944.659036	2556.565720
944.960851	2558.549414
945.262628	2557.972202
945.564367	2559.940773
945.866067	2560.961607
946.167729	2562.693243
946.469352	2556.338868
946.770937	2556.401883
947.072484	2558.433468
947.373992	2557.768036
947.675462	2557.694939
947.976893	2556.880792
948.278286	2555.625545
948.579641	2554.012376
948.880958	2555.086142
949.182236	2552.439536
949.483476	2554.307283
949.784678	2554.476162
950.085841	2553.510781
950.386967	2554.531615
950.688054	2556.646379
950.989103	2556.532953
951.290114	2555.002963
951.591087	2558.781307
951.892021	2559.161915
952.192917	2563.242729
952.493776	2560.560835
952.794596	2563.751885
953.095378	2562.995712
953.396122	2560.389436
953.696828	2560.795248
953.997496	2560.333983
954.298126	2556.578323
954.598718	2557.952038
954.899272	2559.666030
955.199788	2555.968344
955.500266	2554.236707
955.800706	2550.249155
956.101108	2546.743032
956.401472	2546.619524
956.701798	2545.891077
957.002087	2546.773279
957.302337	2547.181613
957.602550	2548.482230
957.902724	2549.475337
958.202861	2547.640357
958.502960	2545.129863
958.803022	2544.585418
959.103045	2545.596170
959.403031	2544.605583
959.702979	2540.696168
960.002889	2543.488967
960.302762	2541.031405
960.602596	2544.008206
960.902393	2544.219935
961.202153	2544.189688
961.501875	2544.383772
961.801559	2540.408822
962.101205	2540.156765
962.400814	2541.260777
962.700385	2540.378575
962.999918	2543.640202
963.299414	2543.032743
963.598873	2544.073741
963.898293	2540.280273
964.197677	2539.168698
964.497022	2541.361600
964.796331	2540.464275
965.095601	2538.795653
965.394835	2540.171888
965.694030	2542.125335
965.993189	2541.921168
966.292309	2538.299099
966.591393	2540.681045
966.890439	2539.662732
967.189447	2540.086188
967.488419	2539.995448
967.787353	2541.545602
968.086249	2538.924202
968.385108	2541.790098
968.683930	2540.771785
968.982714	2540.849923
969.281462	2542.717671
969.580172	2540.529810
969.878844	2540.108874
970.177480	2540.741538
970.476078	2541.641384
970.774639	2544.131714
971.073162	2540.534851
971.371649	2540.582742
971.670098	2537.706764
971.968510	2539.254398
972.266885	2536.605272
972.565223	2543.272198
972.863524	2538.878832
973.161788	2544.318237
973.460014	2541.679193
973.758204	2542.019471
974.056356	2541.699358
974.354471	2542.548792
974.652550	2541.515356
974.950591	2541.815304
975.248595	2541.671631
975.546563	2541.895963
975.844493	2541.341436
976.142386	2541.134748
976.440243	2539.234233
976.738062	2544.028371
977.035845	2539.972762
977.333590	2540.393699
977.631299	2541.442259
977.928971	2539.607279
978.226606	2540.446631
978.524204	2538.896476
978.821765	2538.578883
979.119290	2540.131559
979.416777	2541.832948
979.714228	2542.571477
980.011642	2540.025695
980.309020	2541.386806
980.606360	2541.071734
980.903664	2539.992927
981.200931	2541.724563
981.498162	2541.316230
981.795356	2543.292362
982.092513	2544.484595
982.389633	2549.467776
982.686717	2550.639844
982.983764	2554.599670
983.280775	2553.914073
983.577749	2552.187478
983.874686	2553.626728
984.171587	2552.139587
984.468451	2548.240255
984.765279	2547.554658
985.062070	2543.483926
985.358824	2542.248843
985.655543	2543.183977
985.952224	2542.639533
986.248869	2541.306148
986.545478	2536.012936
986.842050	2537.880684
987.138586	2536.741383
987.435086	2535.143337
987.731549	2533.371372
988.027975	2538.697351
988.324366	2539.226672
988.620719	2538.969573
988.917037	2536.305323
989.213318	2539.080478
989.509563	2538.339429
989.805772	2535.992772
990.101944	2535.201310
990.398080	2537.278266
990.694180	2534.409849
990.990244	2539.566950
991.286271	2534.644263
991.582262	2537.757175
991.878217	2539.100643
992.174136	2539.365303
992.470019	2536.968235
992.765865	2538.296579
993.061676	2535.718029
993.357450	2539.128369
993.653188	2537.305992
993.948890	2539.493853
994.244556	2538.697351
994.540186	2541.028884
994.835780	2537.948739
995.131337	2541.354039
995.426859	2539.846734
995.722345	2540.040818
996.017795	2542.642053
996.313208	2542.213555
996.608586	2539.549306
996.903928	2541.086857
997.199234	2539.914789
997.494504	2539.274563
997.789738	2540.623071
998.084936	2540.877650
998.380099	2541.001158
998.675225	2538.591486
998.970316	2540.386137
999.265371	2538.031918
999.560390	2535.445806
999.855373	2537.447144
1000.150320	2535.934798
1000.445232	2536.375899
1000.740108	2534.911444
1001.034948	2537.220293
1001.329752	2538.334388
1001.624521	2533.517565
1001.919254	2530.979344
1002.213951	2534.949253
1002.508613	2535.284489
1002.803239	2531.831299
1003.097829	2532.032945
1003.392384	2534.971938
1003.686903	2536.007895
1003.981386	2539.483771
1004.275834	2534.011598
1004.570246	2537.832793
1004.864623	2538.762886
1005.158964	2534.979500
1005.453270	2536.030580
1005.747540	2533.174767
1006.041775	2535.564273
1006.335974	2537.852957
1006.630138	2535.660055
1006.924266	2538.319264
1007.218359	2531.758202
1007.512416	2535.115611
1007.806438	2531.796011
1008.100425	2535.586959
1008.394376	2532.907585
1008.688292	2537.351363
1008.982172	2533.414221
1009.276017	2537.384130
1009.569827	2535.183666
1009.863602	2535.115611
1010.157341	2537.104346
1010.451045	2534.913965
1010.744714	2535.788605
1011.038347	2536.128883
1011.331945	2535.317257
1011.625508	2534.208203
1011.919036	2530.636546
1012.212528	2537.482433
1012.505986	2536.219623
1012.799408	2534.175436
1013.092795	2532.821886
1013.386147	2536.766589
1013.679464	2533.401618
1013.972745	2532.736186
1014.265992	2534.132586
1014.559204	2535.914634
1014.852380	2533.774664
1015.145521	2533.830117
1015.438628	2534.944212
1015.731699	2534.641742
1016.024736	2534.278779
1016.317737	2534.639222
1016.610703	2537.603420
1016.903635	2532.320291
1017.196531	2531.065044
1017.489393	2532.385826
1017.782219	2529.202337
1018.075011	2533.383974
1018.367768	2534.205682
1018.660490	2533.746937
1018.953177	2533.746937
1019.245829	2533.746937
