Dividing Wavelength (nm)	Counts (n)	Blue Motor Position (mm): 24.200000	Red Motor Position (mm): 0.000000	
326.493990	2057.347817
326.888308	2057.347817
327.282561	2057.347817
327.676750	2034.914682
328.070874	2034.740762
328.464933	2039.673531
328.858929	2050.832125
329.252859	2057.405790
329.646726	2070.419529
330.040528	2091.499113
330.434265	2106.433532
330.827938	2129.736265
331.221547	2148.070942
331.615091	2168.966525
332.008571	2189.743640
332.401986	2208.060673
332.795338	2230.793756
333.188625	2250.287898
333.581847	2269.209869
333.975006	2289.339196
334.368100	2303.489715
334.761129	2320.496048
335.154095	2336.675631
335.546996	2385.390821
335.939833	2485.976964
336.332606	2493.732779
336.725315	2508.447907
337.117960	2516.975019
337.510540	2525.393746
337.903056	2538.352032
338.295508	2542.793288
338.687896	2549.603887
339.080220	2552.505071
339.472480	2560.344065
339.864676	2565.196176
340.256807	2567.507545
340.648875	2568.394788
341.040879	2569.607185
341.432818	2570.683472
341.824694	2569.229099
342.216506	2570.227247
342.608253	2569.352607
342.999937	2571.585838
343.391557	2572.342011
343.783113	2569.970148
344.174605	2566.423697
344.566033	2567.368913
344.957397	2563.063768
345.348697	2561.039744
345.739934	2559.449260
346.131106	2557.949517
346.522215	2556.021276
346.913260	2553.669578
347.304241	2551.779145
347.695159	2549.984494
348.086012	2551.118754
348.476802	2547.491643
348.867528	2542.823535
349.258191	2541.316230
349.648789	2542.163144
350.039324	2537.202648
350.429796	2541.953936
350.820203	2542.808412
351.210548	2542.344625
351.600828	2539.352701
351.991045	2538.697351
352.381198	2538.742721
352.771288	2536.194418
353.161314	2537.956301
353.551276	2536.738862
353.941175	2535.498738
354.331010	2539.738349
354.720782	2544.015768
355.110490	2544.136756
355.500135	2539.196425
355.889717	2538.982176
356.279235	2541.006199
356.668689	2539.904707
357.058080	2539.070396
357.447408	2538.117618
357.836672	2540.618030
358.225873	2539.929913
358.615010	2540.423946
359.004084	2542.548792
359.393095	2542.631971
359.782043	2543.488967
360.170927	2543.352856
360.559748	2543.884698
360.948505	2546.511139
361.337199	2546.531304
361.725830	2547.940306
362.114398	2545.931406
362.502903	2546.619524
362.891344	2548.386448
363.279722	2547.857127
363.668037	2548.336037
364.056289	2549.334185
364.444478	2547.680687
364.832603	2548.913249
365.220665	2550.957437
365.608665	2551.244783
365.996601	2549.205636
366.384474	2551.698486
366.772284	2550.019782
367.160031	2549.636654
367.547715	2551.867365
367.935336	2550.874258
368.322893	2549.467776
368.710388	2548.946016
369.097820	2552.999104
369.485189	2548.714123
369.872495	2555.433981
370.259738	2551.859803
370.646918	2552.174875
371.034035	2555.131512
371.421090	2552.626059
371.808081	2555.486913
372.195010	2554.178734
372.581875	2554.337530
372.968678	2553.535987
373.355418	2557.369784
373.742096	2555.799465
374.128710	2557.236194
374.515262	2558.385577
374.901751	2555.552448
375.288177	2559.040927
375.674540	2560.848181
376.060841	2557.092521
376.447079	2558.080587
376.833254	2559.134188
377.219367	2561.553942
377.605417	2559.597974
377.991404	2559.774415
378.377329	2562.620146
378.763191	2559.726524
379.148991	2559.764332
379.534727	2560.341545
379.920402	2562.599982
380.306013	2561.586710
380.691563	2562.176525
381.077049	2561.150650
381.462474	2562.146278
381.847835	2560.840619
382.233134	2563.824982
382.618371	2563.875393
383.003545	2564.775239
383.388657	2561.934549
383.773706	2562.242060
384.158693	2563.494786
384.543618	2563.731721
384.928480	2564.049313
385.313280	2564.954200
385.698017	2565.196176
386.082692	2563.830023
386.467305	2565.871690
386.851856	2562.461350
387.236344	2563.706515
387.620770	2565.145764
388.005133	2562.342883
388.389435	2564.550908
388.773674	2561.705177
389.157851	2565.952349
389.541965	2563.555280
389.926018	2568.069633
390.310008	2564.369427
390.693936	2568.006619
391.077802	2570.479305
391.461606	2569.009809
391.845348	2569.839078
392.229027	2569.788667
392.612645	2568.699778
392.996200	2568.601475
393.379694	2570.481826
393.763125	2569.513924
394.146494	2569.715570
394.529801	2572.084912
394.913047	2571.618606
395.296230	2569.307237
395.679351	2571.006106
396.062410	2569.788667
396.445408	2572.503328
396.828343	2569.035014
397.211217	2571.575756
397.594028	2570.872515
397.976778	2574.837382
398.359466	2572.170612
398.742092	2573.579615
399.124656	2571.230437
399.507158	2573.761096
399.889598	2574.025757
400.271977	2574.771847
400.654294	2575.565829
401.036549	2576.440469
401.418742	2576.228741
401.800874	2576.939544
402.182944	2574.857547
402.564952	2576.009451
402.946898	2579.739905
403.328783	2575.835531
403.710606	2575.843093
404.092367	2576.281673
404.474067	2573.897207
404.855705	2578.303176
405.237282	2577.748649
405.618797	2574.766806
406.000250	2578.643454
406.381642	2577.506673
406.762972	2577.678073
407.144240	2574.139183
407.525447	2576.349729
407.906593	2574.308061
408.287677	2582.363825
408.668700	2580.276787
409.049661	2581.413568
409.430560	2582.976325
409.811399	2583.959350
410.192176	2579.923907
410.572891	2579.134966
410.953545	2581.673187
411.334138	2583.064546
411.714669	2580.359967
412.095139	2582.588157
412.475547	2582.840214
412.855894	2583.553537
413.236180	2581.393403
413.616405	2583.394741
413.996568	2584.390369
414.376670	2579.616396
414.756711	2581.700913
415.136691	2582.268043
415.516609	2585.751481
415.896466	2581.758887
416.276262	2586.205184
416.655997	2582.409196
417.035670	2583.823239
417.415283	2586.946234
417.794834	2585.726275
418.174324	2586.210226
418.553753	2584.324834
418.933121	2589.605443
419.312428	2584.592015
419.691674	2588.415730
420.070859	2588.350195
420.449983	2587.687284
420.829045	2585.580081
421.208047	2586.295925
421.586988	2588.869434
421.965867	2586.923549
422.344686	2586.479927
422.723444	2590.419589
423.102141	2589.086204
423.480777	2588.158632
423.859352	2590.316245
424.237866	2588.292222
424.616319	2592.811617
424.994712	2592.499065
425.373044	2588.135946
425.751314	2588.143508
426.129524	2588.698035
426.507673	2585.811974
426.885762	2587.997315
427.263789	2590.182655
427.641756	2591.879003
428.019662	2591.826071
428.397508	2589.222315
428.775292	2592.514188
429.153016	2594.029055
429.530679	2587.848601
429.908282	2592.551997
430.285824	2594.734817
430.663305	2590.666606
431.040726	2594.124837
431.418086	2594.455033
431.795385	2594.812955
432.172624	2591.251379
432.549802	2593.560228
432.926920	2593.351020
433.303977	2593.068715
433.680974	2596.300095
434.057910	2594.253387
434.434786	2592.962851
434.811601	2595.952255
435.188355	2592.468818
435.565050	2594.628952
435.941683	2595.264138
436.318257	2597.451999
436.694770	2598.374530
437.071222	2598.603902
437.447614	2595.916967
437.823946	2601.041300
438.200218	2597.699015
438.576429	2599.949890
438.952580	2599.309664
439.328670	2600.706063
439.704700	2599.045003
440.080670	2599.564242
440.456580	2601.815117
440.832429	2603.430807
441.208218	2603.443410
441.583947	2603.783688
441.959616	2602.493152
442.335224	2602.737648
442.710773	2604.991044
443.086261	2606.604213
443.461689	2605.117073
443.837057	2606.450458
444.212365	2607.236878
444.587612	2609.228134
444.962800	2604.244953
445.337927	2604.822166
445.712995	2604.963318
446.088002	2610.455655
446.462949	2609.913731
446.837837	2611.947837
447.212664	2614.581839
447.587431	2616.759618
447.962139	2619.285236
448.336786	2623.348406
448.711374	2619.565020
449.085901	2620.003600
449.460369	2620.036368
449.834776	2622.037706
450.209124	2621.793210
450.583412	2623.945783
450.957640	2626.126082
451.331808	2627.139354
451.705917	2627.701442
452.079965	2627.779580
452.453954	2626.065588
452.827883	2630.572379
453.201752	2631.696557
453.575562	2631.910806
453.949311	2634.310395
454.323001	2636.684778
454.696632	2640.576549
455.070202	2646.270532
455.443713	2645.761376
455.817164	2649.902684
456.190556	2655.405103
456.563888	2658.901143
456.937160	2662.024138
457.310373	2664.433810
457.683526	2666.316681
458.056619	2673.447393
458.429653	2678.833866
458.802628	2684.225380
459.175542	2691.981195
459.548398	2705.433514
459.921194	2717.746532
460.293930	2730.672051
460.666607	2751.295411
461.039224	2768.185797
461.411782	2780.150976
461.784280	2785.749177
462.156719	2796.486835
462.529099	2805.107208
462.901419	2807.171560
463.273680	2810.223979
463.645882	2825.009683
464.018024	2844.022395
464.390106	2866.072402
464.762130	2917.721544
465.134094	2990.117554
465.505999	3079.706420
465.877845	3168.385357
466.249631	3215.394117
466.621358	3218.507029
466.993026	3222.358471
467.364634	3231.256107
467.736184	3235.909092
468.107674	3252.413830
468.479105	3278.892490
468.850477	3303.959628
469.221790	3323.080724
469.593043	3332.616067
469.964238	3351.049046
470.335373	3394.143350
470.706449	3483.742298
471.077467	3603.273096
471.448425	3788.573309
471.819324	3928.394752
472.190164	3947.036939
472.560945	3890.760018
472.931667	3851.809543
473.302330	3886.540572
473.672934	3909.918923
474.043479	3994.562417
474.413965	4036.822409
474.784393	4080.660283
475.154761	4196.143036
475.525070	4271.861166
475.895321	4322.360925
476.265513	4434.723203
476.635645	4564.651382
477.005719	4641.556704
477.375734	4757.639354
477.745691	4907.301129
478.115588	5069.127209
478.485427	5314.180218
478.855207	5657.296272
479.224928	6002.940465
479.594591	6264.979642
479.964194	6295.208921
480.333739	6455.356296
480.703226	6613.628363
481.072653	6830.294634
481.442022	7042.428909
481.811333	7228.281127
482.180584	7270.888960
482.549777	7378.530197
482.918912	7483.025755
483.287988	7621.831405
483.657005	7734.990186
484.025964	7808.845610
484.394864	7990.281778
484.763706	8130.735886
485.132489	8181.722116
485.501213	8342.116508
485.869879	8540.301910
486.238487	8685.393879
486.607036	8915.197398
486.975527	9017.663891
487.343959	9260.821426
487.712333	9511.732256
488.080648	9683.093678
488.448905	9962.754208
488.817104	10141.085026
489.185244	10576.807076
489.553326	11130.424071
489.921350	11922.359093
490.289315	12903.218918
490.657222	13359.745810
491.025070	13726.774577
491.392861	13836.230630
491.760593	13802.084375
492.128267	13686.984750
492.495883	13589.204009
492.863440	13532.559084
493.230939	13429.666614
493.598380	13469.416112
493.965763	13654.310511
494.333088	13697.722408
494.700354	13849.277136
495.067563	14061.008118
495.434713	14257.048509
495.801805	14598.374954
496.168839	14765.189255
496.535815	14935.313074
496.902733	15228.549432
497.269593	15377.543254
497.636395	15673.766495
498.003139	16046.685851
498.369825	16173.896848
498.736453	16599.695387
499.103023	16761.987773
499.469535	17037.748971
499.835989	17355.450048
500.202385	17516.961055
500.568723	17801.403120
500.935003	18230.254078
501.301226	18403.238751
501.667390	19028.248567
502.033497	19384.055726
502.399546	19507.866464
502.765537	19510.949130
503.131470	20020.763539
503.497345	20523.676608
503.863163	20146.484875
504.228923	20848.828511
504.594625	21338.823624
504.960269	21245.469016
505.325856	21911.637332
505.691385	21927.789189
506.056856	22375.526830
506.422270	22934.323610
506.787625	22848.656762
507.152924	23391.939392
507.518164	23757.349949
507.883347	23663.523993
508.248472	23997.112267
508.613540	24704.098806
508.978550	25093.903506
509.343503	25214.563524
509.708398	25691.892737
510.073236	26348.656781
510.438016	26639.982541
510.802738	26619.530580
511.167403	27245.188184
511.532010	27656.705134
511.896561	28237.839267
512.261053	29038.734940
512.625488	29078.265148
512.989866	29222.306037
513.354186	29467.573295
513.718449	29622.366965
514.082655	30529.502435
514.446803	30487.272689
514.810894	31165.345690
515.174927	31373.010982
515.538904	31540.173123
515.902822	32268.244288
516.266684	32187.033820
516.630488	32658.626200
516.994235	32835.991637
517.357925	33504.045344
517.721558	33893.834922
518.085133	34385.796084
518.448651	34702.468766
518.812112	34764.104433
519.175516	35060.431018
519.538863	35591.057831
519.902152	35792.557791
520.265385	36425.083967
520.628560	36590.983299
520.991678	36682.364295
521.354739	37031.386061
521.717743	37488.787593
522.080690	37550.168683
522.443580	38291.525808
522.806413	38430.699463
523.169189	38689.900471
523.531908	39001.163994
523.894569	39000.922019
524.257174	39312.240995
524.619722	39734.508206
524.982213	39964.122681
525.344647	40111.684816
525.707025	40333.122540
526.069345	40839.241783
526.431608	40852.442045
526.793815	41312.699391
527.155964	40978.120531
527.518057	41317.987561
527.880093	41264.533686
528.242072	41956.331229
528.603995	41767.353494
528.965860	41787.901238
529.327669	42057.436610
529.689421	42186.674151
530.051117	42212.177348
530.412755	42565.978128
530.774337	42702.174981
531.135862	42699.069631
531.497331	42908.995880
531.858743	42962.480001
532.220098	43399.963935
532.581396	43207.596025
532.942638	43029.754199
533.303824	43327.394005
533.664953	43443.910194
534.026025	43175.874564
534.387040	43764.812403
534.747999	43897.193103
535.108902	44244.160599
535.469748	43625.585817
535.830537	43926.731744
536.191270	44206.104929
536.551947	43976.492974
536.912567	44300.470288
537.273131	44480.928472
537.633638	44133.928209
537.994089	44364.177869
538.354483	44159.267568
538.714821	44814.443649
539.075103	45122.997552
539.435328	45003.834758
539.795497	44801.439992
540.155609	44941.500890
540.515665	45535.021138
540.875665	44880.606272
541.235609	45181.399319
541.595496	45335.313308
541.955328	45918.325271
542.315102	45374.465429
542.674821	45281.960256
543.034483	45195.411207
543.394090	45222.023458
543.753640	45213.486264
544.113134	46284.118956
544.472571	45413.378096
544.831953	46550.576704
545.191278	45823.584346
545.550548	45540.800821
545.909761	46186.237392
546.268918	46332.337592
546.628019	46776.674975
546.987064	46217.263173
547.346053	45510.954670
547.704986	46430.970288
548.063863	46087.947495
548.422684	46302.085628
548.781449	45922.214521
549.140158	46443.691640
549.498811	46242.148829
549.857408	45630.656868
550.215949	46475.052658
550.574434	46314.161712
550.932864	46252.231137
551.291237	46975.278792
551.649555	46745.303874
552.007817	46926.447655
552.366022	46594.565813
552.724173	46665.971236
553.082267	47079.053465
553.440305	47426.709078
553.798288	46690.178857
554.156215	47095.220445
554.514086	47286.537275
554.871902	46926.903880
555.229661	47109.610419
555.587365	46779.707229
555.945014	46918.517920
556.302606	46952.482694
556.660143	47065.908656
557.017625	47276.288609
557.375050	46968.533728
557.732421	47391.849499
558.089735	47461.798029
558.446994	47330.360025
558.804197	47804.122622
559.161345	47684.080146
559.518437	47036.533853
559.875474	47299.309038
560.232455	47521.389509
560.589381	47584.877800
560.946251	47392.063748
561.303065	48063.631140
561.659825	47738.582581
562.016528	47549.937563
562.373177	47131.458779
562.729770	47761.204759
563.086307	47304.602249
563.442789	47840.255093
563.799216	47710.233652
564.155587	47576.741378
564.511904	47553.657935
564.868164	47618.724107
565.224370	47934.839742
565.580520	47664.744801
565.936615	47864.324082
566.292654	47511.551697
566.648638	47889.708812
567.004567	47831.528855
567.360441	47940.407696
567.716260	47649.628901
568.072023	48029.994041
568.427732	47961.041139
568.783385	47477.720514
569.138982	47892.226868
569.494525	48028.015388
569.850013	47638.949217
570.205445	47758.558153
570.560823	47545.539156
570.916145	47425.353007
571.271412	47655.716094
571.626625	47306.419585
571.981782	47391.441166
572.336884	46976.246694
572.691931	47310.263465
573.046923	46977.166704
573.401860	46814.246694
573.756743	46826.179105
574.111570	46981.948239
574.466342	46892.790392
574.821059	47036.377577
575.175722	46548.497228
575.530330	46647.933988
575.884882	46282.031918
576.239380	46175.890424
576.593823	46281.512679
576.948211	46213.903244
577.302544	45754.200425
577.656823	45768.623166
578.011047	46020.368307
578.365216	45845.369692
578.719330	45571.665286
579.073389	45538.242436
579.427394	45607.477643
579.781344	45530.138781
580.135239	45276.394823
580.489080	45355.082193
580.842866	44851.450759
581.196597	45331.857597
581.550273	45325.909036
581.903895	45262.531649
582.257463	45698.904009
582.610975	45126.102903
582.964434	45469.425644
583.317837	44965.063243
583.671186	44922.127736
584.024481	45215.439711
584.377721	44749.611890
584.730906	44966.096680
585.084037	45083.046408
585.437113	44791.340041
585.790135	44912.773875
586.143103	44475.605013
586.496016	44632.369775
586.848874	44735.426083
587.201679	44759.689156
587.554428	44267.836378
587.907124	44544.603286
588.259765	44307.336339
588.612352	44470.868849
588.964884	43925.035396
589.317362	44249.257206
589.669786	44247.018933
590.022155	44093.228453
590.374470	44553.742898
590.726731	44109.707985
591.078937	43458.032986
591.431090	43796.168380
591.783188	43333.539171
592.135232	43119.718631
592.487222	43380.157242
592.839157	43534.338411
593.191038	43174.924307
593.542866	42980.366015
593.894639	42380.262020
594.246358	42695.818086
594.598022	42669.309179
594.949633	42256.121086
595.301190	42231.416912
595.652692	42170.754187
596.004141	42647.990139
596.355535	41555.330125
596.706876	41587.538057
597.058162	41296.048460
597.409395	41787.220682
597.760573	42006.740247
598.111698	41609.865328
598.462768	41541.426623
598.813785	41553.081771
599.164748	41169.142453
599.515657	41433.009048
599.866511	40934.544797
600.217312	41617.195165
600.568060	40563.553682
600.918753	41404.181210
601.269392	41297.946454
601.619978	41033.006093
601.970510	41223.163457
602.320988	41367.005221
602.671412	41631.509522
603.021783	41510.569720
603.372100	41067.129663
603.722363	41171.723523
604.072572	41198.751670
604.422728	41205.408513
604.772830	40974.700108
605.122878	41140.712866
605.472872	41003.076763
605.822813	41260.720053
606.172701	40997.271874
606.522534	41332.465755
606.872314	41543.518702
607.222041	41375.272713
607.571714	41694.554192
607.921333	41197.771165
608.270899	41404.909656
608.620411	41800.287352
608.969870	41533.035623
609.319276	41553.036400
609.668627	41567.806981
610.017926	41983.767708
610.367171	42109.471400
610.716362	42153.982268
611.065500	42046.013356
611.414585	42260.373299
611.763616	42444.884571
612.112594	42348.419572
612.461518	42468.580515
612.810389	42856.613250
613.159207	42654.568845
613.507971	42615.111734
613.856682	43109.316210
614.205340	42949.758650
614.553945	43633.349193
614.902496	42954.310812
615.250994	43384.918611
615.599439	43430.982155
615.947830	43559.955035
616.296169	43546.893405
616.644454	43583.419085
616.992686	43748.274898
617.340864	44219.038009
617.688990	43732.022218
618.037063	44402.173046
618.385082	44222.750819
618.733048	44572.211165
619.080961	44435.618581
619.428821	44446.489829
619.776628	44479.695910
620.124382	44282.223831
620.472083	44410.254016
620.819731	44497.236605
621.167326	44046.935537
621.514868	44042.322882
621.862357	43522.993295
622.209793	43602.361221
622.557176	43175.677959
622.904506	42911.508895
623.251783	42566.323447
623.599007	42255.869028
623.946179	42161.944771
624.293297	41902.970615
624.640363	41356.786802
624.987376	41203.354243
625.334336	41005.430982
625.681243	40587.337846
626.028097	40500.269558
626.374899	40324.240027
626.721647	40290.678545
627.068343	40085.024674
627.414987	39783.903952
627.761577	39535.241477
628.108115	39858.376918
628.454600	39117.304617
628.801032	39343.743166
629.147412	39232.343748
629.493739	39147.246550
629.840014	38704.557625
630.186236	39111.358576
630.532405	38585.220911
630.878521	38821.734205
631.224585	38580.484747
631.570597	38243.347501
631.916556	38417.259747
632.262462	38306.193046
632.608316	38248.449149
632.954117	38093.673123
633.299866	38064.016015
633.645562	37976.539393
633.991206	37445.378218
634.336797	37039.698924
634.682336	36934.694210
635.027823	36685.056271
635.373257	36558.160347
635.718639	36241.522953
636.063968	36128.464996
636.409245	35484.908775
636.754470	35437.993277
637.099642	35215.234771
637.444762	34642.045496
637.789829	34786.575377
638.134845	34408.614867
638.479808	34315.880322
638.824719	34274.361378
639.169577	33756.839045
639.514383	33862.123543
639.859137	33485.166223
640.203839	33652.207377
640.548489	33367.669530
640.893086	33351.416850
641.237632	33066.556370
641.582125	33175.427649
641.926566	32972.559015
642.270955	32994.891327
642.615292	32931.186265
642.959576	32821.337002
643.303809	32825.395131
643.647990	32920.652774
643.992118	32852.710623
644.336195	32701.526420
644.680219	32789.403813
645.024192	33006.256608
645.368112	33527.469066
645.711981	33545.975142
646.055797	34265.793938
646.399562	34073.579782
646.743274	34947.904903
647.086935	35353.422880
647.430544	35291.920803
647.774101	35343.895099
648.117606	35628.705168
648.461059	35773.693794
648.804460	35375.450202
649.147810	34865.499681
649.491108	34515.792318
649.834354	34384.792895
650.177548	33552.374886
650.520690	33032.470608
650.863781	33040.233985
651.206820	32852.829091
651.549807	32445.942440
651.892742	31872.677548
652.235626	31763.400456
652.578458	31644.908135
652.921238	30961.526799
653.263967	31269.783275
653.606644	30984.418679
653.949269	30878.420858
654.291843	30484.144653
654.634365	30857.094256
654.976836	30394.034028
655.319255	30455.120210
655.661622	30334.840800
656.003938	30194.505159
656.346203	30014.251142
656.688416	30266.467630
657.030577	30034.647650
657.372687	29871.735202
657.714746	30033.440294
658.056753	30205.028568
658.398708	29592.624158
658.740612	29664.009417
659.082465	29869.905263
659.424266	29763.299983
659.766016	29772.328689
660.107715	29624.910227
660.449362	29725.846730
660.790958	29714.302488
661.132503	29631.284766
661.473996	29713.037158
661.815438	29793.163778
662.156829	29915.623487
662.498168	29717.836337
662.839456	29692.494456
663.180693	29825.820373
663.521879	29905.752908
663.863013	29858.678613
664.204097	29838.821508
664.545129	30259.110066
664.886110	30189.597596
665.227040	30282.427923
665.567918	30289.258687
665.908746	30357.437772
666.249522	30446.421699
666.590248	30476.585443
666.930922	30572.422819
667.271545	30563.941078
667.612118	30617.609202
667.952639	30430.337898
668.293109	30472.048405
668.633528	30333.557826
668.973896	30288.346238
669.314213	30269.832601
669.654480	30079.191286
669.994695	30074.984443
670.334859	29995.014099
670.674973	29824.630660
671.015035	30007.495996
671.355047	29948.262438
671.695008	29880.254752
672.034918	29785.649938
672.374777	29885.429496
672.714585	29746.044113
673.054342	29883.438241
673.394049	29745.282899
673.733705	29971.696242
674.073310	29669.320272
674.412864	29733.113553
674.752368	29430.452759
675.091820	29649.952159
675.431223	29255.212169
675.770574	29047.176352
676.109875	28901.234949
676.449125	28688.135293
676.788324	28576.788808
677.127473	28109.246994
677.466571	28009.689247
677.805619	27728.130722
678.144616	27661.156473
678.483562	27604.695550
678.822458	27288.925235
679.161303	27235.559580
679.500098	27156.211818
679.838842	27093.797293
680.177535	27165.709352
680.516179	27400.687615
680.854771	27528.715279
681.193314	28314.099322
681.531805	29308.744182
681.870247	30063.510777
682.208638	30784.678081
682.546978	31053.059030
682.885268	31180.005366
683.223508	30754.690778
683.561697	30469.621089
683.899836	30338.553610
684.237925	29916.493086
684.575963	29764.774520
684.913951	29397.581915
685.251889	29570.843852
685.589776	29593.939899
685.927614	29602.777041
686.265401	29781.604412
686.603137	29897.573636
686.940824	30395.937064
687.278460	30733.298641
687.616046	30896.248898
687.953582	31549.476572
688.291068	31452.749433
688.628504	31796.765333
688.965889	31796.588893
689.303224	31520.805010
689.640510	31236.652812
689.977745	30613.540990
690.314930	29872.461128
690.652065	29449.344483
690.989150	28783.672720
691.326185	27950.065000
691.663170	27292.489330
692.000105	26564.362713
692.336990	25966.040766
692.673825	25540.272474
693.010610	25053.223915
693.347345	24552.430651
693.684030	23936.154635
694.020665	23731.539241
694.357251	23035.723899
694.693786	23055.349111
695.030272	22820.166681
695.366707	22332.556034
695.703093	22059.310372
696.039429	22111.917333
696.375716	21890.252758
696.711952	21880.049462
697.048139	21733.079663
697.384276	21586.624062
697.720363	21696.014579
698.056400	21590.699834
698.392388	21437.673089
698.728326	21431.590937
699.064214	21272.981113
699.400053	21283.854882
699.735842	20888.114223
700.071581	20688.539983
700.407270	20439.431366
700.742910	20260.760271
701.078501	20013.433701
701.414042	19810.217228
701.749533	19517.421972
702.084974	19201.548313
702.420366	19432.511297
702.755709	19030.408701
703.091002	18716.526298
703.426246	18789.562535
703.761440	18719.258604
704.096584	18475.276840
704.431679	18412.738806
704.766725	18348.247325
705.101721	18291.985527
705.436668	18416.481863
705.771565	18131.674314
706.106413	18451.984188
706.441212	18524.511269
706.775961	18619.176576
707.110661	18709.622438
707.445311	19062.583866
707.779913	18940.673642
708.114465	19235.593745
708.448967	19535.045845
708.783421	20168.928092
709.117825	20537.761592
709.452180	20760.043709
709.786485	21214.947350
710.120742	21975.828865
710.454949	22066.282288
710.789107	22575.426224
711.123216	23294.773672
711.457275	23500.624148
711.791286	24060.416556
712.125247	24207.275450
712.459159	23940.122023
712.793023	24709.001328
713.126837	23673.187885
713.460602	23928.383696
713.794318	23597.079065
714.127985	23320.486077
714.461602	22427.241507
714.795171	22405.735944
715.128691	21431.752254
715.462162	20915.003737
715.795584	20496.419090
716.128957	20221.895495
716.462281	19852.762046
716.795556	19569.711340
717.128782	19094.564946
717.461960	18493.601434
717.795088	18454.040979
718.128167	18109.082383
718.461198	17658.030184
718.794180	17528.467489
719.127113	17194.591870
719.459997	17012.863315
719.792833	16633.171169
720.125619	16681.445258
720.458357	16351.766399
720.791046	16213.195163
721.123686	16064.236628
721.456278	15839.605333
721.788821	15838.052658
722.121315	15564.267593
722.453761	15681.270253
722.786158	15564.827161
723.118506	15636.998840
723.450805	15518.808988
723.783056	15701.465115
724.115259	15583.010602
724.447412	15578.579428
724.779518	15798.683767
725.111574	15843.527351
725.443582	16111.384019
725.775542	16072.040334
726.107453	16584.198880
726.439315	16501.894482
726.771129	16918.127431
727.102895	17335.497161
727.434612	17614.439327
727.766281	17772.028317
728.097901	18087.838961
728.429473	18178.899843
728.760996	18196.221248
729.092471	18303.567578
729.423897	18203.417495
729.755276	18073.517043
730.086606	18195.409622
730.417887	18769.372714
730.749120	19322.369647
731.080305	19527.153919
731.411442	19933.027297
731.742530	20039.350273
732.073570	20213.585153
732.404562	20535.583814
732.735506	20368.575428
733.066401	20163.017339
733.397249	19670.854530
733.728048	19050.946362
734.058798	18192.510959
734.389501	17439.523891
734.720156	16920.978204
735.050762	16352.988879
735.381320	15966.276927
735.711831	15691.975143
736.042293	15327.245142
736.372707	15368.055803
736.703073	15150.771989
737.033391	15358.205388
737.363661	15350.711713
737.693883	15472.863912
738.024056	15669.068140
738.354182	15881.426746
738.684260	16241.791108
739.014290	16519.566246
739.344272	16740.343579
739.674207	17087.623626
740.004093	17259.012775
740.333931	17312.355744
740.663722	17403.121719
740.993464	17436.199250
741.323159	17291.324050
741.652806	16989.827762
741.982405	16828.616703
742.311956	16467.221425
742.641460	16356.709251
742.970915	16030.733120
743.300323	15689.865420
743.629683	15470.093797
743.958996	15164.163815
744.288260	14842.596173
744.617477	14544.996696
744.946647	14499.434748
745.275768	14195.067523
745.604842	13994.492614
745.933869	13821.810410
746.262847	13789.975523
746.591778	13705.914283
746.920662	13589.728289
747.249498	13598.129372
747.578286	13749.820212
747.907027	13926.190021
748.235720	14197.825034
748.564365	14264.378347
748.892963	14193.867728
749.221514	14289.384991
749.550017	14151.179237
749.878473	14120.902067
750.206881	13896.132141
750.535242	13826.423065
750.863555	13747.647475
751.191821	13643.353563
751.520039	13679.032330
751.848210	13587.326180
752.176334	13635.259991
752.504411	13558.049679
752.832440	13381.601732
753.160421	13492.378568
753.488356	13400.027150
753.816243	13306.617089
754.144082	13137.143579
754.471875	13086.169952
754.799620	13057.090056
755.127318	13032.799257
755.454969	13014.091535
755.782572	12985.782935
756.110129	12990.723266
756.437638	12903.077765
756.765100	12927.459306
757.092515	12935.641098
757.419882	12973.190133
757.747203	12987.353255
758.074477	13075.031523
758.401703	13060.817990
758.728882	13257.788473
759.056014	13299.403198
759.383099	13460.886479
759.710138	13589.488835
760.037129	13709.896794
760.364073	13771.277883
760.690970	13792.927119
761.017820	13809.431856
761.344623	14044.684862
761.671379	14417.936934
761.998088	15108.217089
762.324751	16878.032614
762.651366	20265.791342
762.977935	24716.484921
763.304456	27653.655236
763.630931	28709.358551
763.957359	27508.666610
764.283740	25279.206239
764.610074	23021.316282
764.936362	20396.952083
765.262602	18543.473569
765.588796	16618.922347
765.914943	15346.575446
766.241044	14242.892949
766.567097	13460.100059
766.893104	12744.704876
767.219064	12281.639607
767.544978	11805.331227
767.870845	11419.935016
768.196665	11201.592560
768.522438	10973.245935
768.848165	10768.945614
769.173846	10560.367873
769.499479	10434.278533
769.825066	10264.767215
770.150607	10036.775991
770.476101	9950.184091
770.801548	9830.776801
771.126949	9676.900621
771.452303	9563.230163
771.777611	9372.354434
772.102872	9361.682312
772.428087	9221.354233
772.753256	9056.137977
773.078378	8972.454823
773.403453	8796.669789
773.728482	8684.930093
774.053465	8603.666693
774.378401	8502.543668
774.703291	8380.913228
775.028135	8258.423272
775.352932	8225.852377
775.677683	8123.050647
776.002388	8011.709203
776.327046	8023.339145
776.651658	7924.459432
776.976224	7826.993764
777.300743	7822.607960
777.625216	7739.499498
777.949643	7692.813372
778.274024	7706.611010
778.598359	7621.700335
778.922647	7637.302707
779.246889	7592.048268
779.571086	7600.850123
779.895236	7605.150227
780.219339	7617.732947
780.543397	7615.915611
780.867409	7696.528702
781.191374	7705.421298
781.515294	7672.454672
781.839167	7762.696367
782.162995	7739.018068
782.486776	7682.055550
782.810511	7637.789178
783.134201	7551.275416
783.457844	7547.630662
783.781441	7490.171590
784.104993	7424.815551
784.428498	7398.389823
784.751958	7387.004377
785.075372	7360.089657
785.398739	7303.835421
785.722061	7349.641865
786.045337	7358.050510
786.368568	7512.708069
786.691752	7530.415122
787.014891	7875.134263
787.337983	8228.498983
787.661030	8820.685846
787.984031	9440.541081
788.306987	9846.217855
788.629897	10045.560201
788.952760	9998.334672
789.275579	9782.411971
789.598351	9381.393223
789.921078	9025.467597
790.243759	8618.013817
790.566395	8328.674271
790.888984	8079.868123
791.211529	7874.541927
791.534027	7650.976836
791.856480	7448.330013
792.178888	7374.887964
792.501249	7280.073942
792.823566	7124.367823
793.145836	7126.550643
793.468062	7100.694565
793.790241	7048.004425
794.112375	7119.876155
794.434464	7268.837210
794.756507	7310.567882
795.078505	7474.208777
795.400457	7779.072556
795.722364	8128.442161
796.044226	8412.904390
796.366042	8689.028551
796.687812	8634.024522
797.009538	8718.418478
797.331218	8608.337322
797.652852	8527.918315
797.974442	8373.422073
798.295986	8288.692880
798.617484	8096.496369
798.938938	7954.600491
799.260346	7854.732713
799.581709	7652.199316
799.903026	7582.190292
800.224299	7468.867674
800.545526	7302.756614
800.866708	7205.548044
801.187845	7137.905842
801.508936	7029.173195
801.829983	6995.079871
802.150984	6847.893302
802.471940	6798.424460
802.792851	6780.626666
803.113717	6749.668940
803.434538	6717.995371
803.755314	6663.770199
804.076045	6660.372462
804.396731	6611.566531
804.717372	6642.889740
805.037967	6646.126161
805.358518	6685.023704
805.679024	6767.355828
805.999485	6778.968126
806.319901	6819.887172
806.640272	6834.453586
806.960598	6924.216372
807.280879	6924.624705
807.601115	6999.848803
807.921306	6948.839887
808.241453	6959.469160
808.561554	6982.633262
808.881611	6947.204033
809.201623	6961.168029
809.521590	6901.228710
809.841513	6879.634928
810.161390	6922.015908
810.481223	6787.674199
810.801011	6774.899915
811.120755	6753.122131
811.440453	6674.966602
811.760107	6639.769266
812.079716	6618.344362
812.399281	6545.532456
812.718801	6535.321599
813.038276	6491.556822
813.357707	6433.875940
813.677093	6471.540921
813.996434	6380.182610
814.315731	6419.922026
814.634983	6411.939359
814.954191	6425.653818
815.273354	6533.521907
815.592473	6591.928716
815.911547	6724.044755
816.230577	6797.688451
816.549562	6944.380987
816.868502	7052.758233
817.187399	7149.528222
817.506250	7298.756458
817.825058	7328.179153
818.143821	7593.273269
818.462539	7874.753656
818.781213	8237.197494
819.099843	8782.216801
819.418429	9775.530796
819.736970	10740.344627
820.055466	11915.873649
820.373919	13444.737143
820.692327	15787.462158
821.010691	19937.435787
821.329011	28906.117306
821.647286	41924.811414
821.965517	55384.208233
822.283704	60788.680557
822.601847	62781.607469
822.919945	60074.180178
823.237999	55859.866304
823.556010	49689.458708
823.873976	42984.582940
824.191897	36449.268903
824.509775	31602.426332
824.827609	27088.879647
825.145398	24484.841381
825.463144	23118.797073
825.780845	23421.737652
826.098502	25183.641086
826.416116	28937.483365
826.733685	32571.850299
827.051210	33701.293092
827.368692	31918.113468
827.686129	27988.793664
828.003522	23889.511359
828.320872	20194.574962
828.638177	17360.176130
828.955439	15219.717330
829.272656	13413.907967
829.589830	11944.560335
829.906960	10674.144195
830.224046	9736.093849
830.541088	8985.276998
830.858086	8535.217906
831.175041	8157.638004
831.491952	8038.923872
831.808819	8082.761746
832.125642	8481.075914
832.442421	9361.904122
832.759157	11151.465847
833.075849	14057.045772
833.392497	17262.700379
833.709101	19424.876469
834.025662	19282.305077
834.342179	17592.076768
834.658653	15399.043775
834.975083	13490.251201
835.291469	11880.167156
835.607811	10569.494882
835.924110	9656.196602
836.240366	8800.939646
836.556578	7993.177921
836.872746	7357.896755
837.188871	6851.482604
837.504952	6440.134532
837.820990	6123.776923
838.136984	5909.487555
838.452935	5813.763605
838.768842	5846.349624
839.084706	6266.086175
839.400526	7468.343394
839.716303	9041.342191
840.032037	10128.726637
840.347727	10061.036544
840.663373	9093.646682
840.978977	8053.361736
841.294537	7252.337514
841.610054	6652.142778
841.925527	6218.545574
842.240957	5860.487540
842.556344	5529.966808
842.871687	5246.026338
843.186987	4965.481086
843.502244	4745.485132
843.817458	4576.488011
844.132629	4442.710911
844.447756	4350.394782
844.762840	4273.658338
845.077881	4195.717058
845.392879	4134.706494
845.707833	4085.721602
846.022745	4038.808624
846.337613	4012.539171
846.652438	3966.989826
846.967221	3949.766724
847.281960	3918.007454
847.596656	3900.897778
847.911309	3884.060324
848.225919	3859.214998
848.540485	3843.690764
848.855009	3830.669464
849.169490	3807.293634
849.483928	3797.536480
849.798323	3789.828556
850.112675	3768.443982
850.426984	3776.134262
850.741251	3760.022734
851.055474	3756.302363
851.369654	3760.438629
851.683792	3754.371601
851.997887	3759.619442
852.311938	3763.682612
852.625947	3768.002881
852.939914	3759.342178
853.253837	3764.905092
853.567718	3767.024897
853.881555	3754.177516
854.195350	3768.811986
854.509103	3765.356275
854.822812	3760.917539
855.136479	3754.497629
855.450103	3766.573713
855.763685	3751.394799
856.077224	3752.728184
856.390720	3772.776853
856.704173	3793.213691
857.017584	3806.819765
857.330953	3814.946105
857.644278	3837.520392
857.957561	3843.529448
858.270802	3843.378213
858.584000	3847.902648
858.897155	3840.577852
859.210268	3824.282322
859.523339	3804.165598
859.836367	3798.953045
860.149352	3792.240748
860.462295	3788.084317
860.775195	3777.132410
861.088054	3767.949948
861.400869	3764.753857
861.713642	3767.758385
862.026373	3776.572842
862.339062	3784.926034
862.651708	3798.393477
862.964312	3836.595340
863.276873	3852.260726
863.589392	3904.718973
863.901869	3951.251343
864.214303	3994.973271
864.526696	4032.373591
864.839045	4079.523503
865.151353	4105.712297
865.463619	4114.849389
865.775842	4118.836941
866.088023	4135.576093
866.400162	4125.650061
866.712258	4135.697080
867.024313	4136.327225
867.336325	4134.320845
867.648296	4140.624808
867.960224	4138.956186
868.272110	4151.491015
868.583954	4153.262981
868.895755	4172.111855
869.207515	4165.820495
869.519233	4207.604099
869.830909	4220.683373
870.142542	4244.631374
870.454134	4257.156121
870.765684	4286.130152
871.077191	4324.092561
871.388657	4349.661294
871.700081	4384.997262
872.011463	4429.077111
872.322803	4463.853511
872.634101	4496.913398
872.945357	4531.402452
873.256571	4585.037808
873.567744	4612.809524
873.878874	4635.174603
874.189963	4675.397970
874.501010	4686.546482
874.812015	4682.629505
875.122979	4730.533070
875.433900	4725.139035
875.744780	4734.404676
876.055618	4761.745374
876.366415	4763.066156
876.677169	4785.768992
876.987882	4827.451773
877.298554	4883.191811
877.609183	4958.239468
877.919771	5068.207198
878.230317	5213.641966
878.540822	5427.926293
878.851285	5748.203399
879.161707	6211.593823
879.472087	6968.036601
879.782425	8200.666772
880.092722	10380.859947
880.402977	13697.283827
880.713191	17459.471737
881.023363	21193.673681
881.333494	23411.294902
881.643583	24635.385358
881.953631	24638.720082
882.263637	23789.076451
882.573602	22310.279176
882.883526	20756.101527
883.193408	19071.907480
883.503248	17363.901542
883.813048	15811.856302
884.122806	14382.391758
884.432522	12913.916246
884.742197	11644.702422
885.051831	10552.034846
885.361424	9550.528976
885.670975	8730.779387
885.980485	8032.519086
886.289954	7459.609595
886.599382	6990.071485
886.908768	6612.385718
887.218113	6249.999853
887.527417	5964.421008
887.836680	5693.098547
888.145901	5476.346575
888.455082	5311.392460
888.764221	5161.574409
889.073319	5032.490623
889.382376	4951.244867
889.691392	4894.882247
890.000366	4868.862331
890.309300	4854.719374
890.618193	4857.739025
890.927044	4842.333259
891.235855	4867.297053
891.544625	4898.831991
891.853353	4963.638544
892.162041	5077.374537
892.470687	5260.141569
892.779293	5509.192213
893.087858	5886.318412
893.396381	6458.033149
893.704864	7262.991992
894.013306	8414.280625
894.321707	9587.465510
894.630068	10392.079034
894.938387	10597.753070
895.246665	10363.687256
895.554903	9759.709134
895.863100	9067.702384
896.171256	8511.642950
896.479371	8008.714757
896.787446	7510.096751
897.095480	7084.169662
897.403473	6761.407267
897.711425	6441.866169
898.019336	6177.434964
898.327207	5907.266927
898.635038	5679.318553
898.942827	5433.458959
899.250576	5240.183641
899.558284	5047.324218
899.865952	4928.484058
900.173579	4777.377992
900.481165	4671.549049
900.788711	4580.321808
901.096216	4503.580323
901.403681	4438.990540
901.711105	4412.791663
902.018489	4398.321031
902.325832	4473.325839
902.633135	4593.015434
902.940397	4940.134164
903.247619	5730.445935
903.554800	7168.510687
903.861941	9085.575795
904.169041	10606.128947
904.476101	11235.224618
904.783121	10871.220543
905.090100	10145.828751
905.397039	9308.195669
905.703938	8547.485554
906.010796	7861.349227
906.317614	7303.432128
906.624391	6769.546210
906.931129	6351.180852
907.237826	5948.569100
907.544483	5573.676133
907.851099	5201.701993
908.157675	4842.154298
908.464211	4519.769989
908.770707	4288.060914
909.077163	4088.663115
909.383578	3943.687092
909.689954	3828.731140
909.996289	3755.223556
910.302584	3693.058567
910.608839	3662.010100
910.915054	3629.887868
911.221229	3618.383955
911.527363	3629.073722
911.833458	3640.169301
912.139513	3664.094617
912.445527	3698.215667
912.751502	3780.784726
913.057436	3879.830796
913.363331	4011.725025
913.669186	4221.830235
913.975000	4478.069564
914.280775	4901.042537
914.586510	5480.782791
914.892205	6277.857269
915.197859	7317.721279
915.503475	8532.271352
915.809050	9589.222352
916.114585	10229.237162
916.420081	10496.589715
916.725536	10451.635226
917.030952	10014.022743
917.336328	9605.187687
917.641665	9193.257362
917.946961	8717.576605
918.252218	8301.845251
918.557435	7782.460211
918.862612	7357.742999
919.167750	6982.408931
919.472848	6561.638943
919.777906	6188.923754
920.082925	5830.553168
920.387904	5462.357373
920.692843	5193.880643
920.997743	4951.040701
921.302603	4719.452613
921.607423	4556.764497
921.912204	4388.727715
922.216946	4276.443575
922.521647	4153.096623
922.826310	4048.855644
923.130932	3954.414667
923.435516	3859.222559
923.740059	3786.700520
924.044564	3705.847974
924.349028	3649.019047
924.653454	3589.636775
924.957840	3516.797143
925.262186	3470.436172
925.566493	3411.502563
925.870761	3351.288501
926.174989	3318.495795
926.479178	3283.482461
926.783328	3240.123497
927.087438	3212.780278
927.391509	3175.695030
927.695541	3146.544558
927.999533	3121.139663
928.303486	3098.182248
928.607400	3083.036102
928.911275	3072.253074
929.215110	3054.351936
929.518906	3045.126625
929.822663	3046.777603
930.126381	3041.892725
930.430060	3046.258364
930.733699	3052.209446
931.037299	3058.778069
931.340861	3059.572051
931.644383	3067.499266
931.947866	3064.603123
932.251309	3056.940569
932.554714	3058.515929
932.858080	3054.631720
933.161407	3045.355997
933.464694	3038.109339
933.767943	3028.783204
934.071153	3024.962009
934.374323	3016.999507
934.677455	3009.258815
934.980548	3000.938391
935.283602	3001.079543
935.586617	2993.187617
935.889593	3005.135151
936.192530	3007.628002
936.495428	3020.046884
936.798287	3044.562016
937.101108	3076.956470
937.403890	3128.416569
937.706632	3189.974098
938.009336	3267.842281
938.312002	3340.379444
938.614628	3402.630132
938.917216	3454.465797
939.219765	3486.038543
939.522275	3518.231352
939.824747	3524.149666
940.127179	3523.509440
940.429573	3515.894777
940.731929	3514.251361
941.034246	3500.569669
941.336524	3488.428050
941.638763	3469.032211
941.940964	3462.002322
942.243126	3413.511463
942.545250	3394.100500
942.847335	3357.534490
943.149381	3322.432936
943.451389	3289.857000
943.753359	3256.275354
944.055290	3228.475911
944.357182	3207.177036
944.659036	3192.005683
944.960851	3183.415557
945.262628	3167.281344
945.564367	3168.859225
945.866067	3161.917557
946.167729	3160.558966
946.469352	3155.298522
946.770937	3156.402534
947.072484	3136.603402
947.373992	3141.689927
947.675462	3131.723566
947.976893	3117.084055
948.278286	3109.091305
948.579641	3101.224585
948.880958	3096.034717
949.182236	3098.252825
949.483476	3093.201588
949.784678	3091.704366
950.085841	3092.705035
950.386967	3101.340531
950.688054	3118.704786
950.989103	3140.477529
951.290114	3159.059222
951.591087	3188.527287
951.892021	3216.165413
952.192917	3243.627099
952.493776	3270.153650
952.794596	3278.602624
953.095378	3279.820063
953.396122	3277.959877
953.696828	3269.909154
953.997496	3261.477824
954.298126	3238.268352
954.598718	3214.406050
954.899272	3191.501568
955.199788	3161.796569
955.500266	3131.698360
955.800706	3096.085128
956.101108	3058.006773
956.401472	3027.172555
956.701798	2994.599140
957.002087	2954.355609
957.302337	2927.791248
957.602550	2897.098183
957.902724	2868.807228
958.202861	2846.666480
958.502960	2823.736792
958.803022	2803.887249
959.103045	2783.851183
959.403031	2765.942484
959.702979	2755.058632
960.002889	2740.434245
960.302762	2724.221894
960.602596	2713.917776
960.902393	2708.100284
961.202153	2699.492514
961.501875	2688.522963
961.801559	2681.891326
962.101205	2678.493588
962.400814	2672.030829
962.700385	2664.958090
962.999918	2657.966009
963.299414	2653.297901
963.598873	2651.893940
963.898293	2645.017806
964.197677	2648.586943
964.497022	2641.872126
964.796331	2642.928247
965.095601	2636.334418
965.394835	2635.560601
965.694030	2633.949953
965.993189	2632.341824
966.292309	2631.542802
966.591393	2628.666823
966.890439	2627.817389
967.189447	2628.134982
967.488419	2630.418624
967.787353	2629.286885
968.086249	2630.426186
968.385108	2634.607823
968.683930	2634.766619
968.982714	2637.342649
969.281462	2642.663587
969.580172	2649.822025
969.878844	2653.406286
970.177480	2663.859118
970.476078	2671.027639
970.774639	2681.770338
971.073162	2684.842921
971.371649	2691.782069
971.670098	2697.322297
971.968510	2703.248174
972.266885	2705.209183
972.565223	2707.452496
972.863524	2715.669577
973.161788	2714.641182
973.460014	2718.656461
973.758204	2722.712069
974.056356	2725.013356
974.354471	2726.651731
974.652550	2723.435474
974.950591	2725.373798
975.248595	2724.380691
975.546563	2721.870196
975.844493	2717.166800
976.142386	2712.143290
976.440243	2706.850078
976.738062	2704.117773
977.035845	2694.559745
977.333590	2691.056143
977.631299	2683.847293
977.928971	2678.203722
978.226606	2673.480160
978.524204	2671.115859
978.821765	2663.723007
979.119290	2666.757782
979.416777	2668.499500
979.714228	2671.932526
980.011642	2673.936385
980.309020	2681.601459
980.606360	2693.758202
980.903664	2721.008159
981.200931	2755.693818
981.498162	2802.818524
981.795356	2876.903321
982.092513	2969.242136
982.389633	3071.867425
982.686717	3169.653207
982.983764	3242.195411
983.280775	3291.029068
983.577749	3299.515851
983.874686	3287.089407
984.171587	3251.403078
984.468451	3213.365052
984.765279	3168.544153
985.062070	3122.331896
985.358824	3077.642067
985.655543	3018.847090
985.952224	2970.096612
986.248869	2907.427508
986.545478	2847.425174
986.842050	2792.022893
987.138586	2745.712333
987.435086	2707.046683
987.731549	2677.248423
988.027975	2653.426450
988.324366	2633.218985
988.620719	2622.998046
988.917037	2608.068669
989.213318	2601.275714
989.509563	2593.245156
989.805772	2590.827922
990.101944	2584.738209
990.398080	2581.496747
990.694180	2582.177302
990.990244	2581.632858
991.286271	2581.819381
991.582262	2583.755184
991.878217	2583.959350
992.174136	2588.985381
992.470019	2589.023189
992.765865	2594.162646
993.061676	2596.292533
993.357450	2607.103288
993.653188	2613.263578
993.948890	2633.566825
994.244556	2650.797489
994.540186	2673.391940
994.835780	2705.839327
995.131337	2740.797208
995.426859	2783.712551
995.722345	2831.739624
996.017795	2883.101420
996.313208	2919.564085
996.608586	2949.344702
996.903928	2961.735858
997.199234	2959.641258
997.494504	2957.816361
997.789738	2941.503187
998.084936	2915.223652
998.380099	2883.784496
998.675225	2857.681401
998.970316	2825.849035
999.265371	2790.097172
999.560390	2756.480238
999.855373	2726.732389
1000.150320	2695.580579
1000.445232	2668.287772
1000.740108	2651.276398
1001.034948	2629.690177
1001.329752	2618.881944
1001.624521	2605.263267
1001.919254	2593.098962
1002.213951	2587.657037
1002.508613	2575.729667
1002.803239	2569.644994
1003.097829	2564.964283
1003.392384	2558.836760
1003.686903	2553.954403
1003.981386	2552.449618
1004.275834	2546.057435
1004.570246	2543.735984
1004.864623	2542.488298
1005.158964	2540.199614
1005.453270	2539.012423
1005.747540	2536.998482
1006.041775	2535.826413
1006.335974	2535.077802
1006.630138	2533.104190
1006.924266	2535.229037
1007.218359	2529.822399
1007.512416	2528.463808
1007.806438	2526.154960
1008.100425	2530.238294
1008.394376	2525.192099
1008.688292	2528.874662
1008.982172	2525.338293
1009.276017	2525.474404
1009.569827	2526.270906
1009.863602	2526.903571
1010.157341	2525.978519
1010.451045	2526.981709
1010.744714	2523.919208
1011.038347	2523.208405
1011.331945	2521.202026
1011.625508	2520.934845
1011.919036	2519.634227
1012.212528	2519.861079
1012.505986	2520.352592
1012.799408	2521.305370
1013.092795	2519.036851
1013.386147	2515.210615
1013.679464	2517.050636
1013.972745	2516.475944
1014.265992	2514.335975
1014.559204	2516.062570
1014.852380	2515.334123
1015.145521	2517.443846
1015.438628	2516.755728
1015.731699	2514.663650
1016.024736	2515.422343
1016.317737	2518.073990
1016.610703	2522.104393
1016.903635	2519.155318
1017.196531	2522.180010
1017.489393	2521.769156
1017.782219	2523.841070
1018.075011	2522.779907
1018.367768	2525.159332
1018.660490	2525.562624
1018.953177	2525.562624
1019.245829	2525.562624
