Dividing Wavelength (nm)	Counts (n)	Blue Motor Position (mm): 33.600000	Red Motor Position (mm): 0.000000	
326.493990	2222.929556
326.888308	2222.929556
327.282561	2222.929556
327.676750	2183.701817
328.070874	2180.810716
328.464933	2181.579492
328.858929	2183.525377
329.252859	2191.192972
329.646726	2198.810155
330.040528	2211.894470
330.434265	2222.869062
330.827938	2240.331619
331.221547	2257.872314
331.615091	2279.065325
332.008571	2296.054013
332.401986	2314.038329
332.795338	2332.304950
333.188625	2352.885461
333.581847	2370.113604
333.975006	2386.646068
334.368100	2412.272774
334.761129	2426.604774
335.154095	2446.638320
335.546996	2467.848974
335.939833	2509.040243
336.332606	2523.130268
336.725315	2536.781712
337.117960	2549.182951
337.510540	2560.598643
337.903056	2571.474933
338.295508	2580.445666
338.687896	2590.238107
339.080220	2599.352514
339.472480	2604.993565
339.864676	2611.678135
340.256807	2615.655605
340.648875	2617.117540
341.040879	2620.369084
341.432818	2625.780763
341.824694	2625.667337
342.216506	2627.588016
342.608253	2628.747482
342.999937	2630.219499
343.391557	2630.721093
343.783113	2630.325363
344.174605	2627.401494
344.566033	2626.811679
344.957397	2628.016514
345.348697	2625.201030
345.739934	2624.152470
346.131106	2619.895216
346.522215	2619.655761
346.913260	2617.793054
347.304241	2616.522684
347.695159	2612.809874
348.086012	2611.259719
348.476802	2610.475820
348.867528	2606.301744
349.258191	2606.180757
349.648789	2602.072216
350.039324	2599.181114
350.429796	2604.209665
350.820203	2602.369644
351.210548	2600.234716
351.600828	2599.965014
351.991045	2598.233377
352.381198	2597.963676
352.771288	2596.829416
353.161314	2598.072061
353.551276	2595.049889
353.941175	2599.297061
354.331010	2594.487800
354.720782	2593.814806
355.110490	2597.368820
355.500135	2593.691298
355.889717	2594.570979
356.279235	2594.384457
356.668689	2594.434868
357.058080	2593.706421
357.447408	2595.155753
357.836672	2595.526278
358.225873	2594.535691
358.615010	2596.035434
359.004084	2596.032914
359.393095	2599.652462
359.782043	2599.329828
360.170927	2599.642380
360.559748	2597.305805
360.948505	2598.374530
361.337199	2601.245467
361.725830	2602.021805
362.114398	2602.893924
362.502903	2603.526589
362.891344	2604.229830
363.279722	2600.801845
363.668037	2604.000457
364.056289	2601.552977
364.444478	2606.941971
364.832603	2606.705037
365.220665	2605.401898
365.608665	2606.838627
365.996601	2605.913575
366.384474	2609.041611
366.772284	2608.068669
367.160031	2605.003647
367.547715	2608.129162
367.935336	2606.644543
368.322893	2604.237392
368.710388	2604.592793
369.097820	2605.154882
369.485189	2604.968359
369.872495	2609.230655
370.259738	2608.507249
370.646918	2611.174019
371.034035	2609.787702
371.421090	2611.736108
371.808081	2611.035388
372.195010	2611.731067
372.581875	2612.971191
372.968678	2612.078907
373.355418	2611.738629
373.742096	2614.107971
374.128710	2611.269801
374.515262	2614.367590
374.901751	2614.906994
375.288177	2614.866665
375.674540	2613.351798
376.060841	2616.474793
376.447079	2614.390276
376.833254	2613.510594
377.219367	2616.104268
377.605417	2618.090482
377.991404	2616.368928
378.377329	2618.415637
378.763191	2619.862448
379.148991	2617.251130
379.534727	2614.022271
379.920402	2616.502519
380.306013	2621.644496
380.691563	2622.849332
381.077049	2617.568723
381.462474	2618.329937
381.847835	2619.930504
382.233134	2620.666512
382.618371	2620.732047
383.003545	2620.711882
383.388657	2618.675256
383.773706	2621.604167
384.158693	2622.188941
384.543618	2621.949486
384.928480	2622.420834
385.313280	2625.107769
385.698017	2624.649024
386.082692	2623.043416
386.467305	2624.117182
386.851856	2623.343365
387.236344	2626.352934
387.620770	2624.550721
388.005133	2622.642644
388.389435	2624.044085
388.773674	2622.753550
389.157851	2631.194962
389.541965	2630.164046
389.926018	2628.661782
390.310008	2629.440640
390.693936	2632.054479
391.077802	2630.688326
391.461606	2632.616567
391.845348	2630.040538
392.229027	2633.952473
392.612645	2636.130252
392.996200	2633.813841
393.379694	2635.273255
393.763125	2636.357103
394.146494	2636.238636
394.529801	2634.670837
394.913047	2638.960859
395.296230	2638.590335
395.679351	2638.421456
396.062410	2641.105870
396.445408	2639.664100
396.828343	2640.440438
397.211217	2640.367341
397.594028	2640.911786
397.976778	2640.737866
398.359466	2641.846920
398.742092	2641.403298
399.124656	2642.653505
399.507158	2643.742394
399.889598	2645.325316
400.271977	2646.840183
400.654294	2645.524442
401.036549	2648.022333
401.418742	2648.075266
401.800874	2648.329844
402.182944	2650.406799
402.564952	2650.391676
402.946898	2649.925369
403.328783	2650.489978
403.710606	2651.856131
404.092367	2654.127171
404.474067	2652.844197
404.855705	2656.022645
405.237282	2653.802016
405.618797	2655.016934
406.000250	2659.664878
406.381642	2660.010197
406.762972	2660.416010
407.144240	2659.795948
407.525447	2664.960610
407.906593	2664.990857
408.287677	2676.383865
408.668700	2677.530727
409.049661	2686.262006
409.430560	2693.664940
409.811399	2702.118955
410.192176	2716.987839
410.572891	2728.832030
410.953545	2748.096799
411.334138	2758.476535
411.714669	2782.840431
412.095139	2796.804427
412.475547	2833.468739
412.855894	2866.919316
413.236180	2908.954977
413.616405	2929.447268
413.996568	2984.645382
414.376670	3034.706560
414.756711	3077.032087
415.136691	3141.173208
415.516609	3216.241030
415.896466	3283.661422
416.276262	3375.780947
416.655997	3445.787450
417.035670	3552.932134
417.415283	3697.572920
417.794834	3790.499030
418.174324	3849.820807
418.553753	3922.531890
418.933121	4089.928445
419.312428	4200.629663
419.691674	4237.966968
420.070859	4481.174915
420.449983	4486.289166
420.829045	4708.099935
421.208047	4735.894337
421.586988	4960.031598
421.965867	5071.098300
422.344686	5223.497422
422.723444	5354.804356
423.102141	5175.157798
423.480777	5625.247137
423.859352	5505.214743
424.237866	5938.759015
424.616319	5971.143387
424.994712	6297.946267
425.373044	6187.232447
425.751314	6555.682820
426.129524	6586.436379
426.507673	6794.023532
426.885762	6998.354101
427.263789	7040.631737
427.641756	7088.351300
428.019662	7272.444156
428.397508	7542.148407
428.775292	7419.507216
429.153016	7811.192267
429.530679	7778.888553
429.908282	7911.717916
430.285824	7771.089888
430.663305	8395.172132
431.040726	8049.512815
431.418086	8116.227445
431.795385	8455.860062
432.172624	8599.560673
432.549802	8603.301209
432.926920	8749.933251
433.303977	8710.251809
433.680974	8947.760731
434.057910	9085.492616
434.434786	9191.253503
434.811601	9122.867731
435.188355	9683.222228
435.565050	9481.540786
435.941683	9458.979102
436.318257	9971.682092
436.694770	10116.675759
437.071222	10233.610363
437.447614	10129.508016
437.823946	10050.661849
438.200218	10232.208923
438.576429	10074.635056
438.952580	10330.017389
439.328670	10415.820348
439.704700	10216.649401
440.080670	10223.744825
440.456580	10805.418362
440.832429	10575.511499
441.208218	10195.584940
441.583947	10546.761799
441.959616	10684.486122
442.335224	10494.507719
442.710773	10660.381845
443.086261	10865.589574
443.461689	10174.218009
443.837057	10803.598505
444.212365	11104.257962
444.587612	10755.301731
444.962800	10994.484316
445.337927	10777.858374
445.712995	10347.999185
446.088002	11436.931266
446.462949	11082.724673
446.837837	11067.455018
447.212664	11078.868190
447.587431	11566.067983
447.962139	12275.053340
448.336786	14515.069887
448.711374	15087.550879
449.085901	12954.890744
449.460369	12560.115466
449.834776	12021.629495
450.209124	12869.329761
450.583412	13266.030760
450.957640	14220.245566
451.331808	13410.648861
451.705917	12376.153680
452.079965	11708.001670
452.453954	12592.721649
452.827883	12228.503325
453.201752	12509.076304
453.575562	12018.216633
453.949311	12445.467025
454.323001	12397.639078
454.696632	12623.596196
455.070202	12913.487748
455.443713	13163.223989
455.817164	13607.170682
456.190556	13626.259011
456.563888	13984.533815
456.937160	14158.282223
457.310373	13497.812931
457.683526	13565.225761
458.056619	13119.570117
458.429653	13255.923246
458.802628	12708.075852
459.175542	13069.551789
459.548398	14011.503988
459.921194	14337.215458
460.293930	14409.119956
460.666607	15301.489887
461.039224	16330.364181
461.411782	17025.942588
461.784280	16916.080723
462.156719	16962.018237
462.529099	16650.046431
462.901419	15573.124900
463.273680	15371.279620
463.645882	15218.749428
464.018024	14963.450274
464.390106	15176.481874
464.762130	15907.981023
465.134094	16665.936148
465.505999	18637.531417
465.877845	21893.040516
466.249631	24731.943619
466.621358	24437.623413
466.993026	22978.242143
467.364634	22429.832660
467.736184	20963.237498
468.107674	20161.242853
468.479105	20284.032757
468.850477	19768.289952
469.221790	19332.414146
469.593043	18672.786727
469.964238	18111.202188
470.335373	17781.084749
470.706449	18201.174182
471.077467	17754.573321
471.448425	19573.260312
471.819324	23566.963212
472.190164	25631.088860
472.560945	22118.574177
472.931667	19731.368541
473.302330	19094.068392
473.672934	18600.022712
474.043479	18950.408110
474.413965	18756.485004
474.784393	18378.980719
475.154761	19059.168484
475.525070	19061.936078
475.895321	18720.337411
476.265513	19294.202200
476.635645	19872.049501
477.005719	19666.551905
477.375734	19862.173880
477.745691	20338.013433
478.115588	20856.473421
478.485427	21376.160930
478.855207	22427.758225
479.224928	24178.918960
479.594591	26399.978248
479.964194	26455.375487
480.333739	26645.674004
480.703226	26210.405657
481.072653	25894.030404
481.442022	26445.333509
481.811333	27364.424075
482.180584	27293.749619
482.549777	26349.917069
482.918912	25993.341134
483.287988	26114.112057
483.657005	25781.012776
484.025964	25513.622414
484.394864	25446.519615
484.763706	25130.943384
485.132489	24556.004829
485.501213	24727.671241
485.869879	24650.097966
486.238487	24458.082936
486.607036	24603.026192
486.975527	24293.199397
487.343959	24633.540296
487.712333	24583.877369
488.080648	24244.953034
488.448905	24718.614808
488.817104	24462.718277
489.185244	25137.217100
489.553326	25094.878970
489.921350	26098.766785
490.289315	28353.750518
490.657222	30159.002833
491.025070	30649.292853
491.392861	30434.814443
491.760593	29607.971950
492.128267	28693.307517
492.495883	27651.532910
492.863440	26780.224921
493.230939	25906.983648
493.598380	25754.302222
493.965763	25353.858166
494.333088	24905.530711
494.700354	24842.939744
495.067563	24711.211874
495.434713	24468.006448
495.801805	24620.912206
496.168839	24425.123872
496.535815	24260.053810
496.902733	24474.479289
497.269593	24147.777232
497.636395	24341.420554
498.003139	24313.134640
498.369825	24064.754469
498.736453	24253.724642
499.103023	24132.767196
499.469535	24148.770339
499.835989	24352.869014
500.202385	24382.944538
500.568723	23887.109249
500.935003	24134.395489
501.301226	23744.805038
501.667390	24594.713329
502.033497	24820.052906
502.399546	24545.118458
502.765537	24121.495176
503.131470	24506.677139
503.497345	24635.148424
503.863163	23851.831254
504.228923	24460.452279
504.594625	24651.665765
504.960269	24181.948693
505.325856	24678.819940
505.691385	24082.214506
506.056856	24689.476939
506.422270	24658.496528
506.787625	24222.466967
507.152924	24643.816688
507.518164	24671.341388
507.883347	24479.243180
508.248472	24158.046062
508.613540	24946.593429
508.978550	24724.308792
509.343503	24730.146448
509.708398	24978.819005
510.073236	25139.805733
510.438016	25354.503434
510.802738	25023.400449
511.167403	25278.006445
511.532010	24973.472862
511.896561	25754.214002
512.261053	25717.716048
512.625488	25555.637911
512.989866	25446.522136
513.354186	25287.193948
513.718449	25399.170578
514.082655	25777.753670
514.446803	25522.220102
514.810894	25971.517979
515.174927	25461.494363
515.538904	25503.938357
515.902822	25983.583981
516.266684	25751.811892
516.630488	25636.631609
516.994235	25623.131399
517.357925	25921.487048
517.721558	26111.223476
518.085133	26202.601951
518.448651	26117.426616
518.812112	25837.367834
519.175516	26046.001027
519.538863	26204.361314
519.902152	25992.479097
520.265385	26269.891273
520.628560	26065.590951
520.991678	26064.585241
521.354739	26133.938915
521.717743	26212.437242
522.080690	26003.544430
522.443580	26336.991551
522.806413	26319.712996
523.169189	26429.234584
523.531908	26465.112476
523.894569	26071.741159
524.257174	26147.539948
524.619722	26324.431516
524.982213	26031.424531
525.344647	26086.166421
525.707025	26210.509001
526.069345	26206.786109
526.431608	26151.560268
526.793815	26346.844486
527.155964	25807.277187
527.518057	25969.186446
527.880093	25904.150520
528.242072	26126.770394
528.603995	25845.569792
528.965860	25653.108620
529.327669	25680.683732
529.689421	25683.194226
530.051117	25514.320614
530.412755	25684.598188
530.774337	25489.540822
531.135862	25354.856315
531.497331	25564.008747
531.858743	25108.815239
532.220098	25591.357006
532.581396	25272.279694
532.942638	25219.927311
533.303824	25316.893906
533.664953	25330.217675
534.026025	24993.133362
534.387040	25232.759568
534.747999	25277.824963
535.108902	25441.954850
535.469748	24947.934376
535.830537	25116.964265
536.191270	25243.441773
536.551947	25113.412772
536.912567	24765.845379
537.273131	25113.788338
537.633638	24806.928262
537.994089	25039.118767
538.354483	24557.176898
538.714821	25056.316663
539.075103	25112.394459
539.435328	24888.685695
539.795497	24445.177582
540.155609	24838.032181
540.515665	25148.080787
540.875665	24376.045719
541.235609	24684.970148
541.595496	24645.661750
541.955328	24989.329811
542.315102	24898.538630
542.674821	24452.555311
543.034483	24333.909235
543.394090	24506.319217
543.753640	24302.069307
544.113134	24925.397898
544.472571	24526.027608
544.831953	24827.796118
545.191278	24443.874444
545.550548	24366.747311
545.909761	24563.553957
546.268918	24808.619569
546.628019	24753.050930
546.987064	24456.116886
547.346053	24226.255394
547.704986	24326.370189
548.063863	24492.191383
548.422684	24500.322764
548.781449	24025.819118
549.140158	24443.387973
549.498811	24010.423434
549.857408	23756.016564
550.215949	24185.626215
550.574434	23861.963973
550.932864	24084.944290
551.291237	24234.779986
551.649555	24095.472740
552.007817	24146.900071
552.366022	24012.540718
552.724173	24060.237595
553.082267	24002.493699
553.440305	24487.803059
553.798288	23741.651796
554.156215	24250.463015
554.514086	24347.164949
554.871902	23724.713519
555.229661	24004.250541
555.587365	23866.085117
555.945014	23725.595721
556.302606	23983.808662
556.660143	23936.923411
557.017625	24179.954917
557.375050	23708.118040
557.732421	24101.509522
558.089735	23917.444392
558.446994	23976.017559
558.804197	24001.334233
559.161345	23938.198823
559.518437	23700.523542
559.875474	23896.097626
560.232455	24082.680812
560.589381	23897.496546
560.946251	23890.373396
561.303065	24198.665159
561.659825	24294.570591
562.016528	23889.836513
562.373177	23635.883347
562.729770	23999.037988
563.086307	23843.984698
563.442789	24024.427759
563.799216	23846.830430
564.155587	23854.931564
564.511904	23841.234749
564.868164	23777.000367
565.224370	23746.793773
565.580520	23666.939375
565.936615	23799.299911
566.292654	23494.199198
566.648638	23772.233956
567.004567	23604.502164
567.360441	23550.970152
567.716260	23282.637094
568.072023	23608.386373
568.427732	23363.676163
568.783385	23149.686744
569.138982	23391.636922
569.494525	23422.967694
569.850013	23174.877389
570.205445	23278.775570
570.560823	23081.890786
570.916145	22835.743847
571.271412	23012.572400
571.626625	22766.657354
571.981782	22889.069172
572.336884	22684.559643
572.691931	22824.746570
573.046923	22564.406262
573.401860	22437.210388
573.756743	22458.025312
574.111570	22351.818283
574.466342	22286.890742
574.821059	22370.152960
575.175722	22076.319226
575.530330	22064.283471
575.884882	22082.051017
576.239380	21996.207729
576.593823	21885.932489
576.948211	21857.323941
577.302544	21705.320549
577.656823	21568.632183
578.011047	21667.227070
578.365216	21544.361548
578.719330	21423.325965
579.073389	21315.016775
579.427394	21465.858180
579.781344	21238.996175
580.135239	21124.622476
580.489080	21083.768965
580.842866	20855.508040
581.196597	21061.739123
581.550273	21026.745954
581.903895	20922.000859
582.257463	21226.340358
582.610975	20753.608677
582.964434	21077.709498
583.317837	20772.069382
583.671186	20854.522494
584.024481	20829.394863
584.377721	20614.644230
584.730906	20674.122283
585.084037	20686.649551
585.437113	20596.738051
585.790135	20803.924433
586.143103	20263.260683
586.496016	20274.416757
586.848874	20511.048518
587.201679	20439.486819
587.554428	20134.267638
587.907124	20467.457661
588.259765	20236.068699
588.612352	20298.727721
588.964884	19877.193998
589.317362	20057.296781
589.669786	20110.584298
590.022155	20136.115221
590.374470	20333.259625
590.726731	20118.541759
591.078937	19908.280273
591.431090	19984.555452
591.783188	19735.923223
592.135232	19706.051866
592.487222	19806.373348
592.839157	19830.704477
593.191038	19705.522545
593.542866	19597.387274
593.894639	19305.912800
594.246358	19527.957983
594.598022	19440.594787
594.949633	19190.399801
595.301190	19159.963835
595.652692	19322.949380
596.004141	19559.361851
596.355535	18880.983860
596.706876	18901.488753
597.058162	18791.730231
597.409395	19023.598102
597.760573	19096.377241
598.111698	18868.338126
598.462768	18804.655750
598.813785	18778.111554
599.164748	18584.861442
599.515657	18635.583012
599.866511	18434.423329
600.217312	18784.833933
600.568060	18300.585736
600.918753	18614.420248
601.269392	18514.978447
601.619978	18297.969377
601.970510	18506.655502
602.320988	18453.120969
602.671412	18653.579931
603.021783	18566.504080
603.372100	18282.314073
603.722363	18429.495601
604.072572	18376.117344
604.422728	18513.788735
604.772830	18286.437737
605.122878	18238.138442
605.472872	18218.157829
605.822813	18213.207416
606.172701	18174.705603
606.522534	18375.688846
606.872314	18395.863543
607.222041	18229.611331
607.571714	18443.199978
607.921333	18267.724974
608.270899	18346.233384
608.620411	18519.260907
608.969870	18293.558367
609.319276	18296.020971
609.668627	18331.258636
610.017926	18465.451631
610.367171	18574.703517
610.716362	18624.023646
611.065500	18442.171582
611.414585	18583.059230
611.763616	18560.477381
612.112594	18503.908073
612.461518	18474.286253
612.810389	18656.440786
613.159207	18520.289302
613.507971	18433.379810
613.856682	18703.169761
614.205340	18624.326115
614.553945	18782.023490
614.902496	18532.619965
615.250994	18757.246218
615.599439	18705.445842
615.947830	18683.070681
616.296169	18748.131812
616.644454	18701.508701
616.992686	18675.435853
617.340864	18885.102483
617.688990	18640.518301
618.037063	18825.178287
618.385082	18661.681065
618.733048	18952.651424
619.080961	18822.314912
619.428821	18860.325212
619.776628	18742.216018
620.124382	18672.630451
620.472083	18714.371205
620.819731	18733.383917
621.167326	18433.823432
621.514868	18460.329819
621.862357	18232.056290
622.209793	18248.616481
622.557176	18075.956961
622.904506	17905.896157
623.251783	17811.755129
623.599007	17572.285198
623.946179	17525.364659
624.293297	17460.026264
624.640363	17210.925208
624.987376	17236.302377
625.334336	17022.265067
625.681243	16875.081018
626.028097	16887.136938
626.374899	16811.023077
626.721647	16676.242787
627.068343	16500.369532
627.414987	16436.573731
627.761577	16420.139569
628.108115	16451.445134
628.454600	16172.636559
628.801032	16279.088084
629.147412	16206.848350
629.493739	16216.797067
629.840014	16036.132195
630.186236	16133.980992
630.532405	15886.891356
630.878521	16092.406596
631.224585	15989.214177
631.570597	15812.627598
631.916556	15841.037021
632.262462	15823.939948
632.608316	15742.149747
632.954117	15681.872671
633.299866	15676.014850
633.645562	15592.480410
633.991206	15349.630385
634.336797	15224.697990
634.682336	15188.845304
635.027823	15074.953036
635.373257	14950.355877
635.718639	14861.588720
636.063968	14798.934739
636.409245	14561.105703
636.754470	14581.265278
637.099642	14434.487042
637.444762	14200.045662
637.789829	14245.658022
638.134845	14084.714144
638.479808	14113.189102
638.824719	14057.721286
639.169577	13906.736208
639.514383	13948.552579
639.859137	13779.489923
640.203839	13864.919837
640.548489	13698.977655
640.893086	13683.730685
641.237632	13561.291141
641.582125	13716.162948
641.926566	13535.364486
642.270955	13555.899627
642.615292	13518.564841
642.959576	13518.592568
643.303809	13562.206110
643.647990	13490.168022
643.992118	13553.920974
644.336195	13314.609839
644.680219	13530.293086
645.024192	13455.694091
645.368112	13691.312581
645.711981	13744.264861
646.055797	13923.024176
646.399562	13900.117173
646.743274	14174.423998
647.086935	14440.428042
647.430544	14402.480757
647.774101	14440.163382
648.117606	14587.796092
648.461059	14560.175611
648.804460	14548.754877
649.147810	14269.530406
649.491108	14178.935830
649.834354	14184.317262
650.177548	13871.228841
650.520690	13689.228063
650.863781	13609.356022
651.206820	13660.211182
651.549807	13493.011232
651.892742	13288.743678
652.235626	13229.684041
652.578458	13225.134399
652.921238	12916.426741
653.263967	13123.615643
653.606644	12945.914970
653.949269	12918.768357
654.291843	12718.203530
654.634365	12887.634190
654.976836	12732.399419
655.319255	12733.117784
655.661622	12696.226620
656.003938	12615.404321
656.346203	12541.407744
656.688416	12624.029735
657.030577	12574.681880
657.372687	12496.009633
657.714746	12469.702372
658.056753	12658.937205
658.398708	12467.990900
658.740612	12467.731281
659.082465	12576.479052
659.424266	12540.596118
659.766016	12564.841548
660.107715	12476.724699
660.449362	12557.143706
660.790958	12513.184844
661.132503	12455.753499
661.473996	12525.828058
661.815438	12544.082076
662.156829	12557.453737
662.498168	12538.309955
662.839456	12535.098740
663.180693	12552.382336
663.521879	12641.993887
663.863013	12614.610339
664.204097	12589.704519
664.545129	12713.976523
664.886110	12689.040455
665.227040	12778.646965
665.567918	12782.422789
665.908746	12815.218015
666.249522	12798.037763
666.590248	12862.211652
666.930922	12961.192187
667.271545	12940.699896
667.612118	13026.119728
667.952639	12927.280345
668.293109	12939.185030
668.633528	12898.865881
668.973896	12865.322043
669.314213	12944.992439
669.654480	12689.370651
669.994695	12760.324891
670.334859	12790.803707
670.674973	12731.323133
671.015035	12759.611568
671.355047	12708.791696
671.695008	12673.997652
672.034918	12684.475690
672.374777	12729.233575
672.714585	12648.774239
673.054342	12681.619877
673.394049	12630.038791
673.733705	12725.407339
674.073310	12627.750107
674.412864	12652.970999
674.752368	12517.530319
675.091820	12529.525745
675.431223	12519.342614
675.770574	12388.012994
676.109875	12310.774956
676.449125	12266.006989
676.788324	12214.705687
677.127473	12040.624562
677.466571	12032.871268
677.805619	11927.667428
678.144616	11854.137158
678.483562	11823.933085
678.822458	11699.587984
679.161303	11678.752895
679.500098	11665.429126
679.838842	11617.767537
680.177535	11642.471711
680.516179	11705.249200
680.854771	11648.281641
681.193314	11868.264992
681.531805	12030.900177
681.870247	12455.319960
682.208638	12866.325233
682.546978	13170.042149
682.885268	13213.592678
683.223508	12915.244590
683.561697	12752.460691
683.899836	12652.492090
684.237925	12454.127727
684.575963	12367.684542
684.913951	12290.365844
685.251889	12246.691808
685.589776	12335.506857
685.927614	12255.491142
686.265401	12226.867471
686.603137	12274.955037
686.940824	12430.880446
687.278460	12553.977861
687.616046	12602.662805
687.953582	12770.089606
688.291068	12696.987834
688.628504	12927.605499
688.965889	12943.089403
689.303224	12906.578847
689.640510	12787.468984
689.977745	12482.892551
690.314930	12251.458219
690.652065	12155.003302
690.989150	11876.169521
691.326185	11651.936477
691.663170	11435.708786
692.000105	11204.760925
692.336990	11085.951012
692.673825	10827.760756
693.010610	10716.283200
693.347345	10507.841571
693.684030	10308.713473
694.020665	10246.067054
694.357251	10051.418022
694.693786	9986.712292
695.030272	9827.898302
695.366707	9715.200787
695.703093	9640.241350
696.039429	9640.223706
696.375716	9565.581861
696.711952	9420.857896
697.048139	9474.528541
697.384276	9427.910470
697.720363	9448.354870
698.056400	9380.702585
698.392388	9329.159308
698.728326	9298.113362
699.064214	9232.774967
699.400053	9270.260987
699.735842	9090.616949
700.071581	9047.772182
700.407270	8974.438517
700.742910	8896.174604
701.078501	8801.768916
701.414042	8674.346191
701.749533	8614.361501
702.084974	8474.066189
702.420366	8587.509795
702.755709	8470.658369
703.091002	8335.595776
703.426246	8363.014611
703.761440	8316.696490
704.096584	8272.253678
704.431679	8205.483595
704.766725	8191.030607
705.101721	8144.808267
705.436668	8185.235800
705.771565	8082.184533
706.106413	8161.754106
706.441212	8204.059469
706.775961	8159.387284
707.110661	8197.468160
707.445311	8341.907300
707.779913	8241.663956
708.114465	8371.319912
708.448967	8403.648832
708.783421	8552.415803
709.117825	8735.535716
709.452180	8776.409391
709.786485	8858.126495
710.120742	9143.528900
710.454949	9142.969332
710.789107	9250.862627
711.123216	9465.608219
711.457275	9629.712900
711.791286	9785.938258
712.125247	9785.671077
712.459159	9768.758005
712.793023	10016.588690
713.126837	9585.544831
713.460602	9740.464529
713.794318	9568.185617
714.127985	9599.569321
714.461602	9268.385678
714.795171	9211.612203
715.128691	8966.891910
715.462162	8722.882420
715.795584	8668.624481
716.128957	8512.754525
716.462281	8340.279008
716.795556	8398.332935
717.128782	8189.102365
717.461960	7928.371368
717.795088	8000.081781
718.128167	7906.641474
718.461198	7737.460351
718.794180	7677.021958
719.127113	7669.004002
719.459997	7512.488778
719.792833	7291.156919
720.125619	7350.317380
720.458357	7209.901081
720.791046	7198.921447
721.123686	7194.061775
721.456278	7030.988010
721.788821	7051.071967
722.121315	6946.929290
722.453761	7013.991760
722.786158	6955.900023
723.118506	6965.911755
723.450805	6934.485202
723.783056	6999.687486
724.115259	6915.722027
724.447412	6907.499905
724.779518	6955.214427
725.111574	6958.949922
725.443582	7039.739453
725.775542	7022.213882
726.107453	7212.099024
726.439315	7120.980168
726.771129	7184.334869
727.102895	7358.103442
727.434612	7466.392468
727.766281	7502.540061
728.097901	7579.538645
728.429473	7571.324085
728.760996	7552.024028
729.092471	7523.576796
729.423897	7470.415308
729.755276	7471.632747
730.086606	7405.747387
730.417887	7506.724219
730.749120	7707.231072
731.080305	7900.329950
731.411442	8018.338320
731.742530	8009.289449
732.073570	8116.988660
732.404562	8204.916465
732.735506	8053.066829
733.066401	8191.882562
733.397249	8124.119372
733.728048	7879.825056
734.058798	7545.394910
734.389501	7317.333110
734.720156	7139.803836
735.050762	6915.406955
735.381320	6820.643345
735.711831	6767.058400
736.042293	6662.514952
736.372707	6672.370408
736.703073	6537.075921
737.033391	6577.062353
737.363661	6586.421255
737.693883	6620.479291
738.024056	6701.725047
738.354182	6746.500575
738.684260	6779.860411
739.014290	6896.265694
739.344272	7010.646954
739.674207	7040.848507
740.004093	7110.991122
740.333931	7121.459077
740.663722	7126.429655
740.993464	7207.314969
741.323159	7193.988678
741.652806	6942.883764
741.982405	6963.164326
742.311956	7017.785228
742.641460	6844.873651
742.970915	6650.958107
743.300323	6647.520040
743.629683	6597.864674
743.958996	6461.241843
744.288260	6369.427308
744.617477	6318.030224
744.946647	6319.900492
745.275768	6154.744731
745.604842	6106.957113
745.933869	6094.266008
746.262847	6049.477877
746.591778	6039.009921
746.920662	6000.079610
747.249498	5990.924875
747.578286	6042.717689
747.907027	6111.408452
748.235720	6175.143760
748.564365	6146.394059
748.892963	6179.791704
749.221514	6327.381565
749.550017	6157.572818
749.878473	6035.067738
750.206881	6092.872129
750.535242	6035.206370
750.863555	5970.815712
751.191821	5980.736703
751.520039	5983.292568
751.848210	5885.592486
752.176334	5912.257669
752.504411	5963.871523
752.832440	5888.334873
753.160421	5817.262166
753.488356	5864.200349
753.816243	5896.312499
754.144082	5744.215847
754.471875	5717.903544
754.799620	5767.052274
755.127318	5773.583088
755.454969	5731.968363
755.782572	5694.129463
756.110129	5741.213840
756.437638	5722.032249
756.765100	5661.127549
757.092515	5664.348846
757.419882	5716.633173
757.747203	5694.631058
758.074477	5753.713381
758.401703	5740.155197
758.728882	5694.406726
759.056014	5753.173977
759.383099	5879.442278
759.710138	5887.853443
760.037129	5876.523450
760.364073	5885.607609
760.690970	5964.635258
761.017820	5945.262103
761.344623	5902.697121
761.671379	6001.647409
761.998088	6124.386902
762.324751	6374.591971
762.651366	6984.649724
762.977935	8309.840521
763.304456	9952.775244
763.630931	10847.771616
763.957359	10422.220093
764.283740	9479.564653
764.610074	8637.966704
764.936362	7631.681820
765.262602	7034.047990
765.588796	6500.583008
765.914943	6168.454149
766.241044	6005.516495
766.567097	5800.286080
766.893104	5539.353437
767.219064	5358.577660
767.544978	5301.721006
767.870845	5225.987752
768.196665	5120.801556
768.522438	5046.426893
768.848165	5010.191079
769.173846	4946.942243
769.499479	4900.760232
769.825066	4850.106718
770.150607	4786.724291
770.476101	4765.737967
770.801548	4758.939972
771.126949	4687.405998
771.452303	4629.485661
771.777611	4590.081482
772.102872	4608.459009
772.428087	4569.964758
772.753256	4528.922204
773.078378	4483.816480
773.403453	4412.602620
773.728482	4398.653747
774.053465	4355.365359
774.378401	4342.190304
774.703291	4338.658975
775.028135	4271.306639
775.352932	4218.069534
775.677683	4208.970252
776.002388	4229.139908
776.327046	4236.575610
776.651658	4163.194054
776.976224	4101.838171
777.300743	4106.191207
777.625216	4129.042757
777.949643	4122.592601
778.274024	4081.633226
778.598359	4033.467522
778.922647	4057.090368
779.246889	4049.415212
779.571086	4044.936147
779.895236	4027.992828
780.219339	4015.510932
780.543397	4011.309130
780.867409	4064.395000
781.191374	4075.553594
781.515294	4013.270139
781.839167	4006.124303
782.162995	4027.098024
782.486776	4011.883821
782.810511	4022.624000
783.134201	4015.705016
783.457844	3969.409580
783.781441	3920.336467
784.104993	3921.440480
784.428498	3943.770271
784.751958	3942.870425
785.075372	3917.052156
785.398739	3882.295921
785.722061	3892.249679
786.045337	3936.634518
786.368568	3967.483859
786.691752	3875.755023
787.014891	3929.060184
787.337983	4058.282601
787.661030	4222.946851
787.984031	4381.125655
788.306987	4552.350966
788.629897	4635.250221
788.952760	4589.007717
789.275579	4521.577243
789.598351	4459.475268
789.921078	4308.356600
790.243759	4113.107670
790.566395	4094.140329
790.888984	4091.871809
791.211529	3984.885922
791.534027	3923.353598
791.856480	3915.680962
792.178888	3851.484388
792.501249	3801.471101
792.823566	3811.261022
793.145836	3837.737162
793.468062	3789.362249
793.790241	3744.740476
794.112375	3771.183849
794.434464	3839.950228
794.756507	3862.090976
795.078505	3842.795960
795.400457	3876.223851
795.722364	4019.974873
796.044226	4121.591932
796.366042	4197.368036
796.687812	4173.283923
797.009538	4174.569418
797.331218	4136.675064
797.652852	4110.070375
797.974442	4090.193105
798.295986	4085.169595
798.617484	4005.355527
798.938938	3920.160027
799.260346	3962.833394
799.581709	3956.663022
799.903026	3884.720716
800.224299	3845.533306
800.545526	3841.364272
800.866708	3799.106800
801.187845	3741.927512
801.508936	3778.606948
801.829983	3772.328191
802.150984	3694.573434
802.471940	3686.820139
802.792851	3693.209802
803.113717	3695.564020
803.434538	3701.071481
803.755314	3638.414980
804.076045	3615.359263
804.396731	3634.830719
804.717372	3661.553876
805.037967	3646.793377
805.358518	3634.228302
805.679024	3663.421623
805.999485	3675.354035
806.319901	3680.614479
806.640272	3693.361036
806.960598	3707.395608
807.280879	3684.712937
807.601115	3694.008824
807.921306	3711.257132
808.241453	3754.842948
808.561554	3730.600040
808.881611	3659.660923
809.201623	3699.619629
809.521590	3712.802246
809.841513	3679.550795
810.161390	3711.501628
810.481223	3687.588915
810.801011	3634.321563
811.120755	3627.573978
811.440453	3662.393228
811.760107	3664.424813
812.079716	3621.910242
812.399281	3592.772373
812.718801	3614.005713
813.038276	3589.304059
813.357707	3582.614448
813.677093	3606.300309
813.996434	3548.856361
814.315731	3561.766756
814.634983	3563.115265
814.954191	3577.908531
815.273354	3605.410546
815.592473	3598.211778
815.911547	3608.614199
816.230577	3647.826814
816.549562	3700.733724
816.868502	3740.417687
817.187399	3765.308384
817.506250	3761.933331
817.825058	3738.181935
818.143821	3833.739527
818.462539	3930.411213
818.781213	3980.472392
819.099843	4035.310063
819.418429	4288.854896
819.736970	4529.897667
820.055466	4779.891007
820.373919	5140.736799
820.692327	5556.921858
821.010691	6013.110993
821.329011	7416.689211
821.647286	10204.906033
821.965517	14821.168748
822.283704	18851.871197
822.601847	20969.687654
822.919945	19114.401886
823.237999	16495.562792
823.556010	13992.065298
823.873976	11886.524051
824.191897	9785.940778
824.509775	8443.272301
824.827609	7312.564179
825.145398	6776.477796
825.463144	6656.407594
825.780845	6776.175327
826.098502	6976.336861
826.416116	7878.292546
826.733685	9210.576246
827.051210	10319.965329
827.368692	10336.565848
827.686129	9057.380622
828.003522	7537.999538
828.320872	6520.840885
828.638177	5817.042876
828.955439	5260.270119
829.272656	4759.071042
829.589830	4474.505469
829.906960	4301.188079
830.224046	4117.087661
830.541088	3988.117302
830.858086	3944.120631
831.175041	3867.404352
831.491952	3849.747711
831.808819	3867.694218
832.125642	3938.013273
832.442421	4086.482816
832.759157	4371.169377
833.075849	4925.421557
833.392497	5804.818078
833.709101	6585.276913
834.025662	6915.462408
834.342179	6531.737339
834.658653	5856.540316
834.975083	5207.411100
835.291469	4631.797030
835.607811	4224.068507
835.924110	4085.230089
836.240366	3887.261457
836.556578	3682.983821
836.872746	3573.444589
837.188871	3527.176879
837.504952	3467.076243
837.820990	3379.370248
838.136984	3337.813497
838.452935	3362.202599
838.768842	3358.867876
839.084706	3382.077348
839.400526	3540.848488
839.716303	3885.610479
840.032037	4420.766769
840.347727	4679.388043
840.663373	4386.340729
840.978977	4002.318232
841.294537	3695.594267
841.610054	3468.467601
841.925527	3360.828884
842.240957	3291.752474
842.556344	3238.356572
842.871687	3177.005730
843.186987	3130.503606
843.502244	3091.419541
843.817458	3056.852349
844.132629	3027.525436
844.447756	3034.184800
844.762840	3021.334899
845.077881	2990.500682
845.392879	2969.489153
845.707833	2970.222640
846.022745	2965.214254
846.337613	2964.478246
846.652438	2952.253448
846.967221	2952.593725
847.281960	2936.487239
847.596656	2931.811569
847.911309	2935.642846
848.225919	2927.587082
848.540485	2924.564910
848.855009	2924.743871
849.169490	2913.872623
849.483928	2904.160840
849.798323	2905.073289
850.112675	2901.499111
850.426984	2912.539238
850.741251	2906.142013
851.055474	2898.706311
851.369654	2891.305898
851.683792	2897.985426
851.997887	2906.484812
852.311938	2906.812487
852.625947	2894.912843
852.939914	2896.732700
853.253837	2902.933319
853.567718	2891.492420
853.881555	2890.746329
854.195350	2904.942219
854.509103	2900.120355
854.822812	2890.479148
855.136479	2886.783983
855.450103	2889.344889
855.763685	2883.166955
856.077224	2879.076058
856.390720	2892.147770
856.704173	2900.589182
857.017584	2897.163718
857.330953	2894.126423
857.644278	2904.037332
857.957561	2909.058321
858.270802	2912.607293
858.584000	2912.667787
858.897155	2902.081364
859.210268	2897.937535
859.523339	2898.746641
859.836367	2897.471229
860.149352	2891.442009
860.462295	2887.519991
860.775195	2898.156826
861.088054	2893.655075
861.400869	2875.970708
861.713642	2874.738145
862.026373	2889.841442
862.339062	2892.793038
862.651708	2898.106414
862.964312	2903.326529
863.276873	2892.714900
863.589392	2905.247208
863.901869	2919.433015
864.214303	2940.230296
864.526696	2954.625310
864.839045	2950.978036
865.151353	2948.399485
865.463619	2949.538786
865.775842	2948.918724
866.088023	2968.468319
866.400162	2975.019298
866.712258	2944.343877
867.024313	2935.330294
867.336325	2945.606686
867.648296	2964.470684
867.960224	2957.690332
868.272110	2945.515945
868.583954	2951.603139
868.895755	2963.938842
869.207515	2948.283539
869.519233	2955.086576
869.830909	2967.268524
870.142542	2971.581231
870.454134	2975.165492
870.765684	2975.273877
871.077191	2977.086171
871.388657	2988.683346
871.700081	2998.783298
872.011463	3011.330729
872.322803	3009.044566
872.634101	3010.438445
872.945357	3027.217926
873.256571	3053.177348
873.567744	3044.773744
873.878874	3038.890718
874.189963	3061.772515
874.501010	3062.558935
874.812015	3051.478479
875.122979	3055.650033
875.433900	3051.922100
875.744780	3057.109448
876.055618	3065.918864
876.366415	3059.768656
876.677169	3070.029925
876.987882	3066.198648
877.298554	3064.472053
877.609183	3084.107347
877.919771	3108.420832
878.230317	3132.888072
878.540822	3187.312369
878.851285	3226.671178
879.161707	3269.304216
879.472087	3374.316492
879.782425	3607.573201
880.092722	4051.734142
880.402977	4583.170060
880.713191	5221.301999
881.023363	6405.758904
881.333494	7695.230605
881.643583	8239.115653
881.953631	7928.532685
882.263637	7283.615353
882.573602	6681.232756
882.883526	6100.078458
883.193408	5527.990676
883.503248	5067.463628
883.813048	4758.887039
884.122806	4449.715595
884.432522	4136.586844
884.742197	3895.619690
885.051831	3701.883107
885.361424	3569.320925
885.670975	3495.284019
885.980485	3408.946698
886.289954	3329.654389
886.599382	3288.402627
886.908768	3247.448293
887.218113	3203.376006
887.527417	3147.580515
887.836680	3097.690736
888.145901	3092.959613
888.455082	3080.192891
888.764221	3028.551311
889.073319	3000.555263
889.382376	2998.049810
889.691392	3003.138854
890.000366	3003.718587
890.309300	2990.049498
890.618193	2999.216837
890.927044	3018.479086
891.235855	3020.838346
891.544625	3004.895697
891.853353	3015.540093
892.162041	3034.129348
892.470687	3076.906059
892.779293	3130.778349
893.087858	3176.884742
893.396381	3245.719177
893.704864	3369.446737
894.013306	3614.056124
894.321707	3917.589039
894.630068	4123.013537
894.938387	4117.064976
895.246665	4075.442689
895.554903	3948.130869
895.863100	3747.755086
896.171256	3581.621341
896.479371	3439.911985
896.787446	3316.623006
897.095480	3209.364897
897.403473	3145.932058
897.711425	3106.490070
898.019336	3099.848350
898.327207	3073.508321
898.635038	3035.384595
898.942827	3021.786083
899.250576	3008.729494
899.558284	2978.275884
899.865952	2956.566155
900.173579	2935.700819
900.481165	2931.320056
900.788711	2920.564754
901.096216	2893.435785
901.403681	2880.853065
901.711105	2887.666184
902.018489	2886.176523
902.325832	2885.627038
902.633135	2898.804614
902.940397	2931.909871
903.247619	3017.700227
903.554800	3211.923282
903.861941	3560.932445
904.169041	3997.428313
904.476101	4295.645330
904.783121	4243.701281
905.090100	3993.065194
905.397039	3714.997668
905.703938	3462.975264
906.010796	3280.581277
906.317614	3167.127589
906.624391	3069.823237
906.931129	2999.620129
907.237826	2934.085129
907.544483	2890.090979
907.851099	2861.308512
908.157675	2838.961077
908.464211	2817.979794
908.770707	2805.941519
909.077163	2789.416617
909.383578	2775.908845
909.689954	2765.486259
909.996289	2762.784201
910.302584	2762.796804
910.608839	2769.451127
910.915054	2758.297574
911.221229	2751.597880
911.527363	2754.113416
911.833458	2759.489807
912.139513	2766.673451
912.445527	2769.133534
912.751502	2776.503701
913.057436	2789.600619
913.363331	2801.472536
913.669186	2824.792914
913.975000	2859.508820
914.280775	2921.988880
914.586510	2988.731237
914.892205	3067.801735
915.197859	3201.851057
915.503475	3401.639545
915.809050	3617.562247
916.114585	3763.460801
916.420081	3781.762710
916.725536	3721.294070
917.030952	3599.903085
917.336328	3469.092704
917.641665	3336.245698
917.946961	3234.038824
918.252218	3165.151457
918.557435	3087.311000
918.862612	3025.037627
919.167750	2974.605924
919.472848	2936.008329
919.777906	2909.169226
920.082925	2884.402037
920.387904	2852.617562
920.692843	2833.423369
920.997743	2824.203099
921.302603	2811.360759
921.607423	2796.748975
921.912204	2788.042902
922.216946	2774.814914
922.521647	2768.372320
922.826310	2758.443767
923.130932	2753.493354
923.435516	2740.280490
923.740059	2735.529202
924.044564	2724.695763
924.349028	2721.265258
924.653454	2715.687221
924.957840	2711.213197
925.262186	2702.388657
925.566493	2700.611650
925.870761	2696.845908
926.174989	2690.305011
926.479178	2687.280319
926.783328	2681.830832
927.087438	2680.568023
927.391509	2679.748835
927.695541	2677.999555
927.999533	2675.884791
928.303486	2670.939419
928.607400	2669.059068
928.911275	2672.439162
929.215110	2667.093018
929.518906	2665.033707
929.822663	2666.460354
930.126381	2668.280210
930.430060	2668.491939
930.733699	2669.232988
931.037299	2670.092505
931.340861	2668.549912
931.644383	2672.217351
931.947866	2669.963956
932.251309	2669.474964
932.554714	2666.704850
932.858080	2665.983965
933.161407	2663.516320
933.464694	2663.193686
933.767943	2659.226298
934.071153	2662.031700
934.374323	2662.152688
934.677455	2660.650424
934.980548	2662.739982
935.283602	2659.206133
935.586617	2660.829385
935.889593	2660.423572
936.192530	2659.695125
936.495428	2658.754950
936.798287	2661.635969
937.101108	2665.182421
937.403890	2669.210303
937.706632	2674.465706
938.009336	2680.691531
938.312002	2690.645289
938.614628	2699.258101
938.917216	2703.341435
939.219765	2705.937629
939.522275	2704.732794
939.824747	2703.858153
940.127179	2699.636187
940.429573	2694.176617
940.731929	2692.150074
941.034246	2690.022707
941.336524	2687.350895
941.638763	2683.212108
941.940964	2681.372087
942.243126	2678.428053
942.545250	2682.319824
942.847335	2678.788495
943.149381	2672.570232
943.451389	2668.083605
943.753359	2668.754079
944.055290	2664.068326
944.357182	2662.324087
944.659036	2664.297699
944.960851	2665.469767
945.262628	2661.522543
945.564367	2662.132523
945.866067	2662.487924
946.167729	2662.152688
946.469352	2662.382060
946.770937	2663.034890
947.072484	2660.000115
947.373992	2660.476504
947.675462	2659.501041
947.976893	2656.919970
948.278286	2653.350833
948.579641	2653.784372
948.880958	2650.759680
949.182236	2654.096924
949.483476	2651.271357
949.784678	2650.764721
950.085841	2651.092396
950.386967	2652.168682
950.688054	2653.988539
950.989103	2652.350164
951.290114	2653.517191
951.591087	2659.329642
951.892021	2658.790238
952.192917	2665.200065
952.493776	2665.260559
952.794596	2664.915240
953.095378	2664.393481
953.396122	2667.357679
953.696828	2662.611433
953.997496	2659.712769
954.298126	2656.194044
954.598718	2653.139105
954.899272	2654.527942
955.199788	2651.591470
955.500266	2647.916469
955.800706	2647.190543
956.101108	2643.205511
956.401472	2645.411016
956.701798	2640.611837
957.002087	2639.059162
957.302337	2637.327526
957.602550	2639.253246
957.902724	2634.459109
958.202861	2635.084212
958.502960	2632.558594
958.803022	2634.625467
959.103045	2632.533388
959.403031	2629.269241
959.702979	2629.289406
960.002889	2630.458953
960.302762	2627.736730
960.602596	2629.201186
960.902393	2627.945938
961.202153	2629.959879
961.501875	2625.647172
961.801559	2627.595578
962.101205	2627.036010
962.400814	2626.549539
962.700385	2624.679271
962.999918	2627.338479
963.299414	2622.685494
963.598873	2622.072994
963.898293	2620.913529
964.197677	2624.452419
964.497022	2624.079373
964.796331	2626.360495
965.095601	2625.160701
965.394835	2628.669344
965.694030	2624.238170
965.993189	2626.352934
966.292309	2625.319497
966.591393	2626.589868
966.890439	2623.214815
967.189447	2627.149436
967.488419	2624.472583
967.787353	2625.281688
968.086249	2620.548045
968.385108	2621.901595
968.683930	2622.262037
968.982714	2624.056688
969.281462	2623.691204
969.580172	2625.715228
969.878844	2625.379991
970.177480	2627.030969
970.476078	2626.433592
970.774639	2624.376801
971.073162	2621.354630
971.371649	2624.901081
971.670098	2624.018879
971.968510	2624.165073
972.266885	2624.520474
972.565223	2625.148098
972.863524	2624.326390
973.161788	2625.460649
973.460014	2623.847480
973.758204	2624.676750
974.056356	2623.723972
974.354471	2623.113992
974.652550	2624.719600
974.950591	2624.858232
975.248595	2627.202368
975.546563	2625.185907
975.844493	2624.485186
976.142386	2623.734054
976.440243	2623.242542
976.738062	2624.643982
977.035845	2624.114661
977.333590	2623.920577
977.631299	2622.004938
977.928971	2619.973353
978.226606	2621.152983
978.524204	2619.975874
978.821765	2617.803137
979.119290	2621.389918
979.416777	2621.405041
979.714228	2621.967130
980.011642	2620.159876
980.309020	2620.006121
980.606360	2621.079887
980.903664	2621.180710
981.200931	2623.907974
981.498162	2624.848149
981.795356	2626.007615
982.092513	2626.725979
982.389633	2627.686319
982.686717	2630.579941
982.983764	2635.774850
983.280775	2639.696868
983.577749	2643.432363
983.874686	2641.506642
984.171587	2636.828451
984.468451	2635.633698
984.765279	2631.885600
985.062070	2631.288223
985.358824	2629.322173
985.655543	2628.119858
985.952224	2628.001391
986.248869	2626.219343
986.545478	2623.648355
986.842050	2622.244393
987.138586	2623.229939
987.435086	2621.689866
987.731549	2621.531070
988.027975	2618.740791
988.324366	2617.788013
988.620719	2619.499485
988.917037	2621.047119
989.213318	2620.331275
989.509563	2618.304732
989.805772	2622.753550
990.101944	2622.072994
990.398080	2617.548558
990.694180	2619.635596
990.990244	2617.921604
991.286271	2619.315483
991.582262	2618.854217
991.878217	2619.494444
992.174136	2620.825308
992.470019	2617.548558
992.765865	2617.293980
993.061676	2616.948661
993.357450	2615.249792
993.653188	2616.847838
993.948890	2615.736264
994.244556	2617.919083
994.540186	2617.909001
994.835780	2621.369753
995.131337	2620.452263
995.426859	2620.172479
995.722345	2620.303549
996.017795	2622.962758
996.313208	2625.400156
996.608586	2625.818571
996.903928	2625.483335
997.199234	2625.259003
997.494504	2621.069804
997.789738	2624.860752
998.084936	2622.272120
998.380099	2621.863786
998.675225	2623.383694
998.970316	2623.063581
999.265371	2619.582664
999.560390	2619.479320
999.855373	2619.801954
1000.150320	2619.854886
1000.445232	2619.260030
1000.740108	2619.275154
1001.034948	2617.324227
1001.329752	2619.194495
1001.624521	2616.532766
1001.919254	2618.042592
1002.213951	2620.989146
1002.508613	2618.879423
1002.803239	2617.236007
1003.097829	2615.728702
1003.392384	2616.409258
1003.686903	2616.499998
1003.981386	2618.249279
1004.275834	2615.499329
1004.570246	2616.028651
1004.864623	2617.299021
1005.158964	2618.103085
1005.453270	2617.498147
1005.747540	2617.036881
1006.041775	2617.772890
1006.335974	2616.444546
1006.630138	2615.854731
1006.924266	2615.620317
1007.218359	2616.497478
1007.512416	2614.912035
1007.806438	2612.935903
1008.100425	2614.397837
1008.394376	2611.088320
1008.688292	2614.836418
1008.982172	2617.682149
1009.276017	2615.607714
1009.569827	2616.810029
1009.863602	2616.338682
1010.157341	2616.570575
1010.451045	2617.699793
1010.744714	2617.122581
1011.038347	2615.474124
1011.331945	2614.944802
1011.625508	2615.116202
1011.919036	2616.285749
1012.212528	2615.920266
1012.505986	2615.453959
1012.799408	2613.324072
1013.092795	2617.102416
1013.386147	2616.590739
1013.679464	2614.843979
1013.972745	2617.417488
1014.265992	2614.788527
1014.559204	2613.664349
1014.852380	2615.922786
1015.145521	2615.980760
1015.438628	2613.447580
1015.731699	2616.845317
1016.024736	2616.220214
1016.317737	2615.408589
1016.610703	2614.065121
1016.903635	2617.228445
1017.196531	2613.886160
1017.489393	2615.716099
1017.782219	2614.188629
1018.075011	2617.331789
1018.367768	2615.824484
1018.660490	2616.023609
1018.953177	2616.023609
1019.245829	2616.023609
