Dividing Wavelength (nm)	Counts (n)	Blue Motor Position (mm): 16.400000	Red Motor Position (mm): 0.000000	
326.493990	2135.732718
326.888308	2135.732718
327.282561	2135.732718
327.676750	2103.494539
328.070874	2099.592686
328.464933	2105.962184
328.858929	2112.210694
329.252859	2119.689246
329.646726	2131.505710
330.040528	2147.518936
330.434265	2161.417397
330.827938	2181.035047
331.221547	2197.474250
331.615091	2215.478731
332.008571	2236.775085
332.401986	2258.237798
332.795338	2273.557864
333.188625	2294.125772
333.581847	2310.012968
333.975006	2329.391163
334.368100	2347.753566
334.761129	2369.017153
335.154095	2384.518701
335.546996	2403.932185
335.939833	2422.493713
336.332606	2438.864860
336.725315	2447.109667
337.117960	2459.899075
337.510540	2468.527010
337.903056	2480.335913
338.295508	2484.880513
338.687896	2495.305619
339.080220	2500.586227
339.472480	2511.785151
339.864676	2513.431088
340.256807	2518.963754
340.648875	2521.610360
341.040879	2521.194464
341.432818	2521.771677
341.824694	2524.682943
342.216506	2526.381812
342.608253	2528.262162
342.999937	2525.885258
343.391557	2528.413397
343.783113	2524.435926
344.174605	2523.954496
344.566033	2521.822088
344.957397	2517.786644
345.348697	2521.222191
345.739934	2516.710358
346.131106	2519.568692
346.522215	2517.027951
346.913260	2513.602487
347.304241	2510.373628
347.695159	2509.849348
348.086012	2508.664677
348.476802	2503.464726
348.867528	2505.551764
349.258191	2503.537823
349.648789	2501.481032
350.039324	2503.764675
350.429796	2499.154540
350.820203	2498.930208
351.210548	2497.052379
351.600828	2495.766884
351.991045	2498.219406
352.381198	2493.884013
352.771288	2494.675475
353.161314	2491.396204
353.551276	2492.472490
353.941175	2495.114055
354.331010	2495.633294
354.720782	2492.616163
355.110490	2493.173211
355.500135	2492.883344
355.889717	2494.262100
356.279235	2495.335866
356.668689	2494.395691
357.058080	2495.555156
357.447408	2495.419045
357.836672	2491.292860
358.225873	2494.244456
358.615010	2492.772439
359.004084	2497.904334
359.393095	2495.955928
359.782043	2498.746206
360.170927	2497.135558
360.559748	2497.816113
360.948505	2498.947853
361.337199	2500.268635
361.725830	2499.744355
362.114398	2502.645539
362.502903	2502.025477
362.891344	2498.201762
363.279722	2501.423059
363.668037	2502.116218
364.056289	2502.975734
364.444478	2504.145282
364.832603	2502.469098
365.220665	2503.976403
365.608665	2506.161744
365.996601	2502.799294
366.384474	2503.288286
366.772284	2506.628050
367.160031	2504.500683
367.547715	2504.477998
367.935336	2509.635099
368.322893	2506.381034
368.710388	2507.669049
369.097820	2511.875892
369.485189	2505.060252
369.872495	2507.840448
370.259738	2509.912362
370.646918	2506.691065
371.034035	2506.504542
371.421090	2509.193998
371.808081	2508.515962
372.195010	2508.508401
372.581875	2506.239882
372.968678	2511.689369
373.355418	2511.114677
373.742096	2510.502177
374.128710	2509.098216
374.515262	2511.676766
374.901751	2510.784482
375.288177	2510.976046
375.674540	2510.492095
376.060841	2511.538134
376.447079	2511.091992
376.833254	2510.802126
377.219367	2509.451097
377.605417	2509.458658
377.991404	2509.930006
378.377329	2510.862620
378.763191	2507.815242
379.148991	2512.725326
379.534727	2514.603156
379.920402	2515.200532
380.306013	2514.648526
380.691563	2512.816067
381.077049	2512.934534
381.462474	2514.328413
381.847835	2514.991325
382.233134	2516.581809
382.618371	2511.754904
383.003545	2515.351767
383.388657	2514.547703
383.773706	2516.758249
384.158693	2516.851510
384.543618	2514.857734
384.928480	2515.520646
385.313280	2516.163393
385.698017	2518.893178
386.082692	2515.011489
386.467305	2518.247910
386.851856	2516.377642
387.236344	2517.466531
387.620770	2518.089114
388.005133	2516.034843
388.389435	2519.296470
388.773674	2517.388393
389.157851	2516.536438
389.541965	2519.873682
389.926018	2518.578106
390.310008	2516.148269
390.693936	2518.149608
391.077802	2520.155987
391.461606	2521.139012
391.845348	2518.709176
392.229027	2518.084073
392.612645	2521.325534
392.996200	2520.523991
393.379694	2522.369053
393.763125	2520.397962
394.146494	2521.622963
394.529801	2522.351409
394.913047	2520.932324
395.296230	2521.938035
395.679351	2521.806965
396.062410	2525.544980
396.445408	2525.431554
396.828343	2520.460977
397.211217	2519.619104
397.594028	2518.653723
397.976778	2520.110616
398.359466	2520.602129
398.742092	2518.706655
399.124656	2524.020031
399.507158	2525.013138
399.889598	2521.983405
400.271977	2526.127233
400.654294	2523.662109
401.036549	2524.841739
401.418742	2524.317459
401.800874	2523.662109
402.182944	2524.645134
402.564952	2525.834847
402.946898	2523.271420
403.328783	2523.848632
403.710606	2527.183355
404.092367	2525.492048
404.474067	2525.487007
404.855705	2526.117151
405.237282	2527.674868
405.618797	2525.676050
406.000250	2526.462470
406.381642	2525.403828
406.762972	2527.412728
407.144240	2528.115969
407.525447	2527.354754
407.906593	2531.359951
408.287677	2529.479601
408.668700	2529.444313
409.049661	2527.710156
409.430560	2530.089580
409.811399	2529.298119
410.192176	2530.755013
410.572891	2528.456247
410.953545	2528.415917
411.334138	2529.093953
411.714669	2528.315094
412.095139	2530.545805
412.475547	2529.840043
412.855894	2527.473222
413.236180	2530.525640
413.616405	2530.064375
413.996568	2528.362985
414.376670	2532.421114
414.756711	2529.522451
415.136691	2531.997657
415.516609	2528.925074
415.896466	2534.349355
416.276262	2531.536392
416.655997	2529.139323
417.035670	2528.433561
417.415283	2528.168901
417.794834	2526.631349
418.174324	2529.792152
418.553753	2530.442461
418.933121	2534.787936
419.312428	2532.907585
419.691674	2532.088398
420.070859	2532.837009
420.449983	2533.772143
420.829045	2530.800383
421.208047	2535.937319
421.586988	2533.205013
421.965867	2531.957328
422.344686	2532.844571
422.723444	2534.934129
423.102141	2530.243336
423.480777	2533.714170
423.859352	2534.614016
424.237866	2533.222658
424.616319	2533.762061
424.994712	2533.303316
425.373044	2532.632842
425.751314	2534.092257
426.129524	2533.872966
426.507673	2534.160312
426.885762	2533.436907
427.263789	2533.986392
427.641756	2536.350693
428.019662	2534.563604
428.397508	2538.528472
428.775292	2531.528830
429.153016	2535.370189
429.530679	2535.866743
429.908282	2534.634181
430.285824	2534.513193
430.663305	2533.141999
431.040726	2533.971269
431.418086	2533.915816
431.795385	2537.260622
432.172624	2535.778522
432.549802	2537.338760
432.926920	2534.412370
433.303977	2535.639891
433.680974	2534.127545
434.057910	2537.759696
434.434786	2537.237937
434.811601	2537.651311
435.188355	2538.296579
435.565050	2538.944367
435.941683	2535.894469
436.318257	2535.072761
436.694770	2533.305837
437.071222	2533.273069
437.447614	2532.857174
437.823946	2533.608306
438.200218	2535.065199
438.576429	2537.837834
438.952580	2535.103008
439.328670	2537.462268
439.704700	2538.304141
440.080670	2539.798843
440.456580	2536.842206
440.832429	2537.868081
441.208218	2537.348842
441.583947	2539.347659
441.959616	2536.612833
442.335224	2539.224151
442.710773	2536.572504
443.086261	2540.292876
443.461689	2538.092412
443.837057	2538.672145
444.212365	2537.013605
444.587612	2538.717515
444.962800	2539.488812
445.337927	2537.767258
445.712995	2539.599717
446.088002	2540.302958
446.462949	2538.873791
446.837837	2541.139790
447.212664	2537.321116
447.587431	2539.115766
447.962139	2539.755993
448.336786	2543.345294
448.711374	2541.527958
449.085901	2542.558874
449.460369	2536.169212
449.834776	2541.936292
450.209124	2540.323123
450.583412	2539.491332
450.957640	2541.313709
451.331808	2543.357897
451.705917	2542.866385
452.079965	2543.783875
452.453954	2542.725232
452.827883	2539.698020
453.201752	2539.370345
453.575562	2543.738504
453.949311	2540.338246
454.323001	2540.406302
454.696632	2542.105171
455.070202	2544.015768
455.443713	2538.702392
455.817164	2541.714481
456.190556	2539.322454
456.563888	2540.237423
456.937160	2539.161137
457.310373	2540.852444
457.683526	2544.817311
458.056619	2542.405119
458.429653	2541.268339
458.802628	2544.598021
459.175542	2545.230686
459.548398	2545.903680
459.921194	2542.881508
460.293930	2546.301931
460.666607	2543.415871
461.039224	2543.133566
461.411782	2544.701365
461.784280	2546.770758
462.156719	2542.939482
462.529099	2543.955274
462.901419	2542.077444
463.273680	2542.977290
463.645882	2546.054915
464.018024	2545.739843
464.390106	2545.520552
464.762130	2543.284801
465.134094	2545.946530
465.505999	2546.546427
465.877845	2545.633978
466.249631	2546.707744
466.621358	2547.786551
466.993026	2546.879143
467.364634	2551.239741
467.736184	2544.933258
468.107674	2544.348484
468.479105	2547.297559
468.850477	2547.075748
469.221790	2545.152548
469.593043	2546.440563
469.964238	2546.047353
470.335373	2546.480892
470.706449	2548.232693
471.077467	2546.433001
471.448425	2545.689431
471.819324	2548.512477
472.190164	2547.085831
472.560945	2548.940975
472.931667	2548.472148
473.302330	2545.858310
473.672934	2546.617003
474.043479	2547.284956
474.413965	2547.748742
474.784393	2540.635674
475.154761	2545.641540
475.525070	2546.090203
475.895321	2544.587939
476.265513	2543.095757
476.635645	2550.980122
477.005719	2547.849565
477.375734	2547.383259
477.745691	2549.155224
478.115588	2549.220759
478.485427	2549.208156
478.855207	2549.868548
479.224928	2551.643034
479.594591	2548.741850
479.964194	2549.374514
480.333739	2549.651778
480.703226	2548.333516
481.072653	2548.504915
481.442022	2550.654968
481.811333	2550.833928
482.180584	2548.855276
482.549777	2551.413661
482.918912	2552.429454
483.287988	2553.021789
483.657005	2552.588250
484.025964	2550.813764
484.394864	2552.653785
484.763706	2552.200081
485.132489	2552.593291
485.501213	2551.038095
485.869879	2551.781665
486.238487	2550.571788
486.607036	2550.808723
486.975527	2550.886861
487.343959	2553.044474
487.712333	2554.294681
488.080648	2553.389793
488.448905	2552.880637
488.817104	2552.673950
489.185244	2549.581202
489.553326	2556.041440
489.921350	2551.459032
490.289315	2551.259906
490.657222	2556.094373
491.025070	2553.447767
491.392861	2553.488096
491.760593	2551.650595
492.128267	2554.864331
492.495883	2553.198230
492.863440	2553.001625
493.230939	2553.420040
493.598380	2555.640669
493.965763	2549.805533
494.333088	2550.697817
494.700354	2553.291491
495.067563	2553.099927
495.434713	2548.351160
495.801805	2554.314845
496.168839	2556.069167
496.535815	2555.005483
496.902733	2554.546738
497.269593	2554.365257
497.636395	2554.312325
498.003139	2554.211502
498.369825	2554.876934
498.736453	2554.425751
499.103023	2556.109496
499.469535	2557.422717
499.835989	2554.556821
500.202385	2557.589075
500.568723	2557.883982
500.935003	2559.237532
501.301226	2556.669064
501.667390	2556.356513
502.033497	2557.331976
502.399546	2555.895247
502.765537	2558.486400
503.131470	2556.164949
503.497345	2559.159394
503.863163	2557.367264
504.228923	2558.718293
504.594625	2560.099569
504.960269	2557.639486
505.325856	2558.032696
505.691385	2556.658982
506.056856	2561.080074
506.422270	2559.517316
506.787625	2560.485217
507.152924	2559.678633
507.518164	2561.410269
507.883347	2561.218705
508.248472	2558.383056
508.613540	2560.051678
508.978550	2560.344065
509.343503	2560.212995
509.708398	2560.835578
510.073236	2563.487225
510.438016	2562.315156
510.802738	2563.247770
511.167403	2563.252811
511.532010	2563.514951
511.896561	2564.656772
512.261053	2566.857236
512.625488	2560.550752
512.989866	2561.339693
513.354186	2563.189797
513.718449	2561.775753
514.082655	2567.331104
514.446803	2566.443861
514.810894	2568.271280
515.174927	2571.180025
515.538904	2568.672051
515.902822	2568.440158
516.266684	2572.894018
516.630488	2567.416804
516.994235	2571.908472
517.357925	2571.336301
517.721558	2571.893349
518.085133	2571.908472
518.448651	2576.377455
518.812112	2575.119687
519.175516	2575.593556
519.538863	2577.027764
519.902152	2579.036664
520.265385	2579.593711
520.628560	2580.763259
520.991678	2583.213260
521.354739	2582.772159
521.717743	2585.703590
522.080690	2589.723910
522.443580	2587.934300
522.806413	2590.752305
523.169189	2594.492841
523.531908	2595.604416
523.894569	2597.547781
524.257174	2599.208841
524.619722	2601.477360
524.982213	2605.510283
525.344647	2605.903493
525.707025	2607.935078
526.069345	2614.412961
526.431608	2615.733743
526.793815	2617.341871
527.155964	2621.798251
527.518057	2621.541152
527.880093	2623.209774
528.242072	2631.076495
528.603995	2632.913995
528.965860	2635.341311
529.327669	2639.585962
529.689421	2642.366159
530.051117	2645.771458
530.412755	2651.924187
530.774337	2654.326296
531.135862	2659.072543
531.497331	2661.676299
531.858743	2666.649397
532.220098	2671.108297
532.581396	2673.908658
532.942638	2681.306552
533.303824	2685.871317
533.664953	2694.229550
534.026025	2700.530992
534.387040	2707.205480
534.747999	2712.332333
535.108902	2722.394476
535.469748	2722.419682
535.830537	2732.315467
536.191270	2739.809142
536.551947	2749.989752
536.912567	2758.688263
537.273131	2764.397370
537.633638	2771.757455
537.994089	2781.260030
538.354483	2788.718417
538.714821	2799.486321
539.075103	2806.654842
539.435328	2821.188489
539.795497	2824.233346
540.155609	2841.574915
540.515665	2852.378107
540.875665	2856.658047
541.235609	2870.979965
541.595496	2881.871378
541.955328	2903.994482
542.315102	2906.935995
542.674821	2918.243303
543.034483	2929.737134
543.394090	2944.129628
543.753640	2955.371401
544.113134	2986.729899
544.472571	2988.708552
544.831953	3008.361490
545.191278	3017.944723
545.550548	3032.133051
545.909761	3051.523849
546.268918	3070.604616
546.628019	3094.348451
546.987064	3105.076026
547.346053	3112.695730
547.704986	3144.107160
548.063863	3156.548728
548.422684	3173.860050
548.781449	3189.946372
549.140158	3215.308417
549.498811	3226.330900
549.857408	3234.026221
550.215949	3277.014661
550.574434	3283.137142
550.932864	3317.076710
551.291237	3338.065554
551.649555	3368.166284
552.007817	3387.184037
552.366022	3403.353538
552.724173	3431.117693
553.082267	3444.922892
553.440305	3496.524143
553.798288	3488.806137
554.156215	3539.066440
554.514086	3562.152404
554.871902	3568.693302
555.229661	3603.928446
555.587365	3628.962816
555.945014	3634.064464
556.302606	3689.388607
556.660143	3693.744164
557.017625	3753.955705
557.375050	3765.184876
557.732421	3814.928461
558.089735	3839.617512
558.446994	3867.389229
558.804197	3902.475659
559.161345	3936.332049
559.518437	3932.256276
559.875474	3988.737363
560.232455	4027.423178
560.589381	4044.288358
560.946251	4093.898353
561.303065	4125.166110
561.659825	4156.539731
562.016528	4172.860467
562.373177	4171.532123
562.729770	4245.241353
563.086307	4253.834000
563.442789	4307.726455
563.799216	4329.915094
564.155587	4369.170559
564.511904	4398.595774
564.868164	4425.833128
565.224370	4464.377791
565.580520	4497.399869
565.936615	4509.788504
566.292654	4528.760887
566.648638	4588.329681
567.004567	4620.398982
567.360441	4648.899145
567.716260	4668.025283
568.072023	4729.340837
568.427732	4758.564406
568.783385	4755.837141
569.138982	4823.557482
569.494525	4861.814798
569.850013	4860.289849
570.205445	4938.634421
570.560823	4930.180406
570.916145	4949.246050
571.271412	5011.756358
571.626625	5031.038771
571.981782	5056.141197
572.336884	5093.004634
572.691931	5113.867449
573.046923	5153.380013
573.401860	5171.313918
573.756743	5189.318399
574.111570	5247.153036
574.466342	5265.759935
574.821059	5320.305220
575.175722	5310.328776
575.530330	5358.433987
575.884882	5388.537237
576.239380	5404.298405
576.593823	5422.144089
576.948211	5472.769877
577.302544	5448.723573
577.656823	5503.215925
578.011047	5536.404362
578.365216	5573.028344
578.719330	5566.300925
579.073389	5615.169870
579.427394	5623.074399
579.781344	5642.077029
580.135239	5662.788609
580.489080	5697.494433
580.842866	5697.638106
581.196597	5731.383590
581.550273	5786.674965
581.903895	5810.960724
582.257463	5871.774683
582.610975	5859.421336
582.964434	5894.984155
583.317837	5903.748201
583.671186	5910.929325
584.024481	5954.391633
584.377721	5941.902174
584.730906	5967.395289
585.084037	6011.462536
585.437113	6009.670405
585.790135	6060.913734
586.143103	6034.770310
586.496016	6052.268155
586.848874	6118.864318
587.201679	6138.267719
587.554428	6116.928515
587.907124	6174.672412
588.259765	6186.637591
588.612352	6227.617130
588.964884	6180.706673
589.317362	6223.821141
589.669786	6256.865905
590.022155	6301.296114
590.374470	6350.273444
590.726731	6334.434139
591.078937	6278.129492
591.431090	6386.892386
591.783188	6332.619324
592.135232	6361.495053
592.487222	6375.920315
592.839157	6443.209636
593.191038	6435.814263
593.542866	6426.992244
593.894639	6391.580659
594.246358	6449.067457
594.598022	6487.821327
594.949633	6454.111131
595.301190	6463.341484
595.652692	6508.399317
596.004141	6612.662982
596.355535	6486.886193
596.706876	6503.244737
597.058162	6486.689588
597.409395	6563.950312
597.760573	6630.584283
598.111698	6584.790442
598.462768	6604.708041
598.813785	6603.299038
599.164748	6611.483352
599.515657	6619.317305
599.866511	6590.668427
600.217312	6689.406987
600.568060	6613.492251
600.918753	6713.014711
601.269392	6707.108999
601.619978	6671.727661
601.970510	6738.112095
602.320988	6753.994250
602.671412	6825.934036
603.021783	6790.850126
603.372100	6801.050901
603.722363	6824.025959
604.072572	6822.090156
604.422728	6851.999322
604.772830	6816.416338
605.122878	6846.320462
605.472872	6857.985692
605.822813	6900.875829
606.172701	6879.289608
606.522534	6960.212731
606.872314	6977.062787
607.222041	6969.102805
607.571714	7035.346087
607.921333	7023.645569
608.270899	7047.661626
608.620411	7133.759493
608.969870	7074.546100
609.319276	7087.171670
609.668627	7119.210723
610.017926	7161.122876
610.367171	7220.215281
610.716362	7212.104065
611.065500	7222.670323
611.414585	7259.354800
611.763616	7260.773885
612.112594	7263.947291
612.461518	7291.935777
612.810389	7356.265941
613.159207	7323.352248
613.507971	7289.241280
613.856682	7407.925165
614.205340	7377.806792
614.553945	7463.458516
614.902496	7385.744088
615.250994	7448.708100
615.599439	7444.541586
615.947830	7469.172664
616.296169	7454.782690
616.644454	7479.927966
616.992686	7489.342321
617.340864	7551.638379
617.688990	7478.087945
618.037063	7568.337201
618.385082	7530.077364
618.733048	7622.597661
619.080961	7571.434990
619.428821	7601.901204
619.776628	7617.652289
620.124382	7585.091476
620.472083	7587.785973
620.819731	7616.165148
621.167326	7534.606841
621.514868	7553.012094
621.862357	7460.670758
622.209793	7491.668813
622.557176	7442.194929
622.904506	7425.062568
623.251783	7375.719754
623.599007	7348.905857
623.946179	7362.388423
624.293297	7333.242992
624.640363	7265.331088
624.987376	7263.546519
625.334336	7214.057512
625.681243	7186.063985
626.028097	7181.612646
626.374899	7165.107908
626.721647	7164.591190
627.068343	7105.549196
627.414987	7087.348110
627.761577	7049.408386
628.108115	7095.963442
628.454600	6997.822259
628.801032	7052.496093
629.147412	7018.334714
629.493739	7012.512181
629.840014	6959.053265
630.186236	7017.933942
630.532405	6910.567448
630.878521	6964.608617
631.224585	6929.391116
631.570597	6859.571135
631.916556	6896.122021
632.262462	6894.435755
632.608316	6864.181270
632.954117	6847.699218
633.299866	6834.524162
633.645562	6831.801939
633.991206	6772.361694
634.336797	6712.092179
634.682336	6681.376429
635.027823	6650.879969
635.373257	6648.361912
635.718639	6586.275062
636.063968	6602.021106
636.409245	6506.473596
636.754470	6506.224059
637.099642	6468.390200
637.444762	6423.644918
637.789829	6428.043325
638.134845	6376.951231
638.479808	6371.912597
638.824719	6370.566609
639.169577	6308.762063
639.514383	6331.409447
639.859137	6259.383961
640.203839	6271.923831
640.548489	6262.466627
640.893086	6243.637917
641.237632	6223.228806
641.582125	6241.339151
641.926566	6214.489966
642.270955	6226.588735
642.615292	6224.519341
642.959576	6239.678091
643.303809	6232.968315
643.647990	6239.874696
643.992118	6230.835907
644.336195	6182.236663
644.680219	6206.764397
645.024192	6202.436567
645.368112	6294.175484
645.711981	6315.600388
646.055797	6394.864971
646.399562	6354.563466
646.743274	6477.986036
647.086935	6533.146341
647.430544	6522.023035
647.774101	6549.207457
648.117606	6556.423869
648.461059	6551.798611
648.804460	6515.809813
649.147810	6420.786584
649.491108	6399.044087
649.834354	6372.126846
650.177548	6292.098529
650.520690	6209.489141
650.863781	6187.978538
651.206820	6207.671805
651.549807	6135.452235
651.892742	6080.042392
652.235626	6085.534730
652.578458	6074.023255
652.921238	5980.824923
653.263967	6024.685482
653.606644	5961.151820
653.949269	5968.650537
654.291843	5908.096197
654.634365	5958.681655
654.976836	5915.776394
655.319255	5909.492596
655.661622	5893.464248
656.003938	5886.487291
656.346203	5849.376837
656.688416	5883.258432
657.030577	5835.985011
657.372687	5805.206247
657.714746	5795.076048
658.056753	5833.378735
658.398708	5782.021980
658.740612	5768.660402
659.082465	5819.939019
659.424266	5808.921577
659.766016	5810.121372
660.107715	5789.157733
660.449362	5803.484693
660.790958	5793.810718
661.132503	5782.707577
661.473996	5821.095963
661.815438	5813.294778
662.156829	5806.814375
662.498168	5800.167613
662.839456	5771.712820
663.180693	5813.710673
663.521879	5812.460467
663.863013	5798.874557
664.204097	5822.106715
664.545129	5863.456779
664.886110	5858.637436
665.227040	5891.316716
665.567918	5853.606365
665.908746	5884.065016
666.249522	5883.727259
666.590248	5880.122834
666.930922	5900.922635
667.271545	5919.174132
667.612118	5919.675727
667.952639	5894.427108
668.293109	5918.392753
668.633528	5871.046236
668.973896	5874.156628
669.314213	5864.933837
669.654480	5845.737123
669.994695	5844.242421
670.334859	5833.706410
670.674973	5826.152241
671.015035	5825.852292
671.355047	5827.291542
671.695008	5815.427186
672.034918	5787.037928
672.374777	5803.406555
672.714585	5788.303258
673.054342	5788.872908
673.394049	5782.163132
673.733705	5815.598585
674.073310	5800.039064
674.412864	5762.371562
674.752368	5753.637763
675.091820	5756.649853
675.431223	5692.049987
675.770574	5696.110636
676.109875	5646.639273
676.449125	5655.030273
676.788324	5617.612309
677.127473	5561.831942
677.466571	5552.341970
677.805619	5547.746958
678.144616	5532.565523
678.483562	5509.098952
678.822458	5485.478626
679.161303	5475.638293
679.500098	5466.554134
679.838842	5448.801711
680.177535	5451.188697
680.516179	5472.848015
680.854771	5481.533923
681.193314	5564.186161
681.531805	5666.907232
681.870247	5814.880221
682.208638	5914.690026
682.546978	5926.647643
682.885268	5911.002422
683.223508	5824.712991
683.561697	5767.697541
683.899836	5736.780145
684.237925	5694.137024
684.575963	5661.755173
684.913951	5620.674810
685.251889	5684.561353
685.589776	5650.399974
685.927614	5622.620695
686.265401	5693.141397
686.603137	5676.256052
686.940824	5751.459985
687.278460	5776.998470
687.616046	5785.883504
687.953582	5847.907340
688.291068	5837.520043
688.628504	5897.534979
688.965889	5857.246078
689.303224	5803.628365
689.640510	5749.599799
689.977745	5677.881824
690.314930	5582.984623
690.652065	5522.732752
690.989150	5433.227066
691.326185	5363.127301
691.663170	5307.140247
692.000105	5228.641919
692.336990	5156.165251
692.673825	5134.049709
693.010610	5061.920879
693.347345	4995.274305
693.684030	4980.453313
694.020665	4939.902271
694.357251	4853.121328
694.693786	4861.494685
695.030272	4826.619982
695.366707	4794.822905
695.703093	4759.648254
696.039429	4785.960556
696.375716	4767.487248
696.711952	4740.287702
697.048139	4730.192792
697.384276	4707.600861
697.720363	4718.784661
698.056400	4729.020723
698.392388	4680.083722
698.728326	4662.903470
699.064214	4637.596878
699.400053	4632.059170
699.735842	4596.571968
700.071581	4574.164039
700.407270	4546.021798
700.742910	4530.366494
701.078501	4473.149398
701.414042	4474.329028
701.749533	4446.083443
702.084974	4381.324781
702.420366	4437.836116
702.755709	4380.054410
703.091002	4322.955781
703.426246	4375.441754
703.761440	4324.359743
704.096584	4293.487716
704.431679	4315.411694
704.766725	4296.436791
705.101721	4286.178043
705.436668	4317.362621
705.771565	4260.604270
706.106413	4289.180050
706.441212	4328.478365
706.775961	4333.902647
707.110661	4310.988082
707.445311	4339.001774
707.779913	4360.673694
708.114465	4376.124831
708.448967	4397.917739
708.783421	4456.014516
709.117825	4499.824664
709.452180	4505.576620
709.786485	4549.238054
710.120742	4631.696207
710.454949	4616.202221
710.789107	4682.581614
711.123216	4754.478550
711.457275	4744.645780
711.791286	4819.610258
712.125247	4836.225901
712.459159	4738.452722
712.793023	4814.997602
713.126837	4776.069812
713.460602	4767.033544
713.794318	4687.002706
714.127985	4697.740364
714.461602	4610.825830
714.795171	4581.685441
715.128691	4518.353425
715.462162	4459.757573
715.795584	4410.455088
716.128957	4395.621493
716.462281	4344.259697
716.795556	4320.959484
717.128782	4281.893063
717.461960	4211.616857
717.795088	4220.466603
718.128167	4180.951518
718.461198	4122.383393
718.794180	4114.115901
719.127113	4097.923715
719.459997	4075.727514
719.792833	4035.098335
720.125619	4026.228425
720.458357	3991.489833
720.791046	4002.033407
721.123686	3967.181390
721.456278	3930.103703
721.788821	3946.313533
722.121315	3921.662291
722.453761	3895.418044
722.786158	3906.077564
723.118506	3929.718055
723.450805	3882.379100
723.783056	3901.878283
724.115259	3918.670366
724.447412	3921.296807
724.779518	3916.099378
725.111574	3922.811674
725.443582	3951.082465
725.775542	3936.626956
726.107453	3983.275273
726.439315	3984.149913
726.771129	4001.486442
727.102895	4035.829302
727.434612	4086.545830
727.766281	4095.236780
728.097901	4094.016820
728.429473	4099.678036
728.760996	4105.833285
729.092471	4103.438737
729.423897	4084.567177
729.755276	4094.488168
730.086606	4089.386521
730.417887	4128.493272
730.749120	4192.311759
731.080305	4255.893312
731.411442	4281.923309
731.742530	4246.234461
732.073570	4252.253598
732.404562	4311.091426
732.735506	4300.867966
733.066401	4261.912449
733.397249	4196.458108
733.728048	4121.977580
734.058798	4041.009088
734.389501	3970.851350
734.720156	3913.427566
735.050762	3869.075495
735.381320	3861.692725
735.711831	3808.511072
736.042293	3781.364459
736.372707	3802.875062
736.703073	3777.989406
737.033391	3764.267386
737.363661	3783.055766
737.693883	3812.410405
738.024056	3817.685972
738.354182	3814.099191
738.684260	3878.207545
739.014290	3895.191192
739.344272	3890.228176
739.674207	3934.943211
740.004093	3940.238943
740.333931	3932.790638
740.663722	3936.866411
740.993464	3928.258641
741.323159	3905.210485
741.652806	3878.225189
741.982405	3852.800129
742.311956	3822.520439
742.641460	3810.736742
742.970915	3788.215387
743.300323	3746.888008
743.629683	3711.794015
743.958996	3704.469219
744.288260	3675.593489
744.617477	3647.569715
744.946647	3628.884678
745.275768	3605.350052
745.604842	3606.431379
745.933869	3555.480437
746.262847	3551.616393
746.591778	3587.645519
746.920662	3557.721230
747.249498	3529.140408
747.578286	3574.510793
747.907027	3589.430088
748.235720	3584.812391
748.564365	3612.369858
748.892963	3613.380610
749.221514	3593.886468
749.550017	3572.887542
749.878473	3571.443251
750.206881	3541.579456
750.535242	3537.483518
750.863555	3537.029814
751.191821	3533.064947
751.520039	3512.376051
751.848210	3494.865603
752.176334	3526.566899
752.504411	3532.477652
752.832440	3493.522136
753.160421	3478.643170
753.488356	3485.836897
753.816243	3496.259483
754.144082	3449.603604
754.471875	3438.134979
754.799620	3459.675829
755.127318	3449.570836
755.454969	3450.082513
755.782572	3455.922690
756.110129	3434.754885
756.437638	3421.824325
756.765100	3436.554577
757.092515	3445.956329
757.419882	3452.035960
757.747203	3428.362702
758.074477	3428.390428
758.401703	3442.876184
758.728882	3463.038279
759.056014	3471.787201
759.383099	3477.498828
759.710138	3471.769557
760.037129	3488.884274
760.364073	3519.070704
760.690970	3502.563445
761.017820	3479.232985
761.344623	3501.235101
761.671379	3541.115669
761.998088	3591.655757
762.324751	3721.936817
762.651366	3966.788180
762.977935	4431.050723
763.304456	4861.204818
763.630931	4956.782575
763.957359	4598.575827
764.283740	4259.754835
764.610074	4073.383378
764.936362	3882.903380
765.262602	3724.023854
765.588796	3614.265332
765.914943	3527.852394
766.241044	3440.786626
766.567097	3412.170516
766.893104	3363.548587
767.219064	3337.498424
767.544978	3310.170329
767.870845	3252.146649
768.196665	3238.540574
768.522438	3244.511821
768.848165	3242.205493
769.173846	3205.478167
769.499479	3187.980322
769.825066	3172.572035
770.150607	3153.692914
770.476101	3171.452899
770.801548	3170.449709
771.126949	3120.738891
771.452303	3104.866818
771.777611	3111.579115
772.102872	3119.692852
772.428087	3092.634459
772.753256	3083.799837
773.078378	3074.556881
773.403453	3040.082950
773.728482	3027.933770
774.053465	3050.409754
774.378401	3039.104967
774.703291	3007.963239
775.028135	3009.944412
775.352932	3004.089112
775.677683	2993.873214
776.002388	2990.765342
776.327046	2988.292656
776.651658	2978.283445
776.976224	2968.120479
777.300743	2972.947384
777.625216	2960.868779
777.949643	2952.024075
778.274024	2957.377780
778.598359	2944.268260
778.922647	2950.814198
779.246889	2951.426698
779.571086	2934.402722
779.895236	2930.445416
780.219339	2939.201900
780.543397	2951.285546
780.867409	2956.470373
781.191374	2946.594752
781.515294	2945.894032
781.839167	2945.952005
782.162995	2935.176539
782.486776	2945.289093
782.810511	2945.339505
783.134201	2929.669078
783.457844	2938.264246
783.781441	2928.650765
784.104993	2904.375089
784.428498	2908.554205
784.751958	2921.915784
785.075372	2914.684248
785.398739	2899.023904
785.722061	2918.334044
786.045337	2926.399890
786.368568	2913.648291
786.691752	2906.930954
787.014891	2954.406020
787.337983	2982.765031
787.661030	3008.837879
787.984031	3075.761717
788.306987	3119.029940
788.629897	3113.429218
788.952760	3094.766867
789.275579	3080.553333
789.598351	3020.593850
789.921078	2977.857468
790.243759	2970.139461
790.566395	2954.768983
790.888984	2928.544901
791.211529	2914.485123
791.534027	2905.653021
791.856480	2897.599778
792.178888	2877.117570
792.501249	2873.813094
792.823566	2867.541898
793.145836	2867.735983
793.468062	2862.830940
793.790241	2859.276927
794.112375	2867.975438
794.434464	2880.628734
794.756507	2881.841131
795.078505	2891.429406
795.400457	2902.330901
795.722364	2938.884308
796.044226	2961.713173
796.366042	2963.046558
796.687812	2954.537090
797.009538	2970.867908
797.331218	2959.467339
797.652852	2946.234310
797.974442	2928.260076
798.295986	2923.995260
798.617484	2919.901843
798.938938	2907.457754
799.260346	2890.776576
799.581709	2885.198540
799.903026	2879.660832
800.224299	2871.042980
800.545526	2863.534181
800.866708	2847.730164
801.187845	2836.604337
801.508936	2838.177177
801.829983	2845.978363
802.150984	2832.768019
802.471940	2822.652944
802.792851	2821.112871
803.113717	2820.550783
803.434538	2828.188131
803.755314	2818.488951
804.076045	2813.891418
804.396731	2813.205822
804.717372	2814.148517
805.037967	2807.650470
805.358518	2815.794454
805.679024	2829.345076
805.999485	2822.015238
806.319901	2826.002791
806.640272	2816.265802
806.960598	2823.696463
807.280879	2832.934377
807.601115	2839.896211
807.921306	2829.398008
808.241453	2820.916266
808.561554	2831.051506
808.881611	2829.193841
809.201623	2825.491113
809.521590	2823.749395
809.841513	2820.926349
810.161390	2824.676967
810.481223	2818.972902
810.801011	2809.296407
811.120755	2805.220634
811.440453	2810.433187
811.760107	2806.390182
812.079716	2806.828762
812.399281	2794.793007
812.718801	2788.113478
813.038276	2786.943931
813.357707	2792.617749
813.677093	2798.089922
813.996434	2793.699077
814.315731	2788.599950
814.634983	2784.569547
814.954191	2786.744805
815.273354	2800.199645
815.592473	2808.449493
815.911547	2808.328505
816.230577	2817.049701
816.549562	2825.503716
816.868502	2823.262923
817.187399	2834.401353
817.506250	2851.107737
817.825058	2844.168588
818.143821	2854.495392
818.462539	2870.075078
818.781213	2899.008781
819.099843	2931.531785
819.418429	2986.447594
819.736970	3045.706357
820.055466	3117.326030
820.373919	3221.677915
820.692327	3359.757639
821.010691	3523.237217
821.329011	3954.608752
821.647286	4838.554914
821.965517	6186.677920
822.283704	6894.639922
822.601847	6867.745366
822.919945	6251.492035
823.237999	5755.840748
823.556010	5193.452145
823.873976	4655.845855
824.191897	4259.094444
824.509775	3971.602482
824.827609	3708.217317
825.145398	3591.272630
825.463144	3580.895414
825.780845	3672.331863
826.098502	3775.529323
826.416116	4052.021488
826.733685	4358.057335
827.051210	4412.821910
827.368692	4299.292605
827.686129	4039.433727
828.003522	3722.919842
828.320872	3474.411122
828.638177	3286.373563
828.955439	3148.838283
829.272656	3071.499421
829.589830	3003.101046
829.906960	2958.012966
830.224046	2912.589649
830.541088	2882.839280
830.858086	2867.236908
831.175041	2850.351564
831.491952	2856.227028
831.808819	2862.268851
832.125642	2885.163252
832.442421	2927.778646
832.759157	3011.381141
833.075849	3184.403623
833.392497	3459.683391
833.709101	3654.869306
834.025662	3602.600102
834.342179	3447.395578
834.658653	3274.272273
834.975083	3131.574852
835.291469	3035.588762
835.607811	2957.390383
835.924110	2899.923750
836.240366	2850.326358
836.556578	2807.181643
836.872746	2783.117695
837.188871	2761.284457
837.504952	2750.629979
837.820990	2740.714029
838.136984	2728.564848
838.452935	2719.420195
838.768842	2717.053374
839.084706	2735.902248
839.400526	2814.508960
839.716303	2943.161727
840.032037	3016.820546
840.347727	3004.227744
840.663373	2945.813373
840.978977	2871.171529
841.294537	2802.470684
841.610054	2755.998808
841.925527	2734.679768
842.240957	2715.125132
842.556344	2695.575538
842.871687	2676.963598
843.186987	2669.336332
843.502244	2664.075888
843.817458	2660.254693
844.132629	2646.978815
844.447756	2637.834162
844.762840	2632.341824
845.077881	2633.667648
845.392879	2635.358955
845.707833	2632.810652
846.022745	2620.162397
846.337613	2626.050464
846.652438	2624.210443
846.967221	2626.410907
847.281960	2624.076853
847.596656	2620.921090
847.911309	2621.878910
848.225919	2620.517798
848.540485	2616.086624
848.855009	2615.080914
849.169490	2614.077724
849.483928	2614.644854
849.798323	2613.661829
850.112675	2615.269957
850.426984	2613.165275
850.741251	2610.841303
851.055474	2608.746704
851.369654	2617.677108
851.683792	2615.285080
851.997887	2612.041098
852.311938	2609.875922
852.625947	2611.685697
852.939914	2617.941768
853.253837	2618.584516
853.567718	2610.687548
853.881555	2612.378855
854.195350	2615.116202
854.509103	2613.835749
854.822812	2611.534462
855.136479	2609.991869
855.450103	2614.710389
855.763685	2616.583177
856.077224	2613.336674
856.390720	2609.417177
856.704173	2612.086468
857.017584	2615.695934
857.330953	2617.278857
857.644278	2617.843466
857.957561	2618.627365
858.270802	2616.237858
858.584000	2614.218876
858.897155	2619.759104
859.210268	2619.597787
859.523339	2613.561006
859.836367	2608.633278
860.149352	2610.044801
860.462295	2613.329113
860.775195	2607.221755
861.088054	2607.652773
861.400869	2609.828031
861.713642	2601.565580
862.026373	2607.564553
862.339062	2608.592949
862.651708	2614.712909
862.964312	2615.272477
863.276873	2614.891870
863.589392	2615.698455
863.901869	2619.988477
864.214303	2625.279168
864.526696	2625.800927
864.839045	2625.838736
865.151353	2632.457771
865.463619	2631.129427
865.775842	2631.938532
866.088023	2632.079684
866.400162	2630.849643
866.712258	2630.766464
867.024313	2628.704632
867.336325	2627.338479
867.648296	2629.274282
867.960224	2632.402318
868.272110	2630.970631
868.583954	2627.479632
868.895755	2626.413427
869.207515	2633.271917
869.519233	2638.953298
869.830909	2633.090436
870.142542	2631.530199
870.454134	2632.810652
870.765684	2637.014974
871.077191	2638.451703
871.388657	2641.937661
871.700081	2638.844913
872.011463	2640.768113
872.322803	2642.724081
872.634101	2646.847745
872.945357	2652.559372
873.256571	2657.976092
873.567744	2656.393169
873.878874	2652.859321
874.189963	2652.985349
874.501010	2658.538180
874.812015	2661.731751
875.122979	2661.872904
875.433900	2654.117088
875.744780	2653.789413
876.055618	2658.581030
876.366415	2664.799293
876.677169	2665.250477
876.987882	2656.110865
877.298554	2656.272182
877.609183	2668.325581
877.919771	2672.809687
878.230317	2680.963753
878.540822	2687.197140
878.851285	2704.783205
879.161707	2723.548900
879.472087	2761.581886
879.782425	2807.771458
880.092722	2917.116605
880.402977	3098.260386
880.713191	3347.343798
881.023363	3624.776138
881.333494	3809.264725
881.643583	3976.391578
881.953631	3972.928305
882.263637	3800.384732
882.573602	3586.672577
882.883526	3462.501396
883.193408	3354.020806
883.503248	3259.017741
883.813048	3150.927841
884.122806	3038.013557
884.432522	2961.007411
884.742197	2897.350241
885.051831	2862.266331
885.361424	2828.160404
885.670975	2794.571196
885.980485	2763.981475
886.289954	2750.123343
886.599382	2733.180025
886.908768	2721.403889
887.218113	2704.967207
887.527417	2690.940197
887.836680	2684.653878
888.145901	2681.304031
888.455082	2674.082578
888.764221	2661.915753
889.073319	2653.474341
889.382376	2654.215391
889.691392	2653.935607
890.000366	2655.553817
890.309300	2652.811430
890.618193	2655.044661
890.927044	2656.569610
891.235855	2657.875269
891.544625	2656.599857
891.853353	2655.032058
892.162041	2661.716628
892.470687	2683.522139
892.779293	2696.843388
893.087858	2704.906713
893.396381	2722.732233
893.704864	2763.832761
894.013306	2830.010508
894.321707	2919.468303
894.630068	2968.211220
894.938387	2983.637151
895.246665	2977.234885
895.554903	2935.204265
895.863100	2895.091804
896.171256	2839.414780
896.479371	2781.381017
896.787446	2744.643609
897.095480	2727.498644
897.403473	2719.531101
897.711425	2706.905531
898.019336	2688.822912
898.327207	2676.895542
898.635038	2676.469565
898.942827	2673.152485
899.250576	2662.971875
899.558284	2651.964516
899.865952	2647.525780
900.173579	2648.037457
900.481165	2645.640388
900.788711	2635.910961
901.096216	2629.455764
901.403681	2626.531895
901.711105	2629.004581
902.018489	2627.938377
902.325832	2630.910137
902.633135	2630.970631
902.940397	2647.432518
903.247619	2682.894515
903.554800	2746.662591
903.861941	2868.605582
904.169041	2984.025320
904.476101	3040.582025
904.783121	3034.779657
905.090100	2981.033395
905.397039	2911.450348
905.703938	2842.633557
906.010796	2783.150462
906.317614	2736.514748
906.624391	2701.849254
906.931129	2677.470234
907.237826	2654.991729
907.544483	2638.665952
907.851099	2622.877058
908.157675	2612.812394
908.464211	2607.718308
908.770707	2598.034252
909.077163	2597.784715
909.383578	2590.149887
909.689954	2591.279106
909.996289	2589.696183
910.302584	2590.001173
910.608839	2586.134608
910.915054	2586.371542
911.221229	2588.728282
911.527363	2590.389342
911.833458	2588.478745
912.139513	2590.530494
912.445527	2589.809609
912.751502	2596.085846
913.057436	2603.577001
913.363331	2606.699995
913.669186	2617.772890
913.975000	2628.051802
914.280775	2644.833804
914.586510	2662.956752
914.892205	2695.772143
915.197859	2760.661875
915.503475	2839.888649
915.809050	2902.782084
916.114585	2914.845565
916.420081	2923.531473
916.725536	2935.965479
917.030952	2912.574526
917.336328	2865.999305
917.641665	2818.723364
917.946961	2772.148144
918.252218	2742.564133
918.557435	2715.019268
918.862612	2696.480425
919.167750	2682.317303
919.472848	2665.661331
919.777906	2649.993425
920.082925	2637.710653
920.387904	2628.271093
920.692843	2624.797738
920.997743	2619.542335
921.302603	2613.036726
921.607423	2609.384410
921.912204	2603.002309
922.216946	2600.355703
922.521647	2599.707915
922.826310	2595.276741
923.130932	2586.979002
923.435516	2583.220821
923.740059	2580.624627
924.044564	2583.936665
924.349028	2580.753177
924.653454	2571.855540
924.957840	2572.326888
925.262186	2568.117524
925.566493	2568.488049
925.870761	2568.210786
926.174989	2567.373954
926.479178	2564.911351
926.783328	2562.244580
927.087438	2563.774570
927.391509	2562.796587
927.695541	2561.198541
927.999533	2558.123437
928.303486	2559.396328
928.607400	2558.536812
928.911275	2556.951369
929.215110	2556.169990
929.518906	2554.471121
929.822663	2559.169476
930.126381	2557.289126
930.430060	2557.616801
930.733699	2556.371636
931.037299	2557.843653
931.340861	2556.921122
931.644383	2556.757284
931.947866	2557.047151
932.251309	2558.667882
932.554714	2557.601678
932.858080	2559.492110
933.161407	2557.062274
933.464694	2556.497665
933.767943	2556.601008
934.071153	2555.101265
934.374323	2555.595298
934.677455	2555.108827
934.980548	2554.430792
935.283602	2554.196378
935.586617	2555.146636
935.889593	2556.031358
936.192530	2557.450443
936.495428	2553.495658
936.798287	2553.939279
937.101108	2556.338868
937.403890	2561.198541
937.706632	2562.645352
938.009336	2564.354303
938.312002	2569.065261
938.614628	2570.428893
938.917216	2576.475757
939.219765	2573.269584
939.522275	2576.448031
939.824747	2576.208576
940.127179	2572.238668
940.429573	2571.479974
940.731929	2567.389078
941.034246	2565.665003
941.336524	2566.930333
941.638763	2566.012843
941.940964	2565.712894
942.243126	2564.820610
942.545250	2565.057544
942.847335	2563.051165
943.149381	2561.629559
943.451389	2561.349775
943.753359	2558.650237
944.055290	2559.721483
944.357182	2561.233829
944.659036	2556.086811
944.960851	2555.519681
945.262628	2558.456153
945.564367	2556.532953
945.866067	2558.854404
946.167729	2559.091338
946.469352	2559.071174
946.770937	2559.693756
947.072484	2555.701163
947.373992	2556.774928
947.675462	2556.535473
947.976893	2557.712583
948.278286	2558.042778
948.579641	2554.123281
948.880958	2550.639844
949.182236	2553.840977
949.483476	2553.777962
949.784678	2554.246790
950.085841	2554.355174
950.386967	2554.755946
950.688054	2554.834084
950.989103	2557.064795
951.290114	2556.144784
951.591087	2558.846843
951.892021	2557.896585
952.192917	2560.510423
952.493776	2561.735424
952.794596	2562.191648
953.095378	2561.417831
953.396122	2563.519992
953.696828	2560.112172
953.997496	2559.562686
954.298126	2558.312480
954.598718	2556.273333
954.899272	2554.950031
955.199788	2555.494475
955.500266	2550.344937
955.800706	2550.498692
956.101108	2547.322765
956.401472	2548.956099
956.701798	2544.386293
957.002087	2544.487116
957.302337	2547.388300
957.602550	2546.541386
957.902724	2548.754453
958.202861	2546.216232
958.502960	2545.802857
958.803022	2545.369318
959.103045	2545.475182
959.403031	2545.460058
959.702979	2544.451828
960.002889	2543.730943
960.302762	2541.853113
960.602596	2544.209852
960.902393	2543.599873
961.202153	2544.968546
961.501875	2542.853782
961.801559	2542.758000
962.101205	2540.887732
962.400814	2541.215407
962.700385	2540.585263
962.999918	2543.355377
963.299414	2542.730274
963.598873	2544.202291
963.898293	2541.129707
964.197677	2539.151054
964.497022	2539.771116
964.796331	2543.073072
965.095601	2539.312371
965.394835	2541.969059
965.694030	2538.473019
965.993189	2543.887218
966.292309	2543.972918
966.591393	2538.810777
966.890439	2540.522248
967.189447	2538.896476
967.488419	2539.244316
967.787353	2543.161292
968.086249	2541.447300
968.385108	2541.865716
968.683930	2541.666590
968.982714	2543.297403
969.281462	2542.853782
969.580172	2541.384286
969.878844	2542.468134
970.177480	2539.579553
970.476078	2540.204656
970.774639	2542.667259
971.073162	2541.825387
971.371649	2537.598379
971.670098	2537.263142
971.968510	2538.936805
972.266885	2538.097453
972.565223	2543.874616
972.863524	2542.382434
973.161788	2542.773123
973.460014	2541.485109
973.758204	2540.524769
974.056356	2541.356559
974.354471	2541.747249
974.652550	2540.882691
974.950591	2541.235572
975.248595	2546.299411
975.546563	2542.873947
975.844493	2540.872608
976.142386	2541.759852
976.440243	2541.555685
976.738062	2540.381096
977.035845	2540.202135
977.333590	2542.795809
977.631299	2541.333874
977.928971	2540.131559
978.226606	2542.082485
978.524204	2540.983514
978.821765	2537.994110
979.119290	2541.389327
979.416777	2541.570808
979.714228	2542.493339
980.011642	2541.270860
980.309020	2543.254554
980.606360	2540.418905
980.903664	2541.512835
981.200931	2540.459234
981.498162	2545.565923
981.795356	2546.705223
982.092513	2544.668597
982.389633	2548.988866
982.686717	2552.666388
982.983764	2553.165462
983.280775	2554.390462
983.577749	2556.006152
983.874686	2552.845349
984.171587	2550.531459
984.468451	2549.457693
984.765279	2546.798485
985.062070	2544.550130
985.358824	2544.688762
985.655543	2543.481406
985.952224	2543.567105
986.248869	2539.458565
986.545478	2536.852288
986.842050	2539.133410
987.138586	2535.561753
987.435086	2537.726928
987.731549	2533.111752
988.027975	2541.054090
988.324366	2536.718698
988.620719	2537.726928
988.917037	2538.160468
989.213318	2538.909079
989.509563	2534.024201
989.805772	2538.621733
990.101944	2538.238606
990.398080	2534.366999
990.694180	2538.858667
990.990244	2537.757175
991.286271	2534.195600
991.582262	2542.090047
991.878217	2537.968904
992.174136	2539.032587
992.470019	2536.310364
992.765865	2537.613502
993.061676	2538.513348
993.357450	2537.517721
993.653188	2539.541744
993.948890	2540.708771
994.244556	2538.319264
994.540186	2539.887063
994.835780	2538.684748
995.131337	2541.323792
995.426859	2541.013761
995.722345	2538.762886
996.017795	2540.340767
996.313208	2540.355890
996.608586	2541.235572
996.903928	2542.949564
997.199234	2541.885880
997.494504	2541.283463
997.789738	2541.336395
998.084936	2541.341436
998.380099	2538.467978
998.675225	2540.895294
998.970316	2540.708771
999.265371	2540.144162
999.560390	2540.857485
999.855373	2540.794471
1000.150320	2538.641898
1000.445232	2539.009902
1000.740108	2537.248019
1001.034948	2537.074099
1001.329752	2536.706095
1001.624521	2537.303472
1001.919254	2534.578728
1002.213951	2537.855478
1002.508613	2532.957997
1002.803239	2534.780374
1003.097829	2532.688295
1003.392384	2537.668955
1003.686903	2536.912782
1003.981386	2537.008564
1004.275834	2537.928575
1004.570246	2537.852957
1004.864623	2535.329860
1005.158964	2536.726259
1005.453270	2536.847247
1005.747540	2534.699716
1006.041775	2538.183153
1006.335974	2533.351207
1006.630138	2537.555529
1006.924266	2535.541588
1007.218359	2533.358769
1007.512416	2535.760878
1007.806438	2538.321785
1008.100425	2536.028060
1008.394376	2536.275076
1008.688292	2537.883204
1008.982172	2536.552340
1009.276017	2535.917154
1009.569827	2534.747607
1009.863602	2539.710622
1010.157341	2535.009747
1010.451045	2537.555529
1010.744714	2536.166691
1011.038347	2536.322967
1011.331945	2534.283820
1011.625508	2539.322454
1011.919036	2535.123172
1012.212528	2537.177443
1012.505986	2534.934129
1012.799408	2532.663089
1013.092795	2535.007226
1013.386147	2535.947401
1013.679464	2533.872966
1013.972745	2534.596372
1014.265992	2537.532844
1014.559204	2536.469161
1014.852380	2535.942360
1015.145521	2537.021167
1015.438628	2536.159130
1015.731699	2535.357586
1016.024736	2534.752648
1016.317737	2535.980169
1016.610703	2536.592669
1016.903635	2534.551002
1017.196531	2527.705115
1017.489393	2535.949922
1017.782219	2529.938346
1018.075011	2535.629808
1018.367768	2531.591844
1018.660490	2538.614172
1018.953177	2538.614172
1019.245829	2538.614172
