Dividing Wavelength (nm)	Counts (n)	Blue Motor Position (mm): 35.800000	Red Motor Position (mm): 0.000000	
326.493990	2051.369008
326.888308	2051.369008
327.282561	2051.369008
327.676750	2024.834895
328.070874	2027.206758
328.464933	2032.386543
328.858929	2040.550692
329.252859	2052.447815
329.646726	2065.038097
330.040528	2083.191292
330.434265	2100.414394
330.827938	2123.185286
331.221547	2141.882926
331.615091	2165.445279
332.008571	2184.594102
332.401986	2205.708974
332.795338	2223.342931
333.188625	2243.613410
333.581847	2261.811976
333.975006	2278.384769
334.368100	2299.144240
334.761129	2315.540593
335.154095	2330.033911
335.546996	2380.790768
335.939833	2490.579537
336.332606	2499.260404
336.725315	2513.068124
337.117960	2525.000536
337.510540	2536.569984
337.903056	2545.369318
338.295508	2547.163968
338.687896	2556.396842
339.080220	2562.766340
339.472480	2566.922771
339.864676	2571.495097
340.256807	2572.641960
340.648875	2573.556929
341.040879	2574.149265
341.432818	2577.788978
341.824694	2576.838721
342.216506	2577.128587
342.608253	2576.934502
342.999937	2576.621951
343.391557	2574.093812
343.783113	2573.062896
344.174605	2569.022412
344.566033	2569.158523
344.957397	2569.138358
345.348697	2565.788511
345.739934	2564.238357
346.131106	2563.824982
346.522215	2564.624005
346.913260	2562.461350
347.304241	2558.501523
347.695159	2559.116544
348.086012	2557.480690
348.476802	2555.814588
348.867528	2553.036913
349.258191	2548.197405
349.648789	2548.265461
350.039324	2544.537527
350.429796	2548.651109
350.820203	2547.022816
351.210548	2549.097251
351.600828	2545.792775
351.991045	2546.634647
352.381198	2546.690100
352.771288	2545.684390
353.161314	2544.381252
353.551276	2545.855789
353.941175	2543.602393
354.331010	2543.660367
354.720782	2546.826211
355.110490	2549.921480
355.500135	2544.812270
355.889717	2543.549461
356.279235	2546.077600
356.668689	2546.488454
357.058080	2545.097095
357.447408	2549.281253
357.836672	2547.806716
358.225873	2548.058773
358.615010	2551.348126
359.004084	2548.540203
359.393095	2549.092210
359.782043	2547.892415
360.170927	2550.536500
360.559748	2551.534649
360.948505	2551.259906
361.337199	2553.719989
361.725830	2555.542366
362.114398	2554.647561
362.502903	2555.214691
362.891344	2556.908519
363.279722	2552.096737
363.668037	2556.648899
364.056289	2554.642520
364.444478	2554.337530
364.832603	2557.541184
365.220665	2558.136040
365.608665	2556.767367
365.996601	2556.588406
366.384474	2558.554456
366.772284	2557.505896
367.160031	2557.518498
367.547715	2559.073694
367.935336	2558.713252
368.322893	2557.475649
368.710388	2555.875082
369.097820	2554.672767
369.485189	2558.819116
369.872495	2563.530074
370.259738	2557.170659
370.646918	2563.068809
371.034035	2560.878427
371.421090	2559.998746
371.808081	2563.184755
372.195010	2563.948490
372.581875	2565.803635
372.968678	2567.436969
373.355418	2564.460167
373.742096	2565.226423
374.128710	2566.259859
374.515262	2563.063768
374.901751	2566.436300
375.288177	2566.796742
375.674540	2566.025446
376.060841	2567.711712
376.447079	2567.522668
376.833254	2566.524520
377.219367	2569.604665
377.605417	2570.350756
377.991404	2567.910837
378.377329	2570.663307
378.763191	2569.327401
379.148991	2566.557287
379.534727	2570.141548
379.920402	2568.165415
380.306013	2570.166753
380.691563	2572.203380
381.077049	2571.782443
381.462474	2570.839747
381.847835	2570.416291
382.233134	2570.698595
382.618371	2571.858061
383.003545	2572.949470
383.388657	2573.146075
383.773706	2573.108267
384.158693	2574.126580
384.543618	2575.767475
384.928480	2572.243709
385.313280	2575.520459
385.698017	2575.326374
386.082692	2578.409040
386.467305	2576.614389
386.851856	2577.889801
387.236344	2576.266550
387.620770	2573.249419
388.005133	2573.819069
388.389435	2576.586663
388.773674	2573.307392
389.157851	2580.964905
389.541965	2581.184195
389.926018	2581.300142
390.310008	2582.131932
390.693936	2581.196798
391.077802	2582.058835
391.461606	2583.235945
391.845348	2580.458269
392.229027	2585.335585
392.612645	2583.820719
392.996200	2586.747108
393.379694	2585.176789
393.763125	2584.390369
394.146494	2589.214753
394.529801	2587.956985
394.913047	2588.153590
395.296230	2586.482448
395.679351	2587.336923
396.062410	2590.596029
396.445408	2588.866914
396.828343	2592.824219
397.211217	2590.590988
397.594028	2592.138623
397.976778	2590.875813
398.359466	2592.904878
398.742092	2593.570310
399.124656	2594.497882
399.507158	2595.122986
399.889598	2594.565938
400.271977	2595.864035
400.654294	2596.098449
401.036549	2596.027873
401.418742	2599.050044
401.800874	2601.389140
402.182944	2599.007195
402.564952	2599.972576
402.946898	2602.730087
403.328783	2606.788216
403.710606	2607.919955
404.092367	2607.340222
404.474067	2610.357352
404.855705	2613.923969
405.237282	2615.791716
405.618797	2619.408744
406.000250	2623.003087
406.381642	2627.734210
406.762972	2633.065230
407.144240	2631.593213
407.525447	2641.567136
407.906593	2643.434883
408.287677	2657.396359
408.668700	2664.078408
409.049661	2676.139369
409.430560	2683.834690
409.811399	2693.039837
410.192176	2704.994934
410.572891	2720.640155
410.953545	2740.376272
411.334138	2745.654360
411.714669	2767.636311
412.095139	2776.584359
412.475547	2804.104018
412.855894	2820.903663
413.236180	2845.897704
413.616405	2861.860518
413.996568	2889.702811
414.376670	2913.171902
414.756711	2930.049685
415.136691	2963.457412
415.516609	3000.605675
415.896466	3033.317722
416.276262	3069.432548
416.655997	3116.650516
417.035670	3164.173473
417.415283	3219.192626
417.794834	3260.857762
418.174324	3287.457411
418.553753	3321.273471
418.933121	3396.734503
419.312428	3433.676078
419.691674	3456.147021
420.070859	3549.494067
420.449983	3560.478741
420.829045	3652.162206
421.208047	3673.214065
421.586988	3765.895678
421.965867	3833.197603
422.344686	3906.690064
422.723444	4014.537989
423.102141	3923.809822
423.480777	4105.755147
423.859352	4089.782251
424.237866	4281.845172
424.616319	4336.047658
424.994712	4453.020071
425.373044	4474.439934
425.751314	4663.457997
426.129524	4591.442594
426.507673	4775.180049
426.885762	4847.742417
427.263789	4930.417340
427.641756	5032.382238
428.019662	5123.574191
428.397508	5202.775759
428.775292	5260.743987
429.153016	5399.650461
429.530679	5434.338640
429.908282	5519.539182
430.285824	5542.252100
430.663305	5757.476602
431.040726	5761.678404
431.418086	5811.540456
431.795385	5958.507735
432.172624	6134.564992
432.549802	6108.429130
432.926920	6260.908910
433.303977	6282.853053
433.680974	6372.852772
434.057910	6560.953346
434.434786	6649.924670
434.811601	6677.653537
435.188355	6980.692418
435.565050	6950.286699
435.941683	7016.033427
436.318257	7311.049312
436.694770	7314.346227
437.071222	7543.106226
437.447614	7400.602889
437.823946	7427.124400
438.200218	7601.099660
438.576429	7557.014770
438.952580	7735.428766
439.328670	7780.423585
439.704700	7899.916575
440.080670	7841.212338
440.456580	8096.781194
440.832429	8122.150801
441.208218	7930.614681
441.583947	8072.583656
441.959616	8192.958848
442.335224	8260.545598
442.710773	8370.488122
443.086261	8562.220847
443.461689	8345.229421
443.837057	8506.342177
444.212365	8725.947441
444.587612	8748.322603
444.962800	8670.746807
445.337927	8822.190630
445.712995	8415.341788
446.088002	9048.762769
446.462949	9136.587231
446.837837	9166.345162
447.212664	9238.476512
447.587431	10131.600095
447.962139	11099.816705
448.336786	11843.969151
448.711374	11467.571399
449.085901	10362.898315
449.460369	10361.675836
449.834776	10301.915477
450.209124	11223.650129
450.583412	11004.816161
450.957640	11224.454193
451.331808	10827.670015
451.705917	10357.935299
452.079965	10293.658067
452.453954	10495.495785
452.827883	10459.091092
453.201752	10429.761659
453.575562	10460.285846
453.949311	10819.150465
454.323001	10905.392004
454.696632	10828.463997
455.070202	11418.120200
455.443713	11484.615540
455.817164	11640.588840
456.190556	11955.144237
456.563888	11781.789039
456.937160	12007.191630
457.310373	11513.105621
457.683526	11554.977445
458.056619	11602.911256
458.429653	11683.292454
458.802628	11855.412570
459.175542	11924.831779
459.548398	12478.642858
459.921194	13068.752766
460.293930	13394.827199
460.666607	14232.929109
461.039224	14958.494820
461.411782	15225.023144
461.784280	14825.506661
462.156719	14737.399895
462.529099	14646.666687
462.901419	14064.373089
463.273680	13714.010376
463.645882	13958.274444
464.018024	13909.707968
464.390106	14335.614892
464.762130	15514.783626
465.134094	17219.094398
465.505999	19503.452934
465.877845	21527.370339
466.249631	22424.922576
466.621358	21767.236001
466.993026	20933.943352
467.364634	20218.069259
467.736184	19519.753505
468.107674	18964.926633
468.479105	18826.879677
468.850477	18565.858813
469.221790	18135.878637
469.593043	17493.292838
469.964238	17147.368861
470.335373	17260.149555
470.706449	18151.213827
471.077467	19297.521800
471.448425	21669.737565
471.819324	23179.605992
472.190164	22646.821565
472.560945	20950.390117
472.931667	19536.596000
473.302330	19285.110479
473.672934	18830.489143
474.043479	19277.737791
474.413965	19078.811340
474.784393	18926.172763
475.154761	19558.807324
475.525070	19703.755621
475.895321	19531.859836
476.265513	20060.361802
476.635645	20650.650671
477.005719	20726.429296
477.375734	21101.861667
477.745691	21718.858568
478.115588	22384.951267
478.485427	23665.817718
478.855207	25577.927372
479.224928	27305.666907
479.594591	28492.364604
479.964194	27950.372510
480.333739	28335.209154
480.703226	28627.008782
481.072653	29145.652772
481.442022	29633.633944
481.811333	29950.261255
482.180584	29437.817885
482.549777	29233.298273
482.918912	29030.550627
483.287988	28969.797162
483.657005	28805.120309
484.025964	28460.018041
484.394864	28641.900351
484.763706	28595.194060
485.132489	28096.858359
485.501213	28171.366613
485.869879	28369.448671
486.238487	28328.963164
486.607036	28610.957748
486.975527	28323.511156
487.343959	28655.577001
487.712333	28994.392951
488.080648	28961.068404
488.448905	29399.275743
488.817104	29325.354783
489.185244	30225.399871
489.553326	31404.775292
489.921350	33379.773340
490.289315	35796.487371
490.657222	36454.567156
491.025070	36855.480039
491.392861	36457.629657
491.760593	35651.344990
492.128267	34636.245648
492.495883	33686.104095
492.863440	32838.799559
493.230939	31956.141412
493.598380	31434.243357
493.965763	31325.394763
494.333088	30859.685409
494.700354	30692.734997
495.067563	30676.099189
495.434713	30583.367164
495.801805	30888.813196
496.168839	30748.096948
496.535815	30627.613371
496.902733	30768.314496
497.269593	30580.269375
497.636395	30763.779978
498.003139	31056.834854
498.369825	30814.937607
498.736453	31230.363972
499.103023	31081.554152
499.469535	31183.619873
499.835989	31342.380931
500.202385	31206.983101
500.568723	31276.361980
500.935003	31598.038007
501.301226	31510.513494
501.667390	32212.209342
502.033497	32415.587132
502.399546	32216.007852
502.765537	31817.691163
503.131470	32307.514876
503.497345	32747.766403
503.863163	31732.719994
504.228923	32503.787160
504.594625	32905.531833
504.960269	32398.714390
505.325856	33090.116202
505.691385	32769.103087
506.056856	33101.481483
506.422270	33608.442599
506.787625	33143.948163
507.152924	33614.794453
507.518164	33824.934951
507.883347	33378.813001
508.248472	33553.456214
508.613540	34238.901902
508.978550	34490.531097
509.343503	34349.255281
509.708398	34716.286569
510.073236	35349.992375
510.438016	35443.929235
510.802738	35135.418182
511.167403	35709.663578
511.532010	35968.463814
511.896561	36445.024251
512.261053	37214.276602
512.625488	37011.413009
512.989866	36933.869981
513.354186	37012.975767
513.718449	36955.544422
514.082655	37872.736994
514.446803	37577.330420
514.810894	38214.365908
515.174927	38236.932633
515.538904	38223.485355
515.902822	38897.873272
516.266684	38584.832742
516.630488	38965.712080
516.994235	38972.376485
517.357925	39585.496739
517.721558	39840.286737
518.085133	40234.774670
518.448651	40425.065624
518.812112	40309.610598
519.175516	40477.854067
519.538863	40921.215986
519.902152	40986.113280
520.265385	41554.165619
520.628560	41585.077974
520.991678	41531.732484
521.354739	41773.034875
521.717743	42134.011737
522.080690	42046.451936
522.443580	42728.454516
522.806413	42750.280192
523.169189	42916.660954
523.531908	43146.403979
523.894569	43009.866847
524.257174	43215.301428
524.619722	43550.374322
524.982213	43681.648488
525.344647	43742.056635
525.707025	43860.488462
526.069345	44311.215507
526.431608	44210.349580
526.793815	44600.955824
527.155964	44167.817365
527.518057	44434.922902
527.880093	44282.251558
528.242072	44919.594556
528.603995	44653.338454
528.965860	44573.519345
529.327669	44810.738401
529.689421	44861.336462
530.051117	44809.987269
530.412755	45108.668072
530.774337	45172.930181
531.135862	45109.323422
531.497331	45253.845741
531.858743	45246.470533
532.220098	45659.129305
532.581396	45394.256999
532.942638	45149.125853
533.303824	45410.396253
533.664953	45472.909082
534.026025	45144.074616
534.387040	45720.326392
534.747999	45790.239634
535.108902	46103.854856
535.469748	45414.837510
535.830537	45691.327154
536.191270	45938.376460
536.551947	45665.440829
536.912567	45967.443753
537.273131	46127.170193
537.633638	45721.526187
537.994089	45933.902436
538.354483	45683.099991
538.714821	46338.366812
539.075103	46618.390306
539.435328	46478.886455
539.795497	46237.508447
540.155609	46341.116762
540.515665	46950.488918
540.875665	46261.922755
541.235609	46527.276491
541.595496	46664.342943
541.955328	47226.754231
542.315102	46660.310020
542.674821	46550.795994
543.034483	46435.156966
543.394090	46463.881461
543.753640	46434.108406
544.113134	47526.352525
544.472571	46618.395347
544.831953	47760.287269
545.191278	47004.451949
545.550548	46696.341668
545.909761	47339.305552
546.268918	47495.921600
546.628019	47914.654962
546.987064	47336.812702
547.346053	46624.013713
547.704986	47546.832212
548.063863	47177.492076
548.422684	47381.701656
548.781449	46974.615880
549.140158	47516.550001
549.498811	47292.879046
549.857408	46656.382962
550.215949	47507.554062
550.574434	47342.887292
550.932864	47293.352915
551.291237	48019.833595
551.649555	47751.644211
552.007817	47952.713152
552.366022	47607.550390
552.724173	47679.215433
553.082267	48096.106253
553.440305	48441.949572
553.798288	47677.685443
554.156215	48071.775124
554.514086	48293.590934
554.871902	47904.948220
555.229661	48085.076208
555.587365	47757.537320
555.945014	47903.161131
556.302606	47886.976506
556.660143	48007.190382
557.017625	48238.811236
557.375050	47919.088656
557.732421	48345.819809
558.089735	48398.845186
558.446994	48258.048279
558.804197	48758.176111
559.161345	48615.332496
559.518437	47958.558370
559.875474	48219.339779
560.232455	48443.202298
560.589381	48498.140793
560.946251	48303.617789
561.303065	48971.903390
561.659825	48652.087549
562.016528	48452.478021
562.373177	48025.704019
562.729770	48659.200617
563.086307	48199.840596
563.442789	48730.895907
563.799216	48583.971478
564.155587	48468.463520
564.511904	48454.002970
564.868164	48495.224485
565.224370	48810.815840
565.580520	48532.579435
565.936615	48733.678624
566.292654	48386.610305
566.648638	48755.479094
567.004567	48693.059527
567.360441	48795.707502
567.716260	48503.610445
568.072023	48880.928207
568.427732	48814.266509
568.783385	48341.948203
569.138982	48767.527452
569.494525	48886.917098
569.850013	48476.294953
570.205445	48614.699832
570.560823	48389.269514
570.916145	48256.934184
571.271412	48473.542483
571.626625	48137.383221
571.981782	48212.309890
572.336884	47798.831931
572.691931	48136.427922
573.046923	47805.088003
573.401860	47631.846231
573.756743	47638.775297
574.111570	47794.148699
574.466342	47707.776090
574.821059	47839.277109
575.175722	47346.045575
575.530330	47460.716702
575.884882	47080.081860
576.239380	46979.649472
576.593823	47077.639421
576.948211	47008.875562
577.302544	46548.101497
577.656823	46556.452169
578.011047	46820.054103
578.365216	46637.624828
578.719330	46346.074737
579.073389	46335.478231
579.427394	46390.215080
579.781344	46302.695608
580.135239	46062.361119
580.489080	46125.849410
580.842866	45613.355628
581.196597	46113.982534
581.550273	46091.627537
581.903895	46029.127312
582.257463	46465.232490
582.610975	45902.075112
582.964434	46233.168014
583.317837	45739.913795
583.671186	45703.864504
584.024481	45975.716287
584.377721	45518.191246
584.730906	45724.888636
585.084037	45850.252050
585.437113	45554.359004
585.790135	45664.268761
586.143103	45218.779475
586.496016	45397.606846
586.848874	45498.485376
587.201679	45521.871288
587.554428	45024.944589
587.907124	45293.363346
588.259765	45046.119956
588.612352	45211.711778
588.964884	44674.559191
589.317362	44970.603471
589.669786	44990.253889
590.022155	44845.658473
590.374470	45291.853521
590.726731	44855.632396
591.078937	44176.430177
591.431090	44539.771340
591.783188	44064.892127
592.135232	43861.418555
592.487222	44115.084376
592.839157	44272.804435
593.191038	43899.958176
593.542866	43713.443046
593.894639	43113.296201
594.246358	43434.629429
594.598022	43406.643464
594.949633	42982.115296
595.301190	42964.453613
595.652692	42895.452820
596.004141	43380.300914
596.355535	42266.286573
596.706876	42299.391830
597.058162	42005.641275
597.409395	42515.004501
597.760573	42734.024991
598.111698	42330.919206
598.462768	42257.822476
598.813785	42273.502985
599.164748	41858.668955
599.515657	42139.191523
599.866511	41639.547642
600.217312	42356.601365
600.568060	41253.309557
600.918753	42109.660443
601.269392	42013.926411
601.619978	41737.151942
601.970510	41937.434463
602.320988	42079.106010
602.671412	42351.393853
603.021783	42218.052813
603.372100	41774.597633
603.722363	41887.078378
604.072572	41924.824017
604.422728	41908.498240
604.772830	41700.563247
605.122878	41857.711136
605.472872	41718.013201
605.822813	41980.347286
606.172701	41721.599982
606.522534	42057.063565
606.872314	42269.888477
607.222041	42095.819956
607.571714	42417.427927
607.921333	41924.274531
608.270899	42141.187820
608.620411	42535.834548
608.969870	42268.141717
609.319276	42284.505303
609.668627	42306.794765
610.017926	42726.947211
610.367171	42860.230278
610.716362	42898.749734
611.065500	42778.528297
611.414585	43008.115047
611.763616	43202.995972
612.112594	43093.605454
612.461518	43211.442425
612.810389	43613.789517
613.159207	43381.004155
613.507971	43379.683373
613.856682	43862.116755
614.205340	43701.094739
614.553945	44397.444444
614.902496	43702.554153
615.250994	44122.615859
615.599439	44195.092528
615.947830	44309.980424
616.296169	44295.434175
616.644454	44344.776989
616.992686	44501.992933
617.340864	44962.756915
617.688990	44469.495135
618.037063	45159.588767
618.385082	44978.810470
618.733048	45333.422875
619.080961	45185.689341
619.428821	45212.094905
619.776628	45213.176233
620.124382	45047.324792
620.472083	45137.816024
620.819731	45236.574748
621.167326	44801.412266
621.514868	44783.619513
621.862357	44240.336884
622.209793	44328.592364
622.557176	43898.685285
622.904506	43660.636959
623.251783	43274.308134
623.599007	42977.321158
623.946179	42878.015469
624.293297	42623.038948
624.640363	42072.416399
624.987376	41922.956270
625.334336	41702.925028
625.681243	41278.270831
626.028097	41207.931611
626.374899	41012.886848
626.721647	40990.506646
627.068343	40770.477924
627.414987	40485.677938
627.761577	40231.467673
628.108115	40555.737373
628.454600	39796.065736
628.801032	40032.024503
629.147412	39920.211711
629.493739	39833.831540
629.840014	39383.348991
630.186236	39816.560547
630.532405	39248.299000
630.878521	39488.772121
631.224585	39257.090772
631.570597	38906.917103
631.916556	39087.733209
632.262462	38962.289136
632.608316	38889.136953
632.954117	38757.799772
633.299866	38707.897390
633.645562	38617.827094
633.991206	38092.642207
634.336797	37669.094543
634.682336	37559.416679
635.027823	37317.025400
635.373257	37188.609567
635.718639	36853.786211
636.063968	36757.822806
636.409245	36084.775836
636.754470	36050.795938
637.099642	35821.393191
637.444762	35240.881641
637.789829	35385.593003
638.134845	35014.087691
638.479808	34908.667082
638.824719	34863.362232
639.169577	34355.281980
639.514383	34449.642298
639.859137	34064.861107
640.203839	34232.045933
640.548489	33941.352838
640.893086	33935.232877
641.237632	33642.155316
641.582125	33767.168369
641.926566	33547.968918
642.270955	33577.603341
642.615292	33514.810728
642.959576	33400.852925
643.303809	33419.225410
643.647990	33487.369208
643.992118	33449.192549
644.336195	33286.632982
644.680219	33371.369737
645.024192	33569.335848
645.368112	34112.084116
645.711981	34128.147752
646.055797	34869.129312
646.399562	34684.189542
646.743274	35554.529630
647.086935	35959.556095
647.430544	35909.416779
647.774101	35949.244415
648.117606	36237.971460
648.461059	36397.231592
648.804460	35980.832285
649.147810	35465.155014
649.491108	35093.374959
649.834354	34944.587823
650.177548	34115.073520
650.520690	33617.962818
650.863781	33598.443471
651.206820	33419.711882
651.549807	33021.947199
651.892742	32423.153904
652.235626	32328.140757
652.578458	32184.619107
652.921238	31501.593172
653.263967	31811.011634
653.606644	31501.401609
653.949269	31420.236511
654.291843	31011.653513
654.634365	31395.650804
654.976836	30913.096434
655.319255	30991.125934
655.661622	30863.176408
656.003938	30728.426366
656.346203	30556.288606
656.688416	30803.831945
657.030577	30552.338862
657.372687	30384.808717
657.714746	30559.671220
658.056753	30747.174417
658.398708	30113.856780
658.740612	30176.120071
659.082465	30390.893390
659.424266	30274.745205
659.766016	30291.098708
660.107715	30146.823406
660.449362	30250.136813
660.790958	30223.801825
661.132503	30155.915127
661.473996	30231.837424
661.815438	30311.593519
662.156829	30434.723702
662.498168	30240.964433
662.839456	30223.380888
663.180693	30333.124287
663.521879	30421.601578
663.863013	30396.778937
664.204097	30356.134634
664.545129	30787.319646
664.886110	30724.315305
665.227040	30829.975369
665.567918	30821.206282
665.908746	30902.530176
666.249522	30978.218060
666.590248	31007.166886
666.930922	31109.363677
667.271545	31110.442484
667.612118	31164.818890
667.952639	30969.469137
668.293109	31016.170386
668.633528	30863.872088
668.973896	30820.273668
669.314213	30801.787757
669.654480	30612.414293
669.994695	30597.477354
670.334859	30513.032986
670.674973	30356.704284
671.015035	30562.895038
671.355047	30459.500973
671.695008	30401.376469
672.034918	30309.551852
672.374777	30412.623283
672.714585	30283.378181
673.054342	30412.232594
673.394049	30263.861354
673.733705	30476.751801
674.073310	30196.302331
674.412864	30266.427301
674.752368	29945.693970
675.091820	30181.161225
675.431223	29767.955488
675.770574	29578.639997
676.109875	29412.939790
676.449125	29193.047180
676.788324	29098.606204
677.127473	28607.202089
677.466571	28519.468368
677.805619	28226.768893
678.144616	28160.603749
678.483562	28122.913562
678.822458	27794.184961
679.161303	27731.788079
679.500098	27645.107960
679.838842	27578.363083
680.177535	27673.081322
680.516179	27926.260671
680.854771	28064.332834
681.193314	28829.668208
681.531805	29867.417454
681.870247	30617.730189
682.208638	31356.165966
682.546978	31622.182614
682.885268	31757.840064
683.223508	31315.972847
683.561697	31034.210155
683.899836	30874.148480
684.237925	30436.415009
684.575963	30292.918565
684.913951	29920.402501
685.251889	30088.887945
685.589776	30119.752409
685.927614	30128.549223
686.265401	30308.689814
686.603137	30434.701017
686.940824	30936.295824
687.278460	31257.271131
687.616046	31430.638932
687.953582	32103.789246
688.291068	32013.063601
688.628504	32362.569317
688.965889	32343.201204
689.303224	32069.348083
689.640510	31773.613834
689.977745	31145.478503
690.314930	30378.161956
690.652065	29934.028740
690.989150	29256.343908
691.326185	28402.251459
691.663170	27759.075845
692.000105	27023.195933
692.336990	26407.318168
692.673825	25980.902087
693.010610	25475.231507
693.347345	24963.660256
693.684030	24341.692776
694.020665	24143.620801
694.357251	23452.932312
694.693786	23455.997334
695.030272	23217.807856
695.366707	22720.518193
695.703093	22437.830450
696.039429	22518.756093
696.375716	22257.594077
696.711952	22266.408534
697.048139	22128.157411
697.384276	21958.973767
697.720363	22081.065472
698.056400	21966.643883
698.392388	21811.149492
698.728326	21809.720325
699.064214	21649.207466
699.400053	21640.390488
699.735842	21252.624934
700.071581	21048.201104
700.407270	20804.405863
700.742910	20636.545523
701.078501	20374.496263
701.414042	20162.719911
701.749533	19850.254072
702.084974	19538.141114
702.420366	19768.794067
702.755709	19362.330873
703.091002	19059.044976
703.426246	19118.954048
703.761440	19045.554848
704.096584	18803.430749
704.431679	18739.758456
704.766725	18697.218679
705.101721	18618.614488
705.436668	18738.745184
705.771565	18475.523856
706.106413	18785.053223
706.441212	18853.300364
706.775961	18965.944947
707.110661	19048.355209
707.445311	19414.935314
707.779913	19291.043917
708.114465	19587.952755
708.448967	19902.016640
708.783421	20542.790143
709.117825	20909.241699
709.452180	21141.664097
709.786485	21595.607398
710.120742	22379.688302
710.454949	22481.635557
710.789107	22993.529442
711.123216	23724.063210
711.457275	23922.324229
711.791286	24481.557069
712.125247	24646.586802
712.459159	24379.753488
712.793023	25124.657065
713.126837	24084.515792
713.460602	24342.925338
713.794318	23990.936853
714.127985	23730.951947
714.461602	22809.524806
714.795171	22802.328558
715.128691	21794.803551
715.462162	21285.846138
715.795584	20840.119918
716.128957	20575.572767
716.462281	20197.062771
716.795556	19913.276057
717.128782	19423.548125
717.461960	18819.325508
717.795088	18777.977964
718.128167	18434.511549
718.461198	17966.969736
718.794180	17848.414400
719.127113	17497.971029
719.459997	17310.059499
719.792833	16936.371367
720.125619	16977.471894
720.458357	16645.539640
720.791046	16493.347205
721.123686	16353.130032
721.456278	16115.512724
721.788821	16112.745131
722.121315	15838.725652
722.453761	15940.962772
722.786158	15824.000442
723.118506	15907.945735
723.450805	15792.717561
723.783056	15971.988554
724.115259	15868.546598
724.447412	15858.602922
724.779518	16080.953094
725.111574	16136.461239
725.443582	16406.200779
725.775542	16355.325454
726.107453	16881.579066
726.439315	16799.075542
726.771129	17219.419552
727.102895	17643.103328
727.434612	17923.283097
727.766281	18088.088498
728.097901	18415.085463
728.429473	18505.511160
728.760996	18512.926697
729.092471	18650.454415
729.423897	18526.119397
729.755276	18391.752482
730.086606	18520.929529
730.417887	19103.155072
730.749120	19666.710702
731.080305	19885.859742
731.411442	20288.852101
731.742530	20413.459341
732.073570	20574.199052
732.404562	20891.330479
732.735506	20737.892879
733.066401	20521.924807
733.397249	20022.313694
733.728048	19394.359844
734.058798	18515.648920
734.389501	17745.600068
734.720156	17238.578458
735.050762	16635.008669
735.381320	16258.154693
735.711831	15982.630430
736.042293	15599.306132
736.372707	15638.916999
736.703073	15429.605770
737.033391	15630.767973
737.363661	15621.479647
737.693883	15752.083341
738.024056	15956.522294
738.354182	16175.588155
738.684260	16534.069646
739.014290	16819.963563
739.344272	17050.316567
739.674207	17399.950833
740.004093	17576.245025
740.333931	17625.040873
740.663722	17717.344400
740.993464	17758.639012
741.323159	17600.656812
741.652806	17286.885314
741.982405	17119.619830
742.311956	16751.207266
742.641460	16642.701470
742.970915	16306.922815
743.300323	15957.321317
743.629683	15740.218985
743.958996	15423.909267
744.288260	15102.485297
744.617477	14800.111848
744.946647	14758.038378
745.275768	14449.378611
745.604842	14230.068254
745.933869	14057.093663
746.262847	14026.629970
746.591778	13938.329119
746.920662	13822.775791
747.249498	13836.286083
747.578286	13997.880269
747.907027	14168.926619
748.235720	14448.168734
748.564365	14515.604249
748.892963	14430.595272
749.221514	14538.090316
749.550017	14402.702567
749.878473	14367.752248
750.206881	14140.817146
750.535242	14068.907607
750.863555	13980.253875
751.191821	13883.322569
751.520039	13901.982400
751.848210	13831.118900
752.176334	13873.073903
752.504411	13792.753199
752.832440	13618.228453
753.160421	13736.688006
753.488356	13623.579637
753.816243	13530.025904
754.144082	13362.868805
754.471875	13315.189572
754.799620	13285.345941
755.127318	13261.894493
755.454969	13242.322213
755.782572	13209.514384
756.110129	13227.153381
756.437638	13125.443061
756.765100	13133.466058
757.092515	13165.426973
757.419882	13204.158158
757.747203	13217.865055
758.074477	13301.512921
758.401703	13286.235704
758.728882	13480.577226
759.056014	13523.492569
759.383099	13691.022714
759.710138	13815.687928
760.037129	13940.653091
760.364073	14004.574922
760.690970	14026.362789
761.017820	14043.099419
761.344623	14281.611531
761.671379	14671.010419
761.998088	15381.218255
762.324751	17183.130807
762.651366	20637.609206
762.977935	25173.563819
763.304456	28188.461165
763.630931	29257.873898
763.957359	28043.623774
764.283740	25735.793626
764.610074	23447.820582
764.936362	20772.608785
765.262602	18873.374238
765.588796	16909.514620
765.914943	15604.858963
766.241044	14487.719106
766.567097	13680.474100
766.893104	12962.702012
767.219064	12480.283754
767.544978	11994.384579
767.870845	11597.824732
768.196665	11379.331042
768.522438	11139.820782
768.848165	10933.814030
769.173846	10722.998017
769.499479	10592.464900
769.825066	10424.329816
770.150607	10193.434888
770.476101	10113.444379
770.801548	9980.070572
771.126949	9821.871602
771.452303	9707.114776
771.777611	9511.016412
772.102872	9498.766408
772.428087	9359.161735
772.753256	9199.173156
773.078378	9104.064227
773.403453	8923.348944
773.728482	8807.868712
774.053465	8734.431703
774.378401	8632.181980
774.703291	8504.481991
775.028135	8382.924648
775.352932	8348.312086
775.677683	8239.309737
776.002388	8130.186400
776.327046	8141.770972
776.651658	8047.448463
776.976224	7939.368645
777.300743	7938.073068
777.625216	7849.943617
777.949643	7804.535424
778.274024	7819.323648
778.598359	7732.638488
778.922647	7752.064574
779.246889	7703.707306
779.571086	7705.496915
779.895236	7716.779017
780.219339	7726.495842
780.543397	7725.744710
780.867409	7803.035680
781.191374	7813.571692
781.515294	7780.773945
781.839167	7883.588278
782.162995	7851.886982
782.486776	7793.379350
782.810511	7747.308245
783.134201	7658.253742
783.457844	7655.768453
783.781441	7600.789629
784.104993	7532.950822
784.428498	7507.422419
784.751958	7496.087384
785.075372	7459.957435
785.398739	7414.428254
785.722061	7451.498379
786.045337	7462.392312
786.368568	7620.009028
786.691752	7642.858058
787.014891	7988.230029
787.337983	8349.080862
787.661030	8949.845248
787.984031	9592.128577
788.306987	9996.209826
788.629897	10210.312671
788.952760	10163.651751
789.275579	9936.394015
789.598351	9530.107262
789.921078	9172.003857
790.243759	8756.184282
790.566395	8457.768139
790.888984	8201.985034
791.211529	7989.003846
791.534027	7764.667458
791.856480	7559.253042
792.178888	7486.962896
792.501249	7388.461270
792.823566	7224.286013
793.145836	7226.277269
793.468062	7201.547889
793.790241	7152.240363
794.112375	7220.434572
794.434464	7374.845114
794.756507	7416.855569
795.078505	7579.319355
795.400457	7897.101091
795.722364	8253.631655
796.044226	8537.398205
796.366042	8818.160227
796.687812	8770.884287
797.009538	8850.065690
797.331218	8735.971776
797.652852	8653.064960
797.974442	8498.604006
798.295986	8418.129546
798.617484	8220.223929
798.938938	8073.423008
799.260346	7968.362841
799.581709	7764.763240
799.903026	7688.089811
800.224299	7583.218688
800.545526	7406.299393
800.866708	7311.490413
801.187845	7236.707416
801.508936	7130.200438
801.829983	7094.214162
802.150984	6937.651047
802.471940	6890.271762
802.792851	6878.014197
803.113717	6845.410534
803.434538	6809.696480
803.755314	6751.879486
804.076045	6757.409632
804.396731	6699.973246
804.717372	6732.821404
805.037967	6731.364511
805.358518	6775.615759
805.679024	6864.370314
805.999485	6869.051025
806.319901	6912.596512
806.640272	6938.782786
806.960598	7015.403283
807.280879	7018.349837
807.601115	7094.796415
807.921306	7042.113837
808.241453	7050.323356
808.561554	7077.361584
808.881611	7040.125101
809.201623	7051.470218
809.521590	6990.542833
809.841513	6974.834597
810.161390	7014.843715
810.481223	6878.374639
810.801011	6865.643205
811.120755	6840.555903
811.440453	6763.678307
811.760107	6730.986424
812.079716	6698.970056
812.399281	6631.310210
812.718801	6621.011132
813.038276	6574.176292
813.357707	6510.748495
813.677093	6554.916564
813.996434	6460.755372
814.315731	6507.781776
814.634983	6501.077041
814.954191	6510.627507
815.273354	6619.798735
815.592473	6684.461615
815.911547	6810.929042
816.230577	6894.183698
816.549562	7040.934207
816.868502	7146.629559
817.187399	7247.205619
817.506250	7403.037767
817.825058	7437.577232
818.143821	7713.887916
818.462539	7991.065678
818.781213	8360.776339
819.099843	8921.284591
819.418429	9933.681874
819.736970	10917.246278
820.055466	12127.261832
820.373919	13685.313607
820.692327	16079.571818
821.010691	20287.296905
821.329011	29375.985612
821.647286	42485.322187
821.965517	55916.145745
822.283704	61195.264738
822.601847	63180.965156
822.919945	60547.368084
823.237999	56460.938200
823.556010	50387.434184
823.873976	43638.007220
824.191897	37028.530247
824.509775	32141.613024
824.827609	27543.803453
825.145398	24903.191615
825.463144	23511.520602
825.780845	23823.653725
826.098502	25611.350222
826.416116	29446.914647
826.733685	33165.458767
827.051210	34336.251624
827.368692	32540.411143
827.686129	28539.320432
828.003522	24348.026986
828.320872	20571.461706
828.638177	17688.204010
828.955439	15490.018958
829.272656	13637.788130
829.589830	12136.121660
829.906960	10846.143323
830.224046	9885.906859
830.541088	9125.093400
830.858086	8659.457143
831.175041	8271.595807
831.491952	8156.163466
831.808819	8199.887914
832.125642	8613.852344
832.442421	9508.452985
832.759157	11333.244813
833.075849	14305.627588
833.392497	17595.179598
833.709101	19791.512027
834.025662	19645.910901
834.342179	17933.418336
834.658653	15696.265165
834.975083	13735.964601
835.291469	12078.831467
835.607811	10742.076264
835.924110	9820.838166
836.240366	8928.604347
836.556578	8116.789534
836.872746	7457.187321
837.188871	6945.895854
837.504952	6526.486977
837.820990	6209.264810
838.136984	5983.196786
838.452935	5883.288678
838.768842	5918.448206
839.084706	6344.445871
839.400526	7570.028508
839.716303	9179.651288
840.032037	10301.229880
840.347727	10232.594571
840.663373	9238.249660
840.978977	8174.026795
841.294537	7347.771597
841.610054	6740.400779
841.925527	6296.819570
842.240957	5929.367345
842.556344	5594.869143
842.871687	5305.012880
843.186987	5020.510321
843.502244	4788.813849
843.817458	4622.228920
844.132629	4481.200121
844.447756	4391.389445
844.762840	4308.265859
845.077881	4235.572420
845.392879	4168.875434
845.707833	4118.857106
846.022745	4069.269796
846.337613	4043.791805
846.652438	3999.832943
846.967221	3980.996672
847.281960	3951.790747
847.596656	3934.333231
847.911309	3912.280704
848.225919	3886.132239
848.540485	3872.223695
848.855009	3856.757435
849.169490	3832.834640
849.483928	3819.722598
849.798323	3812.528872
850.112675	3796.535811
850.426984	3801.806338
850.741251	3786.113226
851.055474	3784.205149
851.369654	3786.395530
851.683792	3784.041312
851.997887	3789.972229
852.311938	3793.858959
852.625947	3792.281078
852.939914	3781.944192
853.253837	3792.749905
853.567718	3791.661016
853.881555	3782.007206
854.195350	3801.604692
854.509103	3790.514153
854.822812	3794.839463
855.136479	3778.599386
855.450103	3791.565234
855.763685	3777.427318
856.077224	3777.334056
856.390720	3797.544042
856.704173	3819.836024
857.017584	3833.311029
857.330953	3845.548430
857.644278	3867.638766
857.957561	3875.649159
858.270802	3870.673540
858.584000	3875.054303
858.897155	3867.255638
859.210268	3851.358359
859.523339	3828.547138
859.836367	3829.005883
860.149352	3818.628668
860.462295	3812.201197
860.775195	3800.654434
861.088054	3799.439516
861.400869	3799.560504
861.713642	3793.838794
862.026373	3807.263387
862.339062	3811.921413
862.651708	3835.299764
862.964312	3865.506358
863.276873	3878.502452
863.589392	3934.769291
863.901869	3984.659070
864.214303	4031.468704
864.526696	4066.681164
864.839045	4110.932412
865.151353	4137.446361
865.463619	4146.737207
865.775842	4154.777848
866.088023	4170.544056
866.400162	4160.885206
866.712258	4172.237884
867.024313	4173.856094
867.336325	4170.559180
867.648296	4177.306764
867.960224	4177.430273
868.272110	4187.890667
868.583954	4189.607180
868.895755	4205.385991
869.207515	4201.872307
869.519233	4244.326384
869.830909	4260.281636
870.142542	4284.711068
870.454134	4298.160866
870.765684	4328.415351
871.077191	4366.085373
871.388657	4389.393148
871.700081	4425.712141
872.011463	4472.514213
872.322803	4505.342207
872.634101	4542.026683
872.945357	4577.501283
873.256571	4633.256444
873.567744	4666.528060
873.878874	4685.384496
874.189963	4723.384713
874.501010	4733.162031
874.812015	4732.075663
875.122979	4778.096356
875.433900	4771.058905
875.744780	4785.544661
876.055618	4818.483560
876.366415	4819.990865
876.677169	4839.893341
876.987882	4885.263725
877.298554	4939.463691
877.609183	5021.606772
877.919771	5133.159945
878.230317	5279.582779
878.540822	5499.422457
878.851285	5827.740204
879.161707	6300.784437
879.472087	7069.598207
879.782425	8334.590065
880.092722	10550.323374
880.402977	13901.647163
880.713191	17711.204275
881.023363	21469.177780
881.333494	23706.877917
881.643583	24950.984274
881.953631	24952.506703
882.263637	24110.969247
882.573602	22626.636785
882.883526	21037.357583
883.193408	19348.707155
883.503248	17632.857182
883.813048	16060.526339
884.122806	14606.034987
884.432522	13115.070887
884.742197	11820.626088
885.051831	10705.790038
885.361424	9693.181027
885.670975	8858.794448
885.980485	8161.144126
886.289954	7561.587096
886.599382	7086.682678
886.908768	6703.537341
887.218113	6332.964643
887.527417	6038.029416
887.836680	5764.783754
888.145901	5541.160690
888.455082	5380.577255
888.764221	5225.123194
889.073319	5087.993727
889.382376	5014.715515
889.691392	4952.038849
890.000366	4926.381897
890.309300	4906.653341
890.618193	4911.407149
890.927044	4898.731168
891.235855	4921.396195
891.544625	4950.748314
891.853353	5013.634187
892.162041	5136.109020
892.470687	5324.993493
892.779293	5576.184107
893.087858	5955.591428
893.396381	6541.471807
893.704864	7363.535285
894.013306	8533.234212
894.321707	9733.064116
894.630068	10569.958668
894.938387	10781.238467
895.246665	10547.429752
895.554903	9932.726575
895.863100	9212.953150
896.171256	8644.868043
896.479371	8135.645970
896.787446	7623.875593
897.095480	7186.779828
897.403473	6863.167998
897.711425	6538.799995
898.019336	6263.958808
898.327207	5989.067210
898.635038	5758.046252
898.942827	5499.566130
899.250576	5303.863497
899.558284	5106.388898
899.865952	4977.365606
900.173579	4830.325231
900.481165	4723.273808
900.788711	4624.981390
901.096216	4551.690575
901.403681	4485.651460
901.711105	4460.395279
902.018489	4446.713588
902.325832	4514.570039
902.633135	4643.933608
902.940397	4991.498481
903.247619	5796.716943
903.554800	7260.415963
903.861941	9211.735711
904.169041	10765.449573
904.476101	11408.027810
904.783121	11051.441793
905.090100	10304.456219
905.397039	9446.713974
905.703938	8680.773662
906.010796	7967.417625
906.317614	7408.865341
906.624391	6863.110025
906.931129	6429.399395
907.237826	6023.959556
907.544483	5636.224249
907.851099	5256.169140
908.157675	4895.295621
908.464211	4566.582144
908.770707	4329.282429
909.077163	4123.217704
909.383578	3973.538285
909.689954	3855.542517
909.996289	3788.885860
910.302584	3719.703586
910.608839	3690.618648
910.915054	3654.841580
911.221229	3641.565701
911.527363	3652.671363
911.833458	3669.687778
912.139513	3694.079401
912.445527	3725.947055
912.751502	3807.270948
913.057436	3916.167433
913.363331	4054.232034
913.669186	4259.666615
913.975000	4523.568498
914.280775	4955.222338
914.586510	5542.821751
914.892205	6357.807449
915.197859	7409.442553
915.503475	8649.979773
915.809050	9734.347089
916.114585	10394.135825
916.420081	10658.912349
916.725536	10626.507812
917.030952	10175.838740
917.336328	9760.901367
917.641665	9342.326802
917.946961	8853.123150
918.252218	8430.737472
918.557435	7910.008965
918.862612	7465.656459
919.167750	7081.976761
919.472848	6651.868035
919.777906	6271.230673
920.082925	5902.278705
920.387904	5531.655595
920.692843	5256.680817
920.997743	5005.911140
921.302603	4768.724851
921.607423	4601.736630
921.912204	4436.043985
922.216946	4315.663752
922.521647	4189.526521
922.826310	4082.666662
923.130932	3987.721571
923.435516	3888.526787
923.740059	3815.104902
924.044564	3733.125658
924.349028	3674.388654
924.653454	3609.987913
924.957840	3541.864281
925.262186	3488.246568
925.566493	3429.658278
925.870761	3373.000750
926.174989	3333.639421
926.479178	3299.117600
926.783328	3248.804364
927.087438	3225.166393
927.391509	3189.948892
927.695541	3159.190292
927.999533	3130.685088
928.303486	3108.201542
928.607400	3097.673092
928.911275	3082.123653
929.215110	3064.865263
929.518906	3054.452759
929.822663	3055.256823
930.126381	3051.387738
930.430060	3058.652041
930.733699	3063.552042
931.037299	3071.978331
931.340861	3068.537743
931.644383	3079.948395
931.947866	3077.949578
932.251309	3071.622929
932.554714	3071.358269
932.858080	3064.416600
933.161407	3056.920404
933.464694	3048.322716
933.767943	3040.660163
934.071153	3037.106149
934.374323	3025.975281
934.677455	3021.753315
934.980548	3013.258971
935.283602	3009.286542
935.586617	3004.618433
935.889593	3015.121677
936.192530	3020.233407
936.495428	3031.283616
936.798287	3056.559962
937.101108	3093.614963
937.403890	3145.415339
937.706632	3205.415152
938.009336	3288.374901
938.312002	3366.132178
938.614628	3425.718617
938.917216	3477.816421
939.219765	3511.264477
939.522275	3542.728839
939.824747	3549.136145
940.127179	3544.750341
940.429573	3543.137172
940.731929	3539.326060
941.034246	3524.396683
941.336524	3511.700537
941.638763	3496.451046
941.940964	3481.993017
942.243126	3436.443672
942.545250	3414.824683
942.847335	3375.407901
943.149381	3339.807273
943.451389	3307.168322
943.753359	3273.127931
944.055290	3247.027357
944.357182	3222.481979
944.659036	3204.590924
944.960851	3195.179090
945.262628	3179.445648
945.564367	3183.599559
945.866067	3176.015143
946.167729	3172.453568
946.469352	3171.241171
946.770937	3166.895696
947.072484	3150.716113
947.373992	3153.776093
947.675462	3145.833755
947.976893	3128.479583
948.278286	3120.242338
948.579641	3113.020885
948.880958	3108.246912
949.182236	3110.437293
949.483476	3103.394802
949.784678	3105.136520
950.085841	3104.561829
950.386967	3119.385342
950.688054	3132.242804
950.989103	3157.279695
951.290114	3177.073786
951.591087	3204.868187
951.892021	3234.984040
952.192917	3259.993205
952.493776	3284.606638
952.794596	3293.824388
953.095378	3299.316725
953.396122	3291.676857
953.696828	3287.543110
953.997496	3275.865278
954.298126	3254.881475
954.598718	3232.967579
954.899272	3204.066644
955.199788	3175.231244
955.500266	3144.442397
955.800706	3108.163733
956.101108	3067.403484
956.401472	3035.157743
956.701798	3003.032990
957.002087	2963.311218
957.302337	2936.154523
957.602550	2903.177815
957.902724	2874.796119
958.202861	2846.051459
958.502960	2829.912205
958.803022	2807.678196
959.103045	2787.271606
959.403031	2770.572783
959.702979	2755.290526
960.002889	2739.728484
960.302762	2728.610219
960.602596	2719.642006
960.902393	2706.146837
961.202153	2697.884386
961.501875	2689.861390
961.801559	2683.103723
962.101205	2677.918896
962.400814	2673.127280
962.700385	2664.201917
962.999918	2657.159425
963.299414	2653.212201
963.598873	2652.829074
963.898293	2642.991262
964.197677	2645.133752
964.497022	2642.882877
964.796331	2640.947074
965.095601	2637.090591
965.394835	2634.436424
965.694030	2630.736217
965.993189	2631.799900
966.292309	2626.068108
966.591393	2630.131278
966.890439	2628.734879
967.189447	2629.972482
967.488419	2631.056330
967.787353	2632.349386
968.086249	2631.293264
968.385108	2635.122021
968.683930	2636.036990
968.982714	2640.206024
969.281462	2644.274236
969.580172	2649.146511
969.878844	2656.332676
970.177480	2666.024294
970.476078	2669.827844
970.774639	2679.461489
971.073162	2687.484486
971.371649	2693.072605
971.670098	2699.348841
971.968510	2704.450489
972.266885	2707.712116
972.565223	2714.053887
972.863524	2713.380893
973.161788	2715.921635
973.460014	2720.993035
973.758204	2724.862121
974.056356	2726.989488
974.354471	2728.569890
974.652550	2728.509396
974.950591	2726.303891
975.248595	2724.383211
975.546563	2724.738613
975.844493	2722.603684
976.142386	2714.391644
976.440243	2710.764534
976.738062	2705.100798
977.035845	2697.700384
977.333590	2690.105886
977.631299	2686.204033
977.928971	2680.139525
978.226606	2672.718946
978.524204	2672.272804
978.821765	2665.636125
979.119290	2669.321208
979.416777	2667.332473
979.714228	2671.254491
980.011642	2675.201714
980.309020	2682.264371
980.606360	2697.453367
980.903664	2721.451780
981.200931	2755.441760
981.498162	2806.753145
981.795356	2884.197871
982.092513	2974.764720
982.389633	3082.020309
982.686717	3180.247192
982.983764	3254.291660
983.280775	3301.229843
983.577749	3315.627378
983.874686	3298.386632
984.171587	3262.188627
984.468451	3226.436764
984.765279	3179.647295
985.062070	3128.658544
985.358824	3082.670618
985.655543	3030.131713
985.952224	2973.852271
986.248869	2912.861871
986.545478	2850.331399
986.842050	2795.274437
987.138586	2749.157962
987.435086	2708.886704
987.731549	2678.027281
988.027975	2652.889567
988.324366	2635.195117
988.620719	2619.270112
988.917037	2609.543206
989.213318	2598.359406
989.509563	2591.132912
989.805772	2586.399269
990.101944	2582.835173
990.398080	2578.550192
990.694180	2580.841397
990.990244	2578.628330
991.286271	2579.442477
991.582262	2579.296283
991.878217	2584.012282
992.174136	2585.481779
992.470019	2589.668457
992.765865	2592.057964
993.061676	2595.243973
993.357450	2604.587752
993.653188	2611.083279
993.948890	2631.991464
994.244556	2649.882519
994.540186	2674.758093
994.835780	2706.272866
995.131337	2742.702764
995.426859	2788.627676
995.722345	2835.034018
996.017795	2889.112996
996.313208	2927.382915
996.608586	2951.991308
996.903928	2965.332721
997.199234	2968.773309
997.494504	2963.263328
997.789738	2945.077365
998.084936	2922.908891
998.380099	2890.365722
998.675225	2860.204499
998.970316	2830.015549
999.265371	2793.061371
999.560390	2755.658530
999.855373	2725.083932
1000.150320	2695.973789
1000.445232	2667.912206
1000.740108	2650.003507
1001.034948	2632.571197
1001.329752	2614.453290
1001.624521	2602.049531
1001.919254	2591.606781
1002.213951	2579.770152
1002.508613	2574.492063
1002.803239	2567.200034
1003.097829	2562.284909
1003.392384	2555.716286
1003.686903	2550.780996
1003.981386	2549.417364
1004.275834	2545.515511
1004.570246	2543.801519
1004.864623	2538.924202
1005.158964	2537.636188
1005.453270	2536.219623
1005.747540	2532.242153
1006.041775	2532.194262
1006.335974	2533.053779
1006.630138	2526.812830
1006.924266	2530.326515
1007.218359	2526.865763
1007.512416	2524.045237
1007.806438	2520.917201
1008.100425	2521.522139
1008.394376	2519.387211
1008.688292	2523.536080
1008.982172	2527.032121
1009.276017	2526.023890
1009.569827	2522.454753
1009.863602	2522.157325
1010.157341	2521.640607
1010.451045	2521.103724
1010.744714	2517.534587
1011.038347	2518.976357
1011.331945	2519.283867
1011.625508	2514.759432
1011.919036	2516.060049
1012.212528	2515.467714
1012.505986	2513.405882
1012.799408	2512.687517
1013.092795	2509.985459
1013.386147	2511.636437
1013.679464	2511.621313
1013.972745	2512.148114
1014.265992	2513.032836
1014.559204	2511.331447
1014.852380	2510.550068
1015.145521	2512.180881
1015.438628	2508.861282
1015.731699	2511.086951
1016.024736	2513.068124
1016.317737	2514.325892
1016.610703	2516.022241
1016.903635	2516.816222
1017.196531	2517.310255
1017.489393	2516.677591
1017.782219	2520.113137
1018.075011	2520.413086
1018.367768	2521.663292
1018.660490	2523.465504
1018.953177	2523.465504
1019.245829	2523.465504
