Dividing Wavelength (nm)	Counts (n)	Blue Motor Position (mm): 5.100000	Red Motor Position (mm): 0.000000	
326.493990	2157.613846
326.888308	2157.613846
327.282561	2157.613846
327.676750	2024.023269
328.070874	2064.352500
328.464933	2122.325769
328.858929	2114.764038
329.252859	2018.982115
329.646726	2094.599423
330.040528	2089.558269
330.434265	2160.134423
330.827938	2119.805192
331.221547	2036.626154
331.615091	2271.039808
332.008571	2112.243462
332.401986	2157.613846
332.795338	2192.901923
333.188625	2293.725000
333.581847	2238.272308
333.975006	2281.122115
334.368100	2288.683846
334.761129	2306.327885
335.154095	2311.369038
335.546996	2283.642692
335.939833	2364.301154
336.332606	2460.083077
336.725315	2376.904038
337.117960	2374.383462
337.510540	2427.315577
337.903056	2462.603654
338.295508	2293.725000
338.687896	2412.192115
339.080220	2397.068654
339.472480	2422.274423
339.864676	2444.959615
340.256807	2447.480192
340.648875	2500.412308
341.040879	2447.480192
341.432818	2490.330000
341.824694	2497.891731
342.216506	2507.974038
342.608253	2450.000769
342.999937	2492.850577
343.391557	2429.836154
343.783113	2457.562500
344.174605	2502.932885
344.566033	2505.453462
344.957397	2545.782692
345.348697	2515.535769
345.739934	2427.315577
346.131106	2480.247692
346.522215	2502.932885
346.913260	2538.220962
347.304241	2502.932885
347.695159	2513.015192
348.086012	2429.836154
348.476802	2490.330000
348.867528	2467.644808
349.258191	2455.041923
349.648789	2424.795000
350.039324	2379.424615
350.429796	2439.918462
350.820203	2407.150962
351.210548	2507.974038
351.600828	2412.192115
351.991045	2429.836154
352.381198	2429.836154
352.771288	2336.574808
353.161314	2472.685962
353.551276	2374.383462
353.941175	2470.165385
354.331010	2414.712692
354.720782	2533.179808
355.110490	2470.165385
355.500135	2437.397885
355.889717	2465.124231
356.279235	2467.644808
356.668689	2419.753846
357.058080	2465.124231
357.447408	2452.521346
357.836672	2422.274423
358.225873	2422.274423
358.615010	2399.589231
359.004084	2462.603654
359.393095	2505.453462
359.782043	2470.165385
360.170927	2455.041923
360.559748	2429.836154
360.948505	2470.165385
361.337199	2422.274423
361.725830	2384.465769
362.114398	2472.685962
362.502903	2460.083077
362.891344	2419.753846
363.279722	2490.330000
363.668037	2447.480192
364.056289	2465.124231
364.444478	2329.013077
364.832603	2470.165385
365.220665	2460.083077
365.608665	2447.480192
365.996601	2462.603654
366.384474	2495.371154
366.772284	2490.330000
367.160031	2323.971923
367.547715	2477.727115
367.935336	2500.412308
368.322893	2437.397885
368.710388	2510.494615
369.097820	2482.768269
369.485189	2407.150962
369.872495	2470.165385
370.259738	2381.945192
370.646918	2444.959615
371.034035	2485.288846
371.421090	2513.015192
371.808081	2485.288846
372.195010	2480.247692
372.581875	2462.603654
372.968678	2386.986346
373.355418	2399.589231
373.742096	2422.274423
374.128710	2540.741538
374.515262	2384.465769
374.901751	2402.109808
375.288177	2480.247692
375.674540	2429.836154
376.060841	2444.959615
376.447079	2507.974038
376.833254	2495.371154
377.219367	2460.083077
377.605417	2424.795000
377.991404	2467.644808
378.377329	2497.891731
378.763191	2538.220962
379.148991	2485.288846
379.534727	2502.932885
379.920402	2467.644808
380.306013	2397.068654
380.691563	2482.768269
381.077049	2528.138654
381.462474	2455.041923
381.847835	2417.233269
382.233134	2417.233269
382.618371	2510.494615
383.003545	2452.521346
383.388657	2447.480192
383.773706	2427.315577
384.158693	2462.603654
384.543618	2450.000769
384.928480	2429.836154
385.313280	2462.603654
385.698017	2392.027500
386.082692	2525.618077
386.467305	2414.712692
386.851856	2429.836154
387.236344	2434.877308
387.620770	2465.124231
388.005133	2452.521346
388.389435	2538.220962
388.773674	2455.041923
389.157851	2467.644808
389.541965	2457.562500
389.926018	2475.206538
390.310008	2442.439038
390.693936	2518.056346
391.077802	2543.262115
391.461606	2482.768269
391.845348	2558.385577
392.229027	2480.247692
392.612645	2518.056346
392.996200	2419.753846
393.379694	2460.083077
393.763125	2538.220962
394.146494	2374.383462
394.529801	2492.850577
394.913047	2389.506923
395.296230	2485.288846
395.679351	2507.974038
396.062410	2538.220962
396.445408	2545.782692
396.828343	2424.795000
397.211217	2487.809423
397.594028	2482.768269
397.976778	2507.974038
398.359466	2417.233269
398.742092	2583.591346
399.124656	2487.809423
399.507158	2520.576923
399.889598	2427.315577
400.271977	2457.562500
400.654294	2414.712692
401.036549	2482.768269
401.418742	2520.576923
401.800874	2457.562500
402.182944	2427.315577
402.564952	2392.027500
402.946898	2525.618077
403.328783	2480.247692
403.710606	2457.562500
404.092367	2422.274423
404.474067	2470.165385
404.855705	2417.233269
405.237282	2444.959615
405.618797	2457.562500
406.000250	2550.823846
406.381642	2465.124231
406.762972	2447.480192
407.144240	2497.891731
407.525447	2487.809423
407.906593	2470.165385
408.287677	2492.850577
408.668700	2386.986346
409.049661	2452.521346
409.430560	2502.932885
409.811399	2490.330000
410.192176	2505.453462
410.572891	2543.262115
410.953545	2495.371154
411.334138	2515.535769
411.714669	2500.412308
412.095139	2462.603654
412.475547	2450.000769
412.855894	2477.727115
413.236180	2528.138654
413.616405	2439.918462
413.996568	2530.659231
414.376670	2520.576923
414.756711	2477.727115
415.136691	2487.809423
415.516609	2510.494615
415.896466	2465.124231
416.276262	2379.424615
416.655997	2492.850577
417.035670	2477.727115
417.415283	2505.453462
417.794834	2528.138654
418.174324	2581.070769
418.553753	2490.330000
418.933121	2447.480192
419.312428	2432.356731
419.691674	2497.891731
420.070859	2525.618077
420.449983	2460.083077
420.829045	2402.109808
421.208047	2490.330000
421.586988	2543.262115
421.965867	2477.727115
422.344686	2470.165385
422.723444	2601.235385
423.102141	2429.836154
423.480777	2560.906154
423.859352	2427.315577
424.237866	2455.041923
424.616319	2460.083077
424.994712	2455.041923
425.373044	2434.877308
425.751314	2452.521346
426.129524	2462.603654
426.507673	2500.412308
426.885762	2492.850577
427.263789	2477.727115
427.641756	2465.124231
428.019662	2480.247692
428.397508	2525.618077
428.775292	2475.206538
429.153016	2502.932885
429.530679	2543.262115
429.908282	2495.371154
430.285824	2543.262115
430.663305	2477.727115
431.040726	2465.124231
431.418086	2520.576923
431.795385	2518.056346
432.172624	2470.165385
432.549802	2442.439038
432.926920	2598.714808
433.303977	2465.124231
433.680974	2457.562500
434.057910	2515.535769
434.434786	2429.836154
434.811601	2513.015192
435.188355	2437.397885
435.565050	2492.850577
435.941683	2513.015192
436.318257	2485.288846
436.694770	2495.371154
437.071222	2568.467885
437.447614	2505.453462
437.823946	2419.753846
438.200218	2437.397885
438.576429	2457.562500
438.952580	2422.274423
439.328670	2457.562500
439.704700	2515.535769
440.080670	2497.891731
440.456580	2482.768269
440.832429	2576.029615
441.208218	2427.315577
441.583947	2482.768269
441.959616	2502.932885
442.335224	2414.712692
442.710773	2482.768269
443.086261	2513.015192
443.461689	2535.700385
443.837057	2475.206538
444.212365	2538.220962
444.587612	2485.288846
444.962800	2460.083077
445.337927	2452.521346
445.712995	2427.315577
446.088002	2543.262115
446.462949	2407.150962
446.837837	2545.782692
447.212664	2606.276538
447.587431	2407.150962
447.962139	2475.206538
448.336786	2462.603654
448.711374	2452.521346
449.085901	2497.891731
449.460369	2487.809423
449.834776	2497.891731
450.209124	2480.247692
450.583412	2555.865000
450.957640	2518.056346
451.331808	2407.150962
451.705917	2518.056346
452.079965	2550.823846
452.453954	2513.015192
452.827883	2528.138654
453.201752	2573.509038
453.575562	2492.850577
453.949311	2505.453462
454.323001	2485.288846
454.696632	2482.768269
455.070202	2384.465769
455.443713	2500.412308
455.817164	2477.727115
456.190556	2538.220962
456.563888	2470.165385
456.937160	2442.439038
457.310373	2455.041923
457.683526	2482.768269
458.056619	2442.439038
458.429653	2520.576923
458.802628	2455.041923
459.175542	2538.220962
459.548398	2409.671538
459.921194	2424.795000
460.293930	2510.494615
460.666607	2452.521346
461.039224	2568.467885
461.411782	2495.371154
461.784280	2558.385577
462.156719	2495.371154
462.529099	2530.659231
462.901419	2457.562500
463.273680	2528.138654
463.645882	2482.768269
464.018024	2402.109808
464.390106	2424.795000
464.762130	2497.891731
465.134094	2432.356731
465.505999	2495.371154
465.877845	2586.111923
466.249631	2568.467885
466.621358	2482.768269
466.993026	2470.165385
467.364634	2482.768269
467.736184	2457.562500
468.107674	2528.138654
468.479105	2470.165385
468.850477	2535.700385
469.221790	2455.041923
469.593043	2462.603654
469.964238	2432.356731
470.335373	2495.371154
470.706449	2472.685962
471.077467	2528.138654
471.448425	2555.865000
471.819324	2545.782692
472.190164	2472.685962
472.560945	2535.700385
472.931667	2422.274423
473.302330	2507.974038
473.672934	2528.138654
474.043479	2485.288846
474.413965	2482.768269
474.784393	2500.412308
475.154761	2513.015192
475.525070	2502.932885
475.895321	2432.356731
476.265513	2520.576923
476.635645	2424.795000
477.005719	2545.782692
477.375734	2455.041923
477.745691	2495.371154
478.115588	2470.165385
478.485427	2507.974038
478.855207	2397.068654
479.224928	2462.603654
479.594591	2548.303269
479.964194	2439.918462
480.333739	2442.439038
480.703226	2487.809423
481.072653	2470.165385
481.442022	2513.015192
481.811333	2596.194231
482.180584	2510.494615
482.549777	2543.262115
482.918912	2520.576923
483.287988	2450.000769
483.657005	2487.809423
484.025964	2505.453462
484.394864	2535.700385
484.763706	2530.659231
485.132489	2359.260000
485.501213	2442.439038
485.869879	2457.562500
486.238487	2472.685962
486.607036	2515.535769
486.975527	2515.535769
487.343959	2455.041923
487.712333	2497.891731
488.080648	2550.823846
488.448905	2528.138654
488.817104	2497.891731
489.185244	2538.220962
489.553326	2437.397885
489.921350	2505.453462
490.289315	2457.562500
490.657222	2598.714808
491.025070	2482.768269
491.392861	2497.891731
491.760593	2482.768269
492.128267	2432.356731
492.495883	2472.685962
492.863440	2520.576923
493.230939	2432.356731
493.598380	2460.083077
493.965763	2490.330000
494.333088	2485.288846
494.700354	2510.494615
495.067563	2505.453462
495.434713	2540.741538
495.801805	2505.453462
496.168839	2513.015192
496.535815	2465.124231
496.902733	2487.809423
497.269593	2389.506923
497.636395	2487.809423
498.003139	2505.453462
498.369825	2578.550192
498.736453	2487.809423
499.103023	2510.494615
499.469535	2457.562500
499.835989	2573.509038
500.202385	2437.397885
500.568723	2482.768269
500.935003	2525.618077
501.301226	2528.138654
501.667390	2525.618077
502.033497	2518.056346
502.399546	2399.589231
502.765537	2477.727115
503.131470	2452.521346
503.497345	2543.262115
503.863163	2432.356731
504.228923	2460.083077
504.594625	2422.274423
504.960269	2505.453462
505.325856	2495.371154
505.691385	2535.700385
506.056856	2525.618077
506.422270	2510.494615
506.787625	2487.809423
507.152924	2513.015192
507.518164	2447.480192
507.883347	2553.344423
508.248472	2560.906154
508.613540	2462.603654
508.978550	2450.000769
509.343503	2558.385577
509.708398	2480.247692
510.073236	2444.959615
510.438016	2530.659231
510.802738	2475.206538
511.167403	2472.685962
511.532010	2545.782692
511.896561	2563.426731
512.261053	2515.535769
512.625488	2437.397885
512.989866	2510.494615
513.354186	2553.344423
513.718449	2581.070769
514.082655	2487.809423
514.446803	2492.850577
514.810894	2576.029615
515.174927	2419.753846
515.538904	2470.165385
515.902822	2523.097500
516.266684	2525.618077
516.630488	2543.262115
516.994235	2455.041923
517.357925	2419.753846
517.721558	2444.959615
518.085133	2513.015192
518.448651	2480.247692
518.812112	2472.685962
519.175516	2510.494615
519.538863	2472.685962
519.902152	2520.576923
520.265385	2439.918462
520.628560	2545.782692
520.991678	2576.029615
521.354739	2530.659231
521.717743	2470.165385
522.080690	2439.918462
522.443580	2437.397885
522.806413	2543.262115
523.169189	2490.330000
523.531908	2394.548077
523.894569	2490.330000
524.257174	2523.097500
524.619722	2424.795000
524.982213	2510.494615
525.344647	2573.509038
525.707025	2480.247692
526.069345	2500.412308
526.431608	2457.562500
526.793815	2480.247692
527.155964	2505.453462
527.518057	2545.782692
527.880093	2455.041923
528.242072	2497.891731
528.603995	2389.506923
528.965860	2502.932885
529.327669	2477.727115
529.689421	2492.850577
530.051117	2553.344423
530.412755	2490.330000
530.774337	2495.371154
531.135862	2528.138654
531.497331	2525.618077
531.858743	2495.371154
532.220098	2455.041923
532.581396	2497.891731
532.942638	2397.068654
533.303824	2487.809423
533.664953	2502.932885
534.026025	2417.233269
534.387040	2553.344423
534.747999	2477.727115
535.108902	2513.015192
535.469748	2545.782692
535.830537	2533.179808
536.191270	2434.877308
536.551947	2492.850577
536.912567	2560.906154
537.273131	2457.562500
537.633638	2525.618077
537.994089	2487.809423
538.354483	2510.494615
538.714821	2460.083077
539.075103	2553.344423
539.435328	2452.521346
539.795497	2518.056346
540.155609	2525.618077
540.515665	2444.959615
540.875665	2455.041923
541.235609	2505.453462
541.595496	2502.932885
541.955328	2507.974038
542.315102	2492.850577
542.674821	2523.097500
543.034483	2593.673654
543.394090	2470.165385
543.753640	2613.838269
544.113134	2530.659231
544.472571	2470.165385
544.831953	2525.618077
545.191278	2515.535769
545.550548	2530.659231
545.909761	2500.412308
546.268918	2530.659231
546.628019	2452.521346
546.987064	2533.179808
547.346053	2485.288846
547.704986	2540.741538
548.063863	2470.165385
548.422684	2429.836154
548.781449	2555.865000
549.140158	2507.974038
549.498811	2490.330000
549.857408	2525.618077
550.215949	2581.070769
550.574434	2518.056346
550.932864	2502.932885
551.291237	2565.947308
551.649555	2528.138654
552.007817	2555.865000
552.366022	2437.397885
552.724173	2450.000769
553.082267	2472.685962
553.440305	2427.315577
553.798288	2492.850577
554.156215	2523.097500
554.514086	2475.206538
554.871902	2555.865000
555.229661	2543.262115
555.587365	2545.782692
555.945014	2455.041923
556.302606	2492.850577
556.660143	2543.262115
557.017625	2439.918462
557.375050	2518.056346
557.732421	2497.891731
558.089735	2510.494615
558.446994	2510.494615
558.804197	2450.000769
559.161345	2502.932885
559.518437	2497.891731
559.875474	2480.247692
560.232455	2515.535769
560.589381	2550.823846
560.946251	2429.836154
561.303065	2507.974038
561.659825	2545.782692
562.016528	2578.550192
562.373177	2515.535769
562.729770	2429.836154
563.086307	2507.974038
563.442789	2598.714808
563.799216	2487.809423
564.155587	2467.644808
564.511904	2480.247692
564.868164	2472.685962
565.224370	2502.932885
565.580520	2381.945192
565.936615	2386.986346
566.292654	2500.412308
566.648638	2500.412308
567.004567	2565.947308
567.360441	2500.412308
567.716260	2507.974038
568.072023	2520.576923
568.427732	2480.247692
568.783385	2507.974038
569.138982	2485.288846
569.494525	2472.685962
569.850013	2460.083077
570.205445	2475.206538
570.560823	2452.521346
570.916145	2487.809423
571.271412	2475.206538
571.626625	2450.000769
571.981782	2528.138654
572.336884	2490.330000
572.691931	2513.015192
573.046923	2472.685962
573.401860	2444.959615
573.756743	2472.685962
574.111570	2515.535769
574.466342	2525.618077
574.821059	2535.700385
575.175722	2457.562500
575.530330	2540.741538
575.884882	2573.509038
576.239380	2437.397885
576.593823	2588.632500
576.948211	2523.097500
577.302544	2555.865000
577.656823	2450.000769
578.011047	2518.056346
578.365216	2427.315577
578.719330	2460.083077
579.073389	2457.562500
579.427394	2525.618077
579.781344	2558.385577
580.135239	2513.015192
580.489080	2505.453462
580.842866	2533.179808
581.196597	2482.768269
581.550273	2497.891731
581.903895	2409.671538
582.257463	2427.315577
582.610975	2550.823846
582.964434	2505.453462
583.317837	2573.509038
583.671186	2500.412308
584.024481	2437.397885
584.377721	2500.412308
584.730906	2477.727115
585.084037	2535.700385
585.437113	2550.823846
585.790135	2482.768269
586.143103	2495.371154
586.496016	2477.727115
586.848874	2568.467885
587.201679	2495.371154
587.554428	2490.330000
587.907124	2462.603654
588.259765	2467.644808
588.612352	2472.685962
588.964884	2568.467885
589.317362	2555.865000
589.669786	2555.865000
590.022155	2543.262115
590.374470	2510.494615
590.726731	2492.850577
591.078937	2482.768269
591.431090	2477.727115
591.783188	2525.618077
592.135232	2485.288846
592.487222	2470.165385
592.839157	2565.947308
593.191038	2558.385577
593.542866	2533.179808
593.894639	2487.809423
594.246358	2500.412308
594.598022	2573.509038
594.949633	2467.644808
595.301190	2480.247692
595.652692	2482.768269
596.004141	2515.535769
596.355535	2485.288846
596.706876	2553.344423
597.058162	2485.288846
597.409395	2570.988462
597.760573	2523.097500
598.111698	2472.685962
598.462768	2419.753846
598.813785	2437.397885
599.164748	2520.576923
599.515657	2520.576923
599.866511	2560.906154
600.217312	2470.165385
600.568060	2447.480192
600.918753	2505.453462
601.269392	2455.041923
601.619978	2555.865000
601.970510	2510.494615
602.320988	2518.056346
602.671412	2447.480192
603.021783	2487.809423
603.372100	2568.467885
603.722363	2525.618077
604.072572	2492.850577
604.422728	2467.644808
604.772830	2538.220962
605.122878	2573.509038
605.472872	2518.056346
605.822813	2490.330000
606.172701	2518.056346
606.522534	2462.603654
606.872314	2525.618077
607.222041	2487.809423
607.571714	2530.659231
607.921333	2507.974038
608.270899	2470.165385
608.620411	2412.192115
608.969870	2392.027500
609.319276	2495.371154
609.668627	2583.591346
610.017926	2576.029615
610.367171	2535.700385
610.716362	2530.659231
611.065500	2397.068654
611.414585	2495.371154
611.763616	2533.179808
612.112594	2437.397885
612.461518	2535.700385
612.810389	2578.550192
613.159207	2487.809423
613.507971	2530.659231
613.856682	2462.603654
614.205340	2472.685962
614.553945	2502.932885
614.902496	2538.220962
615.250994	2495.371154
615.599439	2596.194231
615.947830	2460.083077
616.296169	2475.206538
616.644454	2523.097500
616.992686	2543.262115
617.340864	2487.809423
617.688990	2520.576923
618.037063	2507.974038
618.385082	2495.371154
618.733048	2465.124231
619.080961	2538.220962
619.428821	2374.383462
619.776628	2477.727115
620.124382	2467.644808
620.472083	2513.015192
620.819731	2548.303269
621.167326	2523.097500
621.514868	2553.344423
621.862357	2553.344423
622.209793	2485.288846
622.557176	2442.439038
622.904506	2510.494615
623.251783	2460.083077
623.599007	2510.494615
623.946179	2518.056346
624.293297	2500.412308
624.640363	2535.700385
624.987376	2475.206538
625.334336	2596.194231
625.681243	2452.521346
626.028097	2596.194231
626.374899	2543.262115
626.721647	2497.891731
627.068343	2417.233269
627.414987	2475.206538
627.761577	2528.138654
628.108115	2520.576923
628.454600	2538.220962
628.801032	2472.685962
629.147412	2558.385577
629.493739	2482.768269
629.840014	2510.494615
630.186236	2457.562500
630.532405	2414.712692
630.878521	2513.015192
631.224585	2525.618077
631.570597	2429.836154
631.916556	2507.974038
632.262462	2502.932885
632.608316	2444.959615
632.954117	2482.768269
633.299866	2460.083077
633.645562	2558.385577
633.991206	2510.494615
634.336797	2502.932885
634.682336	2545.782692
635.027823	2540.741538
635.373257	2497.891731
635.718639	2560.906154
636.063968	2485.288846
636.409245	2513.015192
636.754470	2379.424615
637.099642	2513.015192
637.444762	2505.453462
637.789829	2558.385577
638.134845	2470.165385
638.479808	2525.618077
638.824719	2434.877308
639.169577	2523.097500
639.514383	2442.439038
639.859137	2591.153077
640.203839	2533.179808
640.548489	2492.850577
640.893086	2495.371154
641.237632	2505.453462
641.582125	2525.618077
641.926566	2545.782692
642.270955	2596.194231
642.615292	2618.879423
642.959576	2412.192115
643.303809	2482.768269
643.647990	2533.179808
643.992118	2452.521346
644.336195	2457.562500
644.680219	2490.330000
645.024192	2550.823846
645.368112	2480.247692
645.711981	2505.453462
646.055797	2538.220962
646.399562	2455.041923
646.743274	2525.618077
647.086935	2490.330000
647.430544	2543.262115
647.774101	2467.644808
648.117606	2477.727115
648.461059	2492.850577
648.804460	2570.988462
649.147810	2470.165385
649.491108	2507.974038
649.834354	2447.480192
650.177548	2555.865000
650.520690	2500.412308
650.863781	2560.906154
651.206820	2472.685962
651.549807	2507.974038
651.892742	2432.356731
652.235626	2555.865000
652.578458	2455.041923
652.921238	2520.576923
653.263967	2593.673654
653.606644	2419.753846
653.949269	2553.344423
654.291843	2507.974038
654.634365	2550.823846
654.976836	2450.000769
655.319255	2535.700385
655.661622	2450.000769
656.003938	2518.056346
656.346203	2439.918462
656.688416	2510.494615
657.030577	2452.521346
657.372687	2470.165385
657.714746	2452.521346
658.056753	2490.330000
658.398708	2429.836154
658.740612	2530.659231
659.082465	2439.918462
659.424266	2475.206538
659.766016	2510.494615
660.107715	2404.630385
660.449362	2495.371154
660.790958	2480.247692
661.132503	2603.755962
661.473996	2424.795000
661.815438	2462.603654
662.156829	2558.385577
662.498168	2475.206538
662.839456	2475.206538
663.180693	2457.562500
663.521879	2520.576923
663.863013	2442.439038
664.204097	2507.974038
664.545129	2482.768269
664.886110	2518.056346
665.227040	2515.535769
665.567918	2515.535769
665.908746	2417.233269
666.249522	2455.041923
666.590248	2518.056346
666.930922	2502.932885
667.271545	2598.714808
667.612118	2462.603654
667.952639	2518.056346
668.293109	2518.056346
668.633528	2611.317692
668.973896	2538.220962
669.314213	2485.288846
669.654480	2583.591346
669.994695	2548.303269
670.334859	2490.330000
670.674973	2528.138654
671.015035	2593.673654
671.355047	2510.494615
671.695008	2487.809423
672.034918	2535.700385
672.374777	2442.439038
672.714585	2495.371154
673.054342	2581.070769
673.394049	2518.056346
673.733705	2507.974038
674.073310	2495.371154
674.412864	2553.344423
674.752368	2455.041923
675.091820	2513.015192
675.431223	2472.685962
675.770574	2578.550192
676.109875	2465.124231
676.449125	2507.974038
676.788324	2465.124231
677.127473	2455.041923
677.466571	2497.891731
677.805619	2513.015192
678.144616	2492.850577
678.483562	2462.603654
678.822458	2497.891731
679.161303	2467.644808
679.500098	2530.659231
679.838842	2545.782692
680.177535	2525.618077
680.516179	2553.344423
680.854771	2472.685962
681.193314	2495.371154
681.531805	2543.262115
681.870247	2482.768269
682.208638	2515.535769
682.546978	2530.659231
682.885268	2548.303269
683.223508	2465.124231
683.561697	2560.906154
683.899836	2482.768269
684.237925	2515.535769
684.575963	2548.303269
684.913951	2558.385577
685.251889	2460.083077
685.589776	2530.659231
685.927614	2452.521346
686.265401	2563.426731
686.603137	2452.521346
686.940824	2475.206538
687.278460	2485.288846
687.616046	2485.288846
687.953582	2565.947308
688.291068	2460.083077
688.628504	2518.056346
688.965889	2497.891731
689.303224	2507.974038
689.640510	2487.809423
689.977745	2586.111923
690.314930	2462.603654
690.652065	2518.056346
690.989150	2497.891731
691.326185	2563.426731
691.663170	2477.727115
692.000105	2500.412308
692.336990	2482.768269
692.673825	2482.768269
693.010610	2550.823846
693.347345	2543.262115
693.684030	2465.124231
694.020665	2545.782692
694.357251	2460.083077
694.693786	2520.576923
695.030272	2490.330000
695.366707	2578.550192
695.703093	2583.591346
696.039429	2465.124231
696.375716	2465.124231
696.711952	2409.671538
697.048139	2487.809423
697.384276	2545.782692
697.720363	2462.603654
698.056400	2487.809423
698.392388	2485.288846
698.728326	2497.891731
699.064214	2487.809423
699.400053	2550.823846
699.735842	2568.467885
700.071581	2482.768269
700.407270	2528.138654
700.742910	2507.974038
701.078501	2520.576923
701.414042	2422.274423
701.749533	2485.288846
702.084974	2472.685962
702.420366	2513.015192
702.755709	2540.741538
703.091002	2596.194231
703.426246	2432.356731
703.761440	2455.041923
704.096584	2485.288846
704.431679	2475.206538
704.766725	2497.891731
705.101721	2555.865000
705.436668	2528.138654
705.771565	2568.467885
706.106413	2432.356731
706.441212	2518.056346
706.775961	2533.179808
707.110661	2528.138654
707.445311	2563.426731
707.779913	2470.165385
708.114465	2487.809423
708.448967	2495.371154
708.783421	2523.097500
709.117825	2475.206538
709.452180	2475.206538
709.786485	2528.138654
710.120742	2502.932885
710.454949	2510.494615
710.789107	2467.644808
711.123216	2492.850577
711.457275	2528.138654
711.791286	2490.330000
712.125247	2525.618077
712.459159	2568.467885
712.793023	2485.288846
713.126837	2518.056346
713.460602	2520.576923
713.794318	2507.974038
714.127985	2472.685962
714.461602	2543.262115
714.795171	2432.356731
715.128691	2414.712692
715.462162	2538.220962
715.795584	2439.918462
716.128957	2434.877308
716.462281	2495.371154
716.795556	2487.809423
717.128782	2482.768269
717.461960	2480.247692
717.795088	2513.015192
718.128167	2467.644808
718.461198	2477.727115
718.794180	2450.000769
719.127113	2500.412308
719.459997	2500.412308
719.792833	2538.220962
720.125619	2553.344423
720.458357	2515.535769
720.791046	2550.823846
721.123686	2485.288846
721.456278	2502.932885
721.788821	2475.206538
722.121315	2462.603654
722.453761	2550.823846
722.786158	2533.179808
723.118506	2475.206538
723.450805	2487.809423
723.783056	2515.535769
724.115259	2500.412308
724.447412	2450.000769
724.779518	2502.932885
725.111574	2553.344423
725.443582	2422.274423
725.775542	2460.083077
726.107453	2545.782692
726.439315	2480.247692
726.771129	2550.823846
727.102895	2460.083077
727.434612	2444.959615
727.766281	2482.768269
728.097901	2419.753846
728.429473	2581.070769
728.760996	2581.070769
729.092471	2523.097500
729.423897	2560.906154
729.755276	2414.712692
730.086606	2540.741538
730.417887	2470.165385
730.749120	2520.576923
731.080305	2460.083077
731.411442	2543.262115
731.742530	2470.165385
732.073570	2510.494615
732.404562	2424.795000
732.735506	2545.782692
733.066401	2465.124231
733.397249	2520.576923
733.728048	2434.877308
734.058798	2497.891731
734.389501	2472.685962
734.720156	2462.603654
735.050762	2525.618077
735.381320	2528.138654
735.711831	2523.097500
736.042293	2576.029615
736.372707	2485.288846
736.703073	2437.397885
737.033391	2472.685962
737.363661	2485.288846
737.693883	2507.974038
738.024056	2472.685962
738.354182	2538.220962
738.684260	2505.453462
739.014290	2507.974038
739.344272	2548.303269
739.674207	2470.165385
740.004093	2513.015192
740.333931	2482.768269
740.663722	2563.426731
740.993464	2528.138654
741.323159	2565.947308
741.652806	2515.535769
741.982405	2510.494615
742.311956	2495.371154
742.641460	2462.603654
742.970915	2628.961731
743.300323	2497.891731
743.629683	2525.618077
743.958996	2442.439038
744.288260	2460.083077
744.617477	2507.974038
744.946647	2538.220962
745.275768	2457.562500
745.604842	2434.877308
745.933869	2525.618077
746.262847	2533.179808
746.591778	2477.727115
746.920662	2502.932885
747.249498	2523.097500
747.578286	2442.439038
747.907027	2465.124231
748.235720	2563.426731
748.564365	2470.165385
748.892963	2450.000769
749.221514	2510.494615
749.550017	2447.480192
749.878473	2429.836154
750.206881	2510.494615
750.535242	2485.288846
750.863555	2500.412308
751.191821	2442.439038
751.520039	2550.823846
751.848210	2565.947308
752.176334	2472.685962
752.504411	2560.906154
752.832440	2404.630385
753.160421	2515.535769
753.488356	2482.768269
753.816243	2576.029615
754.144082	2591.153077
754.471875	2467.644808
754.799620	2593.673654
755.127318	2500.412308
755.454969	2487.809423
755.782572	2505.453462
756.110129	2533.179808
756.437638	2565.947308
756.765100	2550.823846
757.092515	2518.056346
757.419882	2598.714808
757.747203	2515.535769
758.074477	2548.303269
758.401703	2525.618077
758.728882	2422.274423
759.056014	2502.932885
759.383099	2386.986346
759.710138	2507.974038
760.037129	2447.480192
760.364073	2581.070769
760.690970	2455.041923
761.017820	2417.233269
761.344623	2452.521346
761.671379	2502.932885
761.998088	2480.247692
762.324751	2528.138654
762.651366	2477.727115
762.977935	2490.330000
763.304456	2555.865000
763.630931	2465.124231
763.957359	2533.179808
764.283740	2482.768269
764.610074	2485.288846
764.936362	2402.109808
765.262602	2477.727115
765.588796	2465.124231
765.914943	2550.823846
766.241044	2533.179808
766.567097	2525.618077
766.893104	2422.274423
767.219064	2462.603654
767.544978	2550.823846
767.870845	2586.111923
768.196665	2497.891731
768.522438	2434.877308
768.848165	2530.659231
769.173846	2450.000769
769.499479	2502.932885
769.825066	2523.097500
770.150607	2457.562500
770.476101	2485.288846
770.801548	2525.618077
771.126949	2505.453462
771.452303	2480.247692
771.777611	2558.385577
772.102872	2528.138654
772.428087	2523.097500
772.753256	2507.974038
773.078378	2565.947308
773.403453	2523.097500
773.728482	2568.467885
774.053465	2485.288846
774.378401	2487.809423
774.703291	2462.603654
775.028135	2490.330000
775.352932	2472.685962
775.677683	2513.015192
776.002388	2422.274423
776.327046	2480.247692
776.651658	2460.083077
776.976224	2475.206538
777.300743	2460.083077
777.625216	2570.988462
777.949643	2550.823846
778.274024	2465.124231
778.598359	2543.262115
778.922647	2515.535769
779.246889	2525.618077
779.571086	2485.288846
779.895236	2427.315577
780.219339	2555.865000
780.543397	2518.056346
780.867409	2518.056346
781.191374	2457.562500
781.515294	2513.015192
781.839167	2523.097500
782.162995	2462.603654
782.486776	2502.932885
782.810511	2477.727115
783.134201	2525.618077
783.457844	2495.371154
783.781441	2515.535769
784.104993	2540.741538
784.428498	2397.068654
784.751958	2528.138654
785.075372	2492.850577
785.398739	2573.509038
785.722061	2515.535769
786.045337	2533.179808
786.368568	2417.233269
786.691752	2429.836154
787.014891	2525.618077
787.337983	2487.809423
787.661030	2565.947308
787.984031	2568.467885
788.306987	2555.865000
788.629897	2381.945192
788.952760	2492.850577
789.275579	2482.768269
789.598351	2477.727115
789.921078	2513.015192
790.243759	2540.741538
790.566395	2439.918462
790.888984	2485.288846
791.211529	2442.439038
791.534027	2515.535769
791.856480	2525.618077
792.178888	2505.453462
792.501249	2482.768269
792.823566	2515.535769
793.145836	2507.974038
793.468062	2492.850577
793.790241	2472.685962
794.112375	2419.753846
794.434464	2558.385577
794.756507	2543.262115
795.078505	2555.865000
795.400457	2495.371154
795.722364	2470.165385
796.044226	2502.932885
796.366042	2520.576923
796.687812	2311.369038
797.009538	2528.138654
797.331218	2515.535769
797.652852	2439.918462
797.974442	2439.918462
798.295986	2485.288846
798.617484	2472.685962
798.938938	2417.233269
799.260346	2439.918462
799.581709	2520.576923
799.903026	2467.644808
800.224299	2404.630385
800.545526	2467.644808
800.866708	2480.247692
801.187845	2530.659231
801.508936	2442.439038
801.829983	2528.138654
802.150984	2432.356731
802.471940	2485.288846
802.792851	2424.795000
803.113717	2439.918462
803.434538	2502.932885
803.755314	2515.535769
804.076045	2442.439038
804.396731	2472.685962
804.717372	2505.453462
805.037967	2560.906154
805.358518	2518.056346
805.679024	2455.041923
805.999485	2490.330000
806.319901	2533.179808
806.640272	2515.535769
806.960598	2477.727115
807.280879	2472.685962
807.601115	2510.494615
807.921306	2510.494615
808.241453	2513.015192
808.561554	2472.685962
808.881611	2429.836154
809.201623	2515.535769
809.521590	2570.988462
809.841513	2424.795000
810.161390	2535.700385
810.481223	2520.576923
810.801011	2447.480192
811.120755	2465.124231
811.440453	2568.467885
811.760107	2487.809423
812.079716	2465.124231
812.399281	2603.755962
812.718801	2477.727115
813.038276	2386.986346
813.357707	2593.673654
813.677093	2588.632500
813.996434	2581.070769
814.315731	2447.480192
814.634983	2361.780577
814.954191	2500.412308
815.273354	2538.220962
815.592473	2525.618077
815.911547	2507.974038
816.230577	2550.823846
816.549562	2465.124231
816.868502	2432.356731
817.187399	2507.974038
817.506250	2477.727115
817.825058	2505.453462
818.143821	2477.727115
818.462539	2490.330000
818.781213	2528.138654
819.099843	2447.480192
819.418429	2553.344423
819.736970	2558.385577
820.055466	2414.712692
820.373919	2518.056346
820.692327	2538.220962
821.010691	2480.247692
821.329011	2422.274423
821.647286	2502.932885
821.965517	2467.644808
822.283704	2457.562500
822.601847	2480.247692
822.919945	2540.741538
823.237999	2439.918462
823.556010	2487.809423
823.873976	2543.262115
824.191897	2409.671538
824.509775	2424.795000
824.827609	2480.247692
825.145398	2497.891731
825.463144	2510.494615
825.780845	2495.371154
826.098502	2477.727115
826.416116	2545.782692
826.733685	2518.056346
827.051210	2535.700385
827.368692	2482.768269
827.686129	2477.727115
828.003522	2502.932885
828.320872	2442.439038
828.638177	2432.356731
828.955439	2560.906154
829.272656	2543.262115
829.589830	2545.782692
829.906960	2540.741538
830.224046	2510.494615
830.541088	2470.165385
830.858086	2495.371154
831.175041	2487.809423
831.491952	2455.041923
831.808819	2485.288846
832.125642	2490.330000
832.442421	2533.179808
832.759157	2593.673654
833.075849	2467.644808
833.392497	2472.685962
833.709101	2495.371154
834.025662	2555.865000
834.342179	2480.247692
834.658653	2518.056346
834.975083	2530.659231
835.291469	2467.644808
835.607811	2442.439038
835.924110	2576.029615
836.240366	2497.891731
836.556578	2419.753846
836.872746	2507.974038
837.188871	2455.041923
837.504952	2492.850577
837.820990	2543.262115
838.136984	2530.659231
838.452935	2472.685962
838.768842	2407.150962
839.084706	2429.836154
839.400526	2490.330000
839.716303	2450.000769
840.032037	2570.988462
840.347727	2477.727115
840.663373	2450.000769
840.978977	2505.453462
841.294537	2444.959615
841.610054	2515.535769
841.925527	2482.768269
842.240957	2470.165385
842.556344	2452.521346
842.871687	2432.356731
843.186987	2518.056346
843.502244	2455.041923
843.817458	2485.288846
844.132629	2465.124231
844.447756	2444.959615
844.762840	2513.015192
845.077881	2442.439038
845.392879	2477.727115
845.707833	2482.768269
846.022745	2487.809423
846.337613	2505.453462
846.652438	2429.836154
846.967221	2507.974038
847.281960	2550.823846
847.596656	2447.480192
847.911309	2523.097500
848.225919	2465.124231
848.540485	2462.603654
848.855009	2480.247692
849.169490	2523.097500
849.483928	2540.741538
849.798323	2487.809423
850.112675	2480.247692
850.426984	2500.412308
850.741251	2490.330000
851.055474	2505.453462
851.369654	2487.809423
851.683792	2470.165385
851.997887	2460.083077
852.311938	2495.371154
852.625947	2588.632500
852.939914	2482.768269
853.253837	2384.465769
853.567718	2596.194231
853.881555	2487.809423
854.195350	2442.439038
854.509103	2520.576923
854.822812	2492.850577
855.136479	2472.685962
855.450103	2543.262115
855.763685	2475.206538
856.077224	2520.576923
856.390720	2495.371154
856.704173	2510.494615
857.017584	2424.795000
857.330953	2507.974038
857.644278	2510.494615
857.957561	2513.015192
858.270802	2570.988462
858.584000	2507.974038
858.897155	2482.768269
859.210268	2485.288846
859.523339	2460.083077
859.836367	2475.206538
860.149352	2477.727115
860.462295	2495.371154
860.775195	2492.850577
861.088054	2490.330000
861.400869	2472.685962
861.713642	2513.015192
862.026373	2528.138654
862.339062	2414.712692
862.651708	2470.165385
862.964312	2515.535769
863.276873	2540.741538
863.589392	2482.768269
863.901869	2502.932885
864.214303	2495.371154
864.526696	2477.727115
864.839045	2409.671538
865.151353	2460.083077
865.463619	2450.000769
865.775842	2507.974038
866.088023	2392.027500
866.400162	2460.083077
866.712258	2500.412308
867.024313	2465.124231
867.336325	2462.603654
867.648296	2520.576923
867.960224	2591.153077
868.272110	2601.235385
868.583954	2437.397885
868.895755	2480.247692
869.207515	2450.000769
869.519233	2505.453462
869.830909	2525.618077
870.142542	2533.179808
870.454134	2455.041923
870.765684	2460.083077
871.077191	2513.015192
871.388657	2432.356731
871.700081	2475.206538
872.011463	2533.179808
872.322803	2530.659231
872.634101	2439.918462
872.945357	2565.947308
873.256571	2467.644808
873.567744	2500.412308
873.878874	2460.083077
874.189963	2525.618077
874.501010	2497.891731
874.812015	2543.262115
875.122979	2485.288846
875.433900	2540.741538
875.744780	2518.056346
876.055618	2558.385577
876.366415	2485.288846
876.677169	2502.932885
876.987882	2495.371154
877.298554	2518.056346
877.609183	2523.097500
877.919771	2497.891731
878.230317	2450.000769
878.540822	2492.850577
878.851285	2477.727115
879.161707	2475.206538
879.472087	2553.344423
879.782425	2460.083077
880.092722	2550.823846
880.402977	2497.891731
880.713191	2412.192115
881.023363	2555.865000
881.333494	2500.412308
881.643583	2515.535769
881.953631	2507.974038
882.263637	2520.576923
882.573602	2452.521346
882.883526	2505.453462
883.193408	2422.274423
883.503248	2402.109808
883.813048	2495.371154
884.122806	2495.371154
884.432522	2518.056346
884.742197	2475.206538
885.051831	2419.753846
885.361424	2407.150962
885.670975	2457.562500
885.980485	2523.097500
886.289954	2568.467885
886.599382	2490.330000
886.908768	2502.932885
887.218113	2482.768269
887.527417	2525.618077
887.836680	2593.673654
888.145901	2500.412308
888.455082	2470.165385
888.764221	2485.288846
889.073319	2528.138654
889.382376	2520.576923
889.691392	2475.206538
890.000366	2455.041923
890.309300	2477.727115
890.618193	2437.397885
890.927044	2530.659231
891.235855	2492.850577
891.544625	2457.562500
891.853353	2502.932885
892.162041	2447.480192
892.470687	2545.782692
892.779293	2545.782692
893.087858	2578.550192
893.396381	2550.823846
893.704864	2467.644808
894.013306	2502.932885
894.321707	2462.603654
894.630068	2568.467885
894.938387	2535.700385
895.246665	2462.603654
895.554903	2460.083077
895.863100	2520.576923
896.171256	2457.562500
896.479371	2467.644808
896.787446	2586.111923
897.095480	2429.836154
897.403473	2465.124231
897.711425	2583.591346
898.019336	2502.932885
898.327207	2487.809423
898.635038	2475.206538
898.942827	2492.850577
899.250576	2535.700385
899.558284	2450.000769
899.865952	2528.138654
900.173579	2513.015192
900.481165	2525.618077
900.788711	2472.685962
901.096216	2515.535769
901.403681	2437.397885
901.711105	2540.741538
902.018489	2487.809423
902.325832	2490.330000
902.633135	2492.850577
902.940397	2472.685962
903.247619	2550.823846
903.554800	2513.015192
903.861941	2399.589231
904.169041	2444.959615
904.476101	2460.083077
904.783121	2525.618077
905.090100	2505.453462
905.397039	2460.083077
905.703938	2497.891731
906.010796	2535.700385
906.317614	2492.850577
906.624391	2462.603654
906.931129	2470.165385
907.237826	2492.850577
907.544483	2392.027500
907.851099	2490.330000
908.157675	2565.947308
908.464211	2384.465769
908.770707	2545.782692
909.077163	2550.823846
909.383578	2485.288846
909.689954	2502.932885
909.996289	2386.986346
910.302584	2457.562500
910.608839	2475.206538
910.915054	2533.179808
911.221229	2394.548077
911.527363	2523.097500
911.833458	2487.809423
912.139513	2548.303269
912.445527	2424.795000
912.751502	2487.809423
913.057436	2434.877308
913.363331	2492.850577
913.669186	2432.356731
913.975000	2538.220962
914.280775	2417.233269
914.586510	2558.385577
914.892205	2480.247692
915.197859	2450.000769
915.503475	2432.356731
915.809050	2482.768269
916.114585	2457.562500
916.420081	2550.823846
916.725536	2460.083077
917.030952	2515.535769
917.336328	2510.494615
917.641665	2492.850577
917.946961	2414.712692
918.252218	2550.823846
918.557435	2432.356731
918.862612	2434.877308
919.167750	2581.070769
919.472848	2437.397885
919.777906	2465.124231
920.082925	2500.412308
920.387904	2412.192115
920.692843	2545.782692
920.997743	2533.179808
921.302603	2392.027500
921.607423	2520.576923
921.912204	2480.247692
922.216946	2563.426731
922.521647	2455.041923
922.826310	2510.494615
923.130932	2485.288846
923.435516	2555.865000
923.740059	2434.877308
924.044564	2518.056346
924.349028	2475.206538
924.653454	2477.727115
924.957840	2568.467885
925.262186	2497.891731
925.566493	2437.397885
925.870761	2578.550192
926.174989	2502.932885
926.479178	2548.303269
926.783328	2447.480192
927.087438	2523.097500
927.391509	2538.220962
927.695541	2434.877308
927.999533	2507.974038
928.303486	2462.603654
928.607400	2545.782692
928.911275	2477.727115
929.215110	2513.015192
929.518906	2477.727115
929.822663	2540.741538
930.126381	2528.138654
930.430060	2573.509038
930.733699	2505.453462
931.037299	2507.974038
931.340861	2495.371154
931.644383	2528.138654
931.947866	2434.877308
932.251309	2568.467885
932.554714	2457.562500
932.858080	2492.850577
933.161407	2487.809423
933.464694	2518.056346
933.767943	2487.809423
934.071153	2447.480192
934.374323	2475.206538
934.677455	2513.015192
934.980548	2432.356731
935.283602	2497.891731
935.586617	2407.150962
935.889593	2457.562500
936.192530	2394.548077
936.495428	2520.576923
936.798287	2523.097500
937.101108	2482.768269
937.403890	2482.768269
937.706632	2538.220962
938.009336	2570.988462
938.312002	2495.371154
938.614628	2505.453462
938.917216	2485.288846
939.219765	2497.891731
939.522275	2460.083077
939.824747	2447.480192
940.127179	2568.467885
940.429573	2462.603654
940.731929	2457.562500
941.034246	2475.206538
941.336524	2442.439038
941.638763	2462.603654
941.940964	2394.548077
942.243126	2452.521346
942.545250	2452.521346
942.847335	2495.371154
943.149381	2510.494615
943.451389	2573.509038
943.753359	2429.836154
944.055290	2535.700385
944.357182	2502.932885
944.659036	2404.630385
944.960851	2510.494615
945.262628	2525.618077
945.564367	2533.179808
945.866067	2434.877308
946.167729	2502.932885
946.469352	2465.124231
946.770937	2507.974038
947.072484	2434.877308
947.373992	2528.138654
947.675462	2545.782692
947.976893	2417.233269
948.278286	2553.344423
948.579641	2518.056346
948.880958	2447.480192
949.182236	2507.974038
949.483476	2528.138654
949.784678	2535.700385
950.085841	2507.974038
950.386967	2543.262115
950.688054	2422.274423
950.989103	2477.727115
951.290114	2422.274423
951.591087	2452.521346
951.892021	2419.753846
952.192917	2500.412308
952.493776	2452.521346
952.794596	2570.988462
953.095378	2530.659231
953.396122	2525.618077
953.696828	2510.494615
953.997496	2525.618077
954.298126	2444.959615
954.598718	2505.453462
954.899272	2502.932885
955.199788	2394.548077
955.500266	2477.727115
955.800706	2442.439038
956.101108	2507.974038
956.401472	2424.795000
956.701798	2487.809423
957.002087	2523.097500
957.302337	2460.083077
957.602550	2407.150962
957.902724	2497.891731
958.202861	2487.809423
958.502960	2520.576923
958.803022	2434.877308
959.103045	2548.303269
959.403031	2497.891731
959.702979	2497.891731
960.002889	2500.412308
960.302762	2467.644808
960.602596	2523.097500
960.902393	2477.727115
961.202153	2533.179808
961.501875	2510.494615
961.801559	2487.809423
962.101205	2495.371154
962.400814	2407.150962
962.700385	2495.371154
962.999918	2515.535769
963.299414	2422.274423
963.598873	2523.097500
963.898293	2452.521346
964.197677	2497.891731
964.497022	2482.768269
964.796331	2520.576923
965.095601	2530.659231
965.394835	2475.206538
965.694030	2467.644808
965.993189	2460.083077
966.292309	2485.288846
966.591393	2500.412308
966.890439	2507.974038
967.189447	2462.603654
967.488419	2460.083077
967.787353	2472.685962
968.086249	2465.124231
968.385108	2558.385577
968.683930	2540.741538
968.982714	2369.342308
969.281462	2525.618077
969.580172	2568.467885
969.878844	2513.015192
970.177480	2530.659231
970.476078	2450.000769
970.774639	2502.932885
971.073162	2457.562500
971.371649	2404.630385
971.670098	2439.918462
971.968510	2439.918462
972.266885	2510.494615
972.565223	2518.056346
972.863524	2497.891731
973.161788	2530.659231
973.460014	2490.330000
973.758204	2460.083077
974.056356	2507.974038
974.354471	2472.685962
974.652550	2560.906154
974.950591	2450.000769
975.248595	2515.535769
975.546563	2523.097500
975.844493	2505.453462
976.142386	2450.000769
976.440243	2586.111923
976.738062	2513.015192
977.035845	2540.741538
977.333590	2528.138654
977.631299	2540.741538
977.928971	2482.768269
978.226606	2384.465769
978.524204	2450.000769
978.821765	2472.685962
979.119290	2450.000769
979.416777	2540.741538
979.714228	2407.150962
980.011642	2490.330000
980.309020	2480.247692
980.606360	2450.000769
980.903664	2444.959615
981.200931	2507.974038
981.498162	2439.918462
981.795356	2419.753846
982.092513	2495.371154
982.389633	2442.439038
982.686717	2513.015192
982.983764	2520.576923
983.280775	2480.247692
983.577749	2447.480192
983.874686	2535.700385
984.171587	2485.288846
984.468451	2515.535769
984.765279	2535.700385
985.062070	2447.480192
985.358824	2538.220962
985.655543	2452.521346
985.952224	2497.891731
986.248869	2452.521346
986.545478	2477.727115
986.842050	2528.138654
987.138586	2480.247692
987.435086	2412.192115
987.731549	2540.741538
988.027975	2568.467885
988.324366	2452.521346
988.620719	2424.795000
988.917037	2424.795000
989.213318	2465.124231
989.509563	2523.097500
989.805772	2444.959615
990.101944	2533.179808
990.398080	2422.274423
990.694180	2533.179808
990.990244	2535.700385
991.286271	2447.480192
991.582262	2414.712692
991.878217	2495.371154
992.174136	2429.836154
992.470019	2518.056346
992.765865	2502.932885
993.061676	2573.509038
993.357450	2497.891731
993.653188	2485.288846
993.948890	2523.097500
994.244556	2480.247692
994.540186	2480.247692
994.835780	2477.727115
995.131337	2492.850577
995.426859	2455.041923
995.722345	2500.412308
996.017795	2470.165385
996.313208	2497.891731
996.608586	2500.412308
996.903928	2467.644808
997.199234	2520.576923
997.494504	2460.083077
997.789738	2442.439038
998.084936	2510.494615
998.380099	2397.068654
998.675225	2450.000769
998.970316	2535.700385
999.265371	2550.823846
999.560390	2424.795000
999.855373	2528.138654
1000.150320	2439.918462
1000.445232	2487.809423
1000.740108	2500.412308
1001.034948	2462.603654
1001.329752	2502.932885
1001.624521	2404.630385
1001.919254	2472.685962
1002.213951	2500.412308
1002.508613	2485.288846
1002.803239	2545.782692
1003.097829	2487.809423
1003.392384	2490.330000
1003.686903	2550.823846
1003.981386	2376.904038
1004.275834	2492.850577
1004.570246	2497.891731
1004.864623	2510.494615
1005.158964	2424.795000
1005.453270	2543.262115
1005.747540	2500.412308
1006.041775	2513.015192
1006.335974	2545.782692
1006.630138	2507.974038
1006.924266	2394.548077
1007.218359	2480.247692
1007.512416	2606.276538
1007.806438	2442.439038
1008.100425	2482.768269
1008.394376	2538.220962
1008.688292	2455.041923
1008.982172	2548.303269
1009.276017	2409.671538
1009.569827	2520.576923
1009.863602	2422.274423
1010.157341	2513.015192
1010.451045	2447.480192
1010.744714	2495.371154
1011.038347	2429.836154
1011.331945	2591.153077
1011.625508	2520.576923
1011.919036	2482.768269
1012.212528	2568.467885
1012.505986	2500.412308
1012.799408	2490.330000
1013.092795	2510.494615
1013.386147	2490.330000
1013.679464	2513.015192
1013.972745	2565.947308
1014.265992	2560.906154
1014.559204	2455.041923
1014.852380	2455.041923
1015.145521	2439.918462
1015.438628	2502.932885
1015.731699	2379.424615
1016.024736	2513.015192
1016.317737	2492.850577
1016.610703	2505.453462
1016.903635	2530.659231
1017.196531	2480.247692
1017.489393	2455.041923
1017.782219	2450.000769
1018.075011	2472.685962
1018.367768	2505.453462
1018.660490	2429.836154
1018.953177	2429.836154
1019.245829	2429.836154
