Dividing Wavelength (nm)	Counts (n)	Blue Motor Position (mm): 22.700000	Red Motor Position (mm): 0.000000	
326.493990	2132.808849
326.888308	2132.808849
327.282561	2132.808849
327.676750	2101.956987
328.070874	2100.648808
328.464933	2103.464292
328.858929	2110.216918
329.252859	2119.419544
329.646726	2131.077212
330.040528	2144.032978
330.434265	2160.371357
330.827938	2176.989521
331.221547	2197.257480
331.615091	2216.330686
332.008571	2231.865001
332.401986	2256.962386
332.795338	2272.219438
333.188625	2291.375822
333.581847	2312.621765
333.975006	2327.669609
334.368100	2348.817250
334.761129	2366.746113
335.154095	2382.398896
335.546996	2401.285579
335.939833	2423.020514
336.332606	2439.923503
336.725315	2452.370112
337.117960	2462.195320
337.510540	2470.445169
337.903056	2482.730461
338.295508	2491.497027
338.687896	2495.446771
339.080220	2505.032525
339.472480	2510.744152
339.864676	2513.831859
340.256807	2521.254958
340.648875	2523.518436
341.040879	2524.970289
341.432818	2525.575227
341.824694	2530.407173
342.216506	2529.303160
342.608253	2531.503624
342.999937	2528.438602
343.391557	2530.349200
343.783113	2529.401463
344.174605	2525.441637
344.566033	2525.597912
344.957397	2524.151101
345.348697	2524.723272
345.739934	2521.459125
346.131106	2519.707324
346.522215	2517.368229
346.913260	2514.136849
347.304241	2513.834380
347.695159	2512.909328
348.086012	2508.246261
348.476802	2508.972187
348.867528	2504.344408
349.258191	2506.320540
349.648789	2501.826351
350.039324	2502.595127
350.429796	2503.036228
350.820203	2500.717298
351.210548	2500.235867
351.600828	2497.364930
351.991045	2497.400218
352.381198	2494.534322
352.771288	2497.294354
353.161314	2496.003819
353.551276	2497.657317
353.941175	2494.138592
354.331010	2497.009529
354.720782	2496.850733
355.110490	2495.739158
355.500135	2497.556494
355.889717	2495.078767
356.279235	2496.714621
356.668689	2498.015239
357.058080	2494.662872
357.447408	2495.819817
357.836672	2492.522902
358.225873	2497.017091
358.615010	2496.273520
359.004084	2500.984479
359.393095	2496.863335
359.782043	2504.556136
360.170927	2498.970538
360.559748	2499.172184
360.948505	2502.106135
361.337199	2504.868688
361.725830	2498.889879
362.114398	2505.087978
362.502903	2502.368275
362.891344	2504.074706
363.279722	2502.877432
363.668037	2506.459172
364.056289	2504.049500
364.444478	2506.706188
364.832603	2507.296003
365.220665	2504.848523
365.608665	2505.889521
365.996601	2506.378513
366.384474	2508.359687
366.772284	2507.142248
367.160031	2507.666528
367.547715	2510.093844
367.935336	2506.514624
368.322893	2509.244409
368.710388	2509.498987
369.097820	2511.770027
369.485189	2508.074862
369.872495	2512.652229
370.259738	2507.232989
370.646918	2509.378000
371.034035	2510.595438
371.421090	2509.630057
371.808081	2508.757938
372.195010	2510.018226
372.581875	2509.793895
372.968678	2514.187261
373.355418	2514.220028
373.742096	2515.014010
374.128710	2511.321365
374.515262	2513.272291
374.901751	2513.572240
375.288177	2512.644668
375.674540	2512.316992
376.060841	2513.942765
376.447079	2512.755573
376.833254	2511.896056
377.219367	2509.854389
377.605417	2510.890346
377.991404	2510.242558
378.377329	2513.340347
378.763191	2510.207270
379.148991	2514.792199
379.534727	2513.383197
379.920402	2519.450225
380.306013	2516.912004
380.691563	2517.847138
381.077049	2518.689011
381.462474	2518.343692
381.847835	2515.876047
382.233134	2518.406706
382.618371	2516.632220
383.003545	2519.553569
383.388657	2515.611387
383.773706	2518.517612
384.158693	2514.509894
384.543618	2517.348064
384.928480	2519.689680
385.313280	2519.384690
385.698017	2518.505009
386.082692	2518.031140
386.467305	2520.017355
386.851856	2520.967613
387.236344	2519.828312
387.620770	2522.353930
388.005133	2521.401152
388.389435	2519.651871
388.773674	2521.068436
389.157851	2519.939217
389.541965	2520.188754
389.926018	2520.612211
390.310008	2522.638755
390.693936	2522.795031
391.077802	2520.599608
391.461606	2523.851153
391.845348	2522.071625
392.229027	2521.917870
392.612645	2521.139012
392.996200	2523.392407
393.379694	2522.364012
393.763125	2527.841226
394.146494	2523.105062
394.529801	2524.352747
394.913047	2525.010618
395.296230	2526.235618
395.679351	2523.392408
396.062410	2527.228726
396.445408	2523.465504
396.828343	2527.135464
397.211217	2518.600791
397.594028	2520.723117
397.976778	2526.084384
398.359466	2523.271420
398.742092	2519.893847
399.124656	2525.456760
399.507158	2525.262676
399.889598	2524.017511
400.271977	2526.956503
400.654294	2526.593540
401.036549	2525.779394
401.418742	2525.981040
401.800874	2528.458767
402.182944	2529.910619
402.564952	2528.637728
402.946898	2529.961031
403.328783	2530.571011
403.710606	2528.652852
404.092367	2527.037162
404.474067	2527.024559
404.855705	2530.717204
405.237282	2529.446833
405.618797	2529.814837
406.000250	2529.872811
406.381642	2528.998171
406.762972	2528.700742
407.144240	2528.685619
407.525447	2531.866587
407.906593	2529.640918
408.287677	2529.736700
408.668700	2530.500434
409.049661	2529.620753
409.430560	2529.280475
409.811399	2531.816176
410.192176	2532.161495
410.572891	2531.493542
410.953545	2529.635877
411.334138	2533.472195
411.714669	2530.296268
412.095139	2529.993798
412.475547	2533.769623
412.855894	2534.125024
413.236180	2533.489839
413.616405	2533.618388
413.996568	2530.061854
414.376670	2529.708973
414.756711	2534.888759
415.136691	2531.304498
415.516609	2534.745086
415.896466	2532.978162
416.276262	2533.968748
416.655997	2531.407842
417.035670	2528.526823
417.415283	2532.342976
417.794834	2530.444982
418.174324	2536.285158
418.553753	2531.768285
418.933121	2536.547298
419.312428	2534.684592
419.691674	2534.389685
420.070859	2535.803728
420.449983	2533.099149
420.829045	2534.636701
421.208047	2536.726259
421.586988	2536.575025
421.965867	2536.602751
422.344686	2534.908923
422.723444	2536.401105
423.102141	2536.335570
423.480777	2536.892617
423.859352	2535.599562
424.237866	2536.975797
424.616319	2540.880170
424.994712	2539.067875
425.373044	2538.311702
425.751314	2539.448482
426.129524	2539.209028
426.507673	2538.377237
426.885762	2536.315405
427.263789	2539.075437
427.641756	2536.020498
428.019662	2539.854295
428.397508	2538.561239
428.775292	2539.514018
429.153016	2539.980324
429.530679	2538.977135
429.908282	2537.336239
430.285824	2539.632485
430.663305	2540.280273
431.040726	2540.597866
431.418086	2540.187012
431.795385	2539.080478
432.172624	2541.220448
432.549802	2540.706250
432.926920	2539.960160
433.303977	2541.895963
433.680974	2540.318082
434.057910	2542.546272
434.434786	2539.738349
434.811601	2544.315717
435.188355	2541.495191
435.565050	2540.744059
435.941683	2540.108874
436.318257	2539.052752
436.694770	2540.262629
437.071222	2539.798843
437.447614	2538.457896
437.823946	2540.497042
438.200218	2543.483926
438.576429	2542.495860
438.952580	2544.444266
439.328670	2544.194729
439.704700	2544.729091
440.080670	2544.658515
440.456580	2541.701878
440.832429	2543.912424
441.208218	2543.294883
441.583947	2545.167672
441.959616	2544.688762
442.335224	2545.712116
442.710773	2544.330840
443.086261	2544.441745
443.461689	2544.797147
443.837057	2546.581715
444.212365	2544.449307
444.587612	2546.087682
444.962800	2545.528114
445.337927	2546.576674
445.712995	2544.154400
446.088002	2544.298072
446.462949	2545.797816
446.837837	2545.455017
447.212664	2544.779503
447.587431	2547.965512
447.962139	2545.797816
448.336786	2549.384597
448.711374	2547.206818
449.085901	2547.537014
449.460369	2547.594987
449.834776	2548.018444
450.209124	2546.508618
450.583412	2550.140770
450.957640	2548.792261
451.331808	2549.704710
451.705917	2550.130688
452.079965	2549.631613
452.453954	2549.591284
452.827883	2552.421892
453.201752	2550.990204
453.575562	2551.786707
453.949311	2547.146324
454.323001	2551.161603
454.696632	2548.910728
455.070202	2550.602035
455.443713	2546.632127
455.817164	2548.635985
456.190556	2552.416851
456.563888	2548.547765
456.937160	2546.410316
457.310373	2553.011707
457.683526	2550.279402
458.056619	2551.015410
458.429653	2552.563044
458.802628	2550.697817
459.175542	2554.990360
459.548398	2554.261913
459.921194	2552.542880
460.293930	2555.202088
460.666607	2556.432130
461.039224	2557.339537
461.411782	2557.934394
461.784280	2558.095711
462.156719	2559.043447
462.529099	2559.993705
462.901419	2560.737275
463.273680	2557.934394
463.645882	2561.322049
464.018024	2562.431103
464.390106	2563.134344
464.762130	2567.797411
465.134094	2570.199521
465.505999	2576.402661
465.877845	2585.464135
466.249631	2588.514033
466.621358	2588.703076
466.993026	2590.885896
467.364634	2595.440578
467.736184	2595.488469
468.107674	2595.871597
468.479105	2601.391660
468.850477	2602.165478
469.221790	2604.615478
469.593043	2608.550099
469.964238	2607.995572
470.335373	2613.802981
470.706449	2624.946452
471.077467	2630.786628
471.448425	2655.826040
471.819324	2683.776717
472.190164	2686.365350
472.560945	2676.703978
472.931667	2672.227434
473.302330	2674.145593
473.672934	2678.138187
474.043479	2695.230219
474.413965	2702.537371
474.784393	2711.414843
475.154761	2722.936400
475.525070	2738.657238
475.895321	2743.174112
476.265513	2758.761360
476.635645	2781.040739
477.005719	2798.830971
477.375734	2816.777479
477.745691	2840.680110
478.115588	2865.091897
478.485427	2893.937380
478.855207	2945.069803
479.224928	3018.259795
479.594591	3075.920513
479.964194	3087.444591
480.333739	3098.943463
480.703226	3122.926752
481.072653	3160.526198
481.442022	3222.779407
481.811333	3266.105604
482.180584	3284.735188
482.549777	3295.245993
482.918912	3312.683345
483.287988	3355.361753
483.657005	3392.278123
484.025964	3397.939338
484.394864	3443.483643
484.763706	3485.763800
485.132489	3492.705469
485.501213	3531.305584
485.869879	3574.876277
486.238487	3610.938171
486.607036	3657.654543
486.975527	3686.578164
487.343959	3752.113164
487.712333	3812.435611
488.080648	3847.582535
488.448905	3910.735590
488.817104	3945.123821
489.185244	4047.436559
489.553326	4138.651197
489.921350	4305.704953
490.289315	4580.679730
490.657222	4706.577507
491.025070	4768.127474
491.392861	4806.231036
491.760593	4797.948420
492.128267	4790.729488
492.495883	4779.873363
492.863440	4765.969861
493.230939	4763.252679
493.598380	4813.767561
493.965763	4856.536710
494.333088	4880.404053
494.700354	4940.872693
495.067563	5012.968755
495.434713	5043.157705
495.801805	5146.415659
496.168839	5198.573957
496.535815	5253.857771
496.902733	5311.178211
497.269593	5376.413262
497.636395	5469.687211
498.003139	5553.987906
498.369825	5563.326644
498.736453	5704.095824
499.103023	5743.500003
499.469535	5833.446790
499.835989	5896.244444
500.202385	5958.565708
500.568723	5970.931659
500.935003	6121.334484
501.301226	6146.661241
501.667390	6308.386497
502.033497	6436.240241
502.399546	6446.637621
502.765537	6478.757332
503.131470	6588.016780
503.497345	6749.535350
503.863163	6634.435725
504.228923	6866.394337
504.594625	6966.546940
504.960269	6917.665392
505.325856	7097.453103
505.691385	7067.523772
506.056856	7218.586989
506.422270	7314.898233
506.787625	7314.265568
507.152924	7462.127652
507.518164	7517.323245
507.883347	7550.957823
508.248472	7566.877787
508.613540	7784.950541
508.978550	7787.687888
509.343503	7841.524890
509.708398	7990.939649
510.073236	8134.889797
510.438016	8200.507976
510.802738	8238.934171
511.167403	8342.608021
511.532010	8347.288732
511.896561	8549.320534
512.261053	8674.842744
512.625488	8652.747367
512.989866	8707.622847
513.354186	8758.523377
513.718449	8752.494157
514.082655	8949.036143
514.446803	8939.911655
514.810894	9093.160211
515.174927	9057.423471
515.538904	9127.697156
515.902822	9302.360534
516.266684	9264.496427
516.630488	9281.805229
516.994235	9371.981389
517.357925	9482.692689
517.721558	9605.507800
518.085133	9673.880969
518.448651	9721.852589
518.812112	9676.701495
519.175516	9745.480478
519.538863	9894.280216
519.902152	9862.959527
520.265385	10061.323889
520.628560	10019.560450
520.991678	10055.866840
521.354739	10141.574017
521.717743	10127.352923
522.080690	10151.303444
522.443580	10310.891252
522.806413	10319.998096
523.169189	10377.177384
523.531908	10468.951589
523.894569	10344.687147
524.257174	10392.038705
524.619722	10527.844869
524.982213	10507.072795
525.344647	10598.889850
525.707025	10580.847561
526.069345	10695.649757
526.431608	10654.118211
526.793815	10781.109918
527.155964	10612.843764
527.518057	10692.977946
527.880093	10671.162353
528.242072	10755.820970
528.603995	10700.678308
528.965860	10646.546398
529.327669	10713.999557
529.689421	10691.755466
530.051117	10683.240957
530.412755	10800.556169
530.774337	10713.366892
531.135862	10720.845444
531.497331	10762.248441
531.858743	10636.277568
532.220098	10809.030348
532.581396	10702.886334
532.942638	10704.567558
533.303824	10675.986737
533.664953	10705.984123
534.026025	10639.377878
534.387040	10735.961344
534.747999	10756.544375
535.108902	10826.472741
535.469748	10598.136198
535.830537	10708.817251
536.191270	10704.164266
536.551947	10737.972764
536.912567	10733.508823
537.273131	10672.132775
537.633638	10665.160859
537.994089	10661.984932
538.354483	10618.948602
538.714821	10762.354305
539.075103	10777.888621
539.435328	10752.861812
539.795497	10584.033570
540.155609	10744.664896
540.515665	10840.106541
540.875665	10581.868394
541.235609	10651.693416
541.595496	10647.736111
541.955328	10813.136368
542.315102	10698.770232
542.674821	10656.779941
543.034483	10658.161217
543.394090	10661.410240
543.753640	10599.769532
544.113134	10820.574591
544.472571	10674.023207
544.831953	10821.789509
545.191278	10631.480910
545.550548	10663.409058
545.909761	10803.217898
546.268918	10775.925091
546.628019	10861.574295
546.987064	10730.925231
547.346053	10658.365383
547.704986	10754.979097
548.063863	10738.809596
548.422684	10736.949410
548.781449	10651.290124
549.140158	10756.282235
549.498811	10632.060643
549.857408	10491.755249
550.215949	10721.609179
550.574434	10580.328322
550.932864	10676.256438
551.291237	10739.109545
551.649555	10684.856647
552.007817	10698.273678
552.366022	10661.727833
552.724173	10658.977884
553.082267	10638.392332
553.440305	10773.855698
553.798288	10580.177087
554.156215	10731.255427
554.514086	10714.738086
554.871902	10562.041536
555.229661	10601.365057
555.587365	10578.916799
555.945014	10472.896292
556.302606	10597.727864
556.660143	10494.621145
557.017625	10643.907354
557.375050	10546.555112
557.732421	10678.784577
558.089735	10594.090672
558.446994	10598.980591
558.804197	10634.732454
559.161345	10628.277257
559.518437	10489.940433
559.875474	10573.091746
560.232455	10605.564338
560.589381	10554.948633
560.946251	10551.671883
561.303065	10655.408747
561.659825	10596.694428
562.016528	10519.027891
562.373177	10406.690819
562.729770	10519.922696
563.086307	10440.537126
563.442789	10527.731443
563.799216	10407.686447
564.155587	10458.773500
564.511904	10415.651470
564.868164	10402.748637
565.224370	10418.769423
565.580520	10342.879893
565.936615	10349.866933
566.292654	10219.555626
566.648638	10346.325522
567.004567	10304.574686
567.360441	10294.575557
567.716260	10197.369508
568.072023	10298.883223
568.427732	10247.881870
568.783385	10154.260081
569.138982	10218.648219
569.494525	10247.097970
569.850013	10122.286563
570.205445	10199.632986
570.560823	10099.467780
570.916145	10011.247588
571.271412	10089.030071
571.626625	10032.344817
571.981782	10007.554943
572.336884	9977.325663
572.691931	9992.249999
573.046923	9934.881669
573.401860	9889.158403
573.756743	9824.941665
574.111570	9872.759530
574.466342	9857.273105
574.821059	9883.063648
575.175722	9779.810735
575.530330	9789.527559
575.884882	9777.096074
576.239380	9706.250218
576.593823	9682.889511
576.948211	9697.627325
577.302544	9582.580632
577.656823	9590.313762
578.011047	9593.396428
578.365216	9572.097553
578.719330	9493.357250
579.073389	9504.314198
579.427394	9456.856776
579.781344	9430.983054
580.135239	9382.739211
580.489080	9386.469665
580.842866	9297.768043
581.196597	9301.450606
581.550273	9343.322429
581.903895	9309.584507
582.257463	9373.667655
582.610975	9252.188450
582.964434	9279.100650
583.317837	9202.104587
583.671186	9180.316720
584.024481	9178.736318
584.377721	9100.893341
584.730906	9078.704702
585.084037	9106.108415
585.437113	9039.449237
585.790135	9062.981343
586.143103	8962.740520
586.496016	8933.912682
586.848874	8990.943255
587.201679	8983.890681
587.554428	8872.219041
587.907124	8914.274867
588.259765	8886.271257
588.612352	8889.563131
588.964884	8765.719625
589.317362	8780.596070
589.669786	8777.546172
590.022155	8824.622987
590.374470	8837.969442
590.726731	8780.691852
591.078937	8631.128379
591.431090	8749.774455
591.783188	8624.708469
592.135232	8614.187581
592.487222	8610.600800
592.839157	8665.688009
593.191038	8596.767874
593.542866	8541.907517
593.894639	8444.061242
594.246358	8495.811207
594.598022	8517.538580
594.949633	8413.779031
595.301190	8384.648723
595.652692	8414.101664
596.004141	8523.288016
596.355535	8298.694529
596.706876	8281.685676
597.058162	8219.190492
597.409395	8293.648334
597.760573	8357.282819
598.111698	8264.034076
598.462768	8249.999504
598.813785	8215.276036
599.164748	8185.129936
599.515657	8176.156682
599.866511	8087.344154
600.217312	8212.531128
600.568060	8068.855723
600.918753	8172.534613
601.269392	8144.152917
601.619978	8057.470277
601.970510	8127.043241
602.320988	8116.721478
602.671412	8171.513780
603.021783	8108.993390
603.372100	8083.643947
603.722363	8089.085873
604.072572	8061.553611
604.422728	8071.754386
604.772830	8003.945826
605.122878	8009.591918
605.472872	8006.269798
605.822813	8035.460599
606.172701	7978.142680
606.522534	8056.885503
606.872314	8051.367960
607.222041	8018.388732
607.571714	8078.738905
607.921333	8037.139303
608.270899	8046.019296
608.620411	8132.459961
608.969870	8037.746762
609.319276	8029.426338
609.668627	8046.210860
610.017926	8083.573371
610.367171	8127.784291
610.716362	8108.920293
611.065500	8100.325126
611.414585	8127.565000
611.763616	8109.847865
612.112594	8095.198272
612.461518	8117.402034
612.810389	8166.828027
613.159207	8113.716951
613.507971	8055.126140
613.856682	8181.659102
614.205340	8136.384499
614.553945	8212.395017
614.902496	8106.067000
615.250994	8162.510279
615.599439	8142.005386
615.947830	8161.880135
616.296169	8125.929146
616.644454	8142.827094
616.992686	8136.520610
617.340864	8193.689815
617.688990	8108.128832
618.037063	8196.517903
618.385082	8142.065879
618.733048	8222.994043
619.080961	8161.711256
619.428821	8190.796193
619.776628	8187.761418
620.124382	8135.373748
620.472083	8125.311605
620.819731	8149.133577
621.167326	8042.578708
621.514868	8050.853762
621.862357	7938.297400
622.209793	7957.632745
622.557176	7896.710401
622.904506	7864.520113
623.251783	7797.994527
623.599007	7750.428719
623.946179	7757.395594
624.293297	7714.901188
624.640363	7634.033518
624.987376	7616.848225
625.334336	7561.337559
625.681243	7512.138418
626.028097	7500.211048
626.374899	7477.903943
626.721647	7471.804146
627.068343	7407.494147
627.414987	7375.969291
627.761577	7335.914803
628.108115	7371.961574
628.454600	7260.418483
628.801032	7313.340516
629.147412	7273.583457
629.493739	7262.881087
629.840014	7200.438835
630.186236	7255.909171
630.532405	7136.776623
630.878521	7187.989705
631.224585	7148.565362
631.570597	7073.006027
631.916556	7105.869309
632.262462	7099.093998
632.608316	7060.483801
632.954117	7039.164762
633.299866	7025.649428
633.645562	7020.119282
633.991206	6944.328055
634.336797	6884.260186
634.682336	6838.778896
635.027823	6812.088507
635.373257	6799.841024
635.718639	6733.345684
636.063968	6744.123671
636.409245	6641.629452
636.754470	6635.539738
637.099642	6594.381237
637.444762	6542.807713
637.789829	6550.535802
638.134845	6495.980435
638.479808	6477.295398
638.824719	6482.729762
639.169577	6408.944913
639.514383	6431.801505
639.859137	6357.956163
640.203839	6375.819492
640.548489	6357.111770
640.893086	6332.914231
641.237632	6305.344161
641.582125	6324.508107
641.926566	6296.139014
642.270955	6307.063194
642.615292	6303.231917
642.959576	6318.602395
643.303809	6304.761907
643.647990	6317.044679
643.992118	6305.197967
644.336195	6253.614361
644.680219	6274.759480
645.024192	6265.534169
645.368112	6360.131421
645.711981	6386.882304
646.055797	6459.671524
646.399562	6414.870790
646.743274	6544.793927
647.086935	6594.824859
647.430544	6588.863694
647.774101	6611.654751
648.117606	6616.368230
648.461059	6611.107786
648.804460	6570.685293
649.147810	6475.873792
649.491108	6449.989988
649.834354	6425.762203
650.177548	6342.353792
650.520690	6258.244660
650.863781	6235.249437
651.206820	6257.221306
651.549807	6178.412948
651.892742	6122.415811
652.235626	6128.530731
652.578458	6114.002125
652.921238	6017.153998
653.263967	6053.737652
653.606644	5997.478375
653.949269	6001.607080
654.291843	5943.603564
654.634365	5991.739021
654.976836	5951.003978
655.319255	5945.854439
655.661622	5928.802736
656.003938	5917.641621
656.346203	5878.948245
656.688416	5915.257156
657.030577	5868.475248
657.372687	5837.666236
657.714746	5826.661397
658.056753	5864.001224
658.398708	5806.302698
658.740612	5796.301048
659.082465	5845.999263
659.424266	5833.671122
659.766016	5836.400907
660.107715	5809.889478
660.449362	5827.556202
660.790958	5821.158978
661.132503	5807.416793
661.473996	5842.546073
661.815438	5830.593497
662.156829	5828.458569
662.498168	5824.317261
662.839456	5796.406913
663.180693	5831.286656
663.521879	5832.877140
663.863013	5820.163350
664.204097	5842.349468
664.545129	5881.867073
664.886110	5879.679212
665.227040	5908.280199
665.567918	5875.371546
665.908746	5904.272481
666.249522	5906.561165
666.590248	5894.162447
666.930922	5921.626653
667.271545	5936.213232
667.612118	5939.225322
667.952639	5913.006280
668.293109	5932.003869
668.633528	5891.588938
668.973896	5892.098095
669.314213	5883.341611
669.654480	5866.577253
669.994695	5860.396799
670.334859	5851.708370
670.674973	5843.055230
671.015035	5850.677454
671.355047	5843.718141
671.695008	5831.826059
672.034918	5801.445546
672.374777	5816.674872
672.714585	5801.589219
673.054342	5803.973684
673.394049	5802.461338
673.733705	5829.560061
674.073310	5811.611033
674.412864	5780.018121
674.752368	5768.083190
675.091820	5768.254589
675.431223	5709.308377
675.770574	5706.601277
676.109875	5661.062014
676.449125	5667.146687
676.788324	5629.396006
677.127473	5575.468263
677.466571	5569.675977
677.805619	5556.369852
678.144616	5540.742275
678.483562	5519.211507
678.822458	5491.575901
679.161303	5483.275641
679.500098	5471.340710
679.838842	5463.060614
680.177535	5467.106140
680.516179	5482.171629
680.854771	5490.610520
681.193314	5568.324948
681.531805	5679.363923
681.870247	5829.373538
682.208638	5930.277273
682.546978	5941.435868
682.885268	5919.088433
683.223508	5834.117264
683.561697	5783.057937
683.899836	5750.683647
684.237925	5710.256114
684.575963	5672.427295
684.913951	5628.493640
685.251889	5692.158372
685.589776	5660.154606
685.927614	5632.801306
686.265401	5706.122368
686.603137	5681.186300
686.940824	5767.518580
687.278460	5789.742507
687.616046	5794.168640
687.953582	5862.138518
688.291068	5842.283933
688.628504	5913.654069
688.965889	5868.031626
689.303224	5817.216796
689.640510	5766.417088
689.977745	5693.300193
690.314930	5595.012816
690.652065	5540.359147
690.989150	5440.816523
691.326185	5375.825968
691.663170	5315.579138
692.000105	5239.792952
692.336990	5166.560110
692.673825	5139.360564
693.010610	5074.977468
693.347345	5003.665306
693.684030	4992.234489
694.020665	4948.996513
694.357251	4860.390672
694.693786	4867.770921
695.030272	4836.467877
695.366707	4800.229542
695.703093	4766.221918
696.039429	4789.378458
696.375716	4773.382877
696.711952	4745.825410
697.048139	4733.482145
697.384276	4715.606213
697.720363	4727.029468
698.056400	4733.232607
698.392388	4687.756359
698.728326	4666.134850
699.064214	4644.924195
699.400053	4636.881034
699.735842	4604.189151
700.071581	4580.765430
700.407270	4554.642171
700.742910	4537.078791
701.078501	4483.466120
701.414042	4482.228516
701.749533	4449.987817
702.084974	4389.052870
702.420366	4445.062610
702.755709	4383.757138
703.091002	4328.808561
703.426246	4380.732445
703.761440	4334.905836
704.096584	4298.259168
704.431679	4321.811439
704.766725	4303.905261
705.101721	4291.667860
705.436668	4322.141635
705.771565	4271.936784
706.106413	4294.309424
706.441212	4329.854600
706.775961	4340.539326
707.110661	4314.073268
707.445311	4344.562167
707.779913	4368.258110
708.114465	4379.267990
708.448967	4400.282040
708.783421	4464.927276
709.117825	4504.674254
709.452180	4504.298688
709.786485	4553.071851
710.120742	4641.435717
710.454949	4626.334940
710.789107	4688.862892
711.123216	4766.242083
711.457275	4752.809928
711.791286	4829.213656
712.125247	4844.233774
712.459159	4745.583434
712.793023	4819.960618
713.126837	4778.537457
713.460602	4774.915388
713.794318	4690.491185
714.127985	4703.429306
714.461602	4619.378148
714.795171	4591.515691
715.128691	4522.663611
715.462162	4469.242504
715.795584	4416.262498
716.128957	4398.260537
716.462281	4348.915203
716.795556	4324.979804
717.128782	4285.444555
717.461960	4218.482909
717.795088	4230.127974
718.128167	4185.536448
718.461198	4126.892705
718.794180	4124.835914
719.127113	4102.864045
719.459997	4082.986776
719.792833	4040.623439
720.125619	4031.297305
720.458357	3997.418230
720.791046	4003.515506
721.123686	3975.169098
721.456278	3932.704938
721.788821	3948.395530
722.121315	3919.913011
722.453761	3897.643713
722.786158	3910.070158
723.118506	3934.663427
723.450805	3882.840365
723.783056	3907.378182
724.115259	3928.256120
724.447412	3929.665123
724.779518	3919.126591
725.111574	3924.273609
725.443582	3956.295018
725.775542	3941.867236
726.107453	3991.845235
726.439315	3991.124350
726.771129	4002.300588
727.102895	4036.648490
727.434612	4089.477261
727.766281	4097.470011
728.097901	4096.829784
728.429473	4103.458902
728.760996	4112.991723
729.092471	4105.989561
729.423897	4092.191923
729.755276	4098.422789
730.086606	4098.838684
730.417887	4130.973519
730.749120	4196.874003
731.080305	4259.820370
731.411442	4288.655770
731.742530	4258.300463
732.073570	4263.155094
732.404562	4315.757013
732.735506	4307.063544
733.066401	4269.247328
733.397249	4206.152247
733.728048	4130.822285
734.058798	4044.416908
734.389501	3976.590703
734.720156	3915.484357
735.050762	3874.245198
735.381320	3866.242366
735.711831	3816.372752
736.042293	3785.921662
736.372707	3808.092657
736.703073	3783.209521
737.033391	3768.348200
737.363661	3789.573978
737.693883	3814.636074
738.024056	3820.597239
738.354182	3817.885098
738.684260	3880.604613
739.014290	3899.488776
739.344272	3894.198085
739.674207	3935.996812
740.004093	3945.060807
740.333931	3934.350875
740.663722	3938.320784
740.993464	3933.675361
741.323159	3909.999582
741.652806	3881.161661
741.982405	3854.521683
742.311956	3826.460101
742.641460	3815.762772
742.970915	3789.347126
743.300323	3748.019747
743.629683	3714.498594
743.958996	3707.831668
744.288260	3682.633461
744.617477	3651.506856
744.946647	3636.728714
745.275768	3610.789457
745.604842	3605.806276
745.933869	3557.804409
746.262847	3551.742422
746.591778	3590.576950
746.920662	3559.962023
747.249498	3530.995553
747.578286	3577.333839
747.907027	3590.854214
748.235720	3587.665684
748.564365	3618.053759
748.892963	3619.828246
749.221514	3599.134309
749.550017	3577.492636
749.878473	3574.430135
750.206881	3541.725649
750.535242	3536.838250
750.863555	3544.583983
751.191821	3536.853374
751.520039	3517.512987
751.848210	3498.396932
752.176334	3533.967313
752.504411	3537.218858
752.832440	3498.245697
753.160421	3478.849858
753.488356	3488.901918
753.816243	3502.044207
754.144082	3457.646765
754.471875	3440.716049
754.799620	3461.483083
755.127318	3451.471351
755.454969	3454.962350
755.782572	3460.371508
756.110129	3435.695060
756.437638	3428.594595
756.765100	3440.073302
757.092515	3451.539407
757.419882	3457.682053
757.747203	3428.334976
758.074477	3432.327569
758.401703	3445.918520
758.728882	3467.252683
759.056014	3474.721153
759.383099	3479.578304
759.710138	3473.889362
760.037129	3493.897702
760.364073	3521.102289
760.690970	3510.420084
761.017820	3484.574088
761.344623	3500.794000
761.671379	3547.835528
761.998088	3598.899895
762.324751	3724.071745
762.651366	3970.523675
762.977935	4439.852577
763.304456	4875.861973
763.630931	4963.593174
763.957359	4608.897589
764.283740	4267.961834
764.610074	4082.291097
764.936362	3885.391189
765.262602	3729.818661
765.588796	3619.293883
765.914943	3530.814072
766.241044	3443.009774
766.567097	3413.027512
766.893104	3369.484546
767.219064	3340.076975
767.544978	3312.910197
767.870845	3255.569592
768.196665	3238.752303
768.522438	3253.895929
768.848165	3244.123652
769.173846	3209.332129
769.499479	3192.164480
769.825066	3175.702592
770.150607	3159.212978
770.476101	3173.671007
770.801548	3168.912157
771.126949	3122.767956
771.452303	3107.500821
771.777611	3116.171606
772.102872	3119.592029
772.428087	3095.465067
772.753256	3083.399065
773.078378	3076.729618
773.403453	3042.837941
773.728482	3031.288658
774.053465	3052.421174
774.378401	3044.123435
774.703291	3007.466685
775.028135	3014.221831
775.352932	3007.091119
775.677683	2995.748523
776.002388	2990.485558
776.327046	2994.289109
776.651658	2983.110350
776.976224	2969.907568
777.300743	2968.226343
777.625216	2961.519088
777.949643	2955.759570
778.274024	2958.317956
778.598359	2946.821604
778.922647	2952.790330
779.246889	2949.508539
779.571086	2935.960438
779.895236	2931.587237
780.219339	2943.370934
780.543397	2953.851493
780.867409	2956.646813
781.191374	2946.630040
781.515294	2945.455452
781.839167	2948.825463
782.162995	2938.717949
782.486776	2947.683642
782.810511	2945.231120
783.134201	2933.959100
783.457844	2939.988320
783.781441	2928.764191
784.104993	2906.774678
784.428498	2908.644946
784.751958	2922.689601
785.075372	2918.906215
785.398739	2902.502300
785.722061	2918.598704
786.045337	2930.775612
786.368568	2914.464958
786.691752	2907.598907
787.014891	2955.487348
787.337983	2983.760659
787.661030	3009.256295
787.984031	3075.774320
788.306987	3123.622431
788.629897	3117.346195
788.952760	3097.589913
789.275579	3083.731781
789.598351	3026.713810
789.921078	2977.421408
790.243759	2975.243630
790.566395	2955.605815
790.888984	2933.792742
791.211529	2915.281625
791.534027	2905.083371
791.856480	2897.030128
792.178888	2882.191491
792.501249	2875.789226
792.823566	2872.305789
793.145836	2867.153729
793.468062	2863.269520
793.790241	2862.881352
794.112375	2867.751106
794.434464	2883.071173
794.756507	2886.415978
795.078505	2890.763973
795.400457	2904.929616
795.722364	2939.277518
796.044226	2965.037814
796.366042	2969.411015
796.687812	2956.508181
797.009538	2976.622385
797.331218	2962.204685
797.652852	2948.492747
797.974442	2933.429779
798.295986	2927.461053
798.617484	2922.815630
798.938938	2906.545306
799.260346	2893.259345
799.581709	2884.190309
799.903026	2881.274001
800.224299	2875.196890
800.545526	2865.999305
800.866708	2850.724609
801.187845	2839.109791
801.508936	2843.321675
801.829983	2848.325020
802.150984	2836.727845
802.471940	2823.756957
802.792851	2822.340392
803.113717	2821.828715
803.434538	2831.641321
803.755314	2824.014055
804.076045	2814.037612
804.396731	2813.571305
804.717372	2815.791933
805.037967	2808.724236
805.358518	2814.763538
805.679024	2829.234170
805.999485	2824.951710
806.319901	2829.788697
806.640272	2821.059939
806.960598	2825.380208
807.280879	2836.284224
807.601115	2841.882425
807.921306	2828.258707
808.241453	2824.293839
808.561554	2831.260714
808.881611	2833.637618
809.201623	2828.326762
809.521590	2826.413645
809.841513	2824.722337
810.161390	2830.796928
810.481223	2820.707058
810.801011	2808.825059
811.120755	2808.041159
811.440453	2810.924699
811.760107	2811.330512
812.079716	2808.063845
812.399281	2801.714511
812.718801	2791.551545
813.038276	2785.136677
813.357707	2793.215126
813.677093	2799.521609
813.996434	2795.450878
814.315731	2788.274795
814.634983	2783.878909
814.954191	2788.438633
815.273354	2800.267700
815.592473	2808.905717
815.911547	2810.367652
816.230577	2816.361584
816.549562	2829.007318
816.868502	2825.740651
817.187399	2836.274142
817.506250	2854.220649
817.825058	2847.094978
818.143821	2856.257275
818.462539	2873.641694
818.781213	2897.846795
819.099843	2938.168464
819.418429	2995.130982
819.736970	3050.641647
820.055466	3120.731330
820.373919	3224.523646
820.692327	3364.496324
821.010691	3526.932383
821.329011	3962.800627
821.647286	4848.939691
821.965517	6203.054108
822.283704	6921.181597
822.601847	6897.021867
822.919945	6276.463390
823.237999	5785.195386
823.556010	5212.565680
823.873976	4670.611394
824.191897	4268.728089
824.509775	3981.445334
824.827609	3718.743246
825.145398	3594.443515
825.463144	3589.198195
825.780845	3675.265814
826.098502	3782.168523
826.416116	4061.806368
826.733685	4366.634859
827.051210	4428.525104
827.368692	4314.048062
827.686129	4053.977456
828.003522	3733.125658
828.320872	3481.657780
828.638177	3293.758853
828.955439	3160.052330
829.272656	3075.607962
829.589830	3008.401819
829.906960	2963.911116
830.224046	2916.572161
830.541088	2886.589898
830.858086	2871.937784
831.175041	2852.463807
831.491952	2854.281143
831.808819	2866.584079
832.125642	2889.443191
832.442421	2934.425407
832.759157	3011.809639
833.075849	3187.403110
833.392497	3461.538535
833.709101	3664.208043
834.025662	3612.022019
834.342179	3454.543934
834.658653	3281.246709
834.975083	3136.552991
835.291469	3041.761655
835.607811	2960.470528
835.924110	2904.818710
836.240366	2851.916842
836.556578	2811.065852
836.872746	2788.892337
837.188871	2767.711929
837.504952	2749.150400
837.820990	2743.035481
838.136984	2731.246742
838.452935	2721.774414
838.768842	2718.427088
839.084706	2737.560787
839.400526	2815.892757
839.716303	2944.926130
840.032037	3019.653674
840.347727	3005.646828
840.663373	2951.351081
840.978977	2875.632950
841.294537	2803.463792
841.610054	2757.107862
841.925527	2736.406363
842.240957	2714.270657
842.556344	2694.025383
842.871687	2676.880419
843.186987	2668.146620
843.502244	2664.547236
843.817458	2661.542708
844.132629	2649.748929
844.447756	2642.799698
844.762840	2633.879376
845.077881	2637.171250
845.392879	2635.537916
845.707833	2630.244704
846.022745	2623.343365
846.337613	2625.216153
846.652438	2626.219343
846.967221	2624.848149
847.281960	2622.166255
847.596656	2622.400669
847.911309	2620.462345
848.225919	2618.508898
848.540485	2614.395317
848.855009	2618.768518
849.169490	2612.885491
849.483928	2616.578136
849.798323	2615.416150
850.112675	2611.521859
850.426984	2616.406737
850.741251	2612.328444
851.055474	2613.311469
851.369654	2617.624176
851.683792	2617.803137
851.997887	2614.085286
852.311938	2611.799123
852.625947	2613.767693
852.939914	2618.985287
853.253837	2616.598301
853.567718	2611.521859
853.881555	2612.761983
854.195350	2615.542179
854.509103	2615.080914
854.822812	2610.662342
855.136479	2609.994389
855.450103	2616.298352
855.763685	2616.106788
856.077224	2614.395317
856.390720	2608.807198
856.704173	2610.581684
857.017584	2616.336161
857.330953	2621.500823
857.644278	2619.411265
857.957561	2620.079218
858.270802	2614.637292
858.584000	2617.977057
858.897155	2619.617952
859.210268	2623.529887
859.523339	2616.663836
859.836367	2610.536313
860.149352	2610.546396
860.462295	2612.575460
860.775195	2609.923813
861.088054	2609.081941
861.400869	2607.335181
861.713642	2605.674121
862.026373	2609.071858
862.339062	2609.107146
862.651708	2616.232817
862.964312	2615.179216
863.276873	2616.298352
863.589392	2614.599483
863.901869	2620.200205
864.214303	2629.249077
864.526696	2630.068264
864.839045	2630.703449
865.151353	2631.595734
865.463619	2631.928450
865.775842	2632.820734
866.088023	2634.587658
866.400162	2632.346866
866.712258	2631.736886
867.024313	2632.039355
867.336325	2629.854015
867.648296	2631.252935
867.960224	2636.057155
868.272110	2632.654376
868.583954	2625.311935
868.895755	2626.975516
869.207515	2635.502628
869.519233	2639.747279
869.830909	2637.831641
870.142542	2632.372071
870.454134	2634.794346
870.765684	2635.802577
871.077191	2641.211735
871.388657	2643.603762
871.700081	2642.151910
872.011463	2641.516724
872.322803	2642.335912
872.634101	2648.556696
872.945357	2652.929897
873.256571	2660.877276
873.567744	2655.775628
873.878874	2653.524753
874.189963	2654.598519
874.501010	2661.522543
874.812015	2666.593944
875.122979	2665.981444
875.433900	2653.625576
875.744780	2655.279074
876.055618	2663.826351
876.366415	2668.723832
876.677169	2666.793070
876.987882	2658.855773
877.298554	2657.517347
877.609183	2669.913544
877.919771	2675.605007
878.230317	2682.894515
878.540822	2694.227029
878.851285	2706.285469
879.161707	2729.641135
879.472087	2767.933739
879.782425	2810.528969
880.092722	2922.608942
880.402977	3107.573918
880.713191	3355.018955
881.023363	3640.159219
881.333494	3822.752332
881.643583	3992.782889
881.953631	3990.365656
882.263637	3815.208245
882.573602	3600.843260
882.883526	3478.590238
883.193408	3366.553115
883.503248	3269.082405
883.813048	3159.563338
884.122806	3045.522355
884.432522	2963.341465
884.742197	2901.796539
885.051831	2866.783205
885.361424	2833.309943
885.670975	2795.108079
885.980485	2767.825355
886.289954	2748.321130
886.599382	2737.535582
886.908768	2725.709035
887.218113	2707.444934
887.527417	2693.004549
887.836680	2686.317459
888.145901	2683.229752
888.455082	2674.632064
888.764221	2665.628563
889.073319	2654.180103
889.382376	2656.713283
889.691392	2656.877120
890.000366	2654.885864
890.309300	2654.442243
890.618193	2657.159425
890.927044	2657.963489
891.235855	2658.734785
891.544625	2657.754281
891.853353	2660.534477
892.162041	2668.181908
892.470687	2684.235462
892.779293	2692.359282
893.087858	2703.596013
893.396381	2727.715414
893.704864	2765.559356
894.013306	2837.350428
894.321707	2924.643048
894.630068	2974.018629
894.938387	2991.760970
895.246665	2984.456338
895.554903	2944.628702
895.863100	2900.117834
896.171256	2844.932323
896.479371	2787.692542
896.787446	2750.019999
897.095480	2727.972513
897.403473	2724.778942
897.711425	2710.504915
898.019336	2694.267358
898.327207	2677.603824
898.635038	2679.529545
898.942827	2676.086437
899.250576	2666.921619
899.558284	2654.606080
899.865952	2651.268837
900.173579	2651.747746
900.481165	2648.261788
900.788711	2640.735346
901.096216	2634.043214
901.403681	2630.295116
901.711105	2628.245887
902.018489	2628.865949
902.325832	2632.787967
902.633135	2632.056999
902.940397	2647.296407
903.247619	2686.249403
903.554800	2750.496388
903.861941	2872.126828
904.169041	2993.880775
904.476101	3050.223231
904.783121	3042.361552
905.090100	2989.646206
905.397039	2916.345309
905.703938	2847.442818
906.010796	2789.714045
906.317614	2739.030284
906.624391	2703.606096
906.931129	2676.998886
907.237826	2654.301091
907.544483	2639.066724
907.851099	2628.634056
908.157675	2615.935389
908.464211	2609.374327
908.770707	2598.745055
909.077163	2595.652307
909.383578	2591.188365
909.689954	2591.112748
909.996289	2588.934969
910.302584	2588.776173
910.608839	2584.150914
910.915054	2587.347006
911.221229	2589.534867
911.527363	2589.252562
911.833458	2587.588981
912.139513	2588.929928
912.445527	2592.723396
912.751502	2597.222626
913.057436	2605.709409
913.363331	2608.668566
913.669186	2619.111316
913.975000	2632.840899
914.280775	2648.544093
914.586510	2664.703512
914.892205	2701.899665
915.197859	2763.510127
915.503475	2846.603466
915.809050	2907.336767
916.114585	2920.292532
916.420081	2931.521702
916.725536	2944.847993
917.030952	2917.161976
917.336328	2869.868391
917.641665	2826.131340
917.946961	2781.323044
918.252218	2744.535224
918.557435	2724.829353
918.862612	2701.146013
919.167750	2682.339988
919.472848	2667.324912
919.777906	2654.800165
920.082925	2641.867085
920.387904	2632.021711
920.692843	2626.320166
920.997743	2622.947634
921.302603	2614.856582
921.607423	2609.563371
921.912204	2603.718153
922.216946	2600.232195
922.521647	2598.442585
922.826310	2597.199941
923.130932	2592.816658
923.435516	2585.900195
923.740059	2583.268712
924.044564	2584.680235
924.349028	2581.703434
924.653454	2573.700602
924.957840	2571.079202
925.262186	2569.934860
925.566493	2571.626168
925.870761	2564.654252
926.174989	2568.745148
926.479178	2564.865980
926.783328	2564.573593
927.087438	2566.093501
927.391509	2563.439334
927.695541	2561.546380
927.999533	2560.134857
928.303486	2559.933211
928.607400	2560.812893
928.911275	2560.477656
929.215110	2558.541853
929.518906	2557.836091
929.822663	2558.199054
930.126381	2556.404403
930.430060	2558.715773
930.733699	2556.545556
931.037299	2558.942624
931.340861	2559.479507
931.644383	2561.319528
931.947866	2558.045299
932.251309	2559.789538
932.554714	2557.722665
932.858080	2559.862635
933.161407	2558.002449
933.464694	2559.660989
933.767943	2557.664692
934.071153	2556.364074
934.374323	2552.918446
934.677455	2553.868703
934.980548	2555.933056
935.283602	2554.703014
935.586617	2553.016748
935.889593	2554.387942
936.192530	2553.649413
936.495428	2554.327448
936.798287	2554.685370
937.101108	2559.320711
937.403890	2559.489590
937.706632	2562.733572
938.009336	2566.116186
938.312002	2569.566856
938.614628	2573.680438
938.917216	2574.726477
939.219765	2575.094481
939.522275	2577.080696
939.824747	2576.677404
940.127179	2569.342525
940.429573	2565.145764
940.731929	2569.914696
941.034246	2566.146433
941.336524	2567.948646
941.638763	2568.591393
941.940964	2568.276321
942.243126	2564.636608
942.545250	2562.194169
942.847335	2563.709035
943.149381	2563.023438
943.451389	2560.649055
943.753359	2561.017059
944.055290	2558.098231
944.357182	2559.683674
944.659036	2557.397511
944.960851	2559.197203
945.262628	2556.326266
945.564367	2557.488252
945.866067	2556.981616
946.167729	2559.708880
946.469352	2556.616132
946.770937	2560.472615
947.072484	2558.715773
947.373992	2557.944476
947.675462	2554.937428
947.976893	2559.071174
948.278286	2557.117727
948.579641	2558.176369
948.880958	2554.917263
949.182236	2556.268292
949.483476	2552.996583
949.784678	2558.133519
950.085841	2553.402396
950.386967	2555.628066
950.688054	2553.646892
950.989103	2555.146636
951.290114	2559.292985
951.591087	2559.751730
951.892021	2561.521175
952.192917	2560.633932
952.493776	2559.638304
952.794596	2562.116031
953.095378	2565.423028
953.396122	2565.390260
953.696828	2561.969837
953.997496	2558.831719
954.298126	2557.584033
954.598718	2558.952707
954.899272	2558.703170
955.199788	2558.468756
955.500266	2553.299053
955.800706	2551.028013
956.101108	2548.411654
956.401472	2545.903680
956.701798	2546.546427
957.002087	2545.626417
957.302337	2545.742363
957.602550	2547.884853
957.902724	2547.002652
958.202861	2545.298742
958.502960	2546.601880
958.803022	2545.465100
959.103045	2543.224307
959.403031	2546.357384
959.702979	2544.577857
960.002889	2545.318906
960.302762	2541.149872
960.602596	2541.454862
960.902393	2541.893442
961.202153	2543.325130
961.501875	2538.788091
961.801559	2541.994265
962.101205	2540.703730
962.400814	2542.931920
962.700385	2541.366642
962.999918	2541.311189
963.299414	2542.274049
963.598873	2540.295396
963.898293	2540.555016
964.197677	2540.451672
964.497022	2539.289686
964.796331	2539.708102
965.095601	2543.289842
965.394835	2543.645243
965.694030	2541.767413
965.993189	2540.209697
966.292309	2539.728267
966.591393	2541.752290
966.890439	2539.410674
967.189447	2540.416384
967.488419	2540.986034
967.787353	2540.320602
968.086249	2541.321271
968.385108	2540.403781
968.683930	2539.924872
968.982714	2543.665408
969.281462	2542.170706
969.580172	2543.178936
969.878844	2540.759183
970.177480	2543.410829
970.476078	2544.870243
970.774639	2542.402599
971.073162	2543.118443
971.371649	2538.967052
971.670098	2535.125693
971.968510	2539.788760
972.266885	2536.726259
972.565223	2543.070552
972.863524	2541.306148
973.161788	2540.499563
973.460014	2542.095088
973.758204	2542.453010
974.056356	2540.796991
974.354471	2543.557023
974.652550	2541.752290
974.950591	2542.135417
975.248595	2541.893442
975.546563	2540.590304
975.844493	2540.814635
976.142386	2543.738504
976.440243	2541.696837
976.738062	2540.323123
977.035845	2540.708771
977.333590	2539.995448
977.631299	2537.706764
977.928971	2539.284645
978.226606	2540.900335
978.524204	2540.461754
978.821765	2540.764224
979.119290	2543.040305
979.416777	2537.232895
979.714228	2538.142824
980.011642	2540.567619
980.309020	2543.925027
980.606360	2538.236085
980.903664	2541.003678
981.200931	2539.093081
981.498162	2541.036446
981.795356	2541.618699
982.092513	2544.746735
982.389633	2550.430636
982.686717	2551.292673
982.983764	2552.132026
983.280775	2555.504558
983.577749	2555.648230
983.874686	2552.812581
984.171587	2548.615821
984.468451	2550.856614
984.765279	2546.087682
985.062070	2543.763710
985.358824	2543.415871
985.655543	2542.639533
985.952224	2539.826569
986.248869	2541.412012
986.545478	2536.086033
986.842050	2537.230375
987.138586	2538.798174
987.435086	2538.072247
987.731549	2534.881197
988.027975	2538.183153
988.324366	2536.829603
988.620719	2535.763399
988.917037	2538.283976
989.213318	2536.416228
989.509563	2539.345139
989.805772	2537.800025
990.101944	2537.006043
990.398080	2537.953780
990.694180	2533.671320
990.990244	2538.752803
991.286271	2536.048224
991.582262	2539.826569
991.878217	2536.254912
992.174136	2536.275076
992.470019	2535.589479
992.765865	2536.373379
993.061676	2536.678368
993.357450	2536.310364
993.653188	2538.576363
993.948890	2538.110056
994.244556	2538.266332
994.540186	2537.424459
994.835780	2538.036959
995.131337	2537.968904
995.426859	2540.101312
995.722345	2540.726415
996.017795	2541.318751
996.313208	2541.558205
996.608586	2541.149872
996.903928	2541.906045
997.199234	2539.798843
997.494504	2539.897145
997.789738	2541.013761
998.084936	2539.108205
998.380099	2536.438914
998.675225	2541.265818
998.970316	2540.139121
999.265371	2535.677699
999.560390	2537.182484
999.855373	2538.709953
1000.150320	2538.427649
1000.445232	2540.187012
1000.740108	2537.106867
1001.034948	2535.975128
1001.329752	2537.885725
1001.624521	2536.612833
1001.919254	2532.156453
1002.213951	2532.673172
1002.508613	2533.580579
1002.803239	2536.572504
1003.097829	2530.361803
1003.392384	2536.111239
1003.686903	2537.570653
1003.981386	2535.652494
1004.275834	2533.260466
1004.570246	2538.009233
1004.864623	2535.539068
1005.158964	2536.537216
1005.453270	2535.415559
1005.747540	2538.488143
1006.041775	2536.007895
1006.335974	2536.877494
1006.630138	2534.664428
1006.924266	2535.347504
1007.218359	2535.770961
1007.512416	2534.326670
1007.806438	2537.305992
1008.100425	2536.607792
1008.394376	2533.021011
1008.688292	2537.061496
1008.982172	2535.128214
1009.276017	2534.011598
1009.569827	2533.419262
1009.863602	2537.197607
1010.157341	2534.278779
1010.451045	2535.178625
1010.744714	2535.662576
1011.038347	2535.907072
1011.331945	2535.743234
1011.625508	2534.374561
1011.919036	2533.918337
1012.212528	2535.655014
1012.505986	2533.840199
1012.799408	2535.271887
1013.092795	2534.089736
1013.386147	2534.117462
1013.679464	2535.405477
1013.972745	2536.320447
1014.265992	2537.139634
1014.559204	2534.389685
1014.852380	2536.068389
1015.145521	2534.487987
1015.438628	2536.539737
1015.731699	2535.541588
1016.024736	2536.817000
1016.317737	2536.333049
1016.610703	2536.370858
1016.903635	2531.566638
1017.196531	2531.120496
1017.489393	2531.390198
1017.782219	2527.458098
1018.075011	2532.295085
1018.367768	2534.296423
1018.660490	2533.731814
1018.953177	2533.731814
1019.245829	2533.731814
