Dividing Wavelength (nm)	Counts (n)	Blue Motor Position (mm): 0.100000	Red Motor Position (mm): 0.000000	
326.493990	2166.801349
326.888308	2166.801349
327.282561	2166.801349
327.676750	2127.160236
328.070874	2124.070008
328.464933	2125.378188
328.858929	2127.500514
329.252859	2133.151647
329.646726	2142.868471
330.040528	2154.102683
330.434265	2164.053920
330.827938	2185.428413
331.221547	2202.759899
331.615091	2218.790769
332.008571	2236.780126
332.401986	2256.317118
332.795338	2277.457197
333.188625	2294.488735
333.581847	2313.388021
333.975006	2330.464929
334.368100	2350.359843
334.761129	2365.163191
335.154095	2383.845707
335.546996	2402.692061
335.939833	2415.415933
336.332606	2430.846905
336.725315	2444.536158
337.117960	2455.147787
337.510540	2467.168419
337.903056	2479.151241
338.295508	2487.232211
338.687896	2499.792246
339.080220	2503.900786
339.472480	2511.989317
339.864676	2517.930317
340.256807	2521.176820
340.648875	2524.577079
341.040879	2528.420958
341.432818	2531.780888
341.824694	2534.845909
342.216506	2536.491846
342.608253	2534.208203
342.999937	2536.733821
343.391557	2538.077289
343.783113	2536.965714
344.174605	2537.671476
344.566033	2533.716691
344.957397	2532.678213
345.348697	2530.762574
345.739934	2532.244674
346.131106	2527.281658
346.522215	2526.689322
346.913260	2526.694363
347.304241	2523.170597
347.695159	2519.470390
348.086012	2522.134640
348.476802	2517.239679
348.867528	2512.153155
349.258191	2512.143073
349.648789	2512.279184
350.039324	2506.292814
350.429796	2511.800274
350.820203	2506.653256
351.210548	2509.231806
351.600828	2508.258864
351.991045	2506.610406
352.381198	2505.544202
352.771288	2500.472802
353.161314	2504.838441
353.551276	2505.269459
353.941175	2502.678306
354.331010	2501.602020
354.720782	2501.780981
355.110490	2500.382061
355.500135	2501.430621
355.889717	2500.308964
356.279235	2501.591938
356.668689	2503.656290
357.058080	2499.482215
357.447408	2503.399191
357.836672	2503.174860
358.225873	2503.396671
358.615010	2502.824500
359.004084	2504.046980
359.393095	2503.603358
359.782043	2504.546054
360.170927	2505.440859
360.559748	2503.368944
360.948505	2506.559995
361.337199	2508.667197
361.725830	2507.190139
362.114398	2506.590242
362.502903	2508.495798
362.891344	2509.783813
363.279722	2508.024450
363.668037	2512.120388
364.056289	2513.030316
364.444478	2510.343381
364.832603	2511.810357
365.220665	2512.100223
365.608665	2511.911180
365.996601	2512.206087
366.384474	2511.389420
366.772284	2513.093330
367.160031	2511.729698
367.547715	2514.482168
367.935336	2513.791530
368.322893	2512.316993
368.710388	2509.987979
369.097820	2512.221211
369.485189	2511.414626
369.872495	2514.335975
370.259738	2514.653567
370.646918	2514.764473
371.034035	2517.375790
371.421090	2515.024092
371.808081	2518.073990
372.195010	2517.673218
372.581875	2516.438136
372.968678	2517.582478
373.355418	2518.124402
373.742096	2518.285719
374.128710	2519.089783
374.515262	2519.001563
374.901751	2521.444002
375.288177	2519.293949
375.674540	2517.731192
376.060841	2518.290760
376.447079	2520.650020
376.833254	2519.077180
377.219367	2519.223373
377.605417	2519.848476
377.991404	2520.576923
378.377329	2521.038189
378.763191	2521.108765
379.148991	2520.004752
379.534727	2521.176820
379.920402	2522.116996
380.306013	2522.106913
380.691563	2524.312418
381.077049	2521.159176
381.462474	2522.207736
381.847835	2522.979033
382.233134	2521.199506
382.618371	2523.873838
383.003545	2524.125895
383.388657	2521.144053
383.773706	2525.116482
384.158693	2522.290915
384.543618	2522.338806
384.928480	2523.878879
385.313280	2525.310567
385.698017	2526.419620
386.082692	2523.808303
386.467305	2525.529857
386.851856	2526.454908
387.236344	2526.323838
387.620770	2523.120185
388.005133	2518.981398
388.389435	2522.689167
388.773674	2520.491223
389.157851	2525.572707
389.541965	2529.101514
389.926018	2529.857687
390.310008	2525.282840
390.693936	2527.720238
391.077802	2527.879034
391.461606	2528.645290
391.845348	2526.384332
392.229027	2529.265352
392.612645	2527.377440
392.996200	2528.173942
393.379694	2528.347862
393.763125	2529.691329
394.146494	2528.141174
394.529801	2529.625794
394.913047	2527.168232
395.296230	2531.112935
395.679351	2528.264683
396.062410	2529.963552
396.445408	2529.366175
396.828343	2529.146885
397.211217	2528.796524
397.594028	2530.258459
397.976778	2530.649148
398.359466	2532.418593
398.742092	2528.826771
399.124656	2532.569828
399.507158	2529.809796
399.889598	2532.569828
400.271977	2533.754499
400.654294	2532.484128
401.036549	2532.032945
401.418742	2529.015815
401.800874	2532.171577
402.182944	2531.264169
402.564952	2534.044366
402.946898	2531.957328
403.328783	2534.563604
403.710606	2534.891279
404.092367	2534.460261
404.474067	2533.898172
404.855705	2534.442617
405.237282	2532.257277
405.618797	2531.987575
406.000250	2532.988244
406.381642	2534.893800
406.762972	2533.651156
407.144240	2531.470857
407.525447	2531.324663
407.906593	2530.712163
408.287677	2534.361958
408.668700	2538.352032
409.049661	2537.890766
409.430560	2534.498069
409.811399	2537.575694
410.192176	2534.883718
410.572891	2536.731301
410.953545	2538.294058
411.334138	2534.311547
411.714669	2539.055273
412.095139	2535.967566
412.475547	2535.531506
412.855894	2538.185673
413.236180	2538.599048
413.616405	2536.426311
413.996568	2536.804397
414.376670	2536.958153
414.756711	2537.263142
415.136691	2537.353883
415.516609	2536.184335
415.896466	2537.031249
416.276262	2537.449665
416.655997	2538.778009
417.035670	2538.427649
417.415283	2539.335057
417.794834	2537.868081
418.174324	2539.123328
418.553753	2537.648791
418.933121	2537.731970
419.312428	2539.287166
419.691674	2540.713812
420.070859	2539.466127
420.449983	2540.320602
420.829045	2536.254912
421.208047	2541.918648
421.586988	2543.075593
421.965867	2542.498381
422.344686	2540.615510
422.723444	2542.236241
423.102141	2542.269008
423.480777	2540.318082
423.859352	2542.019471
424.237866	2542.400078
424.616319	2539.546785
424.994712	2542.614327
425.373044	2540.176929
425.751314	2538.997299
426.129524	2540.950746
426.507673	2541.371683
426.885762	2536.091074
427.263789	2541.094419
427.641756	2543.390665
428.019662	2542.077444
428.397508	2544.925696
428.775292	2542.062321
429.153016	2543.078113
429.530679	2546.228834
429.908282	2540.607948
430.285824	2543.073072
430.663305	2541.656508
431.040726	2543.093237
431.418086	2542.316899
431.795385	2544.109029
432.172624	2542.919317
432.549802	2543.166333
432.926920	2544.497198
433.303977	2543.494008
433.680974	2545.359235
434.057910	2549.699669
434.434786	2542.521066
434.811601	2547.194215
435.188355	2542.926879
435.565050	2547.045501
435.941683	2544.277908
436.318257	2549.868547
436.694770	2544.613145
437.071222	2545.714637
437.447614	2545.805377
437.823946	2546.455686
438.200218	2546.521221
438.576429	2545.092054
438.952580	2545.424770
439.328670	2543.342774
439.704700	2545.344112
440.080670	2547.650440
440.456580	2544.439225
440.832429	2547.670604
441.208218	2546.221273
441.583947	2547.204298
441.959616	2546.594318
442.335224	2546.543907
442.710773	2544.209852
443.086261	2545.802857
443.461689	2548.068856
443.837057	2548.734288
444.212365	2543.365459
444.587612	2545.122301
444.962800	2543.441076
445.337927	2542.742877
445.712995	2541.991745
446.088002	2547.529452
446.462949	2547.582384
446.837837	2545.981818
447.212664	2548.285625
447.587431	2544.459389
447.962139	2549.956768
448.336786	2548.421736
448.711374	2547.353012
449.085901	2549.026675
449.460369	2549.077086
449.834776	2547.635316
450.209124	2548.421736
450.583412	2548.061294
450.957640	2547.133722
451.331808	2548.877961
451.705917	2549.248486
452.079965	2548.255378
452.453954	2548.940975
452.827883	2548.210008
453.201752	2550.450801
453.575562	2548.603218
453.949311	2549.296377
454.323001	2549.266130
454.696632	2549.210677
455.070202	2549.520708
455.443713	2548.262940
455.817164	2550.418033
456.190556	2548.890564
456.563888	2550.581871
456.937160	2549.815615
457.310373	2549.666901
457.683526	2549.135060
458.056619	2549.805533
458.429653	2550.854093
458.802628	2550.115564
459.175542	2549.308979
459.548398	2551.527087
459.921194	2550.755791
460.293930	2550.201264
460.666607	2550.352498
461.039224	2549.649257
461.411782	2549.364432
461.784280	2550.324772
462.156719	2549.999618
462.529099	2551.937941
462.901419	2549.878630
463.273680	2547.332847
463.645882	2548.015923
464.018024	2548.371325
464.390106	2547.441232
464.762130	2550.007179
465.134094	2551.239741
465.505999	2551.171686
465.877845	2550.133208
466.249631	2549.750080
466.621358	2549.898794
466.993026	2551.138918
467.364634	2556.331307
467.736184	2553.543549
468.107674	2550.571788
468.479105	2554.156049
468.850477	2553.798127
469.221790	2553.367108
469.593043	2550.612118
469.964238	2552.333672
470.335373	2551.491799
470.706449	2551.723692
471.077467	2551.411141
471.448425	2551.479196
471.819324	2551.660678
472.190164	2552.043805
472.560945	2551.597663
472.931667	2552.215205
473.302330	2551.877447
473.672934	2552.270657
474.043479	2553.273847
474.413965	2551.295194
474.784393	2553.029351
475.154761	2553.896429
475.525070	2551.950544
475.895321	2551.156562
476.265513	2554.763508
476.635645	2554.602191
477.005719	2552.101779
477.375734	2552.797458
477.745691	2553.329300
478.115588	2552.918446
478.485427	2553.974567
478.855207	2551.784186
479.224928	2554.766028
479.594591	2553.644372
479.964194	2552.545400
480.333739	2555.101265
480.703226	2555.217212
481.072653	2557.160577
481.442022	2552.371480
481.811333	2553.346944
482.180584	2548.988866
482.549777	2551.748898
482.918912	2549.046839
483.287988	2554.259392
483.657005	2552.386604
484.025964	2554.259393
484.394864	2554.196378
484.763706	2554.261913
485.132489	2552.318548
485.501213	2553.586398
485.869879	2551.360729
486.238487	2558.168807
486.607036	2556.452294
486.975527	2554.158569
487.343959	2555.121430
487.712333	2555.060936
488.080648	2552.613456
488.448905	2557.268961
488.817104	2555.547407
489.185244	2554.012376
489.553326	2553.619166
489.921350	2555.572613
490.289315	2556.863148
490.657222	2552.626059
491.025070	2555.643189
491.392861	2553.694783
491.760593	2555.660833
492.128267	2556.837943
492.495883	2554.052705
492.863440	2555.955741
493.230939	2555.925494
493.598380	2556.227963
493.965763	2555.817109
494.333088	2555.065977
494.700354	2554.677808
495.067563	2555.698642
495.434713	2553.891388
495.801805	2557.543704
496.168839	2555.479352
496.535815	2555.759136
496.902733	2557.309291
497.269593	2557.944476
497.636395	2555.184444
498.003139	2555.542366
498.369825	2558.952707
498.736453	2557.891544
499.103023	2555.028168
499.469535	2557.223591
499.835989	2554.660164
500.202385	2553.616645
500.568723	2550.158414
500.935003	2552.459701
501.301226	2552.179917
501.667390	2555.691080
502.033497	2554.123281
502.399546	2557.198385
502.765537	2558.186451
503.131470	2555.338199
503.497345	2557.372305
503.863163	2554.249310
504.228923	2555.650751
504.594625	2554.501368
504.960269	2556.623694
505.325856	2557.352140
505.691385	2556.011193
506.056856	2558.892213
506.422270	2557.170659
506.787625	2555.577654
507.152924	2559.731565
507.518164	2559.706359
507.883347	2559.227450
508.248472	2557.599157
508.613540	2558.413303
508.978550	2557.006821
509.343503	2557.558828
509.708398	2559.305587
510.073236	2555.043292
510.438016	2557.243756
510.802738	2558.587223
511.167403	2556.691749
511.532010	2558.766184
511.896561	2558.602347
512.261053	2556.918601
512.625488	2557.359702
512.989866	2557.342058
513.354186	2558.872048
513.718449	2555.005483
514.082655	2556.127140
514.446803	2558.128478
514.810894	2555.456667
515.174927	2555.963302
515.538904	2557.473128
515.902822	2557.644527
516.266684	2556.898437
516.630488	2554.854249
516.994235	2556.578323
517.357925	2555.890206
517.721558	2560.089487
518.085133	2554.037582
518.448651	2556.215360
518.812112	2555.776780
519.175516	2554.403065
519.538863	2553.309135
519.902152	2556.187634
520.265385	2555.365926
520.628560	2558.662840
520.991678	2557.216029
521.354739	2555.670916
521.717743	2556.172510
522.080690	2556.288457
522.443580	2555.116389
522.806413	2557.389949
523.169189	2558.085628
523.531908	2558.622511
523.894569	2557.694939
524.257174	2556.497665
524.619722	2559.114024
524.982213	2557.132850
525.344647	2559.872717
525.707025	2558.690567
526.069345	2559.323232
526.431608	2554.728220
526.793815	2556.391801
527.155964	2559.361040
527.518057	2556.734599
527.880093	2558.327604
528.242072	2557.649568
528.603995	2557.417675
528.965860	2558.299877
529.327669	2557.042109
529.689421	2559.620660
530.051117	2560.064281
530.412755	2559.197203
530.774337	2559.008159
531.135862	2556.719476
531.497331	2557.092521
531.858743	2559.214847
532.220098	2559.030845
532.581396	2560.364230
532.942638	2561.226267
533.303824	2561.175856
533.664953	2557.614280
534.026025	2558.141081
534.387040	2556.321224
534.747999	2558.012532
535.108902	2555.917932
535.469748	2557.609239
535.830537	2558.380536
536.191270	2562.073181
536.551947	2555.640669
536.912567	2556.981616
537.273131	2556.054043
537.633638	2556.802655
537.994089	2560.215516
538.354483	2558.388097
538.714821	2558.226781
539.075103	2558.700649
539.435328	2558.539332
539.795497	2558.773746
540.155609	2559.260217
540.515665	2558.108313
540.875665	2560.805331
541.235609	2558.650237
541.595496	2560.354147
541.955328	2557.906667
542.315102	2560.790207
542.674821	2560.235680
543.034483	2558.158725
543.394090	2556.890875
543.753640	2561.027142
544.113134	2559.005639
544.472571	2559.673592
544.831953	2559.078736
545.191278	2561.344734
545.550548	2561.765671
545.909761	2559.426575
546.268918	2561.707697
546.628019	2558.831719
546.987064	2557.636966
547.346053	2560.069322
547.704986	2559.734086
548.063863	2560.754919
548.422684	2558.897254
548.781449	2559.555125
549.140158	2558.723334
549.498811	2560.908674
549.857408	2561.148129
550.215949	2561.206103
550.574434	2558.519168
550.932864	2558.451112
551.291237	2559.935732
551.649555	2559.736606
552.007817	2558.844322
552.366022	2558.320042
552.724173	2559.628221
553.082267	2558.199054
553.440305	2558.536812
553.798288	2558.032696
554.156215	2558.546894
554.514086	2558.052861
554.871902	2556.570762
555.229661	2559.595454
555.587365	2555.562531
555.945014	2558.211657
556.302606	2557.213509
556.660143	2559.577810
557.017625	2560.759960
557.375050	2560.391956
557.732421	2559.726524
558.089735	2560.465053
558.446994	2561.606874
558.804197	2560.921277
559.161345	2558.062943
559.518437	2559.386246
559.875474	2559.746688
560.232455	2559.078736
560.589381	2559.804662
560.946251	2560.160063
561.303065	2557.589075
561.659825	2559.345917
562.016528	2559.908005
562.373177	2559.620660
562.729770	2558.446071
563.086307	2562.514282
563.442789	2559.061092
563.799216	2558.846842
564.155587	2561.145609
564.511904	2557.667212
564.868164	2561.372461
565.224370	2559.996226
565.580520	2559.945814
565.936615	2560.359189
566.292654	2561.188458
566.648638	2558.541853
567.004567	2559.759291
567.360441	2562.108469
567.716260	2559.852553
568.072023	2561.387584
568.427732	2559.595454
568.783385	2560.719631
569.138982	2557.818447
569.494525	2561.606874
569.850013	2559.565207
570.205445	2559.166956
570.560823	2560.535629
570.916145	2559.605536
571.271412	2559.943293
571.626625	2558.720814
571.981782	2561.518654
572.336884	2558.655279
572.691931	2556.353992
573.046923	2555.980947
573.401860	2556.263251
573.756743	2558.622511
574.111570	2558.796431
574.466342	2560.454971
574.821059	2561.127965
575.175722	2560.470094
575.530330	2561.420352
575.884882	2560.144940
576.239380	2560.737275
576.593823	2560.744837
576.948211	2562.811710
577.302544	2558.793910
577.656823	2561.722821
578.011047	2563.071329
578.365216	2561.251473
578.719330	2559.590413
579.073389	2560.820454
579.427394	2564.006463
579.781344	2558.982954
580.135239	2559.794579
580.489080	2558.806513
580.842866	2560.086966
581.196597	2568.092319
581.550273	2559.807182
581.903895	2562.547049
582.257463	2559.860114
582.610975	2560.719631
582.964434	2558.526729
583.317837	2559.098900
583.671186	2561.490928
584.024481	2561.198541
584.377721	2562.660475
584.730906	2557.009342
585.084037	2559.814744
585.437113	2559.242573
585.790135	2560.661658
586.143103	2563.514951
586.496016	2563.134344
586.848874	2561.110321
587.201679	2562.012687
587.554428	2559.794579
587.907124	2561.831206
588.259765	2562.330280
588.612352	2562.720969
588.964884	2558.032696
589.317362	2561.826164
589.669786	2559.439178
590.022155	2557.846173
590.374470	2555.562531
590.726731	2559.834909
591.078937	2552.608415
591.431090	2561.495969
591.783188	2562.257183
592.135232	2561.725341
592.487222	2561.012018
592.839157	2559.824826
593.191038	2557.669733
593.542866	2560.202913
593.894639	2561.425393
594.246358	2560.104610
594.598022	2561.863973
594.949633	2560.326421
595.301190	2562.768860
595.652692	2558.788869
596.004141	2559.781977
596.355535	2561.226267
596.706876	2560.102090
597.058162	2557.684857
597.409395	2560.795248
597.760573	2559.565207
598.111698	2560.989333
598.462768	2559.799621
598.813785	2561.773232
599.164748	2559.630742
599.515657	2558.977913
599.866511	2559.124106
600.217312	2562.368088
600.568060	2558.942624
600.918753	2561.992522
601.269392	2563.192317
601.619978	2559.764332
601.970510	2561.072512
602.320988	2556.669064
602.671412	2559.802141
603.021783	2560.712069
603.372100	2560.961607
603.722363	2560.165104
604.072572	2560.376833
604.422728	2559.053530
604.772830	2559.015721
605.122878	2558.831719
605.472872	2559.552604
605.822813	2559.769374
606.172701	2561.669889
606.522534	2563.522513
606.872314	2561.543860
607.222041	2559.933211
607.571714	2558.665361
607.921333	2559.766853
608.270899	2559.141750
608.620411	2557.891544
608.969870	2566.922771
609.319276	2562.478994
609.668627	2567.341187
610.017926	2571.366548
610.367171	2572.972156
610.716362	2575.840572
611.065500	2573.587176
611.414585	2570.756568
611.763616	2568.238512
612.112594	2565.798594
612.461518	2564.374468
612.810389	2566.675754
613.159207	2562.983109
613.507971	2563.746844
613.856682	2564.974365
614.205340	2561.800959
614.553945	2562.272307
614.902496	2562.713407
615.250994	2563.676268
615.599439	2562.647872
615.947830	2560.270968
616.296169	2562.491597
616.644454	2559.814744
616.992686	2561.027142
617.340864	2560.142419
617.688990	2560.575958
618.037063	2561.916905
618.385082	2559.035886
618.733048	2562.289951
619.080961	2560.817934
619.428821	2559.066133
619.776628	2562.786504
620.124382	2560.714590
620.472083	2562.257183
620.819731	2561.659806
621.167326	2560.994374
621.514868	2559.159394
621.862357	2560.354147
622.209793	2561.337172
622.557176	2563.852708
622.904506	2562.307595
623.251783	2560.938921
623.599007	2561.135526
623.946179	2559.106462
624.293297	2561.143088
624.640363	2560.391956
624.987376	2558.899775
625.334336	2555.824671
625.681243	2557.082439
626.028097	2558.398180
626.374899	2561.259035
626.721647	2562.569735
627.068343	2563.129303
627.414987	2562.516803
627.761577	2560.505382
628.108115	2558.935063
628.454600	2560.611246
628.801032	2562.652914
629.147412	2560.238201
629.493739	2561.228788
629.840014	2563.764488
630.186236	2561.208623
630.532405	2560.192831
630.878521	2561.722821
631.224585	2562.141237
631.570597	2562.499158
631.916556	2563.076371
632.262462	2557.858776
632.608316	2560.064281
632.954117	2560.452450
633.299866	2560.586041
633.645562	2560.167625
633.991206	2560.689384
634.336797	2559.955896
634.682336	2559.114024
635.027823	2558.302398
635.373257	2559.562686
635.718639	2561.838767
636.063968	2559.877758
636.409245	2562.393294
636.754470	2558.756102
637.099642	2560.525547
637.444762	2560.449929
637.789829	2559.799621
638.134845	2560.611246
638.479808	2559.171997
638.824719	2559.378684
639.169577	2561.372461
639.514383	2561.911864
639.859137	2556.779969
640.203839	2559.514795
640.548489	2560.207954
640.893086	2560.417162
641.237632	2559.507234
641.582125	2556.626214
641.926566	2560.684343
642.270955	2556.283416
642.615292	2556.079249
642.959576	2555.441543
643.303809	2553.861141
643.647990	2560.328942
643.992118	2558.110834
644.336195	2561.362378
644.680219	2559.643345
645.024192	2558.599826
645.368112	2559.000598
645.711981	2560.608726
646.055797	2560.046637
646.399562	2558.302398
646.743274	2557.931873
647.086935	2559.204764
647.430544	2559.668551
647.774101	2560.676781
648.117606	2560.644014
648.461059	2561.427913
648.804460	2561.155691
649.147810	2557.778118
649.491108	2560.775084
649.834354	2561.886658
650.177548	2561.483366
650.520690	2560.381874
650.863781	2558.998077
651.206820	2557.694939
651.549807	2557.667212
651.892742	2558.995557
652.235626	2562.237018
652.578458	2558.476318
652.921238	2558.458674
653.263967	2558.892213
653.606644	2558.879610
653.949269	2560.908674
654.291843	2558.451112
654.634365	2559.837429
654.976836	2560.225598
655.319255	2558.453633
655.661622	2557.405072
656.003938	2560.074363
656.346203	2558.758622
656.688416	2562.138716
657.030577	2558.393139
657.372687	2555.280226
657.714746	2560.124775
658.056753	2559.454302
658.398708	2560.175187
658.740612	2559.063612
659.082465	2560.853222
659.424266	2556.033879
659.766016	2556.651420
660.107715	2558.262069
660.449362	2555.227294
660.790958	2559.189641
661.132503	2560.094528
661.473996	2561.526216
661.815438	2559.245094
662.156829	2563.124262
662.498168	2561.165773
662.839456	2560.520506
663.180693	2558.962789
663.521879	2558.274672
663.863013	2561.871535
664.204097	2558.330124
664.545129	2559.315670
664.886110	2559.071174
665.227040	2559.083777
665.567918	2559.487069
665.908746	2558.420865
666.249522	2563.217523
666.590248	2558.282233
666.930922	2560.475135
667.271545	2559.814744
667.612118	2557.513457
667.952639	2559.756771
668.293109	2560.611246
668.633528	2558.877089
668.973896	2558.282233
669.314213	2560.608726
669.654480	2557.790721
669.994695	2560.081925
670.334859	2558.945145
670.674973	2560.182748
671.015035	2558.740978
671.355047	2558.022614
671.695008	2559.996226
672.034918	2559.698797
672.374777	2558.952707
672.714585	2558.534291
673.054342	2561.959755
673.394049	2557.019424
673.733705	2559.010680
674.073310	2562.161401
674.412864	2558.413303
674.752368	2562.332800
675.091820	2557.677295
675.431223	2558.796431
675.770574	2558.304918
676.109875	2562.103428
676.449125	2557.127809
676.788324	2554.219063
677.127473	2556.674105
677.466571	2557.115206
677.805619	2560.311298
678.144616	2556.875751
678.483562	2560.487738
678.822458	2558.254507
679.161303	2559.666030
679.500098	2557.145453
679.838842	2561.039744
680.177535	2559.045968
680.516179	2558.841801
680.854771	2556.820299
681.193314	2559.542522
681.531805	2560.361709
681.870247	2556.583364
682.208638	2560.013870
682.546978	2558.801472
682.885268	2562.468912
683.223508	2557.382387
683.561697	2560.039075
683.899836	2556.923642
684.237925	2558.423386
684.575963	2559.751730
684.913951	2559.179559
685.251889	2557.974723
685.589776	2560.165104
685.927614	2560.129816
686.265401	2556.868190
686.603137	2558.831719
686.940824	2557.901626
687.278460	2560.097049
687.616046	2558.642676
687.953582	2559.139229
688.291068	2557.200906
688.628504	2558.902295
688.965889	2557.621842
689.303224	2557.755433
689.640510	2557.909188
689.977745	2556.795093
690.314930	2560.051678
690.652065	2558.904816
690.989150	2558.463715
691.326185	2560.462532
691.663170	2555.912891
692.000105	2557.488252
692.336990	2559.839950
692.673825	2557.316852
693.010610	2558.471277
693.347345	2557.934394
693.684030	2553.956923
694.020665	2557.112686
694.357251	2554.483724
694.693786	2558.075546
695.030272	2557.732747
695.366707	2556.845504
695.703093	2559.376164
696.039429	2558.806513
696.375716	2558.864487
696.711952	2559.943293
697.048139	2557.337017
697.384276	2558.133519
697.720363	2554.576985
698.056400	2557.586554
698.392388	2559.857594
698.728326	2560.132337
699.064214	2557.057233
699.400053	2559.522357
699.735842	2558.241904
700.071581	2560.046637
700.407270	2559.615618
700.742910	2560.528067
701.078501	2558.292316
701.414042	2558.902295
701.749533	2557.102603
702.084974	2559.071174
702.420366	2558.133519
702.755709	2557.621842
703.091002	2558.330124
703.426246	2558.930022
703.761440	2558.267110
704.096584	2556.674105
704.431679	2559.013201
704.766725	2557.357182
705.101721	2556.568241
705.436668	2560.984292
705.771565	2561.097718
706.106413	2561.133006
706.441212	2559.640824
706.775961	2560.303736
707.110661	2558.597305
707.445311	2560.911195
707.779913	2560.026472
708.114465	2558.262069
708.448967	2555.648230
708.783421	2559.991184
709.117825	2556.003632
709.452180	2559.023283
709.786485	2559.517316
710.120742	2557.573951
710.454949	2554.730740
710.789107	2555.910370
711.123216	2553.798127
711.457275	2555.197047
711.791286	2557.314332
712.125247	2558.987995
712.459159	2557.458005
712.793023	2557.871379
713.126837	2559.534960
713.460602	2557.198385
713.794318	2557.243756
714.127985	2558.020093
714.461602	2557.276523
714.795171	2557.301729
715.128691	2559.151832
715.462162	2560.132337
715.795584	2557.856256
716.128957	2557.916750
716.462281	2557.634445
716.795556	2558.231822
717.128782	2557.548745
717.461960	2556.946327
717.795088	2556.326266
718.128167	2560.938921
718.461198	2559.141750
718.794180	2558.499003
719.127113	2558.493962
719.459997	2557.238714
719.792833	2556.749723
720.125619	2558.897254
720.458357	2555.449105
720.791046	2559.315670
721.123686	2557.722665
721.456278	2559.436657
721.788821	2556.386759
722.121315	2558.584702
722.453761	2558.120916
722.786158	2559.073694
723.118506	2559.348437
723.450805	2558.914898
723.783056	2558.065464
724.115259	2558.408262
724.447412	2555.935576
724.779518	2560.460012
725.111574	2554.524053
725.443582	2557.500854
725.775542	2557.475649
726.107453	2558.844322
726.439315	2556.132181
726.771129	2560.807851
727.102895	2555.507078
727.434612	2555.416337
727.766281	2551.701007
728.097901	2556.918601
728.429473	2556.560679
728.760996	2557.775597
729.092471	2558.340207
729.423897	2559.625701
729.755276	2559.197203
730.086606	2558.118396
730.417887	2555.161759
730.749120	2558.438509
731.080305	2558.415824
731.411442	2557.465566
731.742530	2553.868703
732.073570	2554.776111
732.404562	2558.130999
732.735506	2557.299208
733.066401	2556.222922
733.397249	2559.691236
733.728048	2558.468756
734.058798	2556.711914
734.389501	2558.274672
734.720156	2556.953889
735.050762	2557.697459
735.381320	2557.059753
735.711831	2557.049671
736.042293	2557.241235
736.372707	2554.725699
736.703073	2554.413148
737.033391	2557.140412
737.363661	2558.400700
737.693883	2559.693756
738.024056	2559.885320
738.354182	2557.326935
738.684260	2556.585885
739.014290	2556.598488
739.344272	2556.474980
739.674207	2554.831563
740.004093	2557.521019
740.333931	2558.264589
740.663722	2558.035217
740.993464	2555.310473
741.323159	2560.321380
741.652806	2554.861810
741.982405	2556.401883
742.311956	2558.998077
742.641460	2555.345761
742.970915	2557.568910
743.300323	2553.876265
743.629683	2553.339382
743.958996	2553.772921
744.288260	2550.828887
744.617477	2556.535473
744.946647	2558.196534
745.275768	2557.026986
745.604842	2556.096893
745.933869	2557.964641
746.262847	2557.725186
746.591778	2556.429609
746.920662	2556.908519
747.249498	2558.012532
747.578286	2557.710062
747.907027	2556.875751
748.235720	2558.519168
748.564365	2558.466235
748.892963	2559.436658
749.221514	2557.223591
749.550017	2556.406924
749.878473	2554.594629
750.206881	2557.460525
750.535242	2557.084959
750.863555	2553.984650
751.191821	2559.902964
751.520039	2558.060422
751.848210	2558.224260
752.176334	2554.612273
752.504411	2555.675957
752.832440	2557.866338
753.160421	2555.174362
753.488356	2554.082952
753.816243	2558.133519
754.144082	2553.977088
754.471875	2557.720145
754.799620	2556.167469
755.127318	2558.438509
755.454969	2556.795093
755.782572	2557.210988
756.110129	2557.735268
756.437638	2558.163766
756.765100	2556.785011
757.092515	2557.087480
757.419882	2556.041440
757.747203	2558.090669
758.074477	2556.348951
758.401703	2555.202088
758.728882	2557.042109
759.056014	2555.784342
759.383099	2555.585216
759.710138	2558.839281
760.037129	2552.799978
760.364073	2551.648075
760.690970	2552.386604
761.017820	2555.789383
761.344623	2559.058571
761.671379	2556.926163
761.998088	2556.328786
762.324751	2558.138560
762.651366	2554.738302
762.977935	2557.059753
763.304456	2556.704352
763.630931	2556.250648
763.957359	2557.793241
764.283740	2557.445402
764.610074	2555.975905
764.936362	2556.258210
765.262602	2556.946328
765.588796	2556.296019
765.914943	2553.626728
766.241044	2557.216029
766.567097	2555.396173
766.893104	2557.102603
767.219064	2557.205947
767.544978	2554.135884
767.870845	2554.675288
768.196665	2556.071687
768.522438	2555.496996
768.848165	2554.037582
769.173846	2558.183931
769.499479	2556.532953
769.825066	2558.879610
770.150607	2558.345248
770.476101	2554.874413
770.801548	2557.800803
771.126949	2558.272151
771.452303	2554.549259
771.777611	2554.975236
772.102872	2553.215874
772.428087	2555.280226
772.753256	2554.682849
773.078378	2556.958930
773.403453	2555.252500
773.728482	2556.270813
774.053465	2554.329969
774.378401	2553.450287
774.703291	2558.289795
775.028135	2556.911039
775.352932	2557.528581
775.677683	2557.044630
776.002388	2552.716799
776.327046	2550.838970
776.651658	2553.362067
776.976224	2554.798796
777.300743	2556.837943
777.625216	2556.076728
777.949643	2554.327448
778.274024	2557.263920
778.598359	2555.897767
778.922647	2556.593447
779.246889	2558.788869
779.571086	2557.074877
779.895236	2556.837943
780.219339	2553.800647
780.543397	2555.186965
780.867409	2556.157387
781.191374	2555.197047
781.515294	2556.734599
781.839167	2556.543035
782.162995	2558.551935
782.486776	2556.938766
782.810511	2558.698128
783.134201	2557.659651
783.457844	2554.261913
783.781441	2557.601677
784.104993	2558.375495
784.428498	2554.675288
784.751958	2555.554969
785.075372	2554.697973
785.398739	2557.334496
785.722061	2554.511450
786.045337	2556.301060
786.368568	2559.038406
786.691752	2556.245607
787.014891	2556.356513
787.337983	2555.262582
787.661030	2559.340876
787.984031	2555.617983
788.306987	2555.391132
788.629897	2552.074052
788.952760	2556.845504
789.275579	2554.924825
789.598351	2557.737789
789.921078	2556.280895
790.243759	2558.350289
790.566395	2555.885165
790.888984	2554.455998
791.211529	2554.655123
791.534027	2556.716955
791.856480	2556.661502
792.178888	2554.365257
792.501249	2551.416182
792.823566	2553.268806
793.145836	2551.988353
793.468062	2554.957592
793.790241	2554.816440
794.112375	2555.522202
794.434464	2553.601522
794.756507	2554.821481
795.078505	2556.371636
795.400457	2554.168652
795.722364	2556.759805
796.044226	2556.164949
796.366042	2555.393652
796.687812	2553.175544
797.009538	2556.747202
797.331218	2554.879454
797.652852	2553.830894
797.974442	2556.853066
798.295986	2554.695452
798.617484	2559.197203
798.938938	2557.894064
799.260346	2556.709393
799.581709	2556.966492
799.903026	2556.238045
800.224299	2551.859803
800.545526	2555.035730
800.866708	2555.184444
801.187845	2556.046482
801.508936	2553.359547
801.829983	2555.779300
802.150984	2554.410627
802.471940	2554.087993
802.792851	2557.359702
803.113717	2552.431974
803.434538	2558.294836
803.755314	2552.805020
804.076045	2557.374826
804.396731	2556.974054
804.717372	2556.056564
805.037967	2556.202757
805.358518	2555.348282
805.679024	2558.317521
805.999485	2556.270813
806.319901	2553.941800
806.640272	2556.396842
806.960598	2556.502706
807.280879	2555.128992
807.601115	2557.200906
807.921306	2557.503375
808.241453	2554.526574
808.561554	2551.083466
808.881611	2554.221584
809.201623	2549.505584
809.521590	2557.026986
809.841513	2552.701676
810.161390	2557.349620
810.481223	2553.175544
810.801011	2553.498178
811.120755	2554.521533
811.440453	2555.164280
811.760107	2554.892057
812.079716	2558.655279
812.399281	2553.341902
812.718801	2553.195709
813.038276	2554.072870
813.357707	2555.930535
813.677093	2556.646379
813.996434	2554.710576
814.315731	2555.454146
814.634983	2556.250648
814.954191	2555.040771
815.273354	2553.125133
815.592473	2553.543549
815.911547	2554.881975
816.230577	2553.556152
816.549562	2554.937428
816.868502	2552.409289
817.187399	2556.626214
817.506250	2552.351316
817.825058	2555.451625
818.143821	2554.075390
818.462539	2555.922973
818.781213	2554.057746
819.099843	2554.685370
819.418429	2555.706204
819.736970	2557.163097
820.055466	2553.349464
820.373919	2553.946841
820.692327	2557.606719
821.010691	2553.805689
821.329011	2555.318035
821.647286	2557.889023
821.965517	2555.373487
822.283704	2554.236707
822.601847	2555.502037
822.919945	2554.612273
823.237999	2554.259393
823.556010	2556.905998
823.873976	2553.397355
824.191897	2550.622200
824.509775	2551.685883
824.827609	2553.583878
825.145398	2549.755122
825.463144	2552.857952
825.780845	2554.208981
826.098502	2553.954403
826.416116	2557.689898
826.733685	2555.522202
827.051210	2555.310473
827.368692	2552.225287
827.686129	2552.729402
828.003522	2554.476162
828.320872	2553.641851
828.638177	2553.420040
828.955439	2555.098745
829.272656	2552.706717
829.589830	2552.903322
829.906960	2553.788045
830.224046	2556.028838
830.541088	2554.597150
830.858086	2554.448436
831.175041	2555.660833
831.491952	2554.193857
831.808819	2555.154197
832.125642	2555.073539
832.442421	2554.072870
832.759157	2554.408107
833.075849	2553.914073
833.392497	2552.943651
833.709101	2554.834084
834.025662	2552.799978
834.342179	2557.276523
834.658653	2555.930535
834.975083	2552.585729
835.291469	2558.173848
835.607811	2554.529094
835.924110	2555.318035
836.240366	2553.362067
836.556578	2554.682849
836.872746	2553.631769
837.188871	2556.328786
837.504952	2554.856769
837.820990	2554.322407
838.136984	2555.305432
838.452935	2553.868703
838.768842	2551.872406
839.084706	2556.079249
839.400526	2557.936914
839.716303	2553.939279
840.032037	2553.258723
840.347727	2549.946685
840.663373	2553.135215
840.978977	2552.184958
841.294537	2554.859290
841.610054	2552.686552
841.925527	2556.164949
842.240957	2556.122099
842.556344	2552.941131
842.871687	2555.804506
843.186987	2554.652602
843.502244	2555.439022
843.817458	2554.178734
844.132629	2555.701162
844.447756	2553.200750
844.762840	2553.762839
845.077881	2554.438353
845.392879	2553.964485
845.707833	2554.065308
846.022745	2554.002294
846.337613	2554.009855
846.652438	2555.623025
846.967221	2551.905174
847.281960	2556.515309
847.596656	2555.605381
847.911309	2554.881975
848.225919	2555.015566
848.540485	2555.965823
848.855009	2553.825853
849.169490	2553.513302
849.483928	2553.946841
849.798323	2554.067829
850.112675	2554.103117
850.426984	2555.565051
850.741251	2554.758467
851.055474	2555.355843
851.369654	2557.090000
851.683792	2551.622869
851.997887	2553.442726
852.311938	2555.696121
852.625947	2551.448949
852.939914	2555.353323
853.253837	2555.527243
853.567718	2553.404917
853.881555	2556.721996
854.195350	2557.614280
854.509103	2554.289639
854.822812	2554.587068
855.136479	2555.287788
855.450103	2553.604043
855.763685	2551.401058
856.077224	2551.322920
856.390720	2549.152704
856.704173	2548.167158
857.017584	2555.028168
857.330953	2551.433826
857.644278	2553.793086
857.957561	2557.006821
858.270802	2554.461039
858.584000	2551.978270
858.897155	2556.477500
859.210268	2554.254351
859.523339	2555.076059
859.836367	2551.917777
860.149352	2554.642520
860.462295	2553.011707
860.775195	2554.813919
861.088054	2554.327448
861.400869	2555.917932
861.713642	2554.269475
862.026373	2553.246121
862.339062	2554.191337
862.651708	2553.147818
862.964312	2554.879454
863.276873	2554.559341
863.589392	2553.725030
863.901869	2552.507592
864.214303	2552.716799
864.526696	2553.949362
864.839045	2552.046326
865.151353	2553.573796
865.463619	2553.551110
865.775842	2553.662016
866.088023	2555.209650
866.400162	2553.462890
866.712258	2551.118754
867.024313	2548.605738
867.336325	2552.585729
867.648296	2554.440874
867.960224	2551.597663
868.272110	2553.931717
868.583954	2551.091027
868.895755	2553.039433
869.207515	2553.936759
869.519233	2553.478014
869.830909	2552.789896
870.142542	2552.799978
870.454134	2550.690256
870.765684	2554.975236
871.077191	2552.434495
871.388657	2550.569268
871.700081	2547.025337
872.011463	2550.949875
872.322803	2552.391645
872.634101	2553.825853
872.945357	2554.576985
873.256571	2553.044474
873.567744	2553.629248
873.878874	2553.157900
874.189963	2557.644527
874.501010	2553.717468
874.812015	2553.422561
875.122979	2552.003476
875.433900	2553.140256
875.744780	2553.959444
876.055618	2553.425082
876.366415	2554.980278
876.677169	2552.157231
876.987882	2551.602704
877.298554	2552.074052
877.609183	2553.785524
877.919771	2552.590771
878.230317	2553.626728
878.540822	2553.868703
878.851285	2553.684701
879.161707	2549.853424
879.472087	2554.619835
879.782425	2555.071018
880.092722	2550.407951
880.402977	2550.773435
880.713191	2550.755791
881.023363	2549.959288
881.333494	2554.163611
881.643583	2553.311656
881.953631	2550.959957
882.263637	2551.637992
882.573602	2553.039433
882.883526	2552.784855
883.193408	2553.364588
883.503248	2553.614125
883.813048	2554.521533
884.122806	2552.137067
884.432522	2553.011707
884.742197	2554.055226
885.051831	2553.440205
885.361424	2551.890050
885.670975	2552.401727
885.980485	2550.236552
886.289954	2554.140925
886.599382	2551.670760
886.908768	2549.709751
887.218113	2549.377035
887.527417	2551.968188
887.836680	2549.256047
888.145901	2553.765359
888.455082	2553.374670
888.764221	2552.202602
889.073319	2552.058929
889.382376	2551.821995
889.691392	2551.055739
890.000366	2553.291491
890.309300	2553.067160
890.618193	2555.418858
890.927044	2551.814433
891.235855	2555.328117
891.544625	2553.735112
891.853353	2552.525236
892.162041	2554.193857
892.470687	2556.182593
892.779293	2551.663198
893.087858	2554.143446
893.396381	2552.860472
893.704864	2555.297870
894.013306	2552.240410
894.321707	2550.687735
894.630068	2550.879299
894.938387	2554.632438
895.246665	2552.124464
895.554903	2551.678322
895.863100	2551.879968
896.171256	2552.542880
896.479371	2550.584391
896.787446	2554.970195
897.095480	2552.966337
897.403473	2552.389124
897.711425	2550.899463
898.019336	2550.090358
898.327207	2552.542880
898.635038	2551.524567
898.942827	2553.359547
899.250576	2552.726882
899.558284	2553.288970
899.865952	2552.855431
900.173579	2553.480534
900.481165	2551.277550
900.788711	2551.637992
901.096216	2553.374670
901.403681	2551.007848
901.711105	2552.671429
902.018489	2556.419527
902.325832	2551.960626
902.633135	2546.473330
902.940397	2548.893084
903.247619	2547.194215
903.554800	2553.561193
903.861941	2553.490617
904.169041	2553.213353
904.476101	2549.545914
904.783121	2551.416182
905.090100	2552.474824
905.397039	2554.776111
905.703938	2552.883157
906.010796	2553.004145
906.317614	2550.586912
906.624391	2553.379711
906.931129	2551.562375
907.237826	2551.963147
907.544483	2552.283260
907.851099	2552.376522
908.157675	2551.890050
908.464211	2551.201933
908.770707	2551.796789
909.077163	2549.568599
909.383578	2554.400545
909.689954	2552.467262
909.996289	2552.943651
910.302584	2551.212015
910.608839	2550.425595
910.915054	2551.055739
911.221229	2550.226469
911.527363	2551.522046
911.833458	2551.879968
912.139513	2552.273178
912.445527	2552.189999
912.751502	2552.053888
913.057436	2551.791748
913.363331	2553.624207
913.669186	2551.731254
913.975000	2549.573640
914.280775	2551.290153
914.586510	2552.167314
914.892205	2554.859290
915.197859	2552.600853
915.503475	2550.571788
915.809050	2553.220915
916.114585	2553.220915
916.420081	2550.082797
916.725536	2551.365770
917.030952	2553.135215
917.336328	2552.457180
917.641665	2552.721841
917.946961	2546.475851
918.252218	2552.873075
918.557435	2547.131201
918.862612	2552.462221
919.167750	2553.130174
919.472848	2549.253527
919.777906	2553.442726
920.082925	2554.128322
920.387904	2552.754608
920.692843	2550.803682
920.997743	2552.195040
921.302603	2553.634289
921.607423	2551.708569
921.912204	2551.312838
922.216946	2553.830894
922.521647	2552.220246
922.826310	2552.774773
923.130932	2551.816953
923.435516	2551.554813
923.740059	2551.353167
924.044564	2551.927859
924.349028	2553.278888
924.653454	2551.257385
924.957840	2553.876265
925.262186	2552.442057
925.566493	2552.066491
925.870761	2550.612118
926.174989	2551.640513
926.479178	2551.164124
926.783328	2552.447098
927.087438	2552.626059
927.391509	2552.807540
927.695541	2552.384083
927.999533	2551.305276
928.303486	2548.199926
928.607400	2550.934752
928.911275	2553.757798
929.215110	2553.825853
929.518906	2552.719320
929.822663	2551.910215
930.126381	2547.763866
930.430060	2551.695966
930.733699	2552.724361
931.037299	2553.263765
931.340861	2549.891233
931.644383	2550.155893
931.947866	2549.588763
932.251309	2551.557334
932.554714	2554.037582
932.858080	2548.449463
933.161407	2548.005841
933.464694	2549.321582
933.767943	2544.782023
934.071153	2549.745039
934.374323	2549.127498
934.677455	2550.027344
934.980548	2552.578168
935.283602	2551.648075
935.586617	2551.441388
935.889593	2550.828887
936.192530	2551.534649
936.495428	2553.362067
936.798287	2551.607746
937.101108	2554.357695
937.403890	2552.585729
937.706632	2550.349978
938.009336	2550.148332
938.312002	2552.868034
938.614628	2551.176727
938.917216	2552.086655
939.219765	2549.815615
939.522275	2553.273847
939.824747	2551.824515
940.127179	2552.595812
940.429573	2552.525236
940.731929	2550.854093
941.034246	2551.814433
941.336524	2550.478527
941.638763	2551.413661
941.940964	2550.269319
942.243126	2549.435008
942.545250	2553.798127
942.847335	2550.977601
943.149381	2552.578168
943.451389	2552.691594
943.753359	2553.808209
944.055290	2551.998435
944.357182	2550.871737
944.659036	2552.825184
944.960851	2551.418702
945.262628	2548.862837
945.564367	2549.742519
945.866067	2551.935421
946.167729	2552.346275
946.469352	2552.336192
946.770937	2551.955585
947.072484	2550.952396
947.373992	2551.945503
947.675462	2552.018600
947.976893	2548.691438
948.278286	2548.782179
948.579641	2548.512477
948.880958	2547.310162
949.182236	2550.607077
949.483476	2551.466593
949.784678	2551.028013
950.085841	2551.491799
950.386967	2552.827705
950.688054	2552.794937
950.989103	2549.341747
951.290114	2551.212015
951.591087	2550.012220
951.892021	2551.259906
952.192917	2553.064639
952.493776	2552.757129
952.794596	2552.830225
953.095378	2551.234700
953.396122	2551.237221
953.696828	2552.646223
953.997496	2551.582540
954.298126	2549.878630
954.598718	2551.280071
954.899272	2549.692107
955.199788	2551.269988
955.500266	2553.520863
955.800706	2552.593291
956.101108	2551.166645
956.401472	2549.087169
956.701798	2550.216387
957.002087	2548.635985
957.302337	2552.555483
957.602550	2552.691594
957.902724	2550.423074
958.202861	2549.271171
958.502960	2547.473999
958.803022	2552.424412
959.103045	2552.041285
959.403031	2551.401058
959.702979	2549.503064
960.002889	2550.387786
960.302762	2551.643034
960.602596	2550.496171
960.902393	2552.036244
961.202153	2551.272509
961.501875	2551.771583
961.801559	2551.045657
962.101205	2550.559186
962.400814	2554.188816
962.700385	2550.796120
962.999918	2549.041798
963.299414	2547.721016
963.598873	2546.932075
963.898293	2546.216232
964.197677	2550.097920
964.497022	2550.836449
964.796331	2552.273178
965.095601	2547.663043
965.394835	2550.833928
965.694030	2549.848383
965.993189	2549.981973
966.292309	2551.839639
966.591393	2551.580019
966.890439	2548.716644
967.189447	2548.762014
967.488419	2549.533311
967.787353	2550.927190
968.086249	2548.812426
968.385108	2552.278219
968.683930	2550.211346
968.982714	2550.392827
969.281462	2548.588094
969.580172	2548.938455
969.878844	2548.409133
970.177480	2551.809392
970.476078	2549.308979
970.774639	2549.147663
971.073162	2549.470296
971.371649	2551.799309
971.670098	2547.652960
971.968510	2549.626572
972.266885	2550.047508
972.565223	2549.251006
972.863524	2549.969371
973.161788	2551.416182
973.460014	2549.669422
973.758204	2552.424413
974.056356	2550.339895
974.354471	2549.409803
974.652550	2552.129505
974.950591	2550.050029
975.248595	2549.523228
975.546563	2551.562375
975.844493	2550.571788
976.142386	2552.172355
976.440243	2550.085317
976.738062	2549.155224
977.035845	2551.416182
977.333590	2551.592622
977.631299	2551.398538
977.928971	2547.930224
978.226606	2546.228834
978.524204	2548.101623
978.821765	2545.916283
979.119290	2551.040616
979.416777	2549.800492
979.714228	2551.789227
980.011642	2549.850903
980.309020	2549.200595
980.606360	2551.930379
980.903664	2548.920811
981.200931	2549.918959
981.498162	2553.578837
981.795356	2548.900646
982.092513	2551.461552
982.389633	2549.898794
982.686717	2551.396017
982.983764	2546.019627
983.280775	2550.042467
983.577749	2549.815615
983.874686	2550.057591
984.171587	2550.859134
984.468451	2548.336037
984.765279	2549.190512
985.062070	2548.933413
985.358824	2550.095399
985.655543	2547.322765
985.952224	2551.937941
986.248869	2551.489278
986.545478	2553.324258
986.842050	2548.535162
987.138586	2551.821995
987.435086	2549.429967
987.731549	2551.940462
988.027975	2548.560368
988.324366	2550.017262
988.620719	2550.924669
988.917037	2547.854607
989.213318	2551.862324
989.509563	2551.088507
989.805772	2549.067004
990.101944	2548.386448
990.398080	2547.970553
990.694180	2550.607077
990.990244	2548.905687
991.286271	2549.961809
991.582262	2547.426108
991.878217	2549.069525
992.174136	2549.828218
992.470019	2549.689587
992.765865	2548.441901
993.061676	2548.315872
993.357450	2547.360573
993.653188	2544.240099
993.948890	2546.864020
994.244556	2550.130688
994.540186	2553.218394
994.835780	2550.614638
995.131337	2550.140770
995.426859	2547.864689
995.722345	2550.284443
996.017795	2552.162273
996.313208	2549.833259
996.608586	2550.337375
996.903928	2548.744370
997.199234	2549.213197
997.494504	2550.042467
997.789738	2548.948537
998.084936	2552.709238
998.380099	2550.150852
998.675225	2548.507436
998.970316	2548.792261
999.265371	2547.226983
999.560390	2551.524567
999.855373	2550.717982
1000.150320	2550.302087
1000.445232	2550.163455
1000.740108	2548.462066
1001.034948	2549.714792
1001.329752	2551.610266
1001.624521	2553.788045
1001.919254	2548.520039
1002.213951	2550.881819
1002.508613	2551.423743
1002.803239	2550.755791
1003.097829	2546.213711
1003.392384	2551.418702
1003.686903	2551.383414
1003.981386	2548.366284
1004.275834	2547.741181
1004.570246	2550.065152
1004.864623	2550.322251
1005.158964	2548.779658
1005.453270	2549.966850
1005.747540	2549.371994
1006.041775	2548.436860
1006.335974	2546.599359
1006.630138	2551.070863
1006.924266	2547.879812
1007.218359	2549.505584
1007.512416	2547.852086
1007.806438	2547.184133
1008.100425	2544.524924
1008.394376	2547.007693
1008.688292	2550.125646
1008.982172	2548.036088
1009.276017	2549.535831
1009.569827	2547.602549
1009.863602	2549.593805
1010.157341	2549.097251
1010.451045	2549.094730
1010.744714	2551.668239
1011.038347	2547.519370
1011.331945	2548.414175
1011.625508	2550.511295
1011.919036	2551.239741
1012.212528	2548.018444
1012.505986	2549.498023
1012.799408	2549.235883
1013.092795	2548.903167
1013.386147	2547.136242
1013.679464	2548.870399
1013.972745	2548.018444
1014.265992	2548.580533
1014.559204	2549.992056
1014.852380	2547.826880
1015.145521	2548.356201
1015.438628	2549.661860
1015.731699	2553.004145
1016.024736	2549.087169
1016.317737	2549.014072
1016.610703	2550.647406
1016.903635	2550.355019
1017.196531	2546.995090
1017.489393	2549.997097
1017.782219	2549.946685
1018.075011	2547.615152
1018.367768	2548.913249
1018.660490	2552.051367
1018.953177	2552.051367
1019.245829	2552.051367
