Dividing Wavelength (nm)	Counts (n)	Blue Motor Position (mm): 35.700000	Red Motor Position (mm): 0.000000	
326.493990	2132.100567
326.888308	2132.100567
327.282561	2132.100567
327.676750	2098.566811
328.070874	2096.933477
328.464933	2097.336770
328.858929	2104.212903
329.252859	2116.876282
329.646726	2127.031686
330.040528	2138.124745
330.434265	2156.567807
330.827938	2173.652277
331.221547	2190.953517
331.615091	2210.951774
332.008571	2229.228478
332.401986	2249.229256
332.795338	2270.815476
333.188625	2288.898095
333.581847	2309.650005
333.975006	2324.297078
334.368100	2341.096723
334.761129	2362.768643
335.154095	2378.428988
335.546996	2401.472102
335.939833	2423.837181
336.332606	2439.147165
336.725315	2451.916408
337.117960	2459.344548
337.510540	2467.806125
337.903056	2483.267343
338.295508	2489.052068
338.687896	2497.821155
339.080220	2505.108142
339.472480	2512.788340
339.864676	2515.089627
340.256807	2517.990811
340.648875	2524.990453
341.040879	2527.231246
341.432818	2527.352234
341.824694	2528.730989
342.216506	2531.070085
342.608253	2531.359951
342.999937	2530.611340
343.391557	2527.760567
343.783113	2529.252749
344.174605	2525.847449
344.566033	2524.917357
344.957397	2524.566996
345.348697	2522.192613
345.739934	2523.251255
346.131106	2522.679084
346.522215	2516.372601
346.913260	2514.905625
347.304241	2514.189781
347.695159	2512.564009
348.086012	2512.493433
348.476802	2510.003103
348.867528	2507.623678
349.258191	2506.726353
349.648789	2506.348266
350.039324	2504.339367
350.429796	2502.610251
350.820203	2500.767709
351.210548	2499.046155
351.600828	2497.185969
351.991045	2497.642194
352.381198	2495.749240
352.771288	2496.575990
353.161314	2496.515496
353.551276	2496.376864
353.941175	2497.332163
354.331010	2498.645383
354.720782	2496.991885
355.110490	2496.785198
355.500135	2494.688078
355.889717	2498.179077
356.279235	2496.906185
356.668689	2498.186638
357.058080	2497.344766
357.447408	2493.954590
357.836672	2494.362923
358.225873	2495.880310
358.615010	2493.463077
359.004084	2500.828203
359.393095	2499.641011
359.782043	2500.603872
360.170927	2499.545229
360.559748	2501.526403
360.948505	2500.770230
361.337199	2503.502535
361.725830	2501.876763
362.114398	2502.360714
362.502903	2503.603358
362.891344	2504.543533
363.279722	2503.678975
363.668037	2504.704850
364.056289	2503.658811
364.444478	2506.781806
364.832603	2507.122083
365.220665	2505.755931
365.608665	2506.716271
365.996601	2507.558143
366.384474	2506.242402
366.772284	2509.887156
367.160031	2509.635099
367.547715	2507.981600
367.935336	2507.106960
368.322893	2510.981087
368.710388	2507.361538
369.097820	2508.992352
369.485189	2510.842455
369.872495	2512.193484
370.259738	2510.804646
370.646918	2510.764317
371.034035	2509.183915
371.421090	2513.796571
371.808081	2512.029647
372.195010	2512.679956
372.581875	2510.305572
372.968678	2512.811026
373.355418	2512.069976
373.742096	2515.122395
374.128710	2515.036695
374.515262	2511.066786
374.901751	2513.441170
375.288177	2514.582991
375.674540	2513.484020
376.060841	2516.100378
376.447079	2514.837569
376.833254	2516.876716
377.219367	2514.119205
377.605417	2516.175996
377.991404	2512.357322
378.377329	2514.459483
378.763191	2511.293638
379.148991	2517.796727
379.534727	2518.111799
379.920402	2520.070287
380.306013	2520.486182
380.691563	2519.505678
381.077049	2518.961233
381.462474	2520.279495
381.847835	2519.452746
382.233134	2519.646830
382.618371	2520.418127
383.003545	2518.842766
383.388657	2521.300329
383.773706	2520.642458
384.158693	2521.249917
384.543618	2520.695390
384.928480	2520.972654
385.313280	2519.558610
385.698017	2524.952645
386.082692	2519.823271
386.467305	2521.345699
386.851856	2524.330062
387.236344	2526.033972
387.620770	2528.824251
388.005133	2524.824095
388.389435	2526.535567
388.773674	2526.769981
389.157851	2523.664630
389.541965	2527.306863
389.926018	2526.656555
390.310008	2527.672347
390.693936	2529.429189
391.077802	2529.698891
391.461606	2530.220650
391.845348	2528.552028
392.229027	2528.468849
392.612645	2529.426669
392.996200	2527.468180
393.379694	2531.256608
393.763125	2532.108563
394.146494	2532.219468
394.529801	2532.736186
394.913047	2533.419262
395.296230	2533.015970
395.679351	2533.603265
396.062410	2534.568646
396.445408	2535.544109
396.828343	2532.325332
397.211217	2530.021525
397.594028	2531.455733
397.976778	2533.421783
398.359466	2535.869263
398.742092	2531.319622
399.124656	2538.185673
399.507158	2538.989737
399.889598	2542.281611
400.271977	2543.060469
400.654294	2545.671787
401.036549	2548.240255
401.418742	2551.413661
401.800874	2555.300391
402.182944	2559.177038
402.564952	2565.889334
402.946898	2570.945612
403.328783	2578.222517
403.710606	2587.231059
404.092367	2598.684561
404.474067	2611.161417
404.855705	2619.320524
405.237282	2631.318470
405.618797	2649.695997
406.000250	2663.387770
406.381642	2686.085566
406.762972	2702.108873
407.144240	2717.665874
407.525447	2737.089440
407.906593	2761.009715
408.287677	2783.399999
408.668700	2798.767957
409.049661	2827.414314
409.430560	2860.673326
409.811399	2875.494318
410.192176	2931.985488
410.572891	2948.321348
410.953545	2995.461177
411.334138	3002.191118
411.714669	3045.492108
412.095139	3053.106771
412.475547	3124.187041
412.855894	3150.741318
413.236180	3192.872762
413.616405	3214.005279
413.996568	3274.592386
414.376670	3291.432361
414.756711	3315.884477
415.136691	3367.006818
415.516609	3436.131120
415.896466	3488.561641
416.276262	3545.700599
416.655997	3578.757965
417.035670	3700.196841
417.415283	3789.725213
417.794834	3806.693736
418.174324	3829.109227
418.553753	3826.691994
418.933121	3966.659630
419.312428	4052.152558
419.691674	4071.021597
420.070859	4187.210111
420.449983	4185.377652
420.829045	4295.148777
421.208047	4284.819452
421.586988	4376.477712
421.965867	4430.145835
422.344686	4569.311928
422.723444	4509.150798
423.102141	4420.171912
423.480777	4672.902599
423.859352	4545.666396
424.237866	4780.246408
424.616319	4810.637004
424.994712	4936.764153
425.373044	4876.108990
425.751314	5029.339902
426.129524	4899.900715
426.507673	5098.743988
426.885762	5197.056570
427.263789	5171.699566
427.641756	5092.087144
428.019662	5227.651333
428.397508	5262.611735
428.775292	5241.466615
429.153016	5355.366445
429.530679	5309.668385
429.908282	5411.729065
430.285824	5309.509589
430.663305	5586.107618
431.040726	5359.023802
431.418086	5370.404207
431.795385	5488.213452
432.172624	5517.994068
432.549802	5525.775089
432.926920	5548.006577
433.303977	5565.338064
433.680974	5613.425631
434.057910	5637.998735
434.434786	5658.748124
434.811601	5633.224762
435.188355	5868.591194
435.565050	5749.844295
435.941683	5743.741978
436.318257	5961.154341
436.694770	5947.603719
437.071222	5989.999823
437.447614	5923.378454
437.823946	5835.112892
438.200218	5997.639692
438.576429	5865.611873
438.952580	5967.090299
439.328670	6010.134192
439.704700	5922.864257
440.080670	5908.721300
440.456580	6184.384195
440.832429	6063.396503
441.208218	5915.945273
441.583947	6073.302370
441.959616	6073.435960
442.335224	6007.994222
442.710773	6140.193440
443.086261	6168.277708
443.461689	5960.801460
443.837057	6113.989523
444.212365	6264.909066
444.587612	6159.395195
444.962800	6316.606098
445.337927	6297.255629
445.712995	5907.196351
446.088002	6480.678012
446.462949	6310.755839
446.837837	6249.805769
447.212664	6419.017139
447.587431	6562.506021
447.962139	7105.738239
448.336786	8031.039507
448.711374	7766.898169
449.085901	6843.527663
449.460369	6766.791219
449.834776	6702.093051
450.209124	7093.384892
450.583412	7241.796461
450.957640	7387.851291
451.331808	7152.371433
451.705917	6708.084462
452.079965	6632.762062
452.453954	6840.142528
452.827883	6722.189611
453.201752	6812.249824
453.575562	6614.717252
453.949311	6821.981772
454.323001	6702.715633
454.696632	6777.004597
455.070202	6919.969199
455.443713	7074.712458
455.817164	7174.791965
456.190556	7249.764005
456.563888	7329.421797
456.937160	7371.719598
457.310373	7028.472474
457.683526	7053.554735
458.056619	6942.639268
458.429653	6931.120232
458.802628	6865.111363
459.175542	6979.860628
459.548398	7330.871129
459.921194	7492.898855
460.293930	7497.713157
460.666607	8017.929987
461.039224	8324.008683
461.411782	8452.772356
461.784280	8470.978483
462.156719	8364.763892
462.529099	8239.282011
462.901419	7829.252201
463.273680	7726.775626
463.645882	7734.909527
464.018024	7606.027388
464.390106	7773.970908
464.762130	8155.366964
465.134094	8620.932645
465.505999	9637.884610
465.877845	10860.460200
466.249631	11509.773418
466.621358	11132.685028
466.993026	10499.367391
467.364634	10242.850798
467.736184	9882.030212
468.107674	9549.737515
468.479105	9582.073996
468.850477	9343.592131
469.221790	9120.238769
469.593043	8795.429665
469.964238	8659.411772
470.335373	8666.487032
470.706449	8722.211946
471.077467	8707.280049
471.448425	10012.437300
471.819324	11082.724673
472.190164	11100.008269
472.560945	9858.304021
472.931667	9070.744720
473.302330	8939.336963
473.672934	8588.071884
474.043479	8942.885935
474.413965	8883.266729
474.784393	8768.333463
475.154761	8919.212677
475.525070	9005.411367
475.895321	8838.947425
476.265513	9007.344649
476.635645	9183.376700
477.005719	9183.785034
477.375734	9291.816961
477.745691	9533.736893
478.115588	9660.595008
478.485427	9906.550384
478.855207	10438.122413
479.224928	11246.504200
479.594591	11877.137422
479.964194	11685.896210
480.333739	11625.898918
480.703226	11542.750126
481.072653	11632.386883
481.442022	11867.327337
481.811333	12064.703634
482.180584	11861.315761
482.549777	11571.416647
482.918912	11403.412634
483.287988	11421.560788
483.657005	11431.111254
484.025964	11116.719694
484.394864	11249.649880
484.763706	11226.954605
485.132489	10981.117697
485.501213	10943.049423
485.869879	11015.924343
486.238487	10861.783503
486.607036	10974.284413
486.975527	10752.965156
487.343959	10943.924064
487.712333	10993.455921
488.080648	10924.127452
488.448905	10963.004831
488.817104	10911.327963
489.185244	11167.463949
489.553326	11329.360604
489.921350	11859.382479
490.289315	12915.894899
490.657222	13263.739555
491.025070	13169.532993
491.392861	13044.721585
491.760593	12660.757062
492.128267	12308.609780
492.495883	11988.299906
492.863440	11651.558391
493.230939	11318.655714
493.598380	11250.779098
493.965763	11118.100970
494.333088	11017.426607
494.700354	10940.458270
495.067563	11009.086018
495.434713	10831.760911
495.801805	10965.023813
496.168839	10884.506504
496.535815	10823.604324
496.902733	10824.262195
497.269593	10755.331978
497.636395	10853.740342
498.003139	10846.753303
498.369825	10709.157529
498.736453	10865.887002
499.103023	10792.409664
499.469535	10826.049284
499.835989	10812.937243
500.202385	10777.024063
500.568723	10631.044850
500.935003	10854.103305
501.301226	10654.990331
501.667390	10911.022973
502.033497	11009.171718
502.399546	10869.236849
502.765537	10776.703949
503.131470	10847.297747
503.497345	11014.472491
503.863163	10630.891095
504.228923	10939.860894
504.594625	11007.041830
504.960269	10761.363718
505.325856	10982.199024
505.691385	10773.979206
506.056856	10924.934037
506.422270	10949.459251
506.787625	10837.999339
507.152924	10952.078130
507.518164	10931.669019
507.883347	10855.492143
508.248472	10784.444641
508.613540	11006.515030
508.978550	10893.530169
509.343503	10864.969512
509.708398	10993.060190
510.073236	11101.409710
510.438016	11113.770619
510.802738	11053.806094
511.167403	11106.844074
511.532010	11001.395738
511.896561	11241.770556
512.261053	11308.021400
512.625488	11175.144147
512.989866	11154.235961
513.354186	11146.492749
513.718449	11044.759743
514.082655	11243.386246
514.446803	11132.241407
514.810894	11259.192784
515.174927	11127.230500
515.538904	11146.344035
515.902822	11302.357664
516.266684	11184.278717
516.630488	11128.130346
516.994235	11181.826196
517.357925	11248.253480
517.721558	11331.878661
518.085133	11350.760302
518.448651	11357.134842
518.812112	11237.362067
519.175516	11256.271435
519.538863	11371.408869
519.902152	11293.465068
520.265385	11456.869029
520.628560	11367.978363
520.991678	11350.036897
521.354739	11411.513768
521.717743	11339.435350
522.080690	11325.665439
522.443580	11457.857095
522.806413	11414.183059
523.169189	11440.724734
523.531908	11501.198416
523.894569	11324.879019
524.257174	11316.606485
524.619722	11447.679006
524.982213	11385.473688
525.344647	11443.255393
525.707025	11392.281766
526.069345	11485.608647
526.431608	11407.604353
526.793815	11516.047134
527.155964	11307.043416
527.518057	11355.680469
527.880093	11311.058695
528.242072	11373.871472
528.603995	11278.359251
528.965860	11196.962260
529.327669	11250.741290
529.689421	11198.429236
530.051117	11164.908084
530.412755	11273.905392
530.774337	11162.629482
531.135862	11143.692388
531.497331	11171.688436
531.858743	11024.721157
532.220098	11191.462362
532.581396	11058.111239
532.942638	11040.565503
533.303824	11006.310863
533.664953	11013.665907
534.026025	10932.662126
534.387040	11031.693073
534.747999	11034.500995
535.108902	11090.712381
535.469748	10853.836124
535.830537	10954.780188
536.191270	10926.683318
536.551947	10956.635333
536.912567	10952.904879
537.273131	10881.451565
537.633638	10860.119922
537.994089	10855.799653
538.354483	10801.771087
538.714821	10947.291554
539.075103	10959.838986
539.435328	10915.436503
539.795497	10742.711449
540.155609	10902.528629
540.515665	10990.708492
540.875665	10718.259332
541.235609	10787.933120
541.595496	10790.688110
541.955328	10943.883734
542.315102	10827.743112
542.674821	10776.479618
543.034483	10776.585482
543.394090	10777.881059
543.753640	10706.962107
544.113134	10932.790675
544.472571	10784.424477
544.831953	10930.078535
545.191278	10737.841694
545.550548	10761.434294
545.909761	10901.659030
546.268918	10874.272962
546.628019	10964.791920
546.987064	10820.967801
547.346053	10748.216389
547.704986	10840.225008
548.063863	10834.636889
548.422684	10822.089458
548.781449	10742.081305
549.140158	10842.009577
549.498811	10715.937881
549.857408	10576.968393
550.215949	10804.402569
550.574434	10654.365228
550.932864	10757.618141
551.291237	10812.715432
551.649555	10762.591239
552.007817	10773.248238
552.366022	10737.476211
552.724173	10731.895653
553.082267	10715.590041
553.440305	10851.116421
553.798288	10649.903807
554.156215	10806.376181
554.514086	10782.365165
554.871902	10630.208019
555.229661	10671.979019
555.587365	10641.532971
555.945014	10537.677640
556.302606	10662.942751
556.660143	10559.273943
557.017625	10713.361851
557.375050	10613.887283
557.732421	10743.051727
558.089735	10663.114150
558.446994	10656.197687
558.804197	10698.341733
559.161345	10696.960457
559.518437	10544.941942
559.875474	10636.791766
560.232455	10669.662609
560.589381	10617.078333
560.946251	10611.661614
561.303065	10720.797553
561.659825	10652.474795
562.016528	10589.639333
562.373177	10465.939500
562.729770	10578.775647
563.086307	10496.932514
563.442789	10588.260578
563.799216	10463.353388
564.155587	10517.674341
564.511904	10479.043979
564.868164	10464.497730
565.224370	10475.915943
565.580520	10397.644468
565.936615	10404.344162
566.292654	10275.943453
566.648638	10408.208206
567.004567	10362.389159
567.360441	10350.766779
567.716260	10257.177757
568.072023	10350.839875
568.427732	10305.698863
568.783385	10212.929030
569.138982	10286.446697
569.494525	10302.502772
569.850013	10172.698101
570.205445	10252.323126
570.560823	10151.348815
570.916145	10072.966434
571.271412	10143.474533
571.626625	10081.254091
571.981782	10060.834897
572.336884	10035.298933
572.691931	10039.674654
573.046923	9988.373352
573.401860	9941.740158
573.756743	9880.759841
574.111570	9922.361963
574.466342	9910.704295
574.821059	9930.838663
575.175722	9834.325773
575.530330	9834.653448
575.884882	9830.824692
576.239380	9758.973126
576.593823	9738.730373
576.948211	9751.267722
577.302544	9629.470925
577.656823	9646.305858
578.011047	9649.877515
578.365216	9621.445408
578.719330	9547.504284
579.073389	9558.793948
579.427394	9502.683385
579.781344	9479.030291
580.135239	9435.383981
580.489080	9442.469323
580.842866	9345.235547
581.196597	9344.277728
581.550273	9388.430674
581.903895	9352.426753
582.257463	9419.947968
582.610975	9307.512593
582.964434	9322.199995
583.317837	9248.989838
583.671186	9230.042661
584.024481	9229.311694
584.377721	9142.515628
584.730906	9118.809602
585.084037	9145.540320
585.437113	9088.968492
585.790135	9105.062375
586.143103	9004.604782
586.496016	8976.313827
586.848874	9041.339670
587.201679	9021.848049
587.554428	8908.606089
587.907124	8965.921488
588.259765	8933.653062
588.612352	8929.932691
588.964884	8808.345101
589.317362	8821.789858
589.669786	8823.801279
590.022155	8871.692240
590.374470	8888.630517
590.726731	8822.251124
591.078937	8684.373046
591.431090	8787.646123
591.783188	8661.856732
592.135232	8655.509919
592.487222	8655.479672
592.839157	8707.733752
593.191038	8640.759503
593.542866	8585.730268
593.894639	8484.035071
594.246358	8539.976755
594.598022	8558.066936
594.949633	8451.340668
595.301190	8427.347296
595.652692	8456.341493
596.004141	8571.272238
596.355535	8346.202363
596.706876	8327.734096
597.058162	8258.892099
597.409395	8331.842637
597.760573	8396.046772
598.111698	8304.620406
598.462768	8294.157491
598.813785	8259.779342
599.164748	8231.357317
599.515657	8213.975418
599.866511	8121.155173
600.217312	8254.125688
600.568060	8114.682332
600.918753	8213.622538
601.269392	8185.412241
601.619978	8097.139116
601.970510	8159.117582
602.320988	8156.286974
602.671412	8209.113226
603.021783	8148.783217
603.372100	8125.503168
603.722363	8126.740772
604.072572	8095.596523
604.422728	8110.054552
604.772830	8036.143675
605.122878	8045.648771
605.472872	8042.455200
605.822813	8071.461999
606.172701	8014.106271
606.522534	8088.743075
606.872314	8089.862211
607.222041	8058.075215
607.571714	8115.211653
607.921333	8073.869150
608.270899	8081.637568
608.620411	8172.489243
608.969870	8080.412568
609.319276	8070.080723
609.668627	8086.303156
610.017926	8120.857745
610.367171	8165.570259
610.716362	8142.360787
611.065500	8130.168756
611.414585	8161.300402
611.763616	8150.277919
612.112594	8135.643449
612.461518	8143.421950
612.810389	8208.858647
613.159207	8150.514853
613.507971	8095.357068
613.856682	8217.625214
614.205340	8169.875405
614.553945	8244.912980
614.902496	8148.601735
615.250994	8205.498718
615.599439	8181.770007
615.947830	8196.618726
616.296169	8166.563367
616.644454	8183.420985
616.992686	8174.924120
617.340864	8239.713029
617.688990	8140.263667
618.037063	8231.558963
618.385082	8185.482817
618.733048	8269.402905
619.080961	8201.438069
619.428821	8219.452632
619.776628	8225.292809
620.124382	8175.781116
620.472083	8162.406935
620.819731	8192.086728
621.167326	8080.447856
621.514868	8088.238959
621.862357	7978.329202
622.209793	7999.549940
622.557176	7926.780884
622.904506	7896.168477
623.251783	7834.379054
623.599007	7788.255017
623.946179	7790.294164
624.293297	7743.663491
624.640363	7665.288672
624.987376	7645.839901
625.334336	7603.547140
625.681243	7540.918366
626.028097	7534.495936
626.374899	7511.667070
626.721647	7505.042994
627.068343	7431.691685
627.414987	7407.698313
627.761577	7364.150306
628.108115	7400.166830
628.454600	7297.216386
628.801032	7345.772780
629.147412	7307.023951
629.493739	7291.527444
629.840014	7230.746252
630.186236	7288.575848
630.532405	7166.090933
630.878521	7219.711166
631.224585	7175.361615
631.570597	7104.019206
631.916556	7135.531458
632.262462	7128.970397
632.608316	7090.413132
632.954117	7069.630975
633.299866	7055.538429
633.645562	7050.018366
633.991206	6970.226983
634.336797	6913.103148
634.682336	6866.767382
635.027823	6842.232087
635.373257	6831.522155
635.718639	6761.566063
636.063968	6774.322703
636.409245	6665.481671
636.754470	6664.720457
637.099642	6620.963241
637.444762	6570.370221
637.789829	6581.143167
638.134845	6519.787284
638.479808	6506.803792
638.824719	6511.643300
639.169577	6438.077742
639.514383	6453.284382
639.859137	6386.599999
640.203839	6393.271966
640.548489	6382.516664
640.893086	6358.601431
641.237632	6329.541699
641.582125	6349.421489
641.926566	6318.524257
642.270955	6331.764848
642.615292	6329.824004
642.959576	6343.919070
643.303809	6333.914900
643.647990	6341.690880
643.992118	6329.203942
644.336195	6276.977588
644.680219	6298.571371
645.024192	6292.983252
645.368112	6385.120420
645.711981	6406.378966
646.055797	6485.295709
646.399562	6442.314831
646.743274	6572.033802
647.086935	6617.999043
647.430544	6617.711697
647.774101	6642.229349
648.117606	6646.287478
648.461059	6633.709799
648.804460	6602.157217
649.147810	6502.544017
649.491108	6476.506457
649.834354	6448.830523
650.177548	6369.127360
650.520690	6280.942456
650.863781	6263.419405
651.206820	6280.839112
651.549807	6202.751639
651.892742	6143.767618
652.235626	6148.133258
652.578458	6134.131453
652.921238	6041.112082
653.263967	6080.123051
653.606644	6024.539289
653.949269	6024.599783
654.291843	5968.048119
654.634365	6011.454974
654.976836	5969.724302
655.319255	5967.337316
655.661622	5948.327125
656.003938	5939.358912
656.346203	5906.840949
656.688416	5934.501760
657.030577	5887.210696
657.372687	5856.005954
657.714746	5843.425754
658.056753	5885.705912
658.398708	5828.297252
658.740612	5821.970604
659.082465	5865.672366
659.424266	5857.866140
659.766016	5857.077199
660.107715	5836.577347
660.449362	5850.826168
660.790958	5836.910063
661.132503	5831.367314
661.473996	5865.001893
661.815438	5854.317167
662.156829	5848.386250
662.498168	5840.179251
662.839456	5822.048742
663.180693	5852.832548
663.521879	5855.247260
663.863013	5841.318552
664.204097	5860.666501
664.545129	5906.193161
664.886110	5895.185802
665.227040	5935.028561
665.567918	5899.185957
665.908746	5928.132263
666.249522	5930.544455
666.590248	5917.563483
666.930922	5941.430826
667.271545	5956.098063
667.612118	5959.468075
667.952639	5935.573006
668.293109	5954.956242
668.633528	5910.679788
668.973896	5915.688174
669.314213	5908.378501
669.654480	5889.201952
669.994695	5880.863883
670.334859	5872.490527
670.674973	5865.876533
671.015035	5868.356781
671.355047	5866.720926
671.695008	5850.354820
672.034918	5826.585780
672.374777	5838.924004
672.714585	5818.822403
673.054342	5823.903886
673.394049	5816.798380
673.733705	5848.018246
674.073310	5838.016596
674.412864	5798.052849
674.752368	5782.289161
675.091820	5794.098064
675.431223	5722.954780
675.770574	5728.719340
676.109875	5681.007339
676.449125	5688.329615
676.788324	5647.798738
677.127473	5592.915696
677.466571	5589.938895
677.805619	5576.610084
678.144616	5566.381583
678.483562	5546.509355
678.822458	5511.213716
679.161303	5508.216750
679.500098	5499.571171
679.838842	5483.837730
680.177535	5486.428883
680.516179	5501.970760
680.854771	5510.424775
681.193314	5591.620120
681.531805	5699.581471
681.870247	5848.184604
682.208638	5950.756961
682.546978	5960.957736
682.885268	5941.156083
683.223508	5860.096850
683.561697	5798.877078
683.899836	5774.084683
684.237925	5727.169185
684.575963	5692.599472
684.913951	5652.446682
685.251889	5714.296599
685.589776	5680.863666
685.927614	5651.219161
686.265401	5724.595676
686.603137	5709.716710
686.940824	5781.734634
687.278460	5806.216998
687.616046	5818.202341
687.953582	5882.366147
688.291068	5865.155648
688.628504	5931.454383
688.965889	5891.442745
689.303224	5835.405279
689.640510	5789.629081
689.977745	5712.754006
690.314930	5613.347493
690.652065	5558.149379
690.989150	5463.428619
691.326185	5395.650305
691.663170	5338.004711
692.000105	5263.861941
692.336990	5181.323129
692.673825	5160.808153
693.010610	5090.279890
693.347345	5022.942678
693.684030	5006.591695
694.020665	4966.169203
694.357251	4878.828692
694.693786	4885.356987
695.030272	4849.595041
695.366707	4818.642357
695.703093	4781.244557
696.039429	4806.475532
696.375716	4790.323675
696.711952	4765.163276
697.048139	4753.503087
697.384276	4727.699941
697.720363	4739.924739
698.056400	4747.476388
698.392388	4702.947876
698.728326	4683.736038
699.064214	4660.982791
699.400053	4652.236389
699.735842	4620.225062
700.071581	4592.793623
700.407270	4567.814706
700.742910	4550.899114
701.078501	4499.615456
701.414042	4498.113192
701.749533	4464.216474
702.084974	4398.991505
702.420366	4457.698262
702.755709	4400.554262
703.091002	4340.128472
703.426246	4390.343405
703.761440	4348.516952
704.096584	4308.245694
704.431679	4333.774097
704.766725	4313.470850
705.101721	4305.994819
705.436668	4335.833409
705.771565	4280.645377
706.106413	4308.664110
706.441212	4340.572093
706.775961	4350.916541
707.110661	4328.755629
707.445311	4357.389383
707.779913	4380.745048
708.114465	4393.032861
708.448967	4414.031787
708.783421	4475.816169
709.117825	4517.110780
709.452180	4520.616903
709.786485	4567.597936
710.120742	4652.881656
710.454949	4634.204181
710.789107	4701.233883
711.123216	4776.652066
711.457275	4765.662350
711.791286	4844.148074
712.125247	4857.822204
712.459159	4762.158748
712.793023	4831.474614
713.126837	4797.295591
713.460602	4790.081699
713.794318	4710.842323
714.127985	4722.429415
714.461602	4634.320128
714.795171	4604.841981
715.128691	4537.421589
715.462162	4481.215244
715.795584	4435.257565
716.128957	4417.895832
716.462281	4366.072770
716.795556	4336.622349
717.128782	4298.145743
717.461960	4227.025144
717.795088	4238.365220
718.128167	4198.025907
718.461198	4138.268069
718.794180	4138.988954
719.127113	4116.341570
719.459997	4094.261316
719.792833	4053.864030
720.125619	4044.008574
720.458357	4004.589272
720.791046	4012.461033
721.123686	3985.624451
721.456278	3943.245991
721.788821	3959.039926
722.121315	3932.392387
722.453761	3908.348604
722.786158	3921.579112
723.118506	3944.929737
723.450805	3896.171697
723.783056	3918.360335
724.115259	3934.575207
724.447412	3938.222481
724.779518	3928.493054
725.111574	3937.993109
725.443582	3966.876400
725.775542	3954.954071
726.107453	4001.476359
726.439315	4004.342255
726.771129	4016.562012
727.102895	4052.467630
727.434612	4099.856997
727.766281	4113.788226
728.097901	4112.538020
728.429473	4118.131180
728.760996	4121.246613
729.092471	4118.360552
729.423897	4100.708952
729.755276	4110.070375
730.086606	4112.477526
730.417887	4144.408194
730.749120	4210.717011
731.080305	4274.699336
731.411442	4298.667502
731.742530	4271.110034
732.073570	4273.370992
732.404562	4327.583560
732.735506	4321.524093
733.066401	4286.160399
733.397249	4221.704206
733.728048	4142.169922
734.058798	4058.184299
734.389501	3990.562261
734.720156	3922.582302
735.050762	3883.536044
735.381320	3876.138151
735.711831	3826.094617
736.042293	3797.276861
736.372707	3821.613031
736.703073	3792.686890
737.033391	3779.826907
737.363661	3798.801810
737.693883	3820.481292
738.024056	3833.318590
738.354182	3827.392714
738.684260	3889.764390
739.014290	3913.039397
739.344272	3909.492946
739.674207	3950.137248
740.004093	3951.919296
740.333931	3949.804532
740.663722	3949.088688
740.993464	3947.657001
741.323159	3923.918207
741.652806	3893.883013
741.982405	3865.939897
742.311956	3833.416893
742.641460	3827.274247
742.970915	3804.105104
743.300323	3760.196654
743.629683	3726.834298
743.958996	3716.716702
744.288260	3692.264585
744.617477	3656.621107
744.946647	3647.519304
745.275768	3619.936630
745.604842	3619.026702
745.933869	3569.325966
746.262847	3562.316242
746.591778	3601.546501
746.920662	3571.617171
747.249498	3539.754558
747.578286	3582.463213
747.907027	3600.160184
748.235720	3603.822582
748.564365	3623.233545
748.892963	3628.894761
749.221514	3608.704940
749.550017	3582.916917
749.878473	3581.502873
750.206881	3554.220149
750.535242	3547.936351
750.863555	3553.156465
751.191821	3546.885270
751.520039	3529.026982
751.848210	3504.625277
752.176334	3538.438817
752.504411	3545.294786
752.832440	3505.000843
753.160421	3487.283708
753.488356	3497.245028
753.816243	3510.394878
754.144082	3464.878300
754.471875	3453.434881
754.799620	3471.300730
755.127318	3463.741520
755.454969	3461.906540
755.782572	3470.116059
756.110129	3446.919189
756.437638	3432.272117
756.765100	3449.064200
757.092515	3459.411168
757.419882	3464.094400
757.747203	3439.024742
758.074477	3437.482149
758.401703	3453.593677
758.728882	3477.735763
759.056014	3481.098212
759.383099	3487.195488
759.710138	3483.618789
760.037129	3503.059999
760.364073	3532.323897
760.690970	3518.238913
761.017820	3493.675891
761.344623	3510.404960
761.671379	3557.741395
761.998088	3609.657718
762.324751	3738.738983
762.651366	3981.778051
762.977935	4453.652736
763.304456	4894.572216
763.630931	4991.289273
763.957359	4633.742916
764.283740	4290.954537
764.610074	4097.538066
764.936362	3902.631935
765.262602	3739.936257
765.588796	3632.388280
765.914943	3545.085578
766.241044	3455.176599
766.567097	3426.585695
766.893104	3380.678428
767.219064	3351.366639
767.544978	3321.379335
767.870845	3265.883793
768.196665	3248.708582
768.522438	3257.054212
768.848165	3249.260588
769.173846	3214.365721
769.499479	3198.118082
769.825066	3181.910773
770.150607	3163.848318
770.476101	3181.918334
770.801548	3173.532375
771.126949	3128.172073
771.452303	3113.537603
771.777611	3121.684108
772.102872	3123.032616
772.428087	3101.877414
772.753256	3091.147318
773.078378	3081.826225
773.403453	3048.148797
773.728482	3036.012219
774.053465	3054.576268
774.378401	3045.741646
774.703291	3010.604803
775.028135	3016.139990
775.352932	3010.229237
775.677683	2996.355982
776.002388	2995.314984
776.327046	2995.960251
776.651658	2985.693942
776.976224	2974.603403
777.300743	2975.783033
777.625216	2965.768781
777.949643	2960.946917
778.274024	2959.847946
778.598359	2950.080710
778.922647	2958.673357
779.246889	2956.452729
779.571086	2940.005964
779.895236	2934.533792
780.219339	2944.800102
780.543397	2960.301650
780.867409	2962.101342
781.191374	2952.263530
781.515294	2948.381841
781.839167	2948.626337
782.162995	2943.940585
782.486776	2954.038016
782.810511	2948.069290
783.134201	2936.341045
783.457844	2937.508073
783.781441	2932.489604
784.104993	2913.834814
784.428498	2914.641399
784.751958	2926.856114
785.075372	2921.162131
785.398739	2907.258629
785.722061	2923.274375
786.045337	2932.716456
786.368568	2920.151380
786.691752	2908.692837
787.014891	2957.022379
787.337983	2988.741319
787.661030	3014.947757
787.984031	3084.175402
788.306987	3128.451857
788.629897	3121.762246
788.952760	3105.088629
789.275579	3088.916608
789.598351	3030.202289
789.921078	2986.528253
790.243759	2980.115905
790.566395	2959.243007
790.888984	2937.462702
791.211529	2919.551483
791.534027	2910.989083
791.856480	2897.763616
792.178888	2882.609907
792.501249	2876.857951
792.823566	2873.404760
793.145836	2870.932074
793.468062	2866.397556
793.790241	2861.860518
794.112375	2870.637167
794.434464	2880.439690
794.756507	2887.519991
795.078505	2895.946280
795.400457	2905.826941
795.722364	2943.532251
796.044226	2969.690799
796.366042	2969.917651
796.687812	2959.855508
797.009538	2979.379896
797.331218	2966.434213
797.652852	2955.179837
797.974442	2933.825510
798.295986	2928.713780
798.617484	2926.253697
798.938938	2912.335071
799.260346	2895.497617
799.581709	2889.808675
799.903026	2886.221894
800.224299	2877.896428
800.545526	2870.463247
800.866708	2851.705113
801.187845	2844.473578
801.508936	2843.480471
801.829983	2852.239476
802.150984	2837.945284
802.471940	2825.803665
802.792851	2826.272492
803.113717	2825.206288
803.434538	2833.408246
803.755314	2825.027327
804.076045	2818.322593
804.396731	2817.289156
804.717372	2818.224290
805.037967	2814.831594
805.358518	2821.788386
805.679024	2832.825992
805.999485	2825.904488
806.319901	2830.723831
806.640272	2821.551452
806.960598	2826.413645
807.280879	2836.024604
807.601115	2845.360821
807.921306	2831.399346
808.241453	2825.743171
808.561554	2833.327587
808.881611	2835.568380
809.201623	2829.448419
809.521590	2825.791062
809.841513	2826.297698
810.161390	2828.717452
810.481223	2822.136226
810.801011	2812.500060
811.120755	2807.491674
811.440453	2813.662046
811.760107	2813.480564
812.079716	2811.212045
812.399281	2799.430869
812.718801	2797.162349
813.038276	2791.637245
813.357707	2794.707307
813.677093	2805.046714
813.996434	2797.311063
814.315731	2792.343006
814.634983	2788.615073
814.954191	2788.005093
815.273354	2802.233750
815.592473	2810.866726
815.911547	2816.074238
816.230577	2821.140598
816.549562	2829.786177
816.868502	2829.524037
817.187399	2839.036694
817.506250	2854.931452
817.825058	2846.280832
818.143821	2863.140971
818.462539	2877.878784
818.781213	2907.246026
819.099843	2937.389605
819.418429	2996.678616
819.736970	3056.824622
820.055466	3131.186683
820.373919	3235.341962
820.692327	3378.324209
821.010691	3548.022050
821.329011	3988.641582
821.647286	4881.008991
821.965517	6270.318224
822.283704	7009.739547
822.601847	6993.895200
822.919945	6359.138313
823.237999	5855.368248
823.556010	5269.906284
823.873976	4715.273497
824.191897	4307.197134
824.509775	4011.059593
824.827609	3745.017740
825.145398	3621.169192
825.463144	3607.651338
825.780845	3698.959238
826.098502	3801.017397
826.416116	4083.450562
826.733685	4403.798245
827.051210	4465.121361
827.368692	4348.222044
827.686129	4080.803956
828.003522	3761.146911
828.320872	3500.733507
828.638177	3306.298723
828.955439	3170.106911
829.272656	3084.767738
829.589830	3018.499250
829.906960	2970.303299
830.224046	2922.913932
830.541088	2888.908829
830.858086	2875.333002
831.175041	2855.342306
831.491952	2858.692153
831.808819	2869.162629
832.125642	2892.142729
832.442421	2939.592590
832.759157	3020.137625
833.075849	3196.953576
833.392497	3477.423211
833.709101	3682.099098
834.025662	3633.893065
834.342179	3473.536482
834.658653	3296.654996
834.975083	3148.929024
835.291469	3048.940258
835.607811	2966.388843
835.924110	2909.391037
836.240366	2855.254086
836.556578	2813.730102
836.872746	2791.178500
837.188871	2770.661004
837.504952	2751.907911
837.820990	2745.619072
838.136984	2731.206413
838.452935	2724.174003
838.768842	2722.797768
839.084706	2737.351580
839.400526	2818.125988
839.716303	2950.121039
840.032037	3032.599358
840.347727	3016.873478
840.663373	2957.052626
840.978977	2878.904659
841.294537	2805.689461
841.610054	2760.699684
841.925527	2738.788308
842.240957	2714.540358
842.556344	2693.196113
842.871687	2679.320337
843.186987	2670.783143
843.502244	2665.694098
843.817458	2662.684529
844.132629	2650.046357
844.447756	2641.839358
844.762840	2632.891310
845.077881	2635.648821
845.392879	2636.510859
845.707833	2631.905765
846.022745	2624.540639
846.337613	2626.547018
846.652438	2621.881430
846.967221	2624.820423
847.281960	2621.984774
847.596656	2621.581482
847.911309	2621.137860
848.225919	2615.436315
848.540485	2615.879937
848.855009	2615.242231
849.169490	2613.016561
849.483928	2613.487909
849.798323	2614.843979
850.112675	2612.956067
850.426984	2611.506736
850.741251	2610.818618
851.055474	2612.071345
851.369654	2615.078393
851.683792	2614.271808
851.997887	2613.596294
852.311938	2610.712754
852.625947	2612.192332
852.939914	2614.798609
853.253837	2614.123094
853.567718	2610.211159
853.881555	2609.323916
854.195350	2616.928497
854.509103	2614.228959
854.822812	2609.379369
855.136479	2612.709051
855.450103	2611.695779
855.763685	2615.983280
856.077224	2614.735595
856.390720	2608.880294
856.704173	2610.768207
857.017584	2617.407406
857.330953	2619.998559
857.644278	2619.940586
857.957561	2617.999742
858.270802	2614.087806
858.584000	2614.468413
858.897155	2619.633076
859.210268	2617.886316
859.523339	2613.997066
859.836367	2608.557661
860.149352	2611.688217
860.462295	2613.389607
860.775195	2609.709564
861.088054	2609.333998
861.400869	2606.382403
861.713642	2601.633636
862.026373	2605.540530
862.339062	2610.064966
862.651708	2617.422530
862.964312	2618.289608
863.276873	2614.360029
863.589392	2616.865482
863.901869	2621.631893
864.214303	2625.213633
864.526696	2627.512399
864.839045	2630.889972
865.151353	2631.459622
865.463619	2631.938532
865.775842	2631.351238
866.088023	2631.182359
866.400162	2632.235960
866.712258	2634.824593
867.024313	2629.458284
867.336325	2626.458798
867.648296	2629.342338
867.960224	2635.661424
868.272110	2635.253091
868.583954	2627.615743
868.895755	2628.530712
869.207515	2631.278141
869.519233	2639.739718
869.830909	2635.802577
870.142542	2632.026752
870.454134	2635.048924
870.765684	2641.675521
871.077191	2638.933133
871.388657	2644.322127
871.700081	2642.141827
872.011463	2641.746097
872.322803	2644.594349
872.634101	2650.484937
872.945357	2655.150525
873.256571	2660.574807
873.567744	2658.538180
873.878874	2656.622542
874.189963	2657.897954
874.501010	2662.301402
874.812015	2663.944818
875.122979	2664.186793
875.433900	2655.440391
875.744780	2656.418375
876.055618	2662.009015
876.366415	2667.778615
876.677169	2668.204593
876.987882	2662.296361
877.298554	2659.327121
877.609183	2671.383040
877.919771	2679.605162
878.230317	2685.969619
878.540822	2694.595033
878.851285	2708.163299
879.161707	2733.873183
879.472087	2768.052207
879.782425	2820.313848
880.092722	2934.410283
880.402977	3119.760907
880.713191	3384.222359
881.023363	3678.761855
881.333494	3868.891492
881.643583	4041.944222
881.953631	4042.781053
882.263637	3862.658106
882.573602	3642.223572
882.883526	3513.346473
883.193408	3395.164183
883.503248	3296.521405
883.813048	3176.612520
884.122806	3062.886610
884.432522	2979.510966
884.742197	2913.355904
885.051831	2876.144627
885.361424	2839.245902
885.670975	2806.238947
885.980485	2775.102260
886.289954	2756.908736
886.599382	2739.292424
886.908768	2728.706001
887.218113	2708.407795
887.527417	2697.904551
887.836680	2687.993642
888.145901	2685.589012
888.455082	2675.867147
888.764221	2664.055723
889.073319	2659.972389
889.382376	2657.340906
889.691392	2657.129178
890.000366	2659.488438
890.309300	2656.894764
890.618193	2657.348468
890.927044	2662.147647
891.235855	2661.772081
891.544625	2659.024652
891.853353	2660.773932
892.162041	2670.551250
892.470687	2688.273426
892.779293	2700.442772
893.087858	2708.052393
893.396381	2732.078533
893.704864	2774.179729
894.013306	2844.965091
894.321707	2938.085285
894.630068	2988.431288
894.938387	3007.605317
895.246665	3000.386384
895.554903	2958.454067
895.863100	2911.959505
896.171256	2856.932790
896.479371	2794.296453
896.787446	2756.286153
897.095480	2736.920561
897.403473	2731.350086
897.711425	2716.045143
898.019336	2696.641742
898.327207	2682.768486
898.635038	2680.968794
898.942827	2679.960564
899.250576	2669.038904
899.558284	2658.901143
899.865952	2652.992911
900.173579	2650.142139
900.481165	2647.976963
900.788711	2639.245685
901.096216	2634.809469
901.403681	2632.493059
901.711105	2631.595734
902.018489	2628.717235
902.325832	2633.203862
902.633135	2635.903400
902.940397	2649.794299
903.247619	2685.183199
903.554800	2755.356061
903.861941	2882.554454
904.169041	3010.856861
904.476101	3074.587128
904.783121	3068.751992
905.090100	3014.776358
905.397039	2935.756272
905.703938	2863.753471
906.010796	2798.709984
906.317614	2746.564288
906.624391	2706.986189
906.931129	2681.321675
907.237826	2658.946514
907.544483	2642.451858
907.851099	2628.550877
908.157675	2618.599639
908.464211	2613.135028
908.770707	2600.113728
909.077163	2596.673140
909.383578	2590.298601
909.689954	2594.389498
909.996289	2587.422623
910.302584	2586.779876
910.608839	2584.493713
910.915054	2583.485482
911.221229	2585.844742
911.527363	2592.970413
911.833458	2591.483272
912.139513	2591.659713
912.445527	2591.117789
912.751502	2600.315374
913.057436	2603.682865
913.363331	2609.646550
913.669186	2623.063581
913.975000	2634.650673
914.280775	2651.175575
914.586510	2672.043432
914.892205	2707.712116
915.197859	2773.529420
915.503475	2858.152749
915.809050	2925.762184
916.114585	2940.207610
916.420081	2951.693879
916.725536	2963.608647
917.030952	2938.261725
917.336328	2888.172820
917.641665	2838.724142
917.946961	2793.073974
918.252218	2756.076946
918.557435	2727.785990
918.862612	2705.650284
919.167750	2690.854497
919.472848	2673.112156
919.777906	2655.952068
920.082925	2646.583084
920.387904	2634.963224
920.692843	2628.029117
920.997743	2623.582820
921.302603	2617.024278
921.607423	2611.988166
921.912204	2606.190839
922.216946	2602.364603
922.521647	2599.889397
922.826310	2594.124837
923.130932	2589.325659
923.435516	2586.840370
923.740059	2584.649988
924.044564	2581.441294
924.349028	2581.751325
924.653454	2570.118863
924.957840	2569.650035
925.262186	2569.987793
925.566493	2569.728173
925.870761	2562.796587
926.174989	2566.403532
926.479178	2561.574107
926.783328	2564.616443
927.087438	2561.785835
927.391509	2561.455640
927.695541	2556.492624
927.999533	2557.319373
928.303486	2554.796275
928.607400	2558.007490
928.911275	2555.749053
929.215110	2558.294836
929.518906	2556.694270
929.822663	2557.727706
930.126381	2553.891388
930.430060	2554.753426
930.733699	2552.734443
931.037299	2560.757440
931.340861	2556.825340
931.644383	2554.745864
931.947866	2555.686039
932.251309	2555.474311
932.554714	2557.349620
932.858080	2556.424568
933.161407	2555.988508
933.464694	2556.187634
933.767943	2554.045143
934.071153	2553.397355
934.374323	2551.143959
934.677455	2552.552962
934.980548	2551.902653
935.283602	2550.806202
935.586617	2551.431305
935.889593	2553.672098
936.192530	2551.683363
936.495428	2554.556821
936.798287	2552.948693
937.101108	2556.132181
937.403890	2556.255689
937.706632	2560.669220
938.009336	2564.349262
938.312002	2568.205745
938.614628	2572.460478
938.917216	2574.013154
939.219765	2576.863926
939.522275	2575.356621
939.824747	2577.632702
940.127179	2568.994685
940.429573	2567.817576
940.731929	2569.067782
941.034246	2561.967317
941.336524	2565.468398
941.638763	2565.717935
941.940964	2565.720456
942.243126	2563.429251
942.545250	2565.296999
942.847335	2562.363047
943.149381	2559.131668
943.451389	2557.163097
943.753359	2559.088818
944.055290	2555.481872
944.357182	2555.156718
944.659036	2554.463559
944.960851	2555.892726
945.262628	2556.671585
945.564367	2558.042778
945.866067	2557.263920
946.167729	2557.122768
946.469352	2556.434650
946.770937	2558.612429
947.072484	2555.040771
947.373992	2554.544218
947.675462	2552.457180
947.976893	2555.491955
948.278286	2553.528425
948.579641	2553.896429
948.880958	2550.357539
949.182236	2555.887685
949.483476	2552.361398
949.784678	2554.536656
950.085841	2552.076573
950.386967	2552.041285
950.688054	2552.260575
950.989103	2557.301729
951.290114	2552.263096
951.591087	2556.664023
951.892021	2558.100752
952.192917	2558.214178
952.493776	2560.976730
952.794596	2560.923798
953.095378	2561.974878
953.396122	2560.954045
953.696828	2558.829198
953.997496	2556.338868
954.298126	2556.706873
954.598718	2555.348282
954.899272	2553.805689
955.199788	2554.098076
955.500266	2548.608259
955.800706	2546.674977
956.101108	2543.491488
956.401472	2544.633309
956.701798	2542.929399
957.002087	2543.436035
957.302337	2544.333361
957.602550	2545.931406
957.902724	2544.068700
958.202861	2542.674821
958.502960	2540.350849
958.803022	2544.242620
959.103045	2542.216076
959.403031	2542.586601
959.702979	2540.766744
960.002889	2538.712474
960.302762	2539.604758
960.602596	2542.097609
960.902393	2541.006199
961.202153	2539.317412
961.501875	2537.830272
961.801559	2539.831610
962.101205	2539.214069
962.400814	2538.233564
962.700385	2538.735159
962.999918	2537.381609
963.299414	2536.597710
963.598873	2540.529810
963.898293	2540.844882
964.197677	2538.500746
964.497022	2538.530992
964.796331	2538.916641
965.095601	2537.308513
965.394835	2537.149716
965.694030	2538.694830
965.993189	2536.872453
966.292309	2538.213400
966.591393	2536.925385
966.890439	2536.055786
967.189447	2536.617875
967.488419	2536.527134
967.787353	2537.192566
968.086249	2537.532844
968.385108	2539.813966
968.683930	2539.897145
968.982714	2537.737011
969.281462	2538.939326
969.580172	2540.285314
969.878844	2536.474202
970.177480	2536.653163
970.476078	2537.157278
970.774639	2536.993441
971.073162	2538.006713
971.371649	2536.322967
971.670098	2535.914634
971.968510	2536.945550
972.266885	2533.134437
972.565223	2537.023688
972.863524	2538.573842
973.161788	2540.207176
973.460014	2539.032587
973.758204	2541.711961
974.056356	2538.972093
974.354471	2537.744572
974.652550	2536.892618
974.950591	2539.229192
975.248595	2541.192722
975.546563	2537.638708
975.844493	2538.873791
976.142386	2540.207176
976.440243	2537.578214
976.738062	2538.389840
977.035845	2537.356404
977.333590	2536.058307
977.631299	2538.712474
977.928971	2538.263811
978.226606	2535.720549
978.524204	2536.645601
978.821765	2535.183666
979.119290	2535.145858
979.416777	2535.750796
979.714228	2537.016126
980.011642	2536.701054
980.309020	2540.406302
980.606360	2535.105528
980.903664	2537.421939
981.200931	2538.140303
981.498162	2539.748431
981.795356	2539.884542
982.092513	2542.168185
982.389633	2548.129349
982.686717	2548.789741
982.983764	2548.333516
983.280775	2553.551110
983.577749	2552.247972
983.874686	2550.730585
984.171587	2547.436191
984.468451	2545.747404
984.765279	2544.653474
985.062070	2540.378575
985.358824	2540.030736
985.655543	2540.766744
985.952224	2536.454037
986.248869	2538.374717
986.545478	2532.894982
986.842050	2534.745086
987.138586	2532.907585
987.435086	2531.596885
987.731549	2529.204858
988.027975	2535.413039
988.324366	2533.736855
988.620719	2535.135775
988.917037	2534.009078
989.213318	2535.531506
989.509563	2534.818183
989.805772	2533.237781
990.101944	2533.512524
990.398080	2537.280786
990.694180	2532.650487
990.990244	2532.753830
991.286271	2531.049920
991.582262	2532.221988
991.878217	2532.776515
992.174136	2534.036804
992.470019	2534.235929
992.765865	2534.069571
993.061676	2532.466484
993.357450	2535.816331
993.653188	2533.394057
993.948890	2535.602082
994.244556	2533.028573
994.540186	2535.347504
994.835780	2538.556198
995.131337	2538.052083
995.426859	2537.048893
995.722345	2536.038142
996.017795	2535.569315
996.313208	2539.773637
996.608586	2536.459078
996.903928	2537.764737
997.199234	2538.959491
997.494504	2539.085519
997.789738	2536.602751
998.084936	2536.658204
998.380099	2535.128214
998.675225	2534.921526
998.970316	2535.324819
999.265371	2533.933460
999.560390	2534.634181
999.855373	2534.679551
1000.150320	2531.934643
1000.445232	2535.070240
1000.740108	2535.992772
1001.034948	2531.695188
1001.329752	2533.315919
1001.624521	2532.148892
1001.919254	2528.262162
1002.213951	2530.243336
1002.508613	2527.521112
1002.803239	2531.407842
1003.097829	2528.766278
1003.392384	2532.431196
1003.686903	2534.135106
1003.981386	2534.082174
1004.275834	2530.611340
1004.570246	2534.286341
1004.864623	2532.862215
1005.158964	2533.746937
1005.453270	2529.724097
1005.747540	2531.536392
1006.041775	2529.993798
1006.335974	2532.272400
1006.630138	2532.436238
1006.924266	2531.049920
1007.218359	2532.703419
1007.512416	2534.805580
1007.806438	2531.637215
1008.100425	2529.855167
1008.394376	2530.739889
1008.688292	2530.994467
1008.982172	2531.662420
1009.276017	2531.929602
1009.569827	2532.050589
1009.863602	2531.748120
1010.157341	2532.277441
1010.451045	2531.170908
1010.744714	2532.680733
1011.038347	2531.153264
1011.331945	2532.020342
1011.625508	2531.939684
1011.919036	2534.087215
1012.212528	2530.775177
1012.505986	2528.751154
1012.799408	2534.982020
1013.092795	2532.043028
1013.386147	2531.382636
1013.679464	2531.503624
1013.972745	2531.929602
1014.265992	2530.046731
1014.559204	2531.939684
1014.852380	2528.978006
1015.145521	2531.715353
1015.438628	2531.433048
1015.731699	2531.133099
1016.024736	2532.597554
1016.317737	2531.546474
1016.610703	2532.988244
1016.903635	2529.335928
1017.196531	2530.855836
1017.489393	2526.006246
1017.782219	2527.369878
1018.075011	2528.486493
1018.367768	2529.908099
1018.660490	2531.929602
1018.953177	2531.929602
1019.245829	2531.929602
