Dividing Wavelength (nm)	Counts (n)	Blue Motor Position (mm): 10.400000	Red Motor Position (mm): 0.000000	
326.493990	2061.000133
326.888308	2061.000133
327.282561	2061.000133
327.676750	2036.449713
328.070874	2039.638243
328.464933	2045.412885
328.858929	2054.015614
329.252859	2061.267314
329.646726	2075.067473
330.040528	2093.487849
330.434265	2110.942844
330.827938	2133.600310
331.221547	2152.287867
331.615091	2171.908038
332.008571	2194.787315
332.401986	2214.445294
332.795338	2232.855588
333.188625	2251.154976
333.581847	2272.474016
333.975006	2291.033024
334.368100	2305.168419
334.761129	2325.111224
335.154095	2338.813080
335.546996	2375.091744
335.939833	2436.566094
336.332606	2445.675459
336.725315	2457.587706
337.117960	2468.211938
337.510540	2477.870788
337.903056	2485.845894
338.295508	2492.500217
338.687896	2500.135044
339.080220	2503.805004
339.472480	2510.721467
339.864676	2510.580315
340.256807	2514.807322
340.648875	2516.607014
341.040879	2521.030627
341.432818	2518.787313
341.824694	2521.592716
342.216506	2522.280833
342.608253	2519.803106
342.999937	2517.816891
343.391557	2518.799916
343.783113	2514.477127
344.174605	2515.825636
344.566033	2515.026613
344.957397	2511.699451
345.348697	2510.739111
345.739934	2509.579646
346.131106	2507.593431
346.522215	2503.898266
346.913260	2504.157885
347.304241	2503.021105
347.695159	2499.396515
348.086012	2495.045999
348.476802	2496.500372
348.867528	2495.383757
349.258191	2490.100628
349.648789	2492.154898
350.039324	2486.329844
350.429796	2490.577017
350.820203	2490.803868
351.210548	2491.028200
351.600828	2487.562407
351.991045	2485.704741
352.381198	2487.721203
352.771288	2489.553662
353.161314	2486.148363
353.551276	2485.883702
353.941175	2486.352530
354.331010	2487.998466
354.720782	2489.667088
355.110490	2492.795124
355.500135	2487.635503
355.889717	2487.496872
356.279235	2489.639362
356.668689	2486.874289
357.058080	2489.258755
357.447408	2490.995432
357.836672	2489.704897
358.225873	2491.242449
358.615010	2493.939466
359.004084	2489.717500
359.393095	2492.648931
359.782043	2491.701194
360.170927	2492.699342
360.559748	2491.416369
360.948505	2493.843684
361.337199	2495.350989
361.725830	2493.460557
362.114398	2494.073057
362.502903	2493.455515
362.891344	2494.620022
363.279722	2493.987357
363.668037	2497.226298
364.056289	2495.718993
364.444478	2497.637153
364.832603	2496.409632
365.220665	2494.544405
365.608665	2497.304436
365.996601	2497.438027
366.384474	2497.425424
366.772284	2498.605054
367.160031	2498.400887
367.547715	2501.145796
367.935336	2498.053048
368.322893	2500.014057
368.710388	2496.099601
369.097820	2499.199910
369.485189	2493.642038
369.872495	2503.351300
370.259738	2502.723677
370.646918	2501.281907
371.034035	2504.596465
371.421090	2503.189983
371.808081	2503.734428
372.195010	2504.369613
372.581875	2502.761485
372.968678	2502.403563
373.355418	2502.196876
373.742096	2503.608399
374.128710	2502.690909
374.515262	2505.317350
374.901751	2504.644356
375.288177	2506.466733
375.674540	2503.764675
376.060841	2506.023112
376.447079	2505.022443
376.833254	2503.925992
377.219367	2503.003461
377.605417	2506.378513
377.991404	2503.961280
378.377329	2506.136538
378.763191	2508.790705
379.148991	2509.700634
379.534727	2507.132166
379.920402	2505.914727
380.306013	2506.716271
380.691563	2509.294821
381.077049	2507.691734
381.462474	2506.537310
381.847835	2507.338853
382.233134	2507.656446
382.618371	2507.711898
383.003545	2509.980418
383.388657	2507.442197
383.773706	2510.040912
384.158693	2509.229286
384.543618	2509.105777
384.928480	2509.877074
385.313280	2510.897908
385.698017	2510.837414
386.082692	2508.447907
386.467305	2508.568895
386.851856	2511.540655
387.236344	2512.629544
387.620770	2509.186436
388.005133	2509.584687
388.389435	2508.440345
388.773674	2506.219717
389.157851	2514.204905
389.541965	2509.020078
389.926018	2512.115346
390.310008	2512.445542
390.693936	2511.407064
391.077802	2512.884122
391.461606	2509.733401
391.845348	2513.688186
392.229027	2513.373114
392.612645	2512.768176
392.996200	2514.809843
393.379694	2514.459483
393.763125	2512.495953
394.146494	2509.942609
394.529801	2514.116684
394.913047	2511.573422
395.296230	2513.002589
395.679351	2513.708351
396.062410	2514.988804
396.445408	2515.263547
396.828343	2516.942251
397.211217	2517.423681
397.594028	2514.625841
397.976778	2516.261695
398.359466	2518.890657
398.742092	2515.374452
399.124656	2519.087262
399.507158	2516.153311
399.889598	2518.580626
400.271977	2514.580471
400.654294	2518.293280
401.036549	2515.606345
401.418742	2519.031809
401.800874	2513.531911
402.182944	2518.278157
402.564952	2517.700945
402.946898	2518.041223
403.328783	2517.905112
403.710606	2519.785462
404.092367	2524.418282
404.474067	2518.245389
404.855705	2520.408044
405.237282	2518.840246
405.618797	2517.683301
406.000250	2523.402490
406.381642	2518.832684
406.762972	2518.812519
407.144240	2514.908146
407.525447	2518.053826
407.906593	2513.584843
408.287677	2520.138343
408.668700	2520.849145
409.049661	2520.564320
409.430560	2520.874351
409.811399	2523.268899
410.192176	2523.296626
410.572891	2522.472397
410.953545	2523.077335
411.334138	2520.145904
411.714669	2519.936697
412.095139	2521.633045
412.475547	2522.946265
412.855894	2523.311749
413.236180	2520.786131
413.616405	2523.069774
413.996568	2522.157325
414.376670	2521.040709
414.756711	2524.007428
415.136691	2522.689167
415.516609	2521.963240
415.896466	2524.647655
416.276262	2522.699249
416.655997	2525.015659
417.035670	2520.846625
417.415283	2524.995494
417.794834	2522.548014
418.174324	2524.725793
418.553753	2523.566327
418.933121	2525.003056
419.312428	2522.447191
419.691674	2526.540608
420.070859	2523.662109
420.449983	2525.277799
420.829045	2525.323169
421.208047	2523.311749
421.586988	2524.957686
421.965867	2524.914836
422.344686	2524.952645
422.723444	2526.825433
423.102141	2526.056657
423.480777	2521.940555
423.859352	2522.628673
424.237866	2523.737727
424.616319	2523.914167
424.994712	2523.825947
425.373044	2526.359127
425.751314	2524.950124
426.129524	2519.863600
426.507673	2521.703621
426.885762	2519.782941
427.263789	2525.245032
427.641756	2525.295443
428.019662	2525.058509
428.397508	2523.944414
428.775292	2524.385515
429.153016	2527.168232
429.530679	2524.592202
429.908282	2526.744775
430.285824	2525.446678
430.663305	2525.207223
431.040726	2525.660927
431.418086	2525.827285
431.795385	2523.694877
432.172624	2525.297964
432.549802	2527.301822
432.926920	2524.395597
433.303977	2525.786956
433.680974	2523.868797
434.057910	2527.586648
434.434786	2527.710156
434.811601	2525.660927
435.188355	2526.923736
435.565050	2527.778211
435.941683	2526.356606
436.318257	2524.864424
436.694770	2526.893489
437.071222	2525.050947
437.447614	2526.452388
437.823946	2527.122861
438.200218	2527.579086
438.576429	2526.553211
438.952580	2525.209743
439.328670	2527.417769
439.704700	2526.805269
440.080670	2527.397604
440.456580	2524.070443
440.832429	2526.976668
441.208218	2525.199661
441.583947	2526.510361
441.959616	2527.695032
442.335224	2526.616225
442.710773	2527.712676
443.086261	2525.212264
443.461689	2525.101359
443.837057	2528.105886
444.212365	2527.558921
444.587612	2522.973992
444.962800	2521.587674
445.337927	2525.013138
445.712995	2521.010462
446.088002	2526.593540
446.462949	2522.979033
446.837837	2526.132275
447.212664	2525.802079
447.587431	2527.432892
447.962139	2526.742254
448.336786	2526.535567
448.711374	2527.175793
449.085901	2528.758716
449.460369	2526.293592
449.834776	2526.096987
450.209124	2524.733354
450.583412	2526.591020
450.957640	2525.061029
451.331808	2526.487676
451.705917	2527.576565
452.079965	2527.468180
452.453954	2524.793848
452.827883	2526.016328
453.201752	2528.617563
453.575562	2525.809641
453.949311	2526.855680
454.323001	2527.810979
454.696632	2527.889117
455.070202	2524.382994
455.443713	2525.315608
455.817164	2528.040351
456.190556	2529.535053
456.563888	2530.107224
456.937160	2528.637728
457.310373	2529.328366
457.683526	2527.271575
458.056619	2526.722090
458.429653	2529.315763
458.802628	2528.123530
459.175542	2529.537574
459.548398	2526.268386
459.921194	2529.729138
460.293930	2527.183355
460.666607	2529.035979
461.039224	2528.161339
461.411782	2528.632687
461.784280	2528.554549
462.156719	2528.947759
462.529099	2529.343490
462.901419	2527.329549
463.273680	2527.657224
463.645882	2525.401307
464.018024	2530.150074
464.390106	2524.710669
464.762130	2531.559077
465.134094	2525.615556
465.505999	2529.217461
465.877845	2529.421627
466.249631	2529.782070
466.621358	2529.648479
466.993026	2531.496062
467.364634	2533.232740
467.736184	2530.591175
468.107674	2529.714014
468.479105	2529.469518
468.850477	2529.393901
469.221790	2529.610671
469.593043	2531.780887
469.964238	2530.525640
470.335373	2527.705115
470.706449	2529.434230
471.077467	2530.981865
471.448425	2531.314581
471.819324	2529.792152
472.190164	2532.164015
472.560945	2530.560928
472.931667	2530.571011
473.302330	2531.720394
473.672934	2532.413552
474.043479	2531.445651
474.413965	2533.580579
474.784393	2530.092101
475.154761	2533.323481
475.525070	2530.686957
475.895321	2530.245856
476.265513	2529.416586
476.635645	2533.096629
477.005719	2530.334076
477.375734	2531.680064
477.745691	2532.471526
478.115588	2531.937163
478.485427	2532.796680
478.855207	2533.842719
479.224928	2536.010416
479.594591	2532.993285
479.964194	2533.996475
480.333739	2532.158974
480.703226	2533.610826
481.072653	2533.953625
481.442022	2535.907072
481.811333	2533.177287
482.180584	2529.189734
482.549777	2531.843902
482.918912	2528.761236
483.287988	2535.486136
483.657005	2536.905220
484.025964	2532.799201
484.394864	2534.208203
484.763706	2534.621578
485.132489	2533.026052
485.501213	2534.440096
485.869879	2535.922195
486.238487	2533.971269
486.607036	2532.108562
486.975527	2534.006557
487.343959	2531.894313
487.712333	2532.710980
488.080648	2533.489839
488.448905	2533.487318
488.817104	2537.089222
489.185244	2535.571835
489.553326	2534.326670
489.921350	2536.880015
490.289315	2534.949253
490.657222	2535.639891
491.025070	2537.071578
491.392861	2538.180632
491.760593	2537.540406
492.128267	2536.743903
492.495883	2538.919161
492.863440	2534.218285
493.230939	2536.249870
493.598380	2535.281969
493.965763	2537.142155
494.333088	2535.213913
494.700354	2534.825744
495.067563	2539.093081
495.434713	2535.962525
495.801805	2532.894983
496.168839	2533.590662
496.535815	2538.301620
496.902733	2534.649304
497.269593	2536.960673
497.636395	2537.250539
498.003139	2535.929757
498.369825	2535.168543
498.736453	2535.859181
499.103023	2535.387833
499.469535	2538.664583
499.835989	2537.242978
500.202385	2530.770136
500.568723	2531.548994
500.935003	2532.973120
501.301226	2530.598737
501.667390	2539.841693
502.033497	2536.043183
502.399546	2536.020498
502.765537	2535.294572
503.131470	2534.596372
503.497345	2536.267514
503.863163	2535.115611
504.228923	2535.874304
504.594625	2536.532175
504.960269	2534.440096
505.325856	2536.600231
505.691385	2536.786753
506.056856	2534.697195
506.422270	2537.643749
506.787625	2535.796167
507.152924	2534.825744
507.518164	2535.299613
507.883347	2533.555374
508.248472	2537.585776
508.613540	2535.939839
508.978550	2536.154088
509.343503	2536.985879
509.708398	2537.948739
510.073236	2539.566950
510.438016	2540.930582
510.802738	2539.214069
511.167403	2539.400592
511.532010	2540.726415
511.896561	2541.056611
512.261053	2537.537885
512.625488	2541.732125
512.989866	2539.224151
513.354186	2539.939995
513.718449	2538.062165
514.082655	2540.403781
514.446803	2542.884029
514.810894	2541.802701
515.174927	2544.650953
515.538904	2545.112219
515.902822	2543.506611
516.266684	2546.939637
516.630488	2544.149358
516.994235	2545.487785
517.357925	2545.560882
517.721558	2551.653116
518.085133	2548.756973
518.448651	2547.534493
518.812112	2545.354194
519.175516	2548.197405
519.538863	2544.459389
519.902152	2551.844680
520.265385	2554.582026
520.628560	2551.708569
520.991678	2554.662685
521.354739	2556.502706
521.717743	2558.002449
522.080690	2556.480021
522.443580	2559.792059
522.806413	2561.087635
523.169189	2561.705177
523.531908	2560.754919
523.894569	2562.579817
524.257174	2565.508727
524.619722	2563.300702
524.982213	2564.626525
525.344647	2564.508058
525.707025	2566.297668
526.069345	2570.113821
526.431608	2570.572566
526.793815	2570.794377
527.155964	2571.366548
527.518057	2572.253791
527.880093	2574.358473
528.242072	2575.467527
528.603995	2575.031467
528.965860	2573.856878
529.327669	2577.920048
529.689421	2576.198494
530.051117	2579.747466
530.412755	2579.833166
530.774337	2580.576736
531.135862	2583.230904
531.497331	2581.907601
531.858743	2581.897518
532.220098	2584.279464
532.581396	2586.434557
532.942638	2586.716862
533.303824	2590.187696
533.664953	2588.680391
534.026025	2589.234918
534.387040	2592.478900
534.747999	2592.776328
535.108902	2597.572986
535.469748	2597.401587
535.830537	2599.052565
536.191270	2597.048706
536.551947	2597.746906
536.912567	2600.204469
537.273131	2599.574324
537.633638	2596.287492
537.994089	2605.301075
538.354483	2601.368975
538.714821	2606.485746
539.075103	2608.499687
539.435328	2609.651591
539.795497	2609.235696
540.155609	2612.053701
540.515665	2614.886829
540.875665	2615.884978
541.235609	2616.313476
541.595496	2614.521346
541.955328	2618.221552
542.315102	2620.515277
542.674821	2620.313631
543.034483	2620.406893
543.394090	2621.831019
543.753640	2621.430247
544.113134	2626.920063
544.472571	2625.909312
544.831953	2628.621453
545.191278	2628.215640
545.550548	2627.925774
545.909761	2627.267903
546.268918	2630.993316
546.628019	2631.971300
546.987064	2632.321660
547.346053	2633.034983
547.704986	2633.249232
548.063863	2635.253091
548.422684	2633.193779
548.781449	2633.493728
549.140158	2635.742083
549.498811	2634.696043
549.857408	2636.127731
550.215949	2639.419604
550.574434	2637.899697
550.932864	2639.646456
551.291237	2639.527989
551.649555	2641.184008
552.007817	2640.354738
552.366022	2641.131076
552.724173	2641.839358
553.082267	2642.855151
553.440305	2643.908752
553.798288	2642.262815
554.156215	2644.811118
554.514086	2642.822383
554.871902	2638.265180
555.229661	2643.172743
555.587365	2642.293062
555.945014	2644.944709
556.302606	2644.859009
556.660143	2647.702220
557.017625	2648.350008
557.375050	2646.968732
557.732421	2649.905204
558.089735	2648.564257
558.446994	2651.140287
558.804197	2650.784886
559.161345	2650.802530
559.518437	2648.034936
559.875474	2647.097282
560.232455	2652.231697
560.589381	2652.599701
560.946251	2650.048877
561.303065	2654.071718
561.659825	2655.750422
562.016528	2652.866882
562.373177	2653.000473
562.729770	2653.073570
563.086307	2650.885709
563.442789	2651.404948
563.799216	2655.841163
564.155587	2654.260761
564.511904	2655.024496
564.868164	2653.262613
565.224370	2656.015083
565.580520	2656.516678
565.936615	2654.543066
566.292654	2654.028868
566.648638	2656.186482
567.004567	2656.723365
567.360441	2656.753612
567.716260	2655.309321
568.072023	2657.376194
568.427732	2654.921152
568.783385	2656.771256
569.138982	2655.538694
569.494525	2657.373674
569.850013	2658.144970
570.205445	2655.601708
570.560823	2658.996925
570.916145	2655.004332
571.271412	2657.598005
571.626625	2658.155053
571.981782	2657.996256
572.336884	2657.212357
572.691931	2652.919814
573.046923	2656.264620
573.401860	2653.068528
573.756743	2656.975423
574.111570	2658.548263
574.466342	2658.792759
574.821059	2659.402738
575.175722	2659.337203
575.530330	2660.922646
575.884882	2658.107162
576.239380	2659.987512
576.593823	2660.317708
576.948211	2662.356854
577.302544	2657.945845
577.656823	2658.964158
578.011047	2661.963644
578.365216	2661.678819
578.719330	2661.462050
579.073389	2661.361227
579.427394	2662.601350
579.781344	2664.907678
580.135239	2664.746361
580.489080	2665.376506
580.842866	2664.585044
581.196597	2668.096208
581.550273	2668.743996
581.903895	2666.155364
582.257463	2671.693071
582.610975	2669.343894
582.964434	2673.654080
583.317837	2671.798936
583.671186	2674.019564
584.024481	2679.000224
584.377721	2678.259174
584.730906	2679.494257
585.084037	2681.092303
585.437113	2683.081038
585.790135	2684.545493
586.143103	2682.723116
586.496016	2687.633200
586.848874	2689.311904
587.201679	2690.055474
587.554428	2691.449353
587.907124	2695.457071
588.259765	2699.016125
588.612352	2700.662062
588.964884	2700.654500
589.317362	2707.886035
589.669786	2711.901314
590.022155	2709.037939
590.374470	2713.159082
590.726731	2713.892570
591.078937	2714.983980
591.431090	2725.588047
591.783188	2724.050495
592.135232	2727.836402
592.487222	2731.156002
592.839157	2736.907958
593.191038	2738.942064
593.542866	2739.927609
593.894639	2741.911303
594.246358	2748.190060
594.598022	2752.386821
594.949633	2757.261617
595.301190	2760.772780
595.652692	2764.341917
596.004141	2772.284255
596.355535	2769.400715
596.706876	2771.021446
597.058162	2778.837755
597.409395	2784.151131
597.760573	2793.318470
598.111698	2793.832667
598.462768	2800.456743
598.813785	2807.789102
599.164748	2808.333546
599.515657	2820.258396
599.866511	2824.036741
600.217312	2833.584686
600.568060	2833.241887
600.918753	2847.223528
601.269392	2854.412213
601.619978	2857.777183
601.970510	2868.146837
602.320988	2874.594472
602.671412	2883.983622
603.021783	2895.134654
603.372100	2898.912999
603.722363	2908.786098
604.072572	2917.020823
604.422728	2927.413162
604.772830	2935.912547
605.122878	2944.850513
605.472872	2954.111113
605.822813	2967.699543
606.172701	2974.379072
606.522534	2989.537821
606.872314	3003.607682
607.222041	3013.773168
607.571714	3028.886548
607.921333	3032.697660
608.270899	3049.456976
608.620411	3066.158319
608.969870	3077.269022
609.319276	3093.640169
609.668627	3109.517283
610.017926	3129.092083
610.367171	3144.109681
610.716362	3162.666168
611.065500	3176.632685
611.414585	3197.190510
611.763616	3217.569374
612.112594	3233.287692
612.461518	3251.881988
612.810389	3276.717233
613.159207	3292.599388
613.507971	3313.794919
613.856682	3343.230216
614.205340	3359.029193
614.553945	3396.910943
614.902496	3403.260276
615.250994	3432.120882
615.599439	3458.118113
615.947830	3484.916886
616.296169	3509.608458
616.644454	3537.929660
616.992686	3567.445616
617.340864	3609.859364
617.688990	3627.866365
618.037063	3672.407480
618.385082	3700.579968
618.733048	3738.164291
619.080961	3768.940535
619.428821	3797.576810
619.776628	3825.663598
620.124382	3851.663349
620.472083	3880.256774
620.819731	3911.237185
621.167326	3922.060542
621.514868	3945.212041
621.862357	3953.613124
622.209793	3977.997185
622.557176	3985.868947
622.904506	3999.661544
623.251783	4013.864995
623.599007	4028.083569
623.946179	4047.693658
624.293297	4066.547573
624.640363	4072.566711
624.987376	4092.582612
625.334336	4111.633133
625.681243	4130.393787
626.028097	4152.408505
626.374899	4181.821118
626.721647	4212.201631
627.068343	4236.091659
627.414987	4259.245679
627.761577	4278.938946
628.108115	4328.410310
628.454600	4331.581195
628.801032	4374.680540
629.147412	4406.845622
629.493739	4438.337710
629.840014	4449.282055
630.186236	4509.044934
630.532405	4524.251575
630.878521	4579.570677
631.224585	4608.763998
631.570597	4629.488182
631.916556	4680.562632
632.262462	4712.783167
632.608316	4752.303292
632.954117	4782.010812
633.299866	4818.501204
633.645562	4848.962376
633.991206	4848.526317
634.336797	4854.711812
634.682336	4879.680647
635.027823	4895.124222
635.373257	4921.484416
635.718639	4928.791568
636.063968	4957.455569
636.409245	4943.456285
636.754470	4973.773784
637.099642	4990.026464
637.444762	4983.036904
637.789829	5032.311662
638.134845	5044.705339
638.479808	5070.296757
638.824719	5103.089462
639.169577	5103.248259
639.514383	5144.706708
639.859137	5156.429911
640.203839	5204.494793
640.548489	5220.724787
640.893086	5255.715436
641.237632	5275.985916
641.582125	5315.793387
641.926566	5342.851780
642.270955	5381.827461
642.615292	5413.697636
642.959576	5447.256597
643.303809	5484.024253
643.647990	5539.429054
643.992118	5577.731741
644.336195	5605.954641
644.680219	5660.363814
645.024192	5723.214400
645.368112	5821.579914
645.711981	5875.774839
646.055797	6013.443709
646.399562	6049.182969
646.743274	6200.997317
647.086935	6306.828781
647.430544	6358.109918
647.774101	6420.373209
648.117606	6500.041084
648.461059	6567.902577
648.804460	6567.073307
649.147810	6545.497168
649.491108	6541.980963
649.834354	6566.170940
650.177548	6505.679615
650.520690	6484.867211
650.863781	6525.085536
651.206820	6544.405758
651.549807	6538.038781
651.892742	6512.434761
652.235626	6544.120933
652.578458	6570.231590
652.921238	6519.830133
653.263967	6609.272806
653.606644	6617.487366
653.949269	6650.396018
654.291843	6645.367467
654.634365	6739.916828
654.976836	6723.341514
655.319255	6774.852024
655.661622	6804.035264
656.003938	6832.527865
656.346203	6854.635846
656.688416	6932.831703
657.030577	6947.385515
657.372687	6960.905889
657.714746	7034.665532
658.056753	7108.140349
658.398708	7059.072278
658.740612	7114.353571
659.082465	7195.246446
659.424266	7228.185346
659.766016	7268.353259
660.107715	7300.392313
660.449362	7360.724842
660.790958	7419.610560
661.132503	7451.379912
661.473996	7516.062957
661.815438	7587.576765
662.156829	7659.564442
662.498168	7670.952408
662.839456	7715.387659
663.180693	7789.837940
663.521879	7857.752364
663.863013	7903.210969
664.204097	7950.237373
664.545129	8080.430212
664.886110	8127.002912
665.227040	8198.390691
665.567918	8258.103159
665.908746	8321.004156
666.249522	8398.711022
666.590248	8462.635373
666.930922	8532.049541
667.271545	8591.303263
667.612118	8653.032192
667.952639	8664.158019
668.293109	8726.466680
668.633528	8745.494515
668.973896	8789.327348
669.314213	8839.265018
669.654480	8847.300617
669.994695	8896.114110
670.334859	8933.723638
670.674973	8948.360628
671.015035	9039.882777
671.355047	9078.679497
671.695008	9118.418912
672.034918	9148.398654
672.374777	9225.982012
672.714585	9252.506043
673.054342	9337.464609
673.394049	9358.289615
673.733705	9472.771698
674.073310	9453.098596
674.412864	9518.099233
674.752368	9496.031582
675.091820	9604.272717
675.431223	9558.395697
675.770574	9553.001662
676.109875	9560.364267
676.449125	9551.799347
676.788324	9577.257174
677.127473	9505.887038
677.466571	9520.677783
677.805619	9496.422272
678.144616	9530.074494
678.483562	9569.314836
678.822458	9532.012818
679.161303	9564.792921
679.500098	9588.884595
679.838842	9618.793761
680.177535	9692.059370
680.516179	9810.859202
680.854771	9901.075691
681.193314	10176.095839
681.531805	10535.361230
681.870247	10827.697741
682.208638	11094.203380
682.546978	11222.727598
682.885268	11321.718215
683.223508	11250.635425
683.561697	11216.642925
683.899836	11231.617673
684.237925	11165.689463
684.575963	11166.516212
684.913951	11107.161666
685.251889	11218.674510
685.589776	11286.538523
685.927614	11334.736995
686.265401	11460.085285
686.603137	11547.125848
686.940824	11770.574992
687.278460	11936.970877
687.616046	12050.084287
687.953582	12333.069459
688.291068	12372.874409
688.628504	12538.347764
688.965889	12600.205242
689.303224	12568.299779
689.640510	12517.847912
689.977745	12349.117972
690.314930	12137.684418
690.652065	12043.205633
690.989150	11857.897859
691.326185	11617.344080
691.663170	11443.825044
692.000105	11232.615821
692.336990	11064.006869
692.673825	10948.385485
693.010610	10826.702113
693.347345	10681.925216
693.684030	10489.300207
694.020665	10456.154620
694.357251	10259.746225
694.693786	10297.103696
695.030272	10248.360779
695.366707	10114.261046
695.703093	10048.733608
696.039429	10110.737279
696.375716	10056.617972
696.711952	10088.155431
697.048139	10078.171426
697.384276	10045.212362
697.720363	10136.666454
698.056400	10128.562799
698.392388	10099.064488
698.728326	10129.838211
699.064214	10104.904664
699.400053	10143.368668
699.735842	10033.479076
700.071581	9980.612496
700.407270	9918.107229
700.742910	9889.072704
701.078501	9824.561058
701.414042	9768.226164
701.749533	9679.063276
702.084974	9584.975180
702.420366	9713.312875
702.755709	9576.032173
703.091002	9481.571033
703.426246	9536.083550
703.761440	9543.007574
704.096584	9475.403181
704.431679	9474.193304
704.766725	9484.378955
705.101721	9491.645778
705.436668	9570.509589
705.771565	9482.367535
706.106413	9634.181883
706.441212	9704.185866
706.775961	9774.825034
707.110661	9837.335342
707.445311	10033.602584
707.779913	10010.680458
708.114465	10168.856742
708.448967	10335.935704
708.783421	10647.519341
709.117825	10836.035810
709.452180	10967.035233
709.786485	11192.541168
710.120742	11571.772049
710.454949	11643.870631
710.789107	11899.505022
711.123216	12231.154972
711.457275	12367.016589
711.791286	12663.746466
712.125247	12761.791867
712.459159	12674.655523
712.793023	13064.351838
713.126837	12619.343983
713.460602	12782.105196
713.794318	12666.317454
714.127985	12590.029673
714.461602	12211.494472
714.795171	12239.309038
715.128691	11820.855460
715.462162	11604.710948
715.795584	11439.840012
716.128957	11338.916112
716.462281	11196.435460
716.795556	11090.036867
717.128782	10889.449355
717.461960	10627.634510
717.795088	10638.261262
718.128167	10499.944603
718.461198	10310.203134
718.794180	10273.314491
719.127113	10128.099013
719.459997	10062.843797
719.792833	9896.548735
720.125619	9940.621022
720.458357	9793.792375
720.791046	9743.806814
721.123686	9691.078866
721.456278	9598.855997
721.788821	9614.349984
722.121315	9499.552828
722.453761	9572.889014
722.786158	9532.358137
723.118506	9595.405328
723.450805	9552.507629
723.783056	9664.317901
724.115259	9629.095359
724.447412	9646.517586
724.779518	9780.425756
725.111574	9823.749432
725.443582	9992.565072
725.775542	9983.410336
726.107453	10279.923444
726.439315	10248.640563
726.771129	10487.883643
727.102895	10724.338964
727.434612	10886.041535
727.766281	10986.988120
728.097901	11172.522747
728.429473	11246.279868
728.760996	11282.767740
729.092471	11373.926925
729.423897	11351.098060
729.755276	11305.629373
730.086606	11400.703014
730.417887	11741.497617
730.749120	12066.440311
731.080305	12215.822303
731.411442	12483.590751
731.742530	12579.929721
732.073570	12701.590408
732.404562	12905.555492
732.735506	12848.925691
733.066401	12757.292637
733.397249	12508.216787
733.728048	12190.160309
734.058798	11733.482182
734.389501	11339.316883
734.720156	11078.250649
735.050762	10775.577252
735.381320	10579.274721
735.711831	10432.337689
736.042293	10237.902906
736.372707	10277.017218
736.703073	10164.349951
737.033391	10287.820411
737.363661	10305.603081
737.693883	10391.448890
738.024056	10515.378096
738.354182	10651.811883
738.684260	10865.259378
739.014290	11029.457321
739.344272	11186.025477
739.674207	11393.405943
740.004093	11508.172852
740.333931	11561.082282
740.663722	11628.086778
740.993464	11686.324708
741.323159	11622.075202
741.652806	11464.902108
741.982405	11392.501056
742.311956	11218.059489
742.641460	11175.716317
742.970915	11006.477221
743.300323	10821.547533
743.629683	10717.210772
743.958996	10543.235512
744.288260	10366.195230
744.617477	10199.285147
744.946647	10192.683756
745.275768	10017.755717
745.604842	9908.556763
745.933869	9814.418256
746.262847	9811.479264
746.591778	9771.180280
746.920662	9715.241116
747.249498	9732.287778
747.578286	9845.186939
747.907027	9958.149114
748.235720	10148.465275
748.564365	10202.665240
748.892963	10160.206122
749.221514	10241.043545
749.550017	10171.901599
749.878473	10170.089304
750.206881	10042.217916
750.535242	10006.342545
750.863555	9971.576228
751.191821	9915.379965
751.520039	9950.088309
751.848210	9916.960367
752.176334	9960.861255
752.504411	9913.509697
752.832440	9818.705758
753.160421	9900.299353
753.488356	9838.666206
753.816243	9788.368094
754.144082	9688.959061
754.471875	9667.728241
754.799620	9652.839193
755.127318	9649.791816
755.454969	9657.918156
755.782572	9644.906938
756.110129	9669.948869
756.437638	9618.352660
756.765100	9630.859763
757.092515	9657.033433
757.419882	9690.975522
757.747203	9710.076454
758.074477	9772.818655
758.401703	9766.270196
758.728882	9899.651565
759.056014	9932.192213
759.383099	10058.508405
759.710138	10153.387962
760.037129	10249.091747
760.364073	10300.017483
760.690970	10326.584364
761.017820	10356.627120
761.344623	10531.600529
761.671379	10812.213837
761.998088	11315.058851
762.324751	12545.770863
762.651366	14847.932234
762.977935	17913.097445
763.304456	20005.246868
763.630931	20779.598345
763.957359	20020.143477
764.283740	18496.542947
764.610074	16946.907378
764.936362	15145.990455
765.262602	13879.047670
765.588796	12544.341696
765.914943	11662.117087
766.241044	10899.718186
766.567097	10354.865237
766.893104	9866.500937
767.219064	9555.842352
767.544978	9224.991425
767.870845	8964.630952
768.196665	8815.775762
768.522438	8657.665013
768.848165	8521.027058
769.173846	8376.736632
769.499479	8302.490518
769.825066	8193.934311
770.150607	8031.853653
770.476101	7980.282650
770.801548	7899.228457
771.126949	7792.313146
771.452303	7721.003504
771.777611	7583.526198
772.102872	7582.628873
772.428087	7489.974985
772.753256	7378.257975
773.078378	7315.392266
773.403453	7188.214037
773.728482	7108.014320
774.053465	7057.290230
774.378401	6994.963925
774.703291	6907.101654
775.028135	6820.734086
775.352932	6801.035777
775.677683	6732.259315
776.002388	6655.772409
776.327046	6667.273801
776.651658	6603.135201
776.976224	6527.964035
777.300743	6534.769593
777.625216	6473.025541
777.949643	6444.585871
778.274024	6466.232586
778.598359	6399.969139
778.922647	6421.315905
779.246889	6379.890223
779.571086	6391.232819
779.895236	6396.672224
780.219339	6404.685138
780.543397	6408.690335
780.867409	6468.261650
781.191374	6482.313867
781.515294	6467.878522
781.839167	6540.269492
782.162995	6524.846082
782.486776	6493.001113
782.810511	6456.780422
783.134201	6398.454272
783.457844	6399.901083
783.781441	6371.272371
784.104993	6319.287992
784.428498	6311.053267
784.751958	6304.242669
785.075372	6282.197703
785.398739	6246.324852
785.722061	6285.940760
786.045337	6290.755062
786.368568	6420.804228
786.691752	6440.169820
787.014891	6698.002154
787.337983	6961.972093
787.661030	7411.590084
787.984031	7894.336018
788.306987	8220.125626
788.629897	8399.051300
788.952760	8371.950057
789.275579	8219.591264
789.598351	7919.675377
789.921078	7654.026734
790.243759	7336.194587
790.566395	7113.748633
790.888984	6924.644870
791.211529	6763.837103
791.534027	6597.143789
791.856480	6446.574606
792.178888	6388.137551
792.501249	6317.024514
792.823566	6192.707140
793.145836	6201.619900
793.468062	6180.318504
793.790241	6144.617053
794.112375	6203.676691
794.434464	6326.572460
794.756507	6357.545309
795.078505	6480.360419
795.400457	6713.407921
795.722364	6991.823286
796.044226	7220.122020
796.366042	7435.394413
796.687812	7400.859988
797.009538	7476.205074
797.331218	7397.752117
797.652852	7343.930238
797.974442	7224.051599
798.295986	7154.360168
798.617484	7015.680546
798.938938	6908.964361
799.260346	6824.887997
799.581709	6676.163876
799.903026	6613.867817
800.224299	6534.343615
800.545526	6399.896042
800.866708	6324.296379
801.187845	6269.521722
801.508936	6185.284041
801.829983	6156.620040
802.150984	6032.718561
802.471940	5999.525083
802.792851	5989.213403
803.113717	5966.661801
803.434538	5941.844201
803.755314	5891.548609
804.076045	5897.482047
804.396731	5852.315829
804.717372	5877.340117
805.037967	5878.181990
805.358518	5911.887144
805.679024	5978.430375
805.999485	5989.092415
806.319901	6020.072826
806.640272	6040.975971
806.960598	6103.277071
807.280879	6113.293843
807.601115	6175.244583
807.921306	6139.976671
808.241453	6148.206354
808.561554	6170.896588
808.881611	6143.676877
809.201623	6159.367469
809.521590	6116.394153
809.841513	6102.982163
810.161390	6139.916177
810.481223	6037.759715
810.801011	6031.188571
811.120755	6021.804463
811.440453	5954.784843
811.760107	5935.683911
812.079716	5908.189458
812.399281	5860.043918
812.718801	5856.096695
813.038276	5816.589172
813.357707	5773.404127
813.677093	5806.002749
813.996434	5734.249486
814.315731	5768.577223
814.634983	5768.448673
814.954191	5782.042145
815.273354	5866.574733
815.592473	5927.572694
815.911547	6032.668149
816.230577	6101.489982
816.549562	6224.683179
816.868502	6311.355737
817.187399	6395.653911
817.506250	6533.216917
817.825058	6567.204377
818.143821	6785.738396
818.462539	7019.506782
818.781213	7329.983886
819.099843	7794.679968
819.418429	8621.005742
819.736970	9430.357951
820.055466	10420.097767
820.373919	11684.948473
820.692327	13686.994832
821.010691	17031.510543
821.329011	24134.960098
821.647286	34062.413627
821.965517	45091.465135
822.283704	51322.916063
822.601847	54353.045255
822.919945	51204.456509
823.237999	46694.063066
823.556010	41208.065202
823.873976	35705.330706
824.191897	30423.577711
824.509775	26510.480340
824.827609	22891.733422
825.145398	20822.213739
825.463144	19751.674308
825.780845	20028.768891
826.098502	21474.125672
826.416116	24528.984245
826.733685	27488.436460
827.051210	28448.360372
827.368692	27038.359724
827.686129	23828.982224
828.003522	20454.143973
828.320872	17376.630456
828.638177	15046.223500
828.955439	13261.652518
829.272656	11731.027140
829.589830	10519.327840
829.906960	9460.493968
830.224046	8677.983383
830.541088	8048.171868
830.858086	7665.994434
831.175041	7348.646237
831.491952	7252.879438
831.808819	7296.427445
832.125642	7656.653176
832.442421	8419.573837
832.759157	9944.772413
833.075849	12353.836492
833.392497	15028.647517
833.709101	16814.758572
834.025662	16714.782408
834.342179	15343.099570
834.658653	13542.374211
834.975083	11901.549210
835.291469	10557.895187
835.607811	9436.288868
835.924110	8667.281013
836.240366	7926.014628
836.556578	7234.741366
836.872746	6692.552667
837.188871	6265.423263
837.504952	5909.056536
837.820990	5638.011338
838.136984	5449.941012
838.452935	5374.061564
838.768842	5402.629783
839.084706	5757.726139
839.400526	6786.164373
839.716303	8123.521995
840.032037	9058.346003
840.347727	9015.171040
840.663373	8201.218779
840.978977	7303.417005
841.294537	6615.435616
841.610054	6093.736687
841.925527	5723.463937
842.240957	5410.020114
842.556344	5120.985558
842.871687	4879.967993
843.186987	4631.071104
843.502244	4442.153864
843.817458	4298.302018
844.132629	4181.697609
844.447756	4103.199282
844.762840	4032.597922
845.077881	3965.956389
845.392879	3911.474119
845.707833	3869.917367
846.022745	3832.121316
846.337613	3806.292965
846.652438	3771.599744
846.967221	3757.156838
847.281960	3726.486458
847.596656	3713.134962
847.911309	3695.047302
848.225919	3676.306813
848.540485	3663.242662
848.855009	3650.435611
849.169490	3631.082622
849.483928	3619.588791
849.798323	3613.468830
850.112675	3598.547015
850.426984	3604.137654
850.741251	3590.609718
851.055474	3584.945982
851.369654	3590.897064
851.683792	3586.695262
851.997887	3596.338989
852.311938	3594.584668
852.625947	3598.610029
852.939914	3589.359512
853.253837	3597.606839
853.567718	3598.269751
853.881555	3584.973708
854.195350	3599.978702
854.509103	3598.065584
854.822812	3597.838733
855.136479	3589.372115
855.450103	3597.528702
855.763685	3587.383379
856.077224	3590.385387
856.390720	3605.118159
856.704173	3623.682208
857.017584	3633.436840
857.330953	3646.044766
857.644278	3661.316942
857.957561	3668.528312
858.270802	3667.744413
858.584000	3674.187008
858.897155	3667.464629
859.210268	3652.353770
859.523339	3634.608909
859.836367	3634.714773
860.149352	3629.048516
860.462295	3621.834625
860.775195	3612.894138
861.088054	3610.890280
861.400869	3607.679065
861.713642	3607.374075
862.026373	3621.665746
862.339062	3626.361581
862.651708	3641.951349
862.964312	3670.443951
863.276873	3681.915096
863.589392	3732.019124
863.901869	3772.229888
864.214303	3813.741269
864.526696	3842.339735
864.839045	3886.573340
865.151353	3906.488418
865.463619	3919.184564
865.775842	3921.705141
866.088023	3941.658028
866.400162	3933.909774
866.712258	3941.922688
867.024313	3944.889407
867.336325	3942.762040
867.648296	3950.764872
867.960224	3950.384265
868.272110	3960.511943
868.583954	3960.658137
868.895755	3977.992144
869.207515	3972.777070
869.519233	4010.878111
869.830909	4021.842621
870.142542	4044.815159
870.454134	4058.479206
870.765684	4087.745625
871.077191	4119.580512
871.388657	4143.223523
871.700081	4172.956248
872.011463	4212.448648
872.322803	4240.827823
872.634101	4268.365126
872.945357	4305.394922
873.256571	4354.034495
873.567744	4381.914596
873.878874	4393.325248
874.189963	4432.565589
874.501010	4441.034728
874.812015	4435.272689
875.122979	4481.096777
875.433900	4480.464112
875.744780	4494.886854
876.055618	4519.313765
876.366415	4526.028582
876.677169	4544.910223
876.987882	4584.662242
877.298554	4634.078152
877.609183	4708.397363
877.919771	4813.868384
878.230317	4940.802117
878.540822	5141.603878
878.851285	5432.901912
879.161707	5851.501683
879.472087	6541.648247
879.782425	7651.324676
880.092722	9569.216533
880.402977	12326.561329
880.713191	15310.385002
881.023363	18178.436057
881.333494	19903.516383
881.643583	21013.959067
881.953631	21234.403683
882.263637	20727.926518
882.573602	19585.550645
882.883526	18324.589190
883.193408	16907.936739
883.503248	15497.121944
883.813048	14188.025031
884.122806	12951.649282
884.432522	11672.794251
884.742197	10606.169277
885.051831	9663.730606
885.361424	8794.106362
885.670975	8075.308400
885.980485	7458.251004
886.289954	6962.035108
886.599382	6538.615993
886.908768	6208.155756
887.218113	5878.940683
887.527417	5623.034070
887.836680	5378.344024
888.145901	5186.601217
888.455082	5037.758629
888.764221	4902.038165
889.073319	4781.489053
889.382376	4718.678796
889.691392	4665.154345
890.000366	4642.065861
890.309300	4628.023727
890.618193	4631.766783
890.927044	4616.114001
891.235855	4638.242146
891.544625	4667.190972
891.853353	4726.235486
892.162041	4831.903112
892.470687	5000.844780
892.779293	5227.429522
893.087858	5564.622220
893.396381	6084.947435
893.704864	6803.092568
894.013306	7827.946542
894.321707	8871.939257
894.630068	9596.463970
894.938387	9801.074322
895.246665	9594.039175
895.554903	9065.761540
895.863100	8438.014378
896.171256	7945.019778
896.479371	7485.256465
896.787446	7036.271139
897.095480	6654.489435
897.403473	6362.203335
897.711425	6072.397483
898.019336	5833.789589
898.327207	5587.574594
898.635038	5384.605137
898.942827	5156.762627
899.250576	4986.890866
899.558284	4812.146830
899.865952	4695.489489
900.173579	4566.940066
900.481165	4470.994305
900.788711	4388.392479
901.096216	4317.854133
901.403681	4262.666102
901.711105	4236.701639
902.018489	4224.849886
902.325832	4289.159886
902.633135	4405.330756
902.940397	4719.379517
903.247619	5431.427374
903.554800	6721.627522
903.861941	8416.458404
904.169041	9774.066340
904.476101	10344.679585
904.783121	10039.871259
905.090100	9396.972909
905.397039	8651.545052
905.703938	7974.782751
906.010796	7349.961978
906.317614	6849.849270
906.624391	6368.214911
906.931129	5986.080326
907.237826	5618.302947
907.544483	5281.037152
907.851099	4942.984937
908.157675	4620.255309
908.464211	4328.952234
908.770707	4113.450468
909.077163	3936.110238
909.383578	3804.586534
909.689954	3696.499154
909.996289	3628.735964
910.302584	3570.480391
910.608839	3543.621123
910.915054	3516.600538
911.221229	3501.711490
911.527363	3514.400075
911.833458	3524.467259
912.139513	3551.490364
912.445527	3580.766865
912.751502	3657.049605
913.057436	3751.614089
913.363331	3875.843244
913.669186	4065.753591
913.975000	4302.450888
914.280775	4694.032595
914.586510	5226.693513
914.892205	5950.799811
915.197859	6878.571244
915.503475	7972.103377
915.809050	8918.138911
916.114585	9497.140636
916.420081	9744.759592
916.725536	9722.218073
917.030952	9332.753650
917.336328	8966.423083
917.641665	8596.155374
917.946961	8159.447778
918.252218	7782.011548
918.557435	7321.295457
918.862612	6929.537309
919.167750	6586.640545
919.472848	6204.601742
919.777906	5862.861923
920.082925	5541.027100
920.387904	5204.635945
920.692843	4963.948575
920.997743	4737.903237
921.302603	4523.192933
921.607423	4377.059965
921.912204	4225.414495
922.216946	4120.051859
922.521647	4003.553315
922.826310	3907.047986
923.130932	3822.243175
923.435516	3729.884196
923.740059	3668.679547
924.044564	3593.145418
924.349028	3540.921585
924.653454	3479.391782
924.957840	3417.083120
925.262186	3377.368910
925.566493	3318.677277
925.870761	3267.733896
926.174989	3232.652507
926.479178	3198.927187
926.783328	3158.744150
927.087438	3133.966879
927.391509	3101.045624
927.695541	3073.069741
927.999533	3049.157027
928.303486	3028.803369
928.607400	3013.763086
928.911275	3001.850840
929.215110	2988.222080
929.518906	2979.636995
929.822663	2979.405102
930.126381	2977.169350
930.430060	2981.456852
930.733699	2984.370639
931.037299	2992.408758
931.340861	2993.550580
931.644383	2999.037876
931.947866	2997.815396
932.251309	2990.535970
932.554714	2994.253821
932.858080	2987.165958
933.161407	2981.865185
933.464694	2976.019967
933.767943	2966.703915
934.071153	2961.771146
934.374323	2955.139508
934.677455	2948.366718
934.980548	2941.288938
935.283602	2938.203752
935.586617	2934.531271
935.889593	2942.163578
936.192530	2947.731533
936.495428	2959.840384
936.798287	2980.191522
937.101108	3010.541789
937.403890	3057.832853
937.706632	3113.774537
938.009336	3189.013758
938.312002	3258.286774
938.614628	3315.881957
938.917216	3365.439020
939.219765	3394.259296
939.522275	3425.370777
939.824747	3428.826488
940.127179	3427.762805
940.429573	3422.812392
940.731929	3420.891712
941.034246	3408.001482
941.336524	3397.185686
941.638763	3382.170609
941.940964	3367.417673
942.243126	3331.590192
942.545250	3308.859629
942.847335	3276.442490
943.149381	3242.704567
943.451389	3213.365052
943.753359	3181.232737
944.055290	3158.542504
944.357182	3135.504431
944.659036	3122.384828
944.960851	3112.627675
945.262628	3098.351127
945.564367	3100.707867
945.866067	3091.611104
946.167729	3090.494489
946.469352	3087.106833
946.770937	3083.840166
947.072484	3071.481777
947.373992	3075.199628
947.675462	3068.041190
947.976893	3052.466545
948.278286	3045.476985
948.579641	3038.321067
948.880958	3030.605581
949.182236	3035.624050
949.483476	3027.341434
949.784678	3028.332021
950.085841	3031.699512
950.386967	3039.959442
950.688054	3053.537790
950.989103	3074.272056
951.290114	3097.342896
951.591087	3119.420630
951.892021	3144.293683
952.192917	3171.475584
952.493776	3195.179090
952.794596	3203.680996
953.095378	3208.991851
953.396122	3201.931715
953.696828	3199.063299
953.997496	3184.275074
954.298126	3166.328566
954.598718	3145.942140
954.899272	3122.410034
955.199788	3095.926332
955.500266	3066.818710
955.800706	3031.873431
956.101108	2998.372443
956.401472	2968.584265
956.701798	2941.026798
957.002087	2901.965417
957.302337	2871.436190
957.602550	2845.953157
957.902724	2822.441215
958.202861	2796.675878
958.502960	2779.596449
958.803022	2759.857811
959.103045	2739.267218
959.403031	2724.045454
959.702979	2710.411653
960.002889	2699.797504
960.302762	2685.957016
960.602596	2677.543330
960.902393	2669.787515
961.202153	2659.301915
961.501875	2651.788075
961.801559	2646.956129
962.101205	2643.392034
962.400814	2636.228554
962.700385	2630.688326
962.999918	2622.914867
963.299414	2616.197529
963.598873	2615.557303
963.898293	2606.009357
964.197677	2611.254678
964.497022	2611.247116
964.796331	2608.953391
965.095601	2601.815117
965.394835	2603.970211
965.694030	2600.171701
965.993189	2598.167842
966.292309	2600.456526
966.591393	2597.204982
966.890439	2595.082656
967.189447	2599.531475
967.488419	2596.375712
967.787353	2598.737493
968.086249	2601.472319
968.385108	2598.467791
968.683930	2601.351331
968.982714	2609.444904
969.281462	2608.141765
969.580172	2616.747015
969.878844	2620.953858
970.177480	2628.016514
970.476078	2639.787609
970.774639	2645.937816
971.073162	2651.218425
971.371649	2658.195382
971.670098	2665.053872
971.968510	2666.924140
972.266885	2672.492094
972.565223	2677.061900
972.863524	2676.535100
973.161788	2681.482992
973.460014	2684.278312
973.758204	2685.924249
974.056356	2687.315607
974.354471	2691.537573
974.652550	2690.715865
974.950591	2688.134795
975.248595	2686.181347
975.546563	2685.894002
975.844493	2682.090451
976.142386	2680.305883
976.440243	2674.291786
976.738062	2667.735766
977.035845	2663.581855
977.333590	2656.133550
977.631299	2651.054587
977.928971	2645.453866
978.226606	2641.897332
978.524204	2637.705612
978.821765	2632.944242
979.119290	2635.963893
979.416777	2636.047072
979.714228	2638.038328
980.011642	2643.321457
980.309020	2650.399237
980.606360	2663.130672
980.903664	2686.209074
981.200931	2720.486399
981.498162	2767.495159
981.795356	2833.493945
982.092513	2916.920000
982.389633	3014.559588
982.686717	3100.251642
982.983764	3170.379133
983.280775	3215.976370
983.577749	3222.217318
983.874686	3212.238354
984.171587	3177.731656
984.468451	3146.622696
984.765279	3105.335646
985.062070	3061.069274
985.358824	3019.325999
985.655543	2965.418421
985.952224	2916.841862
986.248869	2857.893130
986.545478	2803.635191
986.842050	2754.622573
987.138586	2711.729915
987.435086	2674.521159
987.731549	2648.597025
988.027975	2620.671553
988.324366	2604.277721
988.620719	2592.972933
988.917037	2583.387179
989.213318	2575.868298
989.509563	2567.787329
989.805772	2564.286248
990.101944	2559.716442
990.398080	2559.991184
990.694180	2554.103117
990.990244	2555.020607
991.286271	2556.172510
991.582262	2557.281564
991.878217	2561.654765
992.174136	2561.677450
992.470019	2567.807493
992.765865	2568.583831
993.061676	2573.158678
993.357450	2581.660584
993.653188	2588.330031
993.948890	2606.377362
994.244556	2626.456277
994.540186	2645.279946
994.835780	2677.412260
995.131337	2711.172868
995.426859	2752.076790
995.722345	2794.132616
996.017795	2842.988958
996.313208	2878.040101
996.608586	2899.207906
996.903928	2911.641912
997.199234	2913.434042
997.494504	2908.859195
997.789738	2897.950138
998.084936	2874.770913
998.380099	2844.597087
998.675225	2815.751604
998.970316	2789.305711
999.265371	2755.164497
999.560390	2721.020762
999.855373	2695.540250
1000.150320	2668.065961
1000.445232	2642.499749
1000.740108	2626.002573
1001.034948	2603.982813
1001.329752	2594.147522
1001.624521	2580.874164
1001.919254	2569.758420
1002.213951	2564.014025
1002.508613	2553.304094
1002.803239	2548.787220
1003.097829	2544.817311
1003.392384	2541.399409
1003.686903	2536.406146
1003.981386	2532.552184
1004.275834	2529.338448
1004.570246	2526.366688
1004.864623	2526.689322
1005.158964	2519.757736
1005.453270	2521.441481
1005.747540	2515.316479
1006.041775	2518.870492
1006.335974	2516.982580
1006.630138	2516.486027
1006.924266	2518.600791
1007.218359	2513.035357
1007.512416	2513.121057
1007.806438	2507.976559
1008.100425	2510.368587
1008.394376	2508.296672
1008.688292	2513.163906
1008.982172	2510.313134
1009.276017	2511.901097
1009.569827	2510.449245
1009.863602	2510.073679
1010.157341	2508.286590
1010.451045	2509.037722
1010.744714	2505.481188
1011.038347	2506.277690
1011.331945	2505.428256
1011.625508	2503.989006
1011.919036	2504.394819
1012.212528	2502.700992
1012.505986	2503.563029
1012.799408	2501.251660
1013.092795	2504.994717
1013.386147	2501.392812
1013.679464	2499.646052
1013.972745	2502.133862
1014.265992	2500.288799
1014.559204	2503.043790
1014.852380	2498.733603
1015.145521	2501.092863
1015.438628	2501.380209
1015.731699	2504.606548
1016.024736	2501.367606
1016.317737	2506.418842
1016.610703	2504.944305
1016.903635	2505.680313
1017.196531	2506.930520
1017.489393	2507.164933
1017.782219	2510.121570
1018.075011	2513.065604
1018.367768	2510.194667
1018.660490	2511.583505
1018.953177	2511.583505
1019.245829	2511.583505
