Dividing Wavelength (nm)	Counts (n)	Blue Motor Position (mm): 25.500000	Red Motor Position (mm): 0.000000	
326.493990	2198.306040
326.888308	2198.306040
327.282561	2198.306040
327.676750	2159.716007
328.070874	2157.729793
328.464933	2156.908085
328.858929	2161.866059
329.252859	2165.909065
329.646726	2173.972390
330.040528	2188.301870
330.434265	2197.822089
330.827938	2217.583412
331.221547	2235.298027
331.615091	2252.715213
332.008571	2269.630805
332.401986	2288.310801
332.795338	2305.065076
333.188625	2326.192551
333.581847	2344.262567
333.975006	2362.161184
334.368100	2383.727240
334.761129	2397.812224
335.154095	2416.809812
335.546996	2444.657146
335.939833	2478.241313
336.332606	2492.729589
336.725315	2507.316168
337.117960	2518.857890
337.510540	2531.685106
337.903056	2542.145500
338.295508	2552.285781
338.687896	2560.039075
339.080220	2565.168449
339.472480	2573.609862
339.864676	2578.956005
340.256807	2585.159145
340.648875	2590.086873
341.040879	2590.971595
341.432818	2595.778336
341.824694	2595.846391
342.216506	2597.978799
342.608253	2599.990220
342.999937	2598.326639
343.391557	2598.959304
343.783113	2597.900661
344.174605	2594.538212
344.566033	2597.981320
344.957397	2596.254725
345.348697	2594.669282
345.739934	2594.359251
346.131106	2591.352203
346.522215	2588.617377
346.913260	2584.574371
347.304241	2585.620411
347.695159	2581.085893
348.086012	2582.744432
348.476802	2580.271746
348.867528	2575.462486
349.258191	2572.578946
349.648789	2571.641291
350.039324	2569.317319
350.429796	2571.968966
350.820203	2569.803790
351.210548	2570.648184
351.600828	2569.319840
351.991045	2568.435117
352.381198	2565.838923
352.771288	2564.553429
353.161314	2565.765826
353.551276	2565.344890
353.941175	2563.663665
354.331010	2567.643656
354.720782	2564.583676
355.110490	2567.331104
355.500135	2562.897410
355.889717	2565.448233
356.279235	2564.238357
356.668689	2565.226423
357.058080	2565.256670
357.447408	2564.765157
357.836672	2566.070816
358.225873	2565.135682
358.615010	2564.097204
359.004084	2567.701629
359.393095	2569.861764
359.782043	2565.982596
360.170927	2568.299006
360.559748	2568.228430
360.948505	2568.331773
361.337199	2570.512073
361.725830	2569.680282
362.114398	2568.684654
362.502903	2569.024932
362.891344	2573.375448
363.279722	2569.314798
363.668037	2570.244891
364.056289	2570.068451
364.444478	2572.916703
364.832603	2572.422670
365.220665	2574.119018
365.608665	2577.068093
365.996601	2573.093143
366.384474	2571.288410
366.772284	2577.461303
367.160031	2578.628330
367.547715	2577.524317
367.935336	2576.974832
368.322893	2575.827969
368.710388	2572.150447
369.097820	2573.367886
369.485189	2574.098853
369.872495	2578.056159
370.259738	2577.597414
370.646918	2580.692683
371.034035	2577.713361
371.421090	2576.548854
371.808081	2579.210583
372.195010	2580.596901
372.581875	2580.188567
372.968678	2580.780903
373.355418	2582.467169
373.742096	2580.528845
374.128710	2578.214956
374.515262	2582.739391
374.901751	2581.370718
375.288177	2581.453897
375.674540	2582.739391
376.060841	2582.638568
376.447079	2585.091089
376.833254	2584.914649
377.219367	2583.288877
377.605417	2583.361974
377.991404	2583.843404
378.377329	2582.142014
378.763191	2582.875502
379.148991	2582.734350
379.534727	2586.545462
379.920402	2584.972622
380.306013	2581.564802
380.691563	2585.204515
381.077049	2585.718713
381.462474	2584.002200
381.847835	2587.689804
382.233134	2586.865576
382.618371	2587.841039
383.003545	2589.161821
383.388657	2585.799372
383.773706	2588.524115
384.158693	2588.556883
384.543618	2588.710638
384.928480	2589.174424
385.313280	2589.613004
385.698017	2591.289188
386.082692	2588.209043
386.467305	2592.229363
386.851856	2591.447984
387.236344	2589.300453
387.620770	2585.239803
388.005133	2584.839032
388.389435	2587.790627
388.773674	2586.071594
389.157851	2590.265834
389.541965	2590.180134
389.926018	2593.726586
390.310008	2590.901019
390.693936	2594.850763
391.077802	2593.232553
391.461606	2590.785073
391.845348	2590.449836
392.229027	2591.594178
392.612645	2592.831781
392.996200	2596.317739
393.379694	2594.848243
393.763125	2595.632142
394.146494	2594.956627
394.529801	2593.958479
394.913047	2595.972420
395.296230	2594.896134
395.679351	2595.632142
396.062410	2593.903026
396.445408	2595.372523
396.828343	2597.588110
397.211217	2597.746906
397.594028	2598.828234
397.976778	2598.699684
398.359466	2599.554160
398.742092	2597.338573
399.124656	2601.056424
399.507158	2598.432503
399.889598	2600.363265
400.271977	2600.358224
400.654294	2602.228492
401.036549	2601.542895
401.418742	2601.437031
401.800874	2600.718666
402.182944	2601.051382
402.564952	2599.748244
402.946898	2600.648090
403.328783	2602.215889
403.710606	2602.359562
404.092367	2602.445262
404.474067	2602.871239
404.855705	2602.004161
405.237282	2602.450303
405.618797	2603.133379
406.000250	2604.474326
406.381642	2605.170005
406.762972	2601.263111
407.144240	2600.864860
407.525447	2604.378544
407.906593	2599.407966
408.287677	2605.948863
408.668700	2604.807042
409.049661	2605.575818
409.430560	2606.170674
409.811399	2607.204111
410.192176	2609.081941
410.572891	2605.946343
410.953545	2607.199070
411.334138	2607.909872
411.714669	2607.007506
412.095139	2608.393823
412.475547	2606.591611
412.855894	2606.236209
413.236180	2607.267125
413.616405	2610.102774
413.996568	2608.172012
414.376670	2607.899790
414.756711	2610.392641
415.136691	2608.101436
415.516609	2608.126642
415.896466	2611.408433
416.276262	2610.863988
416.655997	2611.748711
417.035670	2611.569750
417.415283	2611.557147
417.794834	2610.243927
418.174324	2612.938423
418.553753	2611.400871
418.933121	2611.708382
419.312428	2611.766355
419.691674	2613.795419
420.070859	2615.751387
420.449983	2615.038064
420.829045	2614.430605
421.208047	2615.658126
421.586988	2617.359515
421.965867	2618.261882
422.344686	2616.278188
422.723444	2615.065790
423.102141	2615.408589
423.480777	2613.198043
423.859352	2616.131994
424.237866	2616.996552
424.616319	2617.089813
424.994712	2617.314145
425.373044	2617.427571
425.751314	2618.705503
426.129524	2614.717951
426.507673	2613.951695
426.885762	2617.079731
427.263789	2619.098713
427.641756	2618.710544
428.019662	2619.968312
428.397508	2620.149794
428.775292	2620.704321
429.153016	2620.033847
429.530679	2621.654578
429.908282	2620.953858
430.285824	2620.956378
430.663305	2623.083745
431.040726	2623.476955
431.418086	2624.646503
431.795385	2622.877058
432.172624	2623.333282
432.549802	2626.602471
432.926920	2627.701442
433.303977	2630.506844
433.680974	2623.151801
434.057910	2628.303860
434.434786	2626.426030
434.811601	2630.073305
435.188355	2629.211268
435.565050	2629.385188
435.941683	2629.682616
436.318257	2632.041876
436.694770	2632.654376
437.071222	2631.625981
437.447614	2630.665641
437.823946	2635.134624
438.200218	2633.440796
438.576429	2632.969448
438.952580	2632.382154
439.328670	2637.312402
439.704700	2636.967083
440.080670	2635.696712
440.456580	2639.938843
440.832429	2640.818525
441.208218	2640.884060
441.583947	2640.233751
441.959616	2645.060656
442.335224	2642.524955
442.710773	2645.055614
443.086261	2646.338588
443.461689	2649.141470
443.837057	2649.600215
444.212365	2651.372180
444.587612	2650.495019
444.962800	2653.968374
445.337927	2656.867038
445.712995	2655.135402
446.088002	2665.328615
446.462949	2669.422032
446.837837	2674.372445
447.212664	2678.375121
447.587431	2690.206709
447.962139	2696.336752
448.336786	2724.635269
448.711374	2738.460633
449.085901	2732.179356
449.460369	2736.585324
449.834776	2743.227044
450.209124	2766.285282
450.583412	2789.656071
450.957640	2822.186637
451.331808	2827.419355
451.705917	2827.747030
452.079965	2836.831189
452.453954	2876.701675
452.827883	2894.103738
453.201752	2931.645211
453.575562	2946.181378
453.949311	2989.699138
454.323001	3023.293387
454.696632	3071.501942
455.070202	3125.792648
455.443713	3184.214580
455.817164	3258.042278
456.190556	3314.588901
456.563888	3398.410686
456.937160	3472.074547
457.310373	3482.555106
457.683526	3538.090977
458.056619	3570.616502
458.429653	3648.260353
458.802628	3670.325484
459.175542	3780.699027
459.548398	3957.063794
459.921194	4096.653344
460.293930	4200.501113
460.666607	4433.039458
461.039224	4694.604766
461.411782	4938.183238
461.784280	5030.252351
462.156719	5149.740300
462.529099	5180.274569
462.901419	5110.663796
463.273680	5178.058982
463.645882	5256.131331
464.018024	5310.858097
464.390106	5484.457792
464.762130	5785.880983
465.134094	6084.597075
465.505999	6737.577733
465.877845	7813.647309
466.249631	8810.719484
466.621358	8913.775792
466.993026	8690.913943
467.364634	8690.377060
467.736184	8475.981828
468.107674	8389.606698
468.479105	8600.440355
468.850477	8634.805900
469.221790	8655.741812
469.593043	8579.091068
469.964238	8583.459228
470.335373	8608.536448
470.706449	8942.664125
471.077467	8907.451665
471.448425	9818.274739
471.819324	11722.631098
472.190164	12912.628231
472.560945	11629.102571
472.931667	10711.035359
473.302330	10599.260375
473.672934	10503.995170
474.043479	10897.369008
474.413965	10988.840744
474.784393	10982.483849
475.154761	11506.710917
475.525070	11707.343799
475.895321	11673.290805
476.265513	12182.248218
476.635645	12691.550950
477.005719	12791.421249
477.375734	13088.466198
477.745691	13590.386160
478.115588	14044.480696
478.485427	14594.125261
478.855207	15416.579429
479.224928	16703.316304
479.594591	18410.019103
479.964194	18691.280200
480.333739	19192.509524
480.703226	19089.196117
481.072653	19121.824985
481.442022	19718.077539
481.811333	20561.240766
482.180584	20772.530647
482.549777	20274.567991
482.918912	20264.306722
483.287988	20533.252280
483.657005	20495.181486
484.025964	20450.345464
484.394864	20634.468567
484.763706	20599.377095
485.132489	20345.464258
485.501213	20618.036926
485.869879	20759.065726
486.238487	20693.986950
486.607036	21036.742562
486.975527	20893.914070
487.343959	21320.133546
487.712333	21466.188376
488.080648	21288.659102
488.448905	21843.922033
488.817104	21743.794636
489.185244	22435.246859
489.553326	22575.655596
489.921350	23496.699610
490.289315	25612.308042
490.657222	27359.791255
491.025070	27962.478841
491.392861	27916.216172
491.760593	27257.183609
492.128267	26618.224921
492.495883	25770.932988
492.863440	25065.766306
493.230939	24321.097142
493.598380	24258.165898
493.965763	23957.876967
494.333088	23616.870635
494.700354	23608.693884
495.067563	23573.536877
495.434713	23385.600141
495.801805	23571.477565
496.168839	23467.304642
496.535815	23340.398635
496.902733	23587.216048
497.269593	23299.600577
497.636395	23547.668196
498.003139	23572.309356
498.369825	23362.400751
498.736453	23572.218615
499.103023	23497.622141
499.469535	23552.517786
499.835989	23772.332258
500.202385	23826.776720
500.568723	23354.304658
500.935003	23660.980731
501.301226	23254.812445
501.667390	24085.284568
502.033497	24348.132850
502.399546	24108.872127
502.765537	23721.824938
503.131470	24106.492703
503.497345	24263.701085
503.863163	23480.053720
504.228923	24129.492967
504.594625	24311.914681
504.960269	23835.049253
505.325856	24354.116700
505.691385	23767.525518
506.056856	24369.708989
506.422270	24358.646177
506.787625	23969.844666
507.152924	24362.986610
507.518164	24396.290993
507.883347	24209.143198
508.248472	23899.553337
508.613540	24690.714542
508.978550	24463.149296
509.343503	24453.165291
509.708398	24745.564817
510.073236	24890.029162
510.438016	25099.584887
510.802738	24788.152484
511.167403	25043.547421
511.532010	24722.836775
511.896561	25521.524422
512.261053	25485.127292
512.625488	25335.427708
512.989866	25230.065072
513.354186	25091.188845
513.718449	25168.247923
514.082655	25570.209366
514.446803	25305.843696
514.810894	25745.775110
515.174927	25234.586987
515.538904	25277.507371
515.902822	25772.571363
516.266684	25517.862024
516.630488	25430.473622
516.994235	25421.719659
517.357925	25689.798138
517.721558	25901.133389
518.085133	25985.817212
518.448651	25910.157055
518.812112	25627.794466
519.175516	25817.442674
519.538863	25986.439795
519.902152	25762.882266
520.265385	26068.109008
520.628560	25845.516860
520.991678	25864.824479
521.354739	25940.403978
521.717743	26002.064851
522.080690	25785.912777
522.443580	26122.782842
522.806413	26125.676464
523.169189	26214.204167
523.531908	26271.711129
523.894569	25867.040066
524.257174	25942.521262
524.619722	26150.252089
524.982213	25835.774830
525.344647	25911.109833
525.707025	26017.271492
526.069345	26014.377869
526.431608	25961.614633
526.793815	26160.959500
527.155964	25602.407215
527.518057	25784.796162
527.880093	25700.634098
528.242072	25934.049603
528.603995	25639.179912
528.965860	25435.121566
529.327669	25496.106925
529.689421	25476.595139
530.051117	25301.856144
530.412755	25489.334135
530.774337	25300.631143
531.135862	25168.570557
531.497331	25361.130031
531.858743	24909.077162
532.220098	25404.315075
532.581396	25068.440638
532.942638	25034.359918
533.303824	25119.520130
533.664953	25142.724561
534.026025	24794.889987
534.387040	25037.629106
534.747999	25094.833599
535.108902	25254.766726
535.469748	24753.340797
535.830537	24950.870848
536.191270	25065.045421
536.551947	24952.257166
536.912567	24612.904333
537.273131	24922.877321
537.633638	24647.030424
537.994089	24852.568348
538.354483	24408.513271
538.714821	24901.154989
539.075103	24946.424551
539.435328	24729.786005
539.795497	24281.032572
540.155609	24686.505179
540.515665	24983.535005
540.875665	24226.152051
541.235609	24493.237423
541.595496	24475.258148
541.955328	24831.574463
542.315102	24754.835499
542.674821	24314.407531
543.034483	24184.554970
543.394090	24344.046995
543.753640	24135.600325
544.113134	24762.014102
544.472571	24385.621391
544.831953	24664.427446
545.191278	24265.193267
545.550548	24196.772206
545.909761	24416.795886
546.268918	24639.466172
546.628019	24601.007210
546.987064	24305.459483
547.346053	24082.080915
547.704986	24196.550395
548.063863	24350.741648
548.422684	24339.938455
548.781449	23902.628441
549.140158	24296.324912
549.498811	23875.587692
549.857408	23616.323670
550.215949	24056.489497
550.574434	23729.248037
550.932864	23957.259425
551.291237	24083.401697
551.649555	23970.063956
552.007817	24015.542725
552.366022	23886.191759
552.724173	23929.979221
553.082267	23861.984138
553.440305	24344.374670
553.798288	23617.417600
554.156215	24144.407221
554.514086	24217.990423
554.871902	23590.535647
555.229661	23878.882086
555.587365	23748.144802
555.945014	23578.189862
556.302606	23849.610626
556.660143	23784.786429
557.017625	24051.544126
557.375050	23580.803700
557.732421	23972.892043
558.089735	23777.653196
558.446994	23842.041333
558.804197	23859.909703
559.161345	23815.965965
559.518437	23552.054000
559.875474	23770.036012
560.232455	23937.208236
560.589381	23779.483135
560.946251	23732.144180
561.303065	24075.716458
561.659825	24153.287213
562.016528	23755.724177
562.373177	23501.085414
562.729770	23853.749413
563.086307	23730.099992
563.442789	23901.274891
563.799216	23719.148085
564.155587	23739.163986
564.511904	23708.120561
564.868164	23648.546725
565.224370	23633.098109
565.580520	23533.643706
565.936615	23677.684595
566.292654	23334.316483
566.648638	23656.738600
567.004567	23476.366116
567.360441	23426.776285
567.716260	23147.783708
568.072023	23480.537671
568.427732	23240.296443
568.783385	23022.316951
569.138982	23260.072889
569.494525	23299.247696
569.850013	23032.721892
570.205445	23137.771977
570.560823	22943.311987
570.916145	22712.001164
571.271412	22879.596844
571.626625	22640.797386
571.981782	22759.292228
572.336884	22557.628430
572.691931	22695.743443
573.046923	22430.175458
573.401860	22316.550371
573.756743	22307.246922
574.111570	22231.107854
574.466342	22165.509840
574.821059	22251.537130
575.175722	21954.769445
575.530330	21940.775202
575.884882	21967.521043
576.239380	21867.655786
576.593823	21753.181264
576.948211	21737.707442
577.302544	21589.573137
577.656823	21450.603648
578.011047	21540.580683
578.365216	21434.895413
578.719330	21309.887401
579.073389	21209.301258
579.427394	21349.352073
579.781344	21129.194803
580.135239	21015.668018
580.489080	20990.928556
580.842866	20756.880385
581.196597	20934.848240
581.550273	20927.165521
581.903895	20827.287661
582.257463	21121.222218
582.610975	20655.502782
582.964434	20963.776901
583.317837	20679.357522
583.671186	20759.569841
584.024481	20728.012218
584.377721	20505.692292
584.730906	20555.201464
585.084037	20589.178841
585.437113	20505.888897
585.790135	20697.145233
586.143103	20167.377937
586.496016	20172.073772
586.848874	20414.807850
587.201679	20350.286122
587.554428	20012.450676
587.907124	20358.031855
588.259765	20134.935591
588.612352	20206.512414
588.964884	19784.260327
589.317362	19952.839032
589.669786	19991.701287
590.022155	20053.662109
590.374470	20231.582072
590.726731	20030.555980
591.078937	19783.562127
591.431090	19886.245390
591.783188	19632.819024
592.135232	19601.188304
592.487222	19707.659994
592.839157	19732.875846
593.191038	19606.221897
593.542866	19503.014354
593.894639	19221.196210
594.246358	19439.324416
594.598022	19358.860039
594.949633	19099.349001
595.301190	19056.852074
595.652692	19230.592921
596.004141	19474.584767
596.355535	18801.384041
596.706876	18805.411923
597.058162	18709.093117
597.409395	18923.067412
597.760573	19007.708386
598.111698	18792.995561
598.462768	18726.381754
598.813785	18686.846505
599.164748	18514.844856
599.515657	18540.446356
599.866511	18330.643615
600.217312	18698.116004
600.568060	18222.954487
600.918753	18533.623154
601.269392	18428.815045
601.619978	18210.737251
601.970510	18422.574097
602.320988	18365.026805
602.671412	18572.561027
603.021783	18479.297160
603.372100	18211.667343
603.722363	18348.375874
604.072572	18284.822048
604.422728	18428.038708
604.772830	18188.929219
605.122878	18136.846538
605.472872	18133.821846
605.822813	18115.313249
606.172701	18081.852591
606.522534	18283.052602
606.872314	18304.212846
607.222041	18129.231875
607.571714	18350.838478
607.921333	18191.916103
608.270899	18256.175691
608.620411	18447.091749
608.969870	18206.255665
609.319276	18204.919759
609.668627	18242.567096
610.017926	18379.252941
610.367171	18494.954984
610.716362	18539.236479
611.065500	18346.787911
611.414585	18489.732348
611.763616	18475.670050
612.112594	18419.443540
612.461518	18384.251245
612.810389	18576.432633
613.159207	18430.826466
613.507971	18335.997321
613.856682	18622.501217
614.205340	18540.464000
614.553945	18697.717753
614.902496	18426.029808
615.250994	18678.304270
615.599439	18609.973950
615.947830	18599.228731
616.296169	18644.886461
616.644454	18614.513509
616.992686	18579.769877
617.340864	18794.858267
617.688990	18560.268173
618.037063	18731.029698
618.385082	18584.029652
618.733048	18862.132465
619.080961	18731.712774
619.428821	18765.788454
619.776628	18660.705602
620.124382	18576.440195
620.472083	18609.999156
620.819731	18640.951840
621.167326	18340.120985
621.514868	18376.944093
621.862357	18127.391854
622.209793	18150.233322
622.557176	17982.015059
622.904506	17808.818657
623.251783	17711.995736
623.599007	17483.301271
623.946179	17431.589115
624.293297	17375.322276
624.640363	17130.415461
624.987376	17145.294426
625.334336	16941.404959
625.681243	16782.767409
626.028097	16784.186494
626.374899	16718.613685
626.721647	16590.384376
627.068343	16422.214004
627.414987	16354.110536
627.761577	16318.961091
628.108115	16379.034001
628.454600	16094.138232
628.801032	16185.849423
629.147412	16115.326202
629.493739	16136.645241
629.840014	15945.862774
630.186236	16047.767178
630.532405	15807.115097
630.878521	16020.050915
631.224585	15901.682102
631.570597	15729.872017
631.916556	15763.002480
632.262462	15737.222019
632.608316	15657.206305
632.954117	15604.740496
633.299866	15589.934627
633.645562	15522.534400
633.991206	15268.200627
634.336797	15136.626512
634.682336	15107.312202
635.027823	15003.948384
635.373257	14877.531369
635.718639	14779.173416
636.063968	14725.386825
636.409245	14486.652902
636.754470	14504.433052
637.099642	14358.133726
637.444762	14126.742244
637.789829	14170.756558
638.134845	14006.029295
638.479808	14038.128842
638.824719	13987.409793
639.169577	13831.471781
639.514383	13880.186971
639.859137	13706.461248
640.203839	13778.484213
640.548489	13628.885452
640.893086	13610.334006
641.237632	13481.086383
641.582125	13634.478612
641.926566	13468.367552
642.270955	13483.067556
642.615292	13438.118108
642.959576	13448.482720
643.303809	13483.312052
643.647990	13414.709510
643.992118	13472.430722
644.336195	13242.675094
644.680219	13452.500520
645.024192	13366.344680
645.368112	13605.295373
645.711981	13668.332481
646.055797	13860.723076
646.399562	13813.719358
646.743274	14092.124641
647.086935	14361.216392
647.430544	14327.372605
647.774101	14354.388149
648.117606	14516.496533
648.461059	14478.861799
648.804460	14464.673472
649.147810	14194.444940
649.491108	14102.403553
649.834354	14114.116674
650.177548	13803.775682
650.520690	13623.836736
650.863781	13541.590311
651.206820	13588.977158
651.549807	13415.581630
651.892742	13225.288154
652.235626	13159.748113
652.578458	13162.588803
652.921238	12850.788397
653.263967	13044.409034
653.606644	12875.875699
653.949269	12844.333199
654.291843	12656.353614
654.634365	12816.006956
654.976836	12652.096359
655.319255	12665.906600
655.661622	12613.861728
656.003938	12550.403683
656.346203	12468.694141
656.688416	12545.730534
657.030577	12503.447856
657.372687	12421.161102
657.714746	12388.600289
658.056753	12583.869383
658.398708	12402.828946
658.740612	12403.320458
659.082465	12501.542300
659.424266	12462.866567
659.766016	12488.430258
660.107715	12406.443453
660.449362	12482.428765
660.790958	12433.695931
661.132503	12380.829350
661.473996	12444.650358
661.815438	12457.762399
662.156829	12475.141777
662.498168	12457.470012
662.839456	12449.678909
663.180693	12472.303607
663.521879	12559.180332
663.863013	12533.949357
664.204097	12514.946728
664.545129	12631.611631
664.886110	12607.925769
665.227040	12702.465048
665.567918	12701.484543
665.908746	12729.818349
666.249522	12713.709342
666.590248	12760.450920
666.930922	12877.801420
667.271545	12858.143440
667.612118	12935.159668
667.952639	12849.717152
668.293109	12855.771577
668.633528	12812.349599
668.973896	12785.097121
669.314213	12878.459290
669.654480	12614.265020
669.994695	12678.713652
670.334859	12702.132332
670.674973	12639.952220
671.015035	12690.449458
671.355047	12631.883853
671.695008	12591.698295
672.034918	12596.845313
672.374777	12646.054536
672.714585	12553.771174
673.054342	12591.438676
673.394049	12539.539997
673.733705	12638.704534
674.073310	12543.585523
674.412864	12566.008575
674.752368	12432.347422
675.091820	12443.228752
675.431223	12436.173658
675.770574	12305.454018
676.109875	12229.443500
676.449125	12196.348325
676.788324	12127.476081
677.127473	11966.668315
677.466571	11957.153137
677.805619	11857.885256
678.144616	11774.227308
678.483562	11742.732699
678.822458	11610.982143
679.161303	11594.351377
679.500098	11581.647669
679.838842	11542.210723
680.177535	11561.762838
680.516179	11628.250616
680.854771	11563.378528
681.193314	11781.287444
681.531805	11929.318406
681.870247	12341.387362
682.208638	12757.564859
682.546978	13073.090679
682.885268	13126.373154
683.223508	12817.181545
683.561697	12651.118375
683.899836	12563.641753
684.237925	12361.095753
684.575963	12276.530398
684.913951	12205.427443
685.251889	12150.577169
685.589776	12252.796645
685.927614	12171.346723
686.265401	12133.419602
686.603137	12189.804907
686.940824	12334.639778
687.278460	12449.043723
687.616046	12495.152637
687.953582	12679.815144
688.291068	12591.718460
688.628504	12823.876197
688.965889	12844.592819
689.303224	12809.004793
689.640510	12694.731918
689.977745	12395.118501
690.314930	12165.279694
690.652065	12082.672827
690.989150	11794.220524
691.326185	11570.257182
691.663170	11354.989831
692.000105	11119.827565
692.336990	11007.288847
692.673825	10760.302555
693.010610	10640.267641
693.347345	10424.634806
693.684030	10226.058715
694.020665	10175.904275
694.357251	9980.632660
694.693786	9924.159134
695.030272	9758.993290
695.366707	9634.907809
695.703093	9575.409591
696.039429	9569.642511
696.375716	9491.925562
696.711952	9362.685501
697.048139	9404.358200
697.384276	9354.909522
697.720363	9369.937201
698.056400	9313.715733
698.392388	9262.613556
698.728326	9230.050223
699.064214	9158.664964
699.400053	9203.949649
699.735842	9019.347636
700.071581	8979.779620
700.407270	8907.063496
700.742910	8826.780601
701.078501	8737.214420
701.414042	8609.441335
701.749533	8540.750573
702.084974	8404.410046
702.420366	8520.938838
702.755709	8405.597238
703.091002	8272.046990
703.426246	8299.438100
703.761440	8251.426150
704.096584	8206.804377
704.431679	8139.245354
704.766725	8122.435626
705.101721	8077.478616
705.436668	8121.447560
705.771565	8015.149790
706.106413	8090.673837
706.441212	8139.184860
706.775961	8096.904703
707.110661	8123.705997
707.445311	8271.862988
707.779913	8167.866505
708.114465	8299.644787
708.448967	8337.322371
708.783421	8475.986869
709.117825	8662.234818
709.452180	8700.348462
709.786485	8786.232080
710.120742	9066.192558
710.454949	9066.976458
710.789107	9164.875666
711.123216	9379.583449
711.457275	9540.902893
711.791286	9706.761895
712.125247	9699.243014
712.459159	9686.778762
712.793023	9934.997615
713.126837	9506.865022
713.460602	9665.593313
713.794318	9487.045726
714.127985	9523.422692
714.461602	9199.261376
714.795171	9145.968818
715.128691	8905.977128
715.462162	8651.257706
715.795584	8593.765867
716.128957	8452.341337
716.462281	8283.124926
716.795556	8329.506062
717.128782	8126.508879
717.461960	7857.802776
717.795088	7932.311030
718.128167	7835.941812
718.461198	7674.564395
718.794180	7614.040302
719.127113	7608.636185
719.459997	7457.278062
719.792833	7224.311219
720.125619	7286.763553
720.458357	7149.387070
720.791046	7136.431304
721.123686	7133.328474
721.456278	6974.433826
721.788821	6997.882753
722.121315	6887.569704
722.453761	6954.362472
722.786158	6899.756693
723.118506	6911.542911
723.450805	6879.135853
723.783056	6943.899557
724.115259	6851.923705
724.447412	6846.191913
724.779518	6893.137658
725.111574	6890.755713
725.443582	6973.302087
725.775542	6955.998326
726.107453	7148.182234
726.439315	7056.793677
726.771129	7119.901361
727.102895	7283.411186
727.434612	7401.265801
727.766281	7427.714215
728.097901	7506.336050
728.429473	7504.274218
728.760996	7480.779921
729.092471	7453.635828
729.423897	7403.304948
729.755276	7418.100734
730.086606	7337.535534
730.417887	7437.060514
730.749120	7626.350800
731.080305	7817.450860
731.411442	7945.188657
731.742530	7935.476874
732.073570	8043.360087
732.404562	8136.770147
732.735506	7974.381979
733.066401	8115.448587
733.397249	8059.297695
733.728048	7818.456570
734.058798	7485.347206
734.389501	7259.513596
734.720156	7086.153357
735.050762	6855.505445
735.381320	6752.625577
735.711831	6704.918618
736.042293	6598.373831
736.372707	6618.011646
736.703073	6481.648434
737.033391	6510.708166
737.363661	6534.411671
737.693883	6554.392284
738.024056	6640.626262
738.354182	6684.335586
738.684260	6714.771553
739.014290	6831.144069
739.344272	6946.689835
739.674207	6971.671273
740.004093	7033.758124
740.333931	7055.866104
740.663722	7063.982362
740.993464	7138.009186
741.323159	7129.756817
741.652806	6881.175000
741.982405	6884.784466
742.311956	6953.681916
742.641460	6793.640405
742.970915	6595.545744
743.300323	6586.411173
743.629683	6534.615838
743.958996	6404.546507
744.288260	6317.780687
744.617477	6262.275063
744.946647	6265.781185
745.275768	6098.326657
745.604842	6051.375871
745.933869	6034.866092
746.262847	5995.492160
746.591778	5985.208206
746.920662	5940.367143
747.249498	5931.532521
747.578286	5980.194779
747.907027	6052.920985
748.235720	6117.238546
748.564365	6088.622436
748.892963	6116.421879
749.221514	6274.076404
749.550017	6102.092399
749.878473	5978.596733
750.206881	6032.801740
750.535242	5982.612012
750.863555	5907.622328
751.191821	5923.033135
751.520039	5929.160658
751.848210	5834.407130
752.176334	5856.285738
752.504411	5907.135857
752.832440	5830.021326
753.160421	5760.768475
753.488356	5807.933511
753.816243	5840.552297
754.144082	5690.603176
754.471875	5661.651829
754.799620	5707.430547
755.127318	5715.377926
755.454969	5670.541904
755.782572	5636.017562
756.110129	5672.061812
756.437638	5666.687942
756.765100	5602.345175
757.092515	5606.428509
757.419882	5652.610520
757.747203	5635.626872
758.074477	5698.802612
758.401703	5686.287948
758.728882	5637.587881
759.056014	5690.477147
759.383099	5824.476057
759.710138	5830.321275
760.037129	5817.335263
760.364073	5818.940870
760.690970	5903.314662
761.017820	5886.066354
761.344623	5839.811247
761.671379	5937.014776
761.998088	6054.042642
762.324751	6291.302027
762.651366	6882.629373
762.977935	8178.465531
763.304456	9810.718049
763.630931	10721.896525
763.957359	10334.171300
764.283740	9401.643538
764.610074	8571.143689
764.936362	7582.747340
765.262602	6980.006821
765.588796	6441.755263
765.914943	6109.606239
766.241044	5947.399553
766.567097	5750.625674
766.893104	5490.345860
767.219064	5312.224250
767.544978	5249.580352
767.870845	5170.986243
768.196665	5068.078649
768.522438	4994.775231
768.848165	4964.835818
769.173846	4893.619438
769.499479	4854.444631
769.825066	4800.700890
770.150607	4741.472373
770.476101	4713.050348
770.801548	4711.669072
771.126949	4641.806241
771.452303	4585.302468
771.777611	4542.029204
772.102872	4560.714241
772.428087	4521.710833
772.753256	4486.087520
773.078378	4440.081950
773.403453	4372.260786
773.728482	4353.326213
774.053465	4313.841375
774.378401	4296.625835
774.703291	4298.269251
775.028135	4227.262078
775.352932	4175.524716
775.677683	4165.591123
776.002388	4182.284904
776.327046	4197.506668
776.651658	4122.000265
776.976224	4056.349319
777.300743	4064.889033
777.625216	4086.843258
777.949643	4082.265891
778.274024	4037.129920
778.598359	3991.278105
778.922647	4013.983462
779.246889	4010.762165
779.571086	4005.990712
779.895236	3989.735512
780.219339	3975.133810
780.543397	3965.139722
780.867409	4017.741642
781.191374	4033.245711
781.515294	3974.145744
781.839167	3964.128971
782.162995	3981.193277
782.486776	3975.784119
782.810511	3978.115652
783.134201	3978.544150
783.457844	3935.696863
783.781441	3877.907596
784.104993	3880.355076
784.428498	3902.306781
784.751958	3903.057913
785.075372	3878.084037
785.398739	3837.656503
785.722061	3850.977752
786.045337	3892.012745
786.368568	3925.302004
786.691752	3840.141792
787.014891	3891.080131
787.337983	4015.876415
787.661030	4171.280065
787.984031	4332.506247
788.306987	4498.561855
788.629897	4586.842541
788.952760	4541.096590
789.275579	4472.811641
789.598351	4409.703957
789.921078	4274.487608
790.243759	4074.258018
790.566395	4050.012588
790.888984	4054.221952
791.211529	3945.043162
791.534027	3882.820201
791.856480	3874.242677
792.178888	3810.232626
792.501249	3761.620780
792.823566	3772.038324
793.145836	3803.565700
793.468062	3749.292638
793.790241	3702.362016
794.112375	3734.335535
794.434464	3796.709731
794.756507	3822.812826
795.078505	3809.179025
795.400457	3834.987212
795.722364	3969.611226
796.044226	4077.766661
796.366042	4151.823732
796.687812	4132.080053
797.009538	4137.388388
797.331218	4093.391717
797.652852	4070.071340
797.974442	4046.183832
798.295986	4049.568967
798.617484	3970.410249
798.938938	3880.715519
799.260346	3918.962753
799.581709	3917.284049
799.903026	3845.225796
800.224299	3808.437976
800.545526	3803.492604
800.866708	3765.104217
801.187845	3704.562480
801.508936	3736.624218
801.829983	3737.594641
802.150984	3655.504491
802.471940	3648.071310
802.792851	3656.873165
803.113717	3654.282012
803.434538	3664.228208
803.755314	3603.525154
804.076045	3579.143613
804.396731	3597.453084
804.717372	3624.652630
805.037967	3612.551340
805.358518	3597.690018
805.679024	3628.322590
805.999485	3639.947491
806.319901	3642.979745
806.640272	3659.653361
806.960598	3669.077798
807.280879	3643.723315
807.601115	3656.598422
807.921306	3674.217254
808.241453	3713.039180
808.561554	3689.648226
808.881611	3622.663895
809.201623	3658.221673
809.521590	3672.909075
809.841513	3645.094509
810.161390	3673.566946
810.481223	3653.838390
810.801011	3600.666820
811.120755	3588.363884
811.440453	3625.678505
811.760107	3627.836118
812.079716	3587.350612
812.399281	3554.058832
812.718801	3576.940629
813.038276	3553.965571
813.357707	3551.699572
813.677093	3567.952252
813.996434	3516.439221
814.315731	3521.490457
814.634983	3525.228473
814.954191	3540.732542
815.273354	3568.501738
815.592473	3565.023342
815.911547	3572.360741
816.230577	3612.178295
816.549562	3663.106551
816.868502	3703.758416
817.187399	3726.809092
817.506250	3724.122157
817.825058	3693.895398
818.143821	3787.204636
818.462539	3890.364287
818.781213	3936.538736
819.099843	3992.921521
819.418429	4234.231473
819.736970	4471.674861
820.055466	4714.524886
820.373919	5080.469805
820.692327	5483.303368
821.010691	5919.514410
821.329011	7269.023733
821.647286	9990.079783
821.965517	14516.637685
822.283704	18560.159788
822.601847	20762.839029
822.919945	18968.435277
823.237999	16403.607105
823.556010	13902.184046
823.873976	11828.790237
824.191897	9732.597809
824.509775	8379.237044
824.827609	7254.943790
825.145398	6707.766869
825.463144	6587.578200
825.780845	6694.468306
826.098502	6889.097173
826.416116	7751.101713
826.733685	9069.955780
827.051210	10180.456437
827.368692	10242.732331
827.686129	8998.550356
828.003522	7486.489028
828.320872	6472.602084
828.638177	5773.855311
828.955439	5220.820569
829.272656	4723.329261
829.589830	4436.346455
829.906960	4264.301956
830.224046	4078.986620
830.541088	3949.746559
830.858086	3902.740320
831.175041	3830.077128
831.491952	3809.836896
831.808819	3824.277281
832.125642	3890.729771
832.442421	4038.521278
832.759157	4310.796518
833.075849	4852.105536
833.392497	5713.941197
833.709101	6488.000288
834.025662	6830.576939
834.342179	6473.133925
834.658653	5816.652186
834.975083	5173.025390
835.291469	4598.220425
835.607811	4184.490408
835.924110	4046.360272
836.240366	3854.942620
836.556578	3644.618120
836.872746	3537.266748
837.188871	3499.848784
837.504952	3431.939401
837.820990	3351.343953
838.136984	3302.996768
838.452935	3328.706652
838.768842	3323.332782
839.084706	3344.329188
839.400526	3496.506499
839.716303	3833.830267
840.032037	4353.835369
840.347727	4627.015496
840.663373	4351.181202
840.978977	3969.520485
841.294537	3661.632014
841.610054	3436.052982
841.925527	3329.374605
842.240957	3258.317021
842.556344	3205.299206
842.871687	3144.956594
843.186987	3096.795931
843.502244	3061.507854
843.817458	3030.371168
844.132629	2994.762977
844.447756	3003.133813
844.762840	2988.965650
845.077881	2958.557410
845.392879	2940.878084
845.707833	2936.736776
846.022745	2938.004626
846.337613	2936.235181
846.652438	2923.390321
846.967221	2923.743202
847.281960	2909.950605
847.596656	2905.103536
847.911309	2903.308885
848.225919	2897.924933
848.540485	2894.481824
848.855009	2894.262534
849.169490	2882.186450
849.483928	2873.694627
849.798323	2873.576159
850.112675	2870.874101
850.426984	2880.976573
850.741251	2878.806357
851.055474	2869.444934
851.369654	2863.004860
851.683792	2867.264635
851.997887	2874.294524
852.311938	2878.098074
852.625947	2867.844368
852.939914	2868.981148
853.253837	2877.752755
853.567718	2859.067719
853.881555	2861.777339
854.195350	2873.205635
854.509103	2870.480891
854.822812	2861.099304
855.136479	2858.462780
855.450103	2860.340610
855.763685	2855.609487
856.077224	2852.557068
856.390720	2863.811444
856.704173	2871.635315
857.017584	2866.198431
857.330953	2863.060313
857.644278	2873.319061
857.957561	2882.287273
858.270802	2883.272819
858.584000	2884.893550
858.897155	2869.848226
859.210268	2872.953577
859.523339	2866.183307
859.836367	2867.650283
860.149352	2863.075436
860.462295	2859.715507
860.775195	2864.176928
861.088054	2866.369830
861.400869	2851.503467
861.713642	2846.086747
862.026373	2862.707432
862.339062	2864.134078
862.651708	2867.730942
862.964312	2871.983155
863.276873	2865.964017
863.589392	2876.240409
863.901869	2885.032182
864.214303	2909.239802
864.526696	2924.827050
864.839045	2919.874116
865.151353	2919.722882
865.463619	2915.289187
865.775842	2916.007551
866.088023	2938.014708
866.400162	2946.456121
866.712258	2917.693817
867.024313	2906.207548
867.336325	2912.400606
867.648296	2936.396498
867.960224	2926.155394
868.272110	2915.052253
868.583954	2916.315062
868.895755	2935.612599
869.207515	2917.156934
869.519233	2927.264448
869.830909	2934.768205
870.142542	2945.470575
870.454134	2942.254319
870.765684	2948.023919
871.077191	2946.163734
871.388657	2953.097841
871.700081	2968.309523
872.011463	2977.837303
872.322803	2981.721512
872.634101	2981.151862
872.945357	2995.859428
873.256571	3021.937317
873.567744	3014.536903
873.878874	3003.239678
874.189963	3031.586086
874.501010	3034.174718
874.812015	3020.377080
875.122979	3022.070908
875.433900	3016.079496
875.744780	3023.482431
876.055618	3031.601209
876.366415	3025.216588
876.677169	3039.021787
876.987882	3039.924154
877.298554	3030.073739
877.609183	3049.567881
877.919771	3074.148547
878.230317	3099.997064
878.540822	3153.670229
878.851285	3190.546269
879.161707	3227.760067
879.472087	3330.410562
879.782425	3556.181158
880.092722	3988.553361
880.402977	4516.392416
880.713191	5138.644720
881.023363	6288.340349
881.333494	7572.173519
881.643583	8141.370200
881.953631	7843.523707
882.263637	7223.633184
882.573602	6632.530169
882.883526	6052.351334
883.193408	5474.423375
883.503248	5013.440103
883.813048	4709.445923
884.122806	4405.678595
884.432522	4091.788630
884.742197	3865.163559
885.051831	3665.929597
885.361424	3530.378012
885.670975	3457.921508
885.980485	3376.237171
886.289954	3298.802527
886.599382	3250.586412
886.908768	3215.079044
887.218113	3171.047086
887.527417	3117.247892
887.836680	3066.380129
888.145901	3060.182031
888.455082	3048.715926
888.764221	2999.302536
889.073319	2969.884883
889.382376	2967.734831
889.691392	2972.561736
890.000366	2970.439410
890.309300	2962.013121
890.618193	2971.545943
890.927044	2990.246103
891.235855	2988.937924
891.544625	2972.758341
891.853353	2984.786534
892.162041	3002.357476
892.470687	3040.700492
892.779293	3092.236208
893.087858	3141.425266
893.396381	3211.852706
893.704864	3327.128771
894.013306	3564.254566
894.321707	3868.621791
894.630068	4074.810024
894.938387	4073.574942
895.246665	4029.371584
895.554903	3907.872215
895.863100	3708.207234
896.171256	3542.020557
896.479371	3403.043507
896.787446	3281.292080
897.095480	3178.376924
897.403473	3111.216152
897.711425	3076.550657
898.019336	3065.661765
898.327207	3038.628577
898.635038	3006.161026
898.942827	2988.380877
899.250576	2979.863847
899.558284	2947.429063
899.865952	2926.765374
900.173579	2908.755852
900.481165	2902.943401
900.788711	2885.347254
901.096216	2865.858153
901.403681	2849.338292
901.711105	2857.348685
902.018489	2853.915659
902.325832	2854.205526
902.633135	2866.445447
902.940397	2900.737896
903.247619	2979.964670
903.554800	3169.423835
903.861941	3510.770444
904.169041	3935.890948
904.476101	4239.388574
904.783121	4200.727965
905.090100	3954.593628
905.397039	3680.874098
905.703938	3430.152312
906.010796	3245.449476
906.317614	3136.336221
906.624391	3041.396171
906.931129	2968.329687
907.237826	2910.008578
907.544483	2862.946887
907.851099	2831.719459
908.157675	2808.378917
908.464211	2790.167748
908.770707	2778.628547
909.077163	2764.394849
909.383578	2750.007396
909.689954	2738.359810
909.996289	2737.344018
910.302584	2737.906107
910.608839	2739.698237
910.915054	2733.442165
911.221229	2726.200547
911.527363	2728.630383
911.833458	2732.814541
912.139513	2736.837382
912.445527	2742.871643
912.751502	2750.796337
913.057436	2761.274375
913.363331	2774.250305
913.669186	2794.425003
913.975000	2828.762822
914.280775	2886.990670
914.586510	2957.634879
914.892205	3035.334183
915.197859	3162.719100
915.503475	3355.056763
915.809050	3565.582910
916.114585	3714.869119
916.420081	3736.215885
916.725536	3678.051052
917.030952	3561.587795
917.336328	3432.337652
917.641665	3303.518527
917.946961	3201.067157
918.252218	3130.221302
918.557435	3057.648851
918.862612	2994.964623
919.167750	2943.796912
919.472848	2907.651839
919.777906	2879.192005
920.082925	2853.955989
920.387904	2824.137564
920.692843	2805.853299
920.997743	2795.738223
921.302603	2781.025616
921.607423	2771.575973
921.912204	2757.180958
922.216946	2749.901532
922.521647	2737.643967
922.826310	2731.849160
923.130932	2724.186606
923.435516	2714.731922
923.740059	2710.068855
924.044564	2702.207176
924.349028	2699.220292
924.653454	2691.010773
924.957840	2684.777386
925.262186	2679.133814
925.566493	2676.081396
925.870761	2667.821465
926.174989	2665.396670
926.479178	2662.346772
926.783328	2656.584733
927.087438	2655.485762
927.391509	2654.278405
927.695541	2651.674649
927.999533	2645.607621
928.303486	2646.467137
928.607400	2645.045532
928.911275	2643.132414
929.215110	2644.236427
929.518906	2641.015130
929.822663	2640.879018
930.126381	2639.553195
930.430060	2644.985038
930.733699	2641.675521
931.037299	2641.564615
931.340861	2641.809111
931.644383	2644.773310
931.947866	2642.232568
932.251309	2642.832466
932.554714	2641.521766
932.858080	2639.109573
933.161407	2638.804584
933.464694	2636.830972
933.767943	2631.779736
934.071153	2635.547998
934.374323	2634.769140
934.677455	2634.454068
934.980548	2635.452216
935.283602	2633.730662
935.586617	2632.223357
935.889593	2632.840899
936.192530	2631.867956
936.495428	2632.152781
936.798287	2635.026239
937.101108	2639.641415
937.403890	2642.885398
937.706632	2646.015954
938.009336	2653.270175
938.312002	2663.854077
938.614628	2672.852537
938.917216	2678.314627
939.219765	2678.627178
939.522275	2676.935871
939.824747	2674.170798
940.127179	2672.030829
940.429573	2670.087464
940.731929	2668.731393
941.034246	2664.688388
941.336524	2660.607574
941.638763	2659.022131
941.940964	2655.957110
942.243126	2653.257572
942.545250	2654.071718
942.847335	2649.229690
943.149381	2647.780358
943.451389	2643.578556
943.753359	2639.603607
944.055290	2639.099491
944.357182	2638.469347
944.659036	2638.144192
944.960851	2638.330715
945.262628	2632.946763
945.564367	2635.651342
945.866067	2635.361476
946.167729	2635.036321
946.469352	2636.352062
946.770937	2636.183184
947.072484	2634.307874
947.373992	2634.239819
947.675462	2631.459622
947.976893	2628.782770
948.278286	2629.536422
948.579641	2627.852677
948.880958	2624.036523
949.182236	2626.794035
949.483476	2624.926287
949.784678	2625.813530
950.085841	2628.913840
950.386967	2625.143057
950.688054	2626.834364
950.989103	2628.586165
951.290114	2628.883593
951.591087	2628.606329
951.892021	2634.317957
952.192917	2636.324336
952.493776	2637.970273
952.794596	2640.498411
953.095378	2641.862043
953.396122	2635.651342
953.696828	2637.045221
953.997496	2635.127062
954.298126	2631.688995
954.598718	2628.991978
954.899272	2630.761423
955.199788	2627.124230
955.500266	2625.818571
955.800706	2621.818416
956.101108	2619.749022
956.401472	2617.082252
956.701798	2614.758280
957.002087	2611.695779
957.302337	2610.120418
957.602550	2611.710902
957.902724	2608.318206
958.202861	2608.885336
958.502960	2605.424583
958.803022	2605.273349
959.103045	2605.321240
959.403031	2606.447938
959.702979	2604.121445
960.002889	2604.809563
960.302762	2603.655138
960.602596	2603.428287
960.902393	2603.992896
961.202153	2604.383585
961.501875	2601.895776
961.801559	2601.621033
962.101205	2600.461567
962.400814	2603.045159
962.700385	2599.365117
962.999918	2596.748758
963.299414	2597.351176
963.598873	2597.986361
963.898293	2595.624580
964.197677	2598.404777
964.497022	2600.030549
964.796331	2601.794953
965.095601	2598.523244
965.394835	2599.113059
965.694030	2600.146495
965.993189	2603.206476
966.292309	2597.507451
966.591393	2599.382761
966.890439	2599.208841
967.189447	2597.572986
967.488419	2597.086515
967.787353	2598.969386
968.086249	2599.405446
968.385108	2599.352514
968.683930	2596.315218
968.982714	2597.661207
969.281462	2597.194900
969.580172	2599.629777
969.878844	2599.952411
970.177480	2601.026177
970.476078	2599.249170
970.774639	2598.513162
971.073162	2598.263624
971.371649	2597.847729
971.670098	2601.479881
971.968510	2598.669437
972.266885	2600.781681
972.565223	2601.431990
972.863524	2601.439551
973.161788	2599.564242
973.460014	2599.445775
973.758204	2600.701022
974.056356	2598.238419
974.354471	2596.388315
974.652550	2599.428131
974.950591	2599.982658
975.248595	2597.976279
975.546563	2598.462750
975.844493	2599.032400
976.142386	2595.591813
976.440243	2597.220106
976.738062	2598.205651
977.035845	2596.509303
977.333590	2595.223809
977.631299	2597.872935
977.928971	2594.999477
978.226606	2590.192737
978.524204	2592.516709
978.821765	2587.689804
979.119290	2596.927719
979.416777	2598.112390
979.714228	2593.776997
980.011642	2597.252873
980.309020	2597.305805
980.606360	2598.392174
980.903664	2596.040476
981.200931	2596.030393
981.498162	2601.179932
981.795356	2597.469643
982.092513	2599.609612
982.389633	2602.553646
982.686717	2604.875098
982.983764	2612.454472
983.280775	2613.198043
983.577749	2616.792385
983.874686	2614.705348
984.171587	2611.085799
984.468451	2609.182764
984.765279	2606.563884
985.062070	2603.496342
985.358824	2602.722525
985.655543	2600.212030
985.952224	2602.621702
986.248869	2599.675147
986.545478	2597.946032
986.842050	2598.135075
987.138586	2593.797162
987.435086	2594.578541
987.731549	2594.697008
988.027975	2596.320260
988.324366	2594.961669
988.620719	2592.645258
988.917037	2593.459405
989.213318	2591.309353
989.509563	2592.423448
989.805772	2592.799014
990.101944	2594.127358
990.398080	2590.641400
990.694180	2592.589806
990.990244	2592.844384
991.286271	2590.154928
991.582262	2590.263313
991.878217	2592.627614
992.174136	2594.041658
992.470019	2592.799014
992.765865	2590.631317
993.061676	2590.399424
993.357450	2590.573344
993.653188	2588.728282
993.948890	2592.105855
994.244556	2591.314394
994.540186	2593.293047
994.835780	2593.290526
995.131337	2592.085690
995.426859	2594.669282
995.722345	2595.284303
996.017795	2596.960486
996.313208	2596.516865
996.608586	2598.382092
996.903928	2597.729262
997.199234	2598.818151
997.494504	2597.235229
997.789738	2595.662389
998.084936	2595.138109
998.380099	2594.812955
998.675225	2594.298757
998.970316	2597.283120
999.265371	2593.824888
999.560390	2594.961669
999.855373	2593.348499
1000.150320	2591.447984
1000.445232	2594.250866
1000.740108	2591.626945
1001.034948	2592.617532
1001.329752	2592.700711
1001.624521	2590.986719
1001.919254	2593.149374
1002.213951	2594.402101
1002.508613	2592.700711
1002.803239	2589.497058
1003.097829	2590.192737
1003.392384	2590.565782
1003.686903	2589.940679
1003.981386	2590.832964
1004.275834	2592.620053
1004.570246	2592.579723
1004.864623	2589.229877
1005.158964	2590.248190
1005.453270	2593.444281
1005.747540	2591.682398
1006.041775	2591.140474
1006.335974	2591.226174
1006.630138	2589.733992
1006.924266	2593.270362
1007.218359	2588.972778
1007.512416	2587.099989
1007.806438	2588.035123
1008.100425	2588.042685
1008.394376	2583.911459
1008.688292	2588.221646
1008.982172	2589.625607
1009.276017	2588.745926
1009.569827	2591.435382
1009.863602	2590.096955
1010.157341	2589.348344
1010.451045	2588.516553
1010.744714	2590.545618
1011.038347	2591.049733
1011.331945	2590.084352
1011.625508	2590.762388
1011.919036	2588.841708
1012.212528	2588.221646
1012.505986	2590.759867
1012.799408	2588.072932
1013.092795	2587.631831
1013.386147	2588.675350
1013.679464	2588.597212
1013.972745	2589.759198
1014.265992	2587.828436
1014.559204	2591.432861
1014.852380	2590.923704
1015.145521	2590.301122
1015.438628	2588.869434
1015.731699	2590.406986
1016.024736	2587.828436
1016.317737	2588.120823
1016.610703	2588.776173
1016.903635	2590.074270
1017.196531	2588.451018
1017.489393	2589.829774
1017.782219	2589.872624
1018.075011	2589.519743
1018.367768	2587.901533
1018.660490	2586.840370
1018.953177	2586.840370
1019.245829	2586.840370
