Dividing Wavelength (nm)	Counts (n)	Blue Motor Position (mm): 17.000000	Red Motor Position (mm): 0.000000	
326.493990	2102.032604
326.888308	2102.032604
327.282561	2102.032604
327.676750	2079.987639
328.070874	2080.877402
328.464933	2087.708166
328.858929	2096.585638
329.252859	2112.321599
329.646726	2126.154526
330.040528	2139.750518
330.434265	2162.534012
330.827938	2180.903977
331.221547	2199.997347
331.615091	2221.142467
332.008571	2239.991341
332.401986	2263.480598
332.795338	2280.471807
333.188625	2301.879066
333.581847	2318.419092
333.975006	2338.886177
334.368100	2355.322859
334.761129	2372.969418
335.154095	2391.480535
335.546996	2425.326842
335.939833	2485.644248
336.332606	2497.352327
336.725315	2509.851868
337.117960	2517.960564
337.510540	2524.506502
337.903056	2533.293234
338.295508	2540.406302
338.687896	2547.247148
339.080220	2554.718137
339.472480	2560.278530
339.864676	2560.644014
340.256807	2565.206258
340.648875	2567.031156
341.040879	2565.982596
341.432818	2568.367062
341.824694	2570.275138
342.216506	2570.741445
342.608253	2571.117011
342.999937	2566.973182
343.391557	2566.128789
343.783113	2566.557287
344.174605	2566.610219
344.566033	2560.961607
344.957397	2560.500341
345.348697	2559.973540
345.739934	2560.041596
346.131106	2555.716286
346.522215	2555.567572
346.913260	2553.886347
347.304241	2552.164793
347.695159	2550.591953
348.086012	2549.961809
348.476802	2546.833773
348.867528	2546.299411
349.258191	2541.762372
349.648789	2543.786395
350.039324	2538.432690
350.429796	2541.182639
350.820203	2540.040818
351.210548	2539.604758
351.600828	2538.140303
351.991045	2539.324974
352.381198	2537.351363
352.771288	2536.375899
353.161314	2537.248019
353.551276	2539.156096
353.941175	2535.355066
354.331010	2538.162988
354.720782	2538.553678
355.110490	2540.938143
355.500135	2538.846065
355.889717	2537.996630
356.279235	2539.027546
356.668689	2541.142310
357.058080	2538.677186
357.447408	2537.926054
357.836672	2539.398071
358.225873	2537.991589
358.615010	2537.910931
359.004084	2542.344625
359.393095	2540.217258
359.782043	2544.348484
360.170927	2542.321940
360.559748	2544.562733
360.948505	2544.850079
361.337199	2546.972405
361.725830	2545.974256
362.114398	2545.384441
362.502903	2546.052394
362.891344	2546.889226
363.279722	2546.526263
363.668037	2546.758156
364.056289	2549.515667
364.444478	2550.649926
364.832603	2549.684545
365.220665	2550.115564
365.608665	2549.664381
365.996601	2552.857952
366.384474	2553.838456
366.772284	2550.173537
367.160031	2552.316028
367.547715	2550.105482
367.935336	2550.221428
368.322893	2552.169834
368.710388	2553.362067
369.097820	2555.093703
369.485189	2554.461039
369.872495	2554.879454
370.259738	2551.312838
370.646918	2553.137736
371.034035	2554.793755
371.421090	2556.164949
371.808081	2556.064126
372.195010	2556.127140
372.581875	2553.919115
372.968678	2555.854918
373.355418	2557.203426
373.742096	2551.827036
374.128710	2556.895916
374.515262	2556.477500
374.901751	2557.505896
375.288177	2556.817778
375.674540	2554.703014
376.060841	2558.877089
376.447079	2555.670916
376.833254	2557.962120
377.219367	2555.950700
377.605417	2558.524209
377.991404	2558.020093
378.377329	2555.411296
378.763191	2555.794424
379.148991	2560.172666
379.534727	2559.741647
379.920402	2559.265258
380.306013	2559.628221
380.691563	2563.247770
381.077049	2562.168963
381.462474	2559.764332
381.847835	2562.355486
382.233134	2561.445557
382.618371	2562.244580
383.003545	2562.484035
383.388657	2562.844477
383.773706	2564.039231
384.158693	2561.758109
384.543618	2563.043603
384.928480	2562.486556
385.313280	2568.188101
385.698017	2564.175342
386.082692	2565.856567
386.467305	2565.289437
386.851856	2563.426731
387.236344	2566.968141
387.620770	2566.229612
388.005133	2562.544529
388.389435	2566.539643
388.773674	2565.463357
389.157851	2563.429251
389.541965	2568.508214
389.926018	2567.620971
390.310008	2568.115004
390.693936	2567.331104
391.077802	2569.284552
391.461606	2571.485015
391.845348	2569.579459
392.229027	2568.387226
392.612645	2571.169943
392.996200	2568.757751
393.379694	2569.092988
393.763125	2569.977710
394.146494	2573.158678
394.529801	2570.582649
394.913047	2569.445868
395.296230	2572.997361
395.679351	2573.481312
396.062410	2568.697257
396.445408	2573.514080
396.828343	2571.835375
397.211217	2570.393605
397.594028	2571.268246
397.976778	2568.495611
398.359466	2567.988975
398.742092	2572.251271
399.124656	2573.088102
399.507158	2573.468709
399.889598	2573.294789
400.271977	2575.389389
400.654294	2577.088258
401.036549	2574.207238
401.418742	2575.873340
401.800874	2575.439800
402.182944	2574.030798
402.564952	2575.676735
402.946898	2575.245716
403.328783	2574.454255
403.710606	2575.999368
404.092367	2574.744121
404.474067	2574.035839
404.855705	2577.499112
405.237282	2577.675552
405.618797	2579.631520
406.000250	2577.569688
406.381642	2578.900552
406.762972	2576.069945
407.144240	2580.304514
407.525447	2579.926427
407.906593	2578.872826
408.287677	2576.100192
408.668700	2581.521952
409.049661	2582.033630
409.430560	2581.796695
409.811399	2581.030440
410.192176	2579.921386
410.572891	2580.017168
410.953545	2579.341653
411.334138	2578.073803
411.714669	2579.397106
412.095139	2582.018506
412.475547	2579.051787
412.855894	2579.195460
413.236180	2580.085224
413.616405	2580.806109
413.996568	2579.744946
414.376670	2582.250399
414.756711	2582.441963
415.136691	2581.310224
415.516609	2581.955492
415.896466	2581.516911
416.276262	2582.527663
416.655997	2579.487847
417.035670	2580.362487
417.415283	2583.177972
417.794834	2577.370562
418.174324	2582.525142
418.553753	2582.971284
418.933121	2583.782910
419.312428	2580.692683
419.691674	2587.218456
420.070859	2584.166038
420.449983	2586.888261
420.829045	2583.959350
421.208047	2582.653692
421.586988	2586.981522
421.965867	2587.447829
422.344686	2585.799372
422.723444	2585.479258
423.102141	2584.163517
423.480777	2585.801892
423.859352	2583.472879
424.237866	2586.663929
424.616319	2585.161666
424.994712	2588.977819
425.373044	2587.452870
425.751314	2586.963878
426.129524	2583.682087
426.507673	2585.774166
426.885762	2587.992273
427.263789	2586.515215
427.641756	2589.174424
428.019662	2591.085021
428.397508	2587.251224
428.775292	2588.229208
429.153016	2589.018148
429.530679	2590.699373
429.908282	2588.977819
430.285824	2588.763570
430.663305	2589.207192
431.040726	2588.723241
431.418086	2588.917325
431.795385	2589.552511
432.172624	2589.257603
432.549802	2588.536718
432.926920	2590.033941
433.303977	2593.048551
433.680974	2594.190372
434.057910	2591.321956
434.434786	2588.554362
434.811601	2592.675505
435.188355	2592.141143
435.565050	2591.571493
435.941683	2592.284816
436.318257	2591.200968
436.694770	2590.064188
437.071222	2591.563931
437.447614	2588.990422
437.823946	2590.724579
438.200218	2592.078129
438.576429	2593.792121
438.952580	2594.762543
439.328670	2594.835640
439.704700	2594.815475
440.080670	2594.402101
440.456580	2593.073757
440.832429	2596.327821
441.208218	2592.607450
441.583947	2596.763881
441.959616	2593.645927
442.335224	2594.901175
442.710773	2596.569797
443.086261	2595.657348
443.461689	2596.090887
443.837057	2594.462594
444.212365	2597.734303
444.587612	2594.906216
444.962800	2596.542070
445.337927	2597.938470
445.712995	2593.338417
446.088002	2599.254211
446.462949	2597.061309
446.837837	2598.384612
447.212664	2597.923347
447.587431	2600.685899
447.962139	2601.779829
448.336786	2606.717639
448.711374	2603.103132
449.085901	2602.294027
449.460369	2598.871083
449.834776	2604.638163
450.209124	2605.343925
450.583412	2606.271497
450.957640	2602.997268
451.331808	2604.975921
451.705917	2602.203286
452.079965	2601.628595
452.453954	2602.974583
452.827883	2602.772937
453.201752	2604.791919
453.575562	2603.385437
453.949311	2606.871395
454.323001	2607.168823
454.696632	2606.533637
455.070202	2607.758638
455.443713	2607.360387
455.817164	2603.927361
456.190556	2604.716301
456.563888	2607.282249
456.937160	2603.627412
457.310373	2607.698144
457.683526	2606.616816
458.056619	2607.332660
458.429653	2607.476333
458.802628	2609.941457
459.175542	2612.867847
459.548398	2610.793412
459.921194	2614.891870
460.293930	2615.564864
460.666607	2616.394134
461.039224	2616.641151
461.411782	2617.142746
461.784280	2619.068466
462.156719	2618.682818
462.529099	2617.435132
462.901419	2618.156017
463.273680	2616.973867
463.645882	2615.022940
464.018024	2618.304732
464.390106	2618.811367
464.762130	2622.330093
465.134094	2626.514251
465.505999	2632.054479
465.877845	2636.417597
466.249631	2639.638895
466.621358	2639.215438
466.993026	2639.449851
467.364634	2639.724594
467.736184	2634.854840
468.107674	2634.925416
468.479105	2632.979530
468.850477	2635.490025
469.221790	2632.646814
469.593043	2630.211937
469.964238	2632.482977
470.335373	2632.319139
470.706449	2635.343832
471.077467	2639.699388
471.448425	2646.041160
471.819324	2649.935451
472.190164	2651.553662
472.560945	2641.728453
472.931667	2644.022178
473.302330	2641.027732
473.672934	2641.095788
474.043479	2642.751807
474.413965	2645.100985
474.784393	2640.145531
475.154761	2647.561068
475.525070	2647.397230
475.895321	2648.052580
476.265513	2647.409833
476.635645	2650.184988
477.005719	2655.548776
477.375734	2657.086328
477.745691	2659.289312
478.115588	2664.287616
478.485427	2669.124603
478.855207	2677.901252
479.224928	2683.514577
479.594591	2688.769980
479.964194	2687.497089
480.333739	2692.593695
480.703226	2692.593695
481.072653	2698.464119
481.442022	2699.830272
481.811333	2701.471167
482.180584	2701.584593
482.549777	2704.064841
482.918912	2704.531147
483.287988	2708.808567
483.657005	2706.048535
484.025964	2709.214379
484.394864	2709.060624
484.763706	2712.160934
485.132489	2713.280070
485.501213	2713.519525
485.869879	2718.507747
486.238487	2717.411296
486.607036	2721.633262
486.975527	2722.364229
487.343959	2721.693756
487.712333	2727.279354
488.080648	2731.299674
488.448905	2737.462485
488.817104	2739.652866
489.185244	2746.917169
489.553326	2752.285998
489.921350	2768.929367
490.289315	2782.051491
490.657222	2791.846453
491.025070	2794.729993
491.392861	2795.188738
491.760593	2792.005249
492.128267	2788.746143
492.495883	2785.303035
492.863440	2786.207922
493.230939	2782.648867
493.598380	2783.430246
493.965763	2781.930503
494.333088	2782.084258
494.700354	2780.496295
495.067563	2783.780607
495.434713	2786.303704
495.801805	2793.459622
496.168839	2798.452885
496.535815	2798.596558
496.902733	2802.410191
497.269593	2803.546971
497.636395	2807.693320
498.003139	2812.492498
498.369825	2816.233034
498.736453	2821.576657
499.103023	2823.903150
499.469535	2825.334838
499.835989	2829.496310
500.202385	2835.200376
500.568723	2836.591734
500.935003	2843.064576
501.301226	2846.631192
501.667390	2856.259796
502.033497	2860.055785
502.399546	2866.349665
502.765537	2864.912937
503.131470	2873.190511
503.497345	2880.212838
503.863163	2877.150338
504.228923	2887.777090
504.594625	2899.033986
504.960269	2898.358472
505.325856	2910.694175
505.691385	2910.265677
506.056856	2918.732295
506.422270	2927.829057
506.787625	2936.320881
507.152924	2945.911676
507.518164	2955.187399
507.883347	2954.317800
508.248472	2964.894141
508.613540	2977.486943
508.978550	2991.655106
509.343503	3002.423011
509.708398	3010.786285
510.073236	3028.667258
510.438016	3039.107487
510.802738	3043.805843
511.167403	3061.888461
511.532010	3077.770617
511.896561	3097.741147
512.261053	3120.083541
512.625488	3125.427164
512.989866	3138.758496
513.354186	3154.592760
513.718449	3165.340500
514.082655	3191.849407
514.446803	3209.001933
514.810894	3236.307343
515.174927	3251.824015
515.538904	3270.846809
515.902822	3302.086839
516.266684	3314.475475
516.630488	3340.825586
516.994235	3361.222094
517.357925	3394.992784
517.721558	3423.399686
518.085133	3457.061991
518.448651	3487.934017
518.812112	3507.589476
519.175516	3538.088457
519.538863	3573.762182
519.902152	3605.100515
520.265385	3649.059376
520.628560	3681.113553
520.991678	3708.734035
521.354739	3750.081579
521.717743	3796.182931
522.080690	3829.242817
522.443580	3883.014285
522.806413	3923.668670
523.169189	3967.514106
523.531908	4013.766692
523.894569	4051.497208
524.257174	4106.387812
524.619722	4162.367305
524.982213	4207.722566
525.344647	4256.316768
525.707025	4310.105880
526.069345	4379.141961
526.431608	4429.119961
526.793815	4496.701669
527.155964	4538.051733
527.518057	4600.534315
527.880093	4649.995596
528.242072	4735.675047
528.603995	4782.905617
528.965860	4846.724104
529.327669	4916.120628
529.689421	4975.628928
530.051117	5041.426068
530.412755	5116.829127
530.774337	5192.161610
531.135862	5251.700157
531.497331	5334.392724
531.858743	5402.639865
532.220098	5504.612325
532.581396	5555.580911
532.942638	5608.994457
533.303824	5716.083688
533.664953	5799.512263
534.026025	5858.934864
534.387040	5972.136494
534.747999	6060.170164
535.108902	6158.029042
535.469748	6203.578388
535.830537	6299.105733
536.191270	6406.565489
536.551947	6471.533359
536.912567	6592.178253
537.273131	6692.955959
537.633638	6745.446974
537.994089	6866.109512
538.354483	6925.169150
538.714821	7078.551297
539.075103	7221.384829
539.435328	7298.746376
539.795497	7395.675162
540.155609	7499.117118
540.515665	7662.672313
540.875665	7706.074127
541.235609	7848.864810
541.595496	7957.587375
541.955328	8152.624576
542.315102	8188.111779
542.674821	8277.630068
543.034483	8392.586020
543.394090	8507.322681
543.753640	8616.471224
544.113134	8876.123414
544.472571	8853.292029
544.831953	9160.119337
545.191278	9175.799846
545.550548	9251.885981
545.909761	9450.121794
546.268918	9617.510787
546.628019	9796.161718
546.987064	9856.418630
547.346053	9866.831133
547.704986	10145.579214
548.063863	10208.613802
548.422684	10376.690912
548.781449	10484.334670
549.140158	10695.284274
549.498811	10808.836264
549.857408	10848.920999
550.215949	11153.701599
550.574434	11289.296034
550.932864	11383.593337
551.291237	11681.891013
551.649555	11755.345666
552.007817	11957.914351
552.366022	12042.968699
552.724173	12234.653533
553.082267	12480.762663
553.440305	12731.000499
553.798288	12726.387843
554.156215	12975.294815
554.514086	13192.142568
554.871902	13297.762303
555.229661	13472.408037
555.587365	13599.540895
555.945014	13794.240339
556.302606	13942.210808
556.660143	14182.625955
557.017625	14377.509401
557.375050	14492.190610
557.732421	14770.706798
558.089735	14942.297593
558.446994	15103.985041
558.804197	15415.114974
559.161345	15581.941878
559.518437	15540.435538
559.875474	15806.651311
560.232455	16062.431895
560.589381	16297.455528
560.946251	16388.856689
561.303065	16808.053837
561.659825	16927.287208
562.016528	17007.663365
562.373177	17109.240094
562.729770	17472.487996
563.086307	17508.396135
563.442789	17877.859780
563.799216	18101.513091
564.155587	18227.000013
564.511904	18446.398590
564.868164	18672.874947
565.224370	18965.556778
565.580520	19077.278829
565.936615	19366.583087
566.292654	19449.063925
566.648638	19762.898438
567.004567	19965.502411
567.360441	20189.007008
567.716260	20339.361942
568.072023	20678.548416
568.427732	20885.288656
568.783385	20899.063609
569.138982	21277.656783
569.494525	21462.168055
569.850013	21576.188873
570.205445	21782.737549
570.560823	21968.577165
570.916145	22130.357874
571.271412	22356.146114
571.626625	22465.055202
571.981782	22687.544006
572.336884	22759.007403
572.691931	23124.546509
573.046923	23147.750941
573.401860	23284.353607
573.756743	23485.127641
574.111570	23762.441514
574.466342	23894.391196
574.821059	24157.078161
575.175722	24134.067814
575.530330	24352.364899
575.884882	24405.259206
576.239380	24600.505615
576.593823	24798.169257
576.948211	24976.197605
577.302544	24926.897641
577.656823	25127.417097
578.011047	25472.085827
578.365216	25530.011205
578.719330	25608.824604
579.073389	25744.419040
579.427394	25992.123696
579.781344	26174.671438
580.135239	26190.057040
580.489080	26432.904544
580.842866	26319.355074
581.196597	26796.578424
581.550273	26976.325805
581.903895	27090.402076
582.257463	27547.417960
582.610975	27375.007978
582.964434	27750.526048
583.317837	27729.461587
583.671186	27813.129617
584.024481	28172.064812
584.377721	28056.007368
584.730906	28434.005687
585.084037	28665.404731
585.437113	28668.305915
585.790135	28867.703714
586.143103	28805.672316
586.496016	29070.128726
586.848874	29278.174625
587.201679	29472.259048
587.554428	29309.850715
587.907124	29633.323913
588.259765	29647.108948
588.612352	30001.577681
588.964884	29751.211296
589.317362	30131.909152
589.669786	30267.342271
590.022155	30286.465888
590.374470	30757.513824
590.726731	30603.751070
591.078937	30422.836661
591.431090	30676.142039
591.783188	30591.271693
592.135232	30531.536541
592.487222	30879.338347
592.839157	31100.040063
593.191038	31018.774142
593.542866	30993.475112
593.894639	30722.104759
594.246358	31072.137276
594.598022	31227.215772
594.949633	31071.973439
595.301190	31199.756607
595.652692	31225.421121
596.004141	31624.315022
596.355535	31019.333710
596.706876	31118.911622
597.058162	31141.770734
597.409395	31656.071770
597.760573	31863.676568
598.111698	31678.688907
598.462768	31829.167349
598.813785	31979.665956
599.164748	31680.055060
599.515657	32110.816615
599.866511	31842.576819
600.217312	32464.675368
600.568060	31761.336104
600.918753	32488.038595
601.269392	32590.575665
601.619978	32421.843204
601.970510	32705.430793
602.320988	32988.713393
602.671412	33355.921121
603.021783	33269.934160
603.372100	33104.319653
603.722363	33303.588903
604.072572	33468.790035
604.422728	33601.306846
604.772830	33546.000347
605.122878	33759.568830
605.472872	33796.424706
605.822813	34134.575223
606.172701	34086.611165
606.522534	34411.508489
606.872314	34730.328703
607.222041	34617.174963
607.571714	35056.209052
607.921333	34671.064898
608.270899	35022.642529
608.620411	35433.052946
608.969870	35329.558058
609.319276	35430.393737
609.668627	35556.450310
610.017926	36065.213638
610.367171	36299.602086
610.716362	36446.932328
611.065500	36487.712742
611.414585	36729.806594
611.763616	37069.441731
612.112594	37093.722449
612.461518	37375.994297
612.810389	37714.066677
613.159207	37691.053809
613.507971	37845.867644
613.856682	38325.969492
614.205340	38305.502407
614.553945	39017.356180
614.902496	38587.570089
615.250994	39092.839897
615.599439	39210.623937
615.947830	39468.027772
616.296169	39597.323286
616.644454	39766.338051
616.992686	39984.529272
617.340864	40515.677844
617.688990	40329.855872
618.037063	40934.938007
618.385082	40954.064144
618.733048	41285.784670
619.080961	41361.666639
619.428821	41424.313057
619.776628	41594.058790
620.124382	41491.758655
620.472083	41659.624037
620.819731	41838.562313
621.167326	41602.532969
621.514868	41638.637713
621.862357	41282.197889
622.209793	41358.452903
622.557176	41107.413524
622.904506	40911.378174
623.251783	40659.254947
623.599007	40476.820630
623.946179	40341.682419
624.293297	40348.107370
624.640363	39824.661681
624.987376	39858.122339
625.334336	39666.739975
625.681243	39385.708251
626.028097	39387.132377
626.374899	39278.140110
626.721647	39302.352772
627.068343	39247.746993
627.414987	39056.352026
627.761577	38871.807987
628.108115	39239.746682
628.454600	38728.263651
628.801032	38945.393709
629.147412	38936.576731
629.493739	38962.793252
629.840014	38649.480499
630.186236	39021.603353
630.532405	38645.417329
630.878521	38880.766117
631.224585	38781.843555
631.570597	38534.186790
631.916556	38709.329078
632.262462	38694.314001
632.608316	38738.930733
632.954117	38649.629213
633.299866	38663.981378
633.645562	38617.633010
633.991206	38173.046090
634.336797	37769.126159
634.682336	37795.730848
635.027823	37588.867100
635.373257	37432.740045
635.718639	37232.762513
636.063968	37138.865982
636.409245	36596.074865
636.754470	36666.943405
637.099642	36457.291899
637.444762	36006.343044
637.789829	36173.396800
638.134845	35852.217327
638.479808	35824.674983
638.824719	35758.540085
639.169577	35400.557668
639.514383	35467.383204
639.859137	35180.786046
640.203839	35447.652127
640.548489	35112.556549
640.893086	35192.501687
641.237632	34952.923371
641.582125	35091.938230
641.926566	35042.209768
642.270955	35023.953229
642.615292	35049.615223
642.959576	35031.356163
643.303809	35048.538936
643.647990	35217.089915
643.992118	35188.861974
644.336195	35206.279161
644.680219	35295.865506
645.024192	35615.870390
645.368112	36140.755329
645.711981	36131.346015
646.055797	37007.609459
646.399562	36934.185053
646.743274	37894.698781
647.086935	38319.479007
647.430544	38224.314625
647.774101	38334.380657
648.117606	38584.673946
648.461059	38888.867251
648.804460	38500.325360
649.147810	37912.491533
649.491108	37665.031373
649.834354	37307.265726
650.177548	36509.974478
650.520690	36067.600625
650.863781	36104.385924
651.206820	35969.320810
651.549807	35534.483482
651.892742	35070.679684
652.235626	34899.345988
652.578458	34755.854585
652.921238	34178.571894
653.263967	34491.559492
653.606644	34192.435067
653.949269	34152.050383
654.291843	33731.668564
654.634365	34143.064527
654.976836	33764.184006
655.319255	33768.277423
655.661622	33763.803399
656.003938	33569.177052
656.346203	33456.509784
656.688416	33667.895447
657.030577	33459.690752
657.372687	33305.108811
657.714746	33583.902263
658.056753	33707.886921
658.398708	33167.424817
658.740612	33225.362798
659.082465	33517.785009
659.424266	33344.084492
659.766016	33476.916375
660.107715	33345.122969
660.449362	33465.296515
660.790958	33446.752631
661.132503	33471.023266
661.473996	33498.633666
661.815438	33634.021414
662.156829	33828.332689
662.498168	33601.957155
662.839456	33632.204078
663.180693	33786.392810
663.521879	33930.836991
663.863013	33923.474386
664.204097	33894.132350
664.545129	34357.976477
664.886110	34325.680325
665.227040	34400.115482
665.567918	34523.767424
665.908746	34578.907565
666.249522	34741.613326
666.590248	34759.285090
666.930922	34864.738467
667.271545	34820.540151
667.612118	34887.821911
667.952639	34670.386863
668.293109	34751.504069
668.633528	34643.583048
668.973896	34565.926593
669.314213	34611.160867
669.654480	34355.894480
669.994695	34384.208121
670.334859	34274.741986
670.674973	34172.325904
671.015035	34334.487220
671.355047	34281.335815
671.695008	34224.242227
672.034918	34123.986280
672.374777	34217.751741
672.714585	34044.235226
673.054342	34277.882624
673.394049	34034.301632
673.733705	34314.221782
674.073310	33975.667972
674.412864	34044.431831
674.752368	33677.491284
675.091820	33963.380159
675.431223	33537.067423
675.770574	33252.229627
676.109875	33122.407313
676.449125	32840.231247
676.788324	32766.322891
677.127473	32227.471435
677.466571	32163.050530
677.805619	31812.919711
678.144616	31817.287870
678.483562	31743.248444
678.822458	31413.778793
679.161303	31346.068535
679.500098	31255.756264
679.838842	31147.600829
680.177535	31305.562864
680.516179	31602.907762
680.854771	31854.937728
681.193314	32722.626169
681.531805	33862.854511
681.870247	34601.005462
682.208638	35318.512889
682.546978	35515.052354
682.885268	35598.261640
683.223508	35076.671095
683.561697	34742.908902
683.899836	34552.146599
684.237925	34037.643917
684.575963	33900.569903
684.913951	33427.676905
685.251889	33584.676080
685.589776	33584.817232
685.927614	33569.290478
686.265401	33723.703541
686.603137	33823.755321
686.940824	34322.879964
687.278460	34703.555135
687.616046	34814.727700
687.953582	35417.667344
688.291068	35266.745281
688.628504	35547.963527
688.965889	35450.828054
689.303224	35074.276547
689.640510	34741.651134
689.977745	33985.946885
690.314930	33178.923689
690.652065	32665.938394
690.989150	31938.441921
691.326185	31037.975897
691.663170	30344.585350
692.000105	29592.084754
692.336990	28906.893644
692.673825	28449.272821
693.010610	27946.090050
693.347345	27372.258028
693.684030	26706.417387
694.020665	26418.012976
694.357251	25752.328610
694.693786	25706.459151
695.030272	25471.616999
695.366707	24932.851244
695.703093	24634.513239
696.039429	24636.990966
696.375716	24372.461459
696.711952	24341.400389
697.048139	24163.092257
697.384276	23998.949768
697.720363	24134.403051
698.056400	23917.323404
698.392388	23694.748900
698.728326	23663.453417
699.064214	23455.508342
699.400053	23392.539289
699.735842	23029.281305
700.071581	22743.226071
700.407270	22463.106796
700.742910	22264.092124
701.078501	22005.531343
701.414042	21714.480326
701.749533	21419.837487
702.084974	21062.797765
702.420366	21279.002772
702.755709	20846.353304
703.091002	20537.706140
703.426246	20555.025024
703.761440	20461.151177
704.096584	20186.499033
704.431679	20141.279883
704.766725	20046.009637
705.101721	19985.455297
705.436668	20076.957281
705.771565	19752.347302
706.106413	20102.906620
706.441212	20098.172977
706.775961	20229.744572
707.110661	20305.319030
707.445311	20653.398100
707.779913	20486.921556
708.114465	20735.669731
708.448967	21026.786283
708.783421	21714.432435
709.117825	21984.474444
709.452180	22203.658772
709.786485	22607.520730
710.120742	23399.385176
710.454949	23407.670312
710.789107	23867.073183
711.123216	24571.498816
711.457275	24676.780793
711.791286	25213.666198
712.125247	25272.420846
712.459159	24960.670851
712.793023	25619.232066
713.126837	24501.368804
713.460602	24775.121102
713.794318	24385.681885
714.127985	23998.906918
714.461602	23103.734106
714.795171	23057.166447
715.128691	22047.398126
715.462162	21508.014829
715.795584	21100.596337
716.128957	20834.776295
716.462281	20421.895712
716.795556	20198.945642
717.128782	19688.833805
717.461960	19147.839860
717.795088	19070.576615
718.128167	18669.872940
718.461198	18199.558492
718.794180	18061.682934
719.127113	17688.738373
719.459997	17500.602511
719.792833	17134.612221
720.125619	17107.508458
720.458357	16792.963143
720.791046	16626.738657
721.123686	16455.399920
721.456278	16225.130094
721.788821	16189.284970
722.121315	15920.674649
722.453761	16002.802607
722.786158	15922.814619
723.118506	15934.807524
723.450805	15784.525686
723.783056	15947.571725
724.115259	15843.610530
724.447412	15780.240706
724.779518	16010.835685
725.111574	16038.493976
725.443582	16248.947026
725.775542	16226.682770
726.107453	16685.510949
726.439315	16586.338850
726.771129	16977.209754
727.102895	17346.547370
727.434612	17550.192342
727.766281	17667.401689
728.097901	17922.766378
728.429473	17957.149568
728.760996	17945.123896
729.092471	18021.366306
729.423897	17899.090599
729.755276	17779.184234
730.086606	17908.099141
730.417887	18428.469726
730.749120	18941.137428
731.080305	19100.730277
731.411442	19432.975083
731.742530	19494.232664
732.073570	19592.421738
732.404562	19882.227590
732.735506	19685.110913
733.066401	19377.610611
733.397249	18846.499847
733.728048	18209.144246
734.058798	17384.913072
734.389501	16694.496805
734.720156	16252.372490
735.050762	15721.975049
735.381320	15374.102667
735.711831	15133.130472
736.042293	14788.683553
736.372707	14806.841789
736.703073	14595.743472
737.033391	14785.552996
737.363661	14747.111678
737.693883	14852.733933
738.024056	15012.382234
738.354182	15192.283371
738.684260	15473.846937
739.014290	15692.340627
739.344272	15867.528284
739.674207	16141.754451
740.004093	16254.711585
740.333931	16237.533853
740.663722	16288.021009
740.993464	16267.488389
741.323159	16093.692090
741.652806	15814.079451
741.982405	15602.706391
742.311956	15270.242294
742.641460	15147.003727
742.970915	14853.134705
743.300323	14504.496066
743.629683	14298.527123
743.958996	14033.065003
744.288260	13761.185493
744.617477	13459.676603
744.946647	13397.574628
745.275768	13117.604067
745.604842	12940.457921
745.933869	12765.292948
746.262847	12721.238305
746.591778	12638.482723
746.920662	12541.059905
747.249498	12538.070500
747.578286	12661.130107
747.907027	12807.507571
748.235720	13028.773895
748.564365	13040.101368
748.892963	12937.619751
749.221514	12998.438752
749.550017	12848.361081
749.878473	12806.038074
750.206881	12586.185793
750.535242	12488.631905
750.863555	12411.930749
751.191821	12304.912094
751.520039	12321.807521
751.848210	12238.255437
752.176334	12270.196188
752.504411	12173.189264
752.832440	12006.979902
753.160421	12068.416443
753.488356	11952.847992
753.816243	11866.407327
754.144082	11715.996940
754.471875	11657.958136
754.799620	11602.026534
755.127318	11577.299674
755.454969	11536.804085
755.782572	11487.511683
756.110129	11493.659370
756.437638	11407.700135
756.765100	11403.584033
757.092515	11406.984291
757.419882	11424.567836
757.747203	11427.451376
758.074477	11498.781182
758.401703	11453.529265
758.728882	11618.551436
759.056014	11653.063175
759.383099	11763.172058
759.710138	11872.814633
760.037129	11946.922115
760.364073	11956.550719
760.690970	11951.146602
761.017820	11952.444699
761.344623	12143.335551
761.671379	12481.465904
761.998088	13155.780725
762.324751	14778.011430
762.651366	17694.752469
762.977935	21290.673043
763.304456	23349.543288
763.630931	23708.223905
763.957359	22492.411023
764.283740	20593.877196
764.610074	18723.626763
764.936362	16630.380890
765.262602	15138.390916
765.588796	13694.173435
765.914943	12679.137108
766.241044	11850.499966
766.567097	11220.428832
766.893104	10685.852275
767.219064	10334.123409
767.544978	9962.237490
767.870845	9647.732504
768.196665	9468.428744
768.522438	9268.589844
768.848165	9108.573539
769.173846	8942.217982
769.499479	8817.081421
769.825066	8667.328904
770.150607	8476.173392
770.476101	8423.009383
770.801548	8309.606107
771.126949	8172.317844
771.452303	8085.577230
771.777611	7919.566993
772.102872	7897.935402
772.428087	7784.141436
772.753256	7659.740882
773.078378	7571.185453
773.403453	7427.247908
773.728482	7321.424007
774.053465	7257.081239
774.378401	7175.848086
774.703291	7075.304793
775.028135	6985.577296
775.352932	6945.800072
775.677683	6860.879315
776.002388	6777.284381
776.327046	6777.720441
776.651658	6689.951432
776.976224	6614.934021
777.300743	6595.593635
777.625216	6537.025509
777.949643	6487.382747
778.274024	6496.298027
778.598359	6428.461741
778.922647	6434.175888
779.246889	6390.985803
779.571086	6396.750362
779.895236	6410.336272
780.219339	6398.371093
780.543397	6398.968470
780.867409	6448.870852
781.191374	6449.082580
781.515294	6410.459780
781.839167	6460.112625
782.162995	6434.637154
782.486776	6383.134206
782.810511	6341.716086
783.134201	6270.688749
783.457844	6260.561071
783.781441	6213.305294
784.104993	6163.274363
784.428498	6138.134129
784.751958	6124.308764
785.075372	6098.077120
785.398739	6054.370317
785.722061	6079.750006
786.045337	6082.467188
786.368568	6198.111257
786.691752	6218.976593
787.014891	6475.432692
787.337983	6758.513645
787.661030	7188.221598
787.984031	7604.010927
788.306987	7849.467228
788.629897	7921.621263
788.952760	7830.026018
789.275579	7655.211406
789.598351	7353.699994
789.921078	7093.513441
790.243759	6817.883313
790.566395	6617.903261
790.888984	6435.105981
791.211529	6296.277646
791.534027	6138.746629
791.856480	5997.969887
792.178888	5945.365447
792.501249	5879.255755
792.823566	5776.738851
793.145836	5772.859683
793.468062	5748.425210
793.790241	5711.254262
794.112375	5756.975007
794.434464	5854.042424
794.756507	5887.510645
795.078505	6005.869375
795.400457	6221.229988
795.722364	6455.971317
796.044226	6637.994780
796.366042	6794.154602
796.687812	6733.443987
797.009538	6762.788543
797.331218	6670.210273
797.652852	6603.805674
797.974442	6477.053422
798.295986	6407.072125
798.617484	6280.208968
798.938938	6178.274316
799.260346	6111.710921
799.581709	5974.137833
799.903026	5922.261839
800.224299	5854.208783
800.545526	5739.124281
800.866708	5675.194889
801.187845	5622.756807
801.508936	5545.899375
801.829983	5519.012381
802.150984	5417.186114
802.471940	5387.960025
802.792851	5372.806317
803.113717	5348.225650
803.434538	5323.662628
803.755314	5293.718174
804.076045	5280.916164
804.396731	5246.633797
804.717372	5265.338999
805.037967	5264.666005
805.358518	5291.432011
805.679024	5345.200958
805.999485	5354.118759
806.319901	5372.347572
806.640272	5389.056476
806.960598	5437.194454
807.280879	5429.095840
807.601115	5461.142455
807.921306	5427.492753
808.241453	5418.758954
808.561554	5429.007620
808.881611	5400.278084
809.201623	5393.654008
809.521590	5345.604250
809.841513	5329.802754
810.161390	5347.058623
810.481223	5255.511269
810.801011	5246.386781
811.120755	5222.801743
811.440453	5170.197302
811.760107	5143.365761
812.079716	5115.503304
812.399281	5064.391045
812.718801	5057.225045
813.038276	5027.051218
813.357707	4993.872864
813.677093	5013.858519
813.996434	4950.556750
814.315731	4972.533660
814.634983	4973.005008
814.954191	4980.980113
815.273354	5037.677971
815.592473	5077.805555
815.911547	5151.245084
816.230577	5204.104103
816.549562	5289.644922
816.868502	5339.383467
817.187399	5397.825563
817.506250	5477.377491
817.825058	5509.295557
818.143821	5658.843906
818.462539	5825.464123
818.781213	6063.409105
819.099843	6430.916782
819.418429	7059.296609
819.736970	7670.733118
820.055466	8368.421249
820.373919	9292.840315
820.692327	10786.524117
821.010691	13602.147172
821.329011	19953.244845
821.647286	29385.581448
821.965517	39233.329293
822.283704	44065.827261
822.601847	45131.464170
822.919945	40560.942365
823.237999	35618.990864
823.556010	30618.178852
823.873976	26111.969567
824.191897	22075.384092
824.509775	19132.973497
824.827609	16489.059704
825.145398	15022.726682
825.463144	14352.457387
825.780845	14712.380648
826.098502	16021.976635
826.416116	18426.259180
826.733685	20552.701052
827.051210	20883.289839
827.368692	19374.475013
827.686129	16872.973816
828.003522	14499.129758
828.320872	12376.554452
828.638177	10806.910543
828.955439	9604.910423
829.272656	8579.995955
829.589830	7763.316429
829.906960	7058.053965
830.224046	6545.247631
830.541088	6153.766747
830.858086	5904.842132
831.175041	5712.285178
831.491952	5664.492519
831.808819	5707.778387
832.125642	5961.983611
832.442421	6538.074069
832.759157	7673.341915
833.075849	9425.553731
833.392497	11189.753410
833.709101	12189.628467
834.025662	11847.349244
834.342179	10793.059973
834.658653	9530.843270
834.975083	8470.668452
835.291469	7607.174251
835.607811	6902.173926
835.924110	6397.350260
836.240366	5918.173463
836.556578	5482.882431
836.872746	5140.988857
837.188871	4880.701481
837.504952	4664.630065
837.820990	4505.201054
838.136984	4394.890526
838.452935	4353.716902
838.768842	4395.432450
839.084706	4700.190365
839.400526	5454.619202
839.716303	6323.419218
840.032037	6823.811710
840.347727	6633.079655
840.663373	6036.602770
840.978977	5487.356455
841.294537	5067.463628
841.610054	4746.145523
841.925527	4518.764279
842.240957	4317.977642
842.556344	4139.457781
842.871687	3985.014471
843.186987	3837.802697
843.502244	3722.201477
843.817458	3642.379847
844.132629	3574.780495
844.447756	3522.251672
844.762840	3479.109477
845.077881	3442.266204
845.392879	3410.869898
845.707833	3381.235475
846.022745	3357.763863
846.337613	3345.748273
846.652438	3323.000066
846.967221	3314.493119
847.281960	3293.839512
847.596656	3283.409364
847.911309	3273.599279
848.225919	3261.707197
848.540485	3251.713109
848.855009	3243.276738
849.169490	3234.200141
849.483928	3229.348030
849.798323	3221.375446
850.112675	3212.061914
850.426984	3210.973025
850.741251	3205.561346
851.055474	3203.350800
851.369654	3204.245605
851.683792	3198.473484
851.997887	3200.253011
852.311938	3203.388609
852.625947	3202.216540
852.939914	3196.083977
853.253837	3203.002960
853.567718	3199.368288
853.881555	3193.109696
854.195350	3199.524564
854.509103	3194.586754
854.822812	3190.526105
855.136479	3188.176927
855.450103	3195.121116
855.763685	3188.050898
856.077224	3189.762370
856.390720	3196.078936
856.704173	3207.028322
857.017584	3214.509394
857.330953	3218.524673
857.644278	3222.804613
857.957561	3227.991960
858.270802	3224.511043
858.584000	3222.159345
858.897155	3216.006617
859.210268	3207.303065
859.523339	3197.213195
859.836367	3193.858307
860.149352	3187.755991
860.462295	3185.968902
860.775195	3173.476922
861.088054	3173.915503
861.400869	3172.385512
861.713642	3172.163702
862.026373	3176.108405
862.339062	3182.026719
862.651708	3188.933100
862.964312	3206.947663
863.276873	3216.321689
863.589392	3246.601379
863.901869	3270.937550
864.214303	3293.509316
864.526696	3310.568581
864.839045	3324.325889
865.151353	3336.737210
865.463619	3338.393229
865.775842	3336.001202
866.088023	3342.474043
866.400162	3338.481449
866.712258	3336.162519
867.024313	3338.788960
867.336325	3337.135461
867.648296	3334.017508
867.960224	3333.374761
868.272110	3338.420956
868.583954	3338.078157
868.895755	3344.135103
869.207515	3340.896162
869.519233	3361.262424
869.830909	3366.545553
870.142542	3376.479147
870.454134	3383.317472
870.765684	3397.271386
871.077191	3415.096906
871.388657	3427.046961
871.700081	3447.183850
872.011463	3465.142960
872.322803	3483.959067
872.634101	3498.041530
872.945357	3518.730426
873.256571	3545.440979
873.567744	3561.555028
873.878874	3566.903692
874.189963	3579.294848
874.501010	3581.737287
874.812015	3578.790733
875.122979	3596.308742
875.433900	3593.679781
875.744780	3593.952003
876.055618	3603.971296
876.366415	3598.799072
876.677169	3605.108076
876.987882	3622.641209
877.298554	3644.713902
877.609183	3680.853933
877.919771	3727.945872
878.230317	3795.023465
878.540822	3904.403901
878.851285	4054.375707
879.161707	4272.692957
879.472087	4654.590607
879.782425	5291.043842
880.092722	6483.165822
880.402977	8389.069815
880.713191	10677.239463
881.023363	12902.598856
881.333494	14084.371346
881.643583	14447.906594
881.953631	14013.953988
882.263637	13199.429556
882.573602	12222.133827
882.883526	11316.099849
883.193408	10412.228526
883.503248	9546.866578
883.813048	8756.204447
884.122806	8018.741612
884.432522	7285.367154
884.742197	6659.283572
885.051831	6120.507734
885.361424	5650.135313
885.670975	5274.781080
885.980485	4970.814627
886.289954	4712.377354
886.599382	4504.001260
886.908768	4331.155218
887.218113	4176.190149
887.527417	4047.103843
887.836680	3931.376594
888.145901	3834.314218
888.455082	3760.282353
888.764221	3693.514791
889.073319	3637.336173
889.382376	3608.510855
889.691392	3581.991865
890.000366	3577.553129
890.309300	3572.673292
890.618193	3576.166812
890.927044	3569.628436
891.235855	3578.072368
891.544625	3592.681632
891.853353	3621.975777
892.162041	3679.475178
892.470687	3775.884725
892.779293	3894.026686
893.087858	4068.117892
893.396381	4344.594934
893.704864	4759.703706
894.013306	5310.931194
894.321707	5848.381209
894.630068	6166.213356
894.938387	6174.314490
895.246665	5987.257435
895.554903	5685.539337
895.863100	5363.132342
896.171256	5106.272951
896.479371	4879.355493
896.787446	4667.301877
897.095480	4483.672807
897.403473	4341.434131
897.711425	4196.629507
898.019336	4084.882250
898.327207	3967.050320
898.635038	3867.144733
898.942827	3765.701594
899.250576	3683.583718
899.558284	3600.069443
899.865952	3546.764282
900.173579	3487.770179
900.481165	3444.716205
900.788711	3403.628281
901.096216	3374.790360
901.403681	3346.305320
901.711105	3336.865760
902.018489	3332.164884
902.325832	3371.231305
902.633135	3432.173814
902.940397	3608.596555
903.247619	4025.661295
903.554800	4774.108803
903.861941	5686.958421
904.169041	6323.109187
904.476101	6482.056768
904.783121	6197.861720
905.090100	5808.243542
905.397039	5419.159726
905.703938	5084.205300
906.010796	4782.146923
906.317614	4540.053072
906.624391	4310.705777
906.931129	4125.786172
907.237826	3953.015747
907.544483	3793.758136
907.851099	3622.268164
908.157675	3473.397850
908.464211	3336.157478
908.770707	3242.976790
909.077163	3167.097342
909.383578	3110.734722
909.689954	3069.760223
909.996289	3040.478681
910.302584	3018.688293
910.608839	3009.276459
910.915054	2996.711383
911.221229	2993.820282
911.527363	2998.914368
911.833458	3004.409225
912.139513	3019.076462
912.445527	3030.716487
912.751502	3064.613205
913.057436	3107.089967
913.363331	3162.209943
913.669186	3253.104468
913.975000	3368.191490
914.280775	3555.684604
914.586510	3823.369873
914.892205	4189.866799
915.197859	4670.235828
915.503475	5220.296289
915.809050	5679.555487
916.114585	5935.416730
916.420081	5981.623946
916.725536	5912.159367
917.030952	5687.081930
917.336328	5486.554912
917.641665	5287.167195
917.946961	5076.386470
918.252218	4878.871542
918.557435	4667.377494
918.862612	4475.778360
919.167750	4312.427331
919.472848	4129.932521
919.777906	3968.613077
920.082925	3824.975481
920.387904	3677.035259
920.692843	3573.013570
920.997743	3477.113180
921.302603	3385.835528
921.607423	3326.977536
921.912204	3265.167949
922.216946	3215.341184
922.521647	3169.864936
922.826310	3131.451343
923.130932	3097.806682
923.435516	3058.951989
923.740059	3032.624563
924.044564	3003.642970
924.349028	2978.958960
924.653454	2951.358643
924.957840	2924.426278
925.262186	2905.050603
925.566493	2885.349774
925.870761	2860.668285
926.174989	2851.541276
926.479178	2838.310768
926.783328	2820.432316
927.087438	2811.391006
927.391509	2799.987916
927.695541	2788.330248
927.999533	2779.311624
928.303486	2766.466764
928.607400	2765.501383
928.911275	2759.666247
929.215110	2751.386152
929.518906	2749.722571
929.822663	2749.122674
930.126381	2749.740215
930.430060	2753.342120
930.733699	2755.958478
931.037299	2756.870927
931.340861	2753.596698
931.644383	2761.085332
931.947866	2758.242121
932.251309	2753.453025
932.554714	2755.315731
932.858080	2753.894126
933.161407	2749.722571
933.464694	2745.767786
933.767943	2740.797208
934.071153	2739.156313
934.374323	2733.641290
934.677455	2732.242370
934.980548	2729.817575
935.283602	2730.442678
935.586617	2727.949828
935.889593	2729.404201
936.192530	2730.621639
936.495428	2736.582804
936.798287	2745.011613
937.101108	2759.083994
937.403890	2776.501180
937.706632	2804.396405
938.009336	2835.323884
938.312002	2862.951928
938.614628	2884.497819
938.917216	2902.653535
939.219765	2913.325658
939.522275	2922.818150
939.824747	2918.923859
940.127179	2915.742891
940.429573	2909.633012
940.731929	2907.445152
941.034246	2899.028945
941.336524	2896.500807
941.638763	2890.867317
941.940964	2887.046123
942.243126	2867.057948
942.545250	2859.791124
942.847335	2846.490040
943.149381	2831.548060
943.451389	2822.910043
943.753359	2809.576191
944.055290	2800.101342
944.357182	2791.483490
944.659036	2788.859569
944.960851	2784.204063
945.262628	2779.079731
945.564367	2780.962602
945.866067	2779.326747
946.167729	2780.219031
946.469352	2774.633433
946.770937	2776.130656
947.072484	2768.775612
947.373992	2767.401898
947.675462	2764.112545
947.976893	2759.744385
948.278286	2756.913777
948.579641	2752.651482
948.880958	2748.903384
949.182236	2750.743405
949.483476	2748.694176
949.784678	2747.161665
950.085841	2747.852303
950.386967	2750.859351
950.688054	2759.215064
950.989103	2765.420724
951.290114	2772.823659
951.591087	2781.348250
951.892021	2794.606484
952.192917	2806.518731
952.493776	2811.272539
952.794596	2821.705207
953.095378	2821.042295
953.396122	2817.853765
953.696828	2818.347798
953.997496	2812.074082
954.298126	2802.327012
954.598718	2792.751340
954.899272	2784.660288
955.199788	2773.216869
955.500266	2762.443923
955.800706	2746.551685
956.101108	2730.505693
956.401472	2720.204095
956.701798	2707.782692
957.002087	2696.424972
957.302337	2688.825433
957.602550	2679.106088
957.902724	2669.023780
958.202861	2659.659837
958.502960	2654.089362
958.803022	2646.716675
959.103045	2640.274080
959.403031	2630.738737
959.702979	2631.482308
960.002889	2625.092645
960.302762	2622.609877
960.602596	2616.787344
960.902393	2612.381376
961.202153	2612.252826
961.501875	2609.417177
961.801559	2606.631940
962.101205	2604.179418
962.400814	2601.989037
962.700385	2598.545929
962.999918	2598.482915
963.299414	2598.021649
963.598873	2596.842019
963.898293	2591.321956
964.197677	2592.839343
964.497022	2592.289857
964.796331	2593.590475
965.095601	2587.359609
965.394835	2588.667788
965.694030	2589.713828
965.993189	2589.126533
966.292309	2587.679722
966.591393	2589.033272
966.890439	2587.036975
967.189447	2585.159145
967.488419	2588.055288
967.787353	2586.114444
968.086249	2585.990935
968.385108	2589.623087
968.683930	2589.255082
968.982714	2590.112079
969.281462	2588.798858
969.580172	2591.652151
969.878844	2593.582913
970.177480	2598.669437
970.476078	2602.437700
970.774639	2603.599686
971.073162	2606.851230
971.371649	2603.362752
971.670098	2605.908534
971.968510	2607.831734
972.266885	2606.241250
972.565223	2612.076386
972.863524	2611.393310
973.161788	2613.687035
973.460014	2615.700976
973.758204	2616.283229
974.056356	2617.427571
974.354471	2619.791872
974.652550	2618.546707
974.950591	2616.893208
975.248595	2616.106788
975.546563	2618.675256
975.844493	2615.181737
976.142386	2611.138731
976.440243	2607.836776
976.738062	2609.397013
977.035845	2607.040273
977.333590	2604.209665
977.631299	2603.438369
977.928971	2599.503748
978.226606	2597.913264
978.524204	2597.472163
978.821765	2595.538881
979.119290	2597.275558
979.416777	2596.907554
979.714228	2596.910075
980.011642	2596.637852
980.309020	2600.822010
980.606360	2603.024994
980.903664	2613.084617
981.200931	2626.410907
981.498162	2642.194760
981.795356	2669.805159
982.092513	2706.295551
982.389633	2746.639906
982.686717	2785.890329
982.983764	2811.184319
983.280775	2826.668223
983.577749	2829.665189
983.874686	2818.345278
984.171587	2802.231230
984.468451	2788.448715
984.765279	2773.002620
985.062070	2755.628283
985.358824	2738.458113
985.655543	2716.740822
985.952224	2696.800538
986.248869	2673.328926
986.545478	2647.440080
986.842050	2633.279479
987.138586	2613.782817
987.435086	2602.528441
987.731549	2591.077460
988.027975	2587.064701
988.324366	2580.170923
988.620719	2578.764441
988.917037	2577.171437
989.213318	2573.446024
989.509563	2571.989131
989.805772	2570.444017
990.101944	2567.336146
990.398080	2564.684499
990.694180	2566.282544
990.990244	2567.767164
991.286271	2564.654252
991.582262	2567.830179
991.878217	2566.771536
992.174136	2568.364541
992.470019	2569.287072
992.765865	2572.221024
993.061676	2572.858730
993.357450	2576.369893
993.653188	2578.948443
993.948890	2582.361305
994.244556	2589.149218
994.540186	2598.508120
994.835780	2610.899277
995.131337	2623.696246
995.426859	2640.251395
995.722345	2653.713796
996.017795	2671.892197
996.313208	2681.730009
996.608586	2692.263500
996.903928	2696.553522
997.199234	2693.864066
997.494504	2691.555217
997.789738	2684.686645
998.084936	2676.398988
998.380099	2662.911381
998.675225	2655.231183
998.970316	2643.379431
999.265371	2627.817389
999.560390	2616.643671
999.855373	2607.945160
1000.150320	2599.297061
1000.445232	2592.166349
1000.740108	2583.621593
1001.034948	2578.605645
1001.329752	2571.265725
1001.624521	2568.422514
1001.919254	2563.600651
1002.213951	2563.462019
1002.508613	2557.510937
1002.803239	2558.940104
1003.097829	2553.198230
1003.392384	2555.930535
1003.686903	2556.359033
1003.981386	2556.472459
1004.275834	2552.628579
1004.570246	2553.432643
1004.864623	2552.608415
1005.158964	2553.924156
1005.453270	2553.409958
1005.747540	2549.077086
1006.041775	2550.589432
1006.335974	2548.993907
1006.630138	2549.364432
1006.924266	2548.310831
1007.218359	2548.116747
1007.512416	2548.779658
1007.806438	2546.221273
1008.100425	2549.140101
1008.394376	2547.937786
1008.688292	2548.247817
1008.982172	2548.724206
1009.276017	2548.446942
1009.569827	2546.886705
1009.863602	2549.389638
1010.157341	2543.262115
1010.451045	2546.722868
1010.744714	2547.476520
1011.038347	2543.425953
1011.331945	2543.738504
1011.625508	2545.328988
1011.919036	2547.010213
1012.212528	2544.459389
1012.505986	2544.741694
1012.799408	2543.030222
1013.092795	2545.092054
1013.386147	2545.006355
1013.679464	2541.341436
1013.972745	2545.933927
1014.265992	2543.415871
1014.559204	2544.960984
1014.852380	2544.986190
1015.145521	2545.606252
1015.438628	2541.752290
1015.731699	2544.829914
1016.024736	2543.862013
1016.317737	2545.223124
1016.610703	2546.601880
1016.903635	2540.118956
1017.196531	2542.503422
1017.489393	2542.004347
1017.782219	2542.193391
1018.075011	2544.839997
1018.367768	2547.375697
1018.660490	2545.555840
1018.953177	2545.555840
1019.245829	2545.555840
