Dividing Wavelength (nm)	Counts (n)	Blue Motor Position (mm): 46.800000	Red Motor Position (mm): 0.000000	
326.493990	2046.342978
326.888308	2046.342978
327.282561	2046.342978
327.676750	2022.702487
328.070874	2023.562004
328.464933	2030.337314
328.858929	2039.252595
329.252859	2050.819522
329.646726	2063.707232
330.040528	2081.555438
330.434265	2099.144023
330.827938	2122.542539
331.221547	2139.987452
331.615091	2159.043013
332.008571	2181.002279
332.401986	2200.357790
332.795338	2218.483258
333.188625	2238.872205
333.581847	2259.205699
333.975006	2275.695313
334.368100	2292.618467
334.761129	2311.379121
335.154095	2327.251194
335.546996	2378.010572
335.939833	2484.956130
336.332606	2497.632111
336.725315	2508.210973
337.117960	2519.828312
337.510540	2528.526823
337.903056	2532.781557
338.295508	2542.301776
338.687896	2551.073383
339.080220	2553.435164
339.472480	2562.554611
339.864676	2562.700805
340.256807	2566.713563
340.648875	2565.869170
341.040879	2570.431414
341.432818	2572.152968
341.824694	2573.602300
342.216506	2572.316806
342.608253	2571.270766
342.999937	2570.839747
343.391557	2567.149623
343.783113	2568.563667
344.174605	2566.209448
344.566033	2561.909343
344.957397	2562.231977
345.348697	2561.226267
345.739934	2558.751061
346.131106	2560.545711
346.522215	2559.257697
346.913260	2555.597819
347.304241	2553.135215
347.695159	2551.484237
348.086012	2552.242931
348.476802	2548.986346
348.867528	2544.643392
349.258191	2543.380583
349.648789	2545.054246
350.039324	2537.328677
350.429796	2544.063659
350.820203	2543.231868
351.210548	2543.599873
351.600828	2544.255223
351.991045	2540.973432
352.381198	2542.077444
352.771288	2540.154244
353.161314	2541.414532
353.551276	2540.151723
353.941175	2534.583769
354.331010	2541.868236
354.720782	2541.409491
355.110490	2543.143648
355.500135	2541.868236
355.889717	2540.676003
356.279235	2541.215407
356.668689	2542.291693
357.058080	2542.137938
357.447408	2542.964687
357.836672	2540.272711
358.225873	2541.830428
358.615010	2544.376210
359.004084	2545.487785
359.393095	2545.835624
359.782043	2545.016437
360.170927	2546.130532
360.559748	2545.565923
360.948505	2547.617672
361.337199	2548.290666
361.725830	2550.039947
362.114398	2551.045657
362.502903	2552.437015
362.891344	2547.537014
363.279722	2549.858465
363.668037	2551.353167
364.056289	2551.711089
364.444478	2550.982643
364.832603	2551.592622
365.220665	2553.702345
365.608665	2557.432799
365.996601	2556.560679
366.384474	2555.328117
366.772284	2557.326935
367.160031	2555.859959
367.547715	2558.070505
367.935336	2555.161759
368.322893	2554.382901
368.710388	2552.494989
369.097820	2554.249310
369.485189	2555.179403
369.872495	2557.798283
370.259738	2560.439847
370.646918	2561.601833
371.034035	2559.653427
371.421090	2560.772563
371.808081	2563.535116
372.195010	2562.181566
372.581875	2563.633418
372.968678	2564.187945
373.355418	2561.886658
373.742096	2563.361196
374.128710	2563.333469
374.515262	2565.259190
374.901751	2564.634087
375.288177	2567.162226
375.674540	2564.424879
376.060841	2567.212637
376.447079	2570.315467
376.833254	2569.949984
377.219367	2570.121383
377.605417	2573.806467
377.991404	2573.559450
378.377329	2579.225707
378.763191	2579.492888
379.148991	2581.983218
379.534727	2587.795668
379.920402	2589.212233
380.306013	2592.945207
380.691563	2600.033069
381.077049	2602.331836
381.462474	2602.977103
381.847835	2612.777106
382.233134	2620.603498
382.618371	2626.978037
383.003545	2637.451034
383.388657	2642.358597
383.773706	2650.111892
384.158693	2660.915084
384.543618	2670.750376
384.928480	2681.019206
385.313280	2690.761236
385.698017	2701.866898
386.082692	2717.315514
386.467305	2725.721638
386.851856	2742.196128
387.236344	2757.092738
387.620770	2769.614964
388.005133	2785.398817
388.389435	2803.375572
388.773674	2815.330668
389.157851	2837.098370
389.541965	2859.909591
389.926018	2872.802342
390.310008	2897.231774
390.693936	2916.688107
391.077802	2939.300203
391.461606	2964.790797
391.845348	2983.276708
392.229027	3007.774195
392.612645	3041.204607
392.996200	3066.448185
393.379694	3099.871035
393.763125	3138.226654
394.146494	3161.617608
394.529801	3195.027855
394.913047	3234.550501
395.296230	3246.230855
395.679351	3275.184722
396.062410	3322.019562
396.445408	3316.151658
396.828343	3356.758153
397.211217	3394.171076
397.594028	3384.295456
397.976778	3429.610388
398.359466	3462.670274
398.742092	3482.779437
399.124656	3504.524454
399.507158	3560.118299
399.889598	3577.154878
400.271977	3638.760299
400.654294	3638.215854
401.036549	3695.090152
401.418742	3702.200699
401.800874	3770.788118
402.182944	3799.129485
402.564952	3880.143348
402.946898	3882.147207
403.328783	3885.854975
403.710606	3934.406328
404.092367	4000.142974
404.474067	4067.666709
404.855705	4056.233372
405.237282	4042.201321
405.618797	4128.485710
406.000250	4202.338614
406.381642	4284.015388
406.762972	4285.792395
407.144240	4252.268722
407.525447	4314.756344
407.906593	4333.453984
408.287677	4411.115480
408.668700	4441.453143
409.049661	4479.750789
409.430560	4519.291079
409.811399	4506.446219
410.192176	4545.391653
410.572891	4618.437973
410.953545	4716.760637
411.334138	4621.029126
411.714669	4726.497626
412.095139	4653.680679
412.475547	4751.310185
412.855894	4757.490640
413.236180	4848.710319
413.616405	4786.973828
413.996568	4878.518661
414.376670	4886.347573
414.756711	4879.388260
415.136691	4944.416624
415.516609	5026.279922
415.896466	5060.169078
416.276262	5138.884175
416.655997	5247.115228
417.035670	5331.738557
417.415283	5457.429646
417.794834	5511.974930
418.174324	5471.101255
418.553753	5472.621163
418.933121	5621.700685
419.312428	5635.089989
419.691674	5576.675619
420.070859	5779.272031
420.449983	5672.568448
420.829045	5855.680799
421.208047	5784.497187
421.586988	5935.658705
421.965867	6001.788561
422.344686	6076.949645
422.723444	6236.285394
423.102141	5883.782712
423.480777	6242.480972
423.859352	6076.823616
424.237866	6416.869607
424.616319	6407.926600
424.994712	6560.514766
425.373044	6481.701366
425.751314	6769.624348
426.129524	6512.628845
426.507673	6770.173833
426.885762	6804.133566
427.263789	6839.177147
427.641756	6926.535302
428.019662	6990.154664
428.397508	7027.045828
428.775292	7025.127669
429.153016	7160.220509
429.530679	7118.762060
429.908282	7165.554050
430.285824	7112.412727
430.663305	7359.812393
431.040726	7263.957373
431.418086	7263.372599
431.795385	7392.816827
432.172624	7568.743014
432.549802	7456.063143
432.926920	7586.321518
433.303977	7537.077006
433.680974	7590.614060
434.057910	7766.573015
434.434786	7815.784758
434.811601	7774.081813
435.188355	8107.317206
435.565050	8006.211824
435.941683	8017.083073
436.318257	8321.636821
436.694770	8270.900128
437.071222	8482.348805
437.447614	8254.740709
437.823946	8228.148623
438.200218	8369.162298
438.576429	8263.688757
438.952580	8419.853621
439.328670	8425.845032
439.704700	8511.708485
440.080670	8405.256960
440.456580	8654.847007
440.832429	8641.805542
441.208218	8387.063436
441.583947	8500.643153
441.959616	8600.856250
442.335224	8638.732959
442.710773	8720.170279
443.086261	8897.056806
443.461689	8631.027556
443.837057	8783.587994
444.212365	8980.823139
444.587612	8976.066810
444.962800	8875.689875
445.337927	9005.287858
445.712995	8566.951970
446.088002	9198.928660
446.462949	9268.264690
446.837837	9274.588817
447.212664	9326.416920
447.587431	10223.147448
447.962139	11193.221724
448.336786	11929.373859
448.711374	11530.013651
449.085901	10391.527028
449.460369	10374.508093
449.834776	10286.555082
450.209124	11202.462159
450.583412	10982.617440
450.957640	11186.239726
451.331808	10774.984916
451.705917	10293.252254
452.079965	10216.548578
452.453954	10405.906919
452.827883	10364.362771
453.201752	10329.036885
453.575562	10351.812818
453.949311	10700.212002
454.323001	10775.340317
454.696632	10697.691425
455.070202	11277.368664
455.443713	11330.913280
455.817164	11486.105201
456.190556	11795.493415
456.563888	11625.432611
456.937160	11838.023110
457.310373	11336.723210
457.683526	11377.775846
458.056619	11418.553739
458.429653	11500.903508
458.802628	11676.960765
459.175542	11733.371277
459.548398	12273.306580
459.921194	12853.513141
460.293930	13186.025128
460.666607	14013.243186
461.039224	14729.087032
461.411782	14973.073837
461.784280	14572.062651
462.156719	14476.184946
462.529099	14372.324574
462.901419	13802.553202
463.273680	13454.632928
463.645882	13682.127598
464.018024	13650.585099
464.390106	14058.588365
464.762130	15226.815275
465.134094	16920.864778
465.505999	19197.283497
465.877845	21181.406033
466.249631	22039.400335
466.621358	21373.796628
466.993026	20518.733757
467.364634	19810.839811
467.736184	19109.035578
468.107674	18572.218228
468.479105	18427.630374
468.850477	18165.976846
469.221790	17734.761587
469.593043	17123.630068
469.964238	16776.660051
470.335373	16886.900004
470.706449	17753.708763
471.077467	18902.620492
471.448425	21240.652194
471.819324	22716.636505
472.190164	22193.702493
472.560945	20512.530617
472.931667	19119.390108
473.302330	18876.673674
473.672934	18437.011962
474.043479	18867.092961
474.413965	18684.462039
474.784393	18528.201393
475.154761	19153.972423
475.525070	19292.493249
475.895321	19137.719743
476.265513	19637.416557
476.635645	20225.600743
477.005719	20294.924170
477.375734	20678.072027
477.745691	21276.104108
478.115588	21931.806989
478.485427	23207.067677
478.855207	25082.613842
479.224928	26794.559442
479.594591	27944.093753
479.964194	27387.421819
480.333739	27752.524866
480.703226	28032.634059
481.072653	28545.150526
481.442022	29047.032680
481.811333	29342.565283
482.180584	28844.642956
482.549777	28633.403486
482.918912	28431.936293
483.287988	28380.423262
483.657005	28216.101812
484.025964	27856.581843
484.394864	28048.397747
484.763706	27998.694490
485.132489	27509.725252
485.501213	27578.695799
485.869879	27760.825126
486.238487	27729.249858
486.607036	27997.847577
486.975527	27717.125883
487.343959	28045.486480
487.712333	28366.139153
488.080648	28342.977572
488.448905	28765.670760
488.817104	28700.052581
489.185244	29593.052656
489.553326	30764.447931
489.921350	32698.378219
490.289315	35072.413841
490.657222	35739.681129
491.025070	36131.083875
491.392861	35724.136731
491.760593	34888.943567
492.128267	33895.077566
492.495883	32937.013839
492.863440	32111.900463
493.230939	31234.056617
493.598380	30734.647150
493.965763	30618.751023
494.333088	30180.624342
494.700354	30009.761994
495.067563	29979.346192
495.434713	29897.656815
495.801805	30183.283551
496.168839	30057.847040
496.535815	29922.202193
496.902733	30071.432950
497.269593	29901.185623
497.636395	30063.097402
498.003139	30354.929798
498.369825	30126.691558
498.736453	30521.784429
499.103023	30383.475332
499.469535	30487.020632
499.835989	30614.476124
500.202385	30495.348618
500.568723	30566.325543
500.935003	30908.738357
501.301226	30796.320626
501.667390	31493.189569
502.033497	31679.034226
502.399546	31491.868787
502.765537	31097.655597
503.131470	31561.545095
503.497345	31987.953613
503.863163	30998.090288
504.228923	31744.211304
504.594625	32143.455565
504.960269	31654.158652
505.325856	32324.420386
505.691385	32007.656963
506.056856	32329.340552
506.422270	32825.075018
506.787625	32366.176263
507.152924	32829.125585
507.518164	33034.103942
507.883347	32617.051805
508.248472	32774.023253
508.613540	33455.988025
508.978550	33685.534445
509.343503	33565.560024
509.708398	33912.812345
510.073236	34517.281979
510.438016	34643.671268
510.802738	34321.294521
511.167403	34895.905401
511.532010	35132.582533
511.896561	35643.027086
512.261053	36376.583026
512.625488	36161.464389
512.989866	36102.190502
513.354186	36154.275703
513.718449	36138.459083
514.082655	37016.880141
514.446803	36716.082053
514.810894	37331.617019
515.174927	37363.777060
515.538904	37364.359314
515.902822	38014.779065
516.266684	37714.401913
516.630488	38087.490148
516.994235	38100.435831
517.357925	38691.344761
517.721558	38942.691651
518.085133	39314.297786
518.448651	39519.928972
518.812112	39432.018811
519.175516	39564.460004
519.538863	40005.608857
519.902152	40079.923026
520.265385	40609.917174
520.628560	40637.146967
520.991678	40596.275812
521.354739	40835.612152
521.717743	41201.388193
522.080690	41113.919133
522.443580	41783.094497
522.806413	41823.345590
523.169189	41956.106897
523.531908	42181.199458
523.894569	42047.724827
524.257174	42251.223605
524.619722	42591.657766
524.982213	42736.898449
525.344647	42759.578600
525.707025	42898.278387
526.069345	43351.324362
526.431608	43259.164508
526.793815	43635.050583
527.155964	43204.094943
527.518057	43471.815501
527.880093	43317.677181
528.242072	43944.239672
528.603995	43696.492166
528.965860	43616.846976
529.327669	43842.342829
529.689421	43895.534564
530.051117	43858.051064
530.412755	44140.476667
530.774337	44196.067992
531.135862	44147.549406
531.497331	44292.172548
531.858743	44286.196261
532.220098	44700.463160
532.581396	44435.086739
532.942638	44187.747567
533.303824	44449.945540
533.664953	44509.080796
534.026025	44186.111713
534.387040	44758.617911
534.747999	44835.984499
535.108902	45155.220607
535.469748	44478.281866
535.830537	44732.897944
536.191270	44992.845042
536.551947	44711.447834
536.912567	45002.534140
537.273131	45159.518191
537.633638	44778.399399
537.994089	44971.321836
538.354483	44727.340072
538.714821	45378.929371
539.075103	45655.038408
539.435328	45520.139652
539.795497	45279.318692
540.155609	45386.596966
540.515665	45966.538866
540.875665	45296.113296
541.235609	45580.759527
541.595496	45688.289859
541.955328	46266.048940
542.315102	45697.527774
542.674821	45596.344254
543.034483	45469.496221
543.394090	45499.657444
543.753640	45492.239386
544.113134	46534.013993
544.472571	45640.834958
544.831953	46775.006353
545.191278	46024.915428
545.550548	45725.322175
545.909761	46378.386012
546.268918	46513.940118
546.628019	46926.898839
546.987064	46352.214862
547.346053	45646.339898
547.704986	46560.785041
548.063863	46218.392392
548.422684	46406.407266
548.781449	45998.076325
549.140158	46538.145219
549.498811	46307.532595
549.857408	45687.349684
550.215949	46528.589712
550.574434	46358.778444
550.932864	46298.909701
551.291237	47022.587500
551.649555	46775.984337
552.007817	46951.741645
552.366022	46625.556306
552.724173	46674.717638
553.082267	47096.725229
553.440305	47422.328315
553.798288	46680.391457
554.156215	47082.942715
554.514086	47280.621481
554.871902	46902.615601
555.229661	47072.477279
555.587365	46772.400076
555.945014	46883.653300
556.302606	46896.636792
556.660143	47006.249121
557.017625	47211.371150
557.375050	46915.334432
557.732421	47330.168461
558.089735	47373.222436
558.446994	47245.348527
558.804197	47744.453005
559.161345	47588.063810
559.518437	46937.321424
559.875474	47194.891618
560.232455	47414.093590
560.589381	47489.237030
560.946251	47271.287784
561.303065	47946.099159
561.659825	47611.366543
562.016528	47423.167667
562.373177	47012.868156
562.729770	47629.986045
563.086307	47162.232503
563.442789	47701.502374
563.799216	47564.977846
564.155587	47436.476313
564.511904	47415.076615
564.868164	47448.885114
565.224370	47769.520142
565.580520	47499.389913
565.936615	47700.088330
566.292654	47350.524640
566.648638	47720.033656
567.004567	47645.898447
567.360441	47762.747352
567.716260	47463.527145
568.072023	47832.090944
568.427732	47770.114998
568.783385	47305.635686
569.138982	47701.865337
569.494525	47839.151080
569.850013	47428.420550
570.205445	47556.070127
570.560823	47333.004110
570.916145	47213.143116
571.271412	47436.982949
571.626625	47108.324924
571.981782	47169.174172
572.336884	46774.071219
572.691931	47094.817153
573.046923	46763.547810
573.401860	46608.139119
573.756743	46613.253370
574.111570	46755.492046
574.466342	46672.577668
574.821059	46820.459916
575.175722	46314.030642
575.530330	46417.081909
575.884882	46066.126861
576.239380	45965.076932
576.593823	46051.154634
576.948211	45987.741959
577.302544	45534.965686
577.656823	45521.258788
578.011047	45802.194730
578.365216	45600.271313
578.719330	45339.507548
579.073389	45314.145503
579.427394	45363.568975
579.781344	45292.796217
580.135239	45060.207460
580.489080	45114.160409
580.842866	44613.586435
581.196597	45096.728099
581.550273	45108.141272
581.903895	45032.556732
582.257463	45476.901676
582.610975	44911.402681
582.964434	45261.543583
583.317837	44740.280714
583.671186	44705.088419
584.024481	44984.005379
584.377721	44526.641655
584.730906	44746.688020
585.084037	44847.208628
585.437113	44562.282613
585.790135	44696.924270
586.143103	44249.531949
586.496016	44413.056897
586.848874	44513.902659
587.201679	44542.390220
587.554428	44039.696440
587.907124	44301.826358
588.259765	44087.111013
588.612352	44230.932612
588.964884	43721.425713
589.317362	44020.126681
589.669786	44019.496537
590.022155	43857.655334
590.374470	44307.419518
590.726731	43886.256320
591.078937	43228.214344
591.431090	43574.725615
591.783188	43110.483237
592.135232	42888.362437
592.487222	43158.906040
592.839157	43303.239316
593.191038	42944.500726
593.542866	42759.830658
593.894639	42153.556291
594.246358	42452.602578
594.598022	42453.948566
594.949633	42029.750593
595.301190	42008.209743
595.652692	41940.343209
596.004141	42431.510390
596.355535	41341.081087
596.706876	41357.709333
597.058162	41069.783831
597.409395	41562.246588
597.760573	41784.059878
598.111698	41385.818807
598.462768	41305.876189
598.813785	41329.221773
599.164748	40947.016611
599.515657	41197.186392
599.866511	40714.321991
600.217312	41404.231621
600.568060	40341.034631
600.918753	41166.848728
601.269392	41079.074678
601.619978	40804.866155
601.970510	41022.049145
602.320988	41157.265494
602.671412	41396.427915
603.021783	41282.633949
603.372100	40846.087670
603.722363	40951.843516
604.072572	40998.426298
604.422728	40978.886786
604.772830	40763.425350
605.122878	40916.711715
605.472872	40777.414552
605.822813	41044.187372
606.172701	40784.444441
606.522534	41127.003448
606.872314	41319.157109
607.222041	41158.044353
607.571714	41473.502116
607.921333	40992.397078
608.270899	41195.984076
608.620411	41591.906217
608.969870	41332.513646
609.319276	41351.581810
609.668627	41377.949566
610.017926	41787.568521
610.367171	41917.574838
610.716362	41966.075779
611.065500	41824.797443
611.414585	42074.221132
611.763616	42255.927002
612.112594	42128.342960
612.461518	42269.928807
612.810389	42663.070751
613.159207	42443.024386
613.507971	42433.731018
613.856682	42928.971452
614.205340	42763.291410
614.553945	43456.011483
614.902496	42770.666618
615.250994	43194.925085
615.599439	43271.648926
615.947830	43362.089746
616.296169	43361.290723
616.644454	43415.394907
616.992686	43588.157770
617.340864	44034.524217
617.688990	43569.518103
618.037063	44247.122277
618.385082	44079.430815
618.733048	44402.427624
619.080961	44260.798927
619.428821	44283.491682
619.776628	44302.141430
620.124382	44109.844096
620.472083	44209.275815
620.819731	44307.545547
621.167326	43861.652969
621.514868	43854.524777
621.862357	43323.804703
622.209793	43393.123089
622.557176	42957.307778
622.904506	42716.605284
623.251783	42345.815816
623.599007	42035.973898
623.946179	41953.165384
624.293297	41693.127545
624.640363	41151.581593
624.987376	41004.536177
625.334336	40808.130302
625.681243	40396.928424
626.028097	40329.175317
626.374899	40124.968257
626.721647	40099.913722
627.068343	39876.439372
627.414987	39600.821847
627.761577	39348.174340
628.108115	39657.401237
628.454600	38928.268910
628.801032	39160.454373
629.147412	39053.622241
629.493739	38973.452772
629.840014	38542.565188
630.186236	38961.447264
630.532405	38418.313348
630.878521	38638.284096
631.224585	38424.292157
631.570597	38093.017773
631.916556	38255.940303
632.262462	38152.589088
632.608316	38074.312572
632.954117	37943.053528
633.299866	37879.575319
633.645562	37795.367885
633.991206	37257.751513
634.336797	36860.770730
634.682336	36758.087467
635.027823	36514.284664
635.373257	36390.544502
635.718639	36039.390328
636.063968	35933.079955
636.409245	35298.353315
636.754470	35255.006954
637.099642	35023.038260
637.444762	34465.093434
637.789829	34611.843943
638.134845	34237.084566
638.479808	34141.912623
638.824719	34107.806697
639.169577	33601.896661
639.514383	33682.285421
639.859137	33310.089471
640.203839	33490.272912
640.548489	33189.280739
640.893086	33163.628828
641.237632	32902.257604
641.582125	33002.349714
641.926566	32801.560556
642.270955	32830.073322
642.615292	32771.348921
642.959576	32652.145797
643.303809	32666.601306
643.647990	32749.855962
643.992118	32714.492267
644.336195	32560.389235
644.680219	32653.708555
645.024192	32845.680734
645.368112	33383.450862
645.711981	33403.176897
646.055797	34127.479799
646.399562	33952.324909
646.743274	34823.093495
647.086935	35231.958798
647.430544	35173.708266
647.774101	35234.623048
648.117606	35492.591493
648.461059	35622.214682
648.804460	35217.168053
649.147810	34706.932708
649.491108	34349.144375
649.834354	34194.892629
650.177548	33363.883623
650.520690	32877.170302
650.863781	32849.592670
651.206820	32685.240972
651.549807	32293.432413
651.892742	31713.056973
652.235626	31617.539711
652.578458	31488.758395
652.921238	30811.529787
653.263967	31108.400817
653.606644	30820.066981
653.949269	30732.315616
654.291843	30342.553765
654.634365	30703.754959
654.976836	30242.328065
655.319255	30312.674847
655.661622	30190.099191
656.003938	30065.265098
656.346203	29888.454189
656.688416	30121.897420
657.030577	29889.734642
657.372687	29715.948425
657.714746	29886.500742
658.056753	30055.155064
658.398708	29455.247674
658.740612	29518.499031
659.082465	29727.096936
659.424266	29618.490318
659.766016	29630.581525
660.107715	29496.154117
660.449362	29596.878891
660.790958	29580.787528
661.132503	29501.767442
661.473996	29589.291955
661.815438	29656.271245
662.156829	29770.687794
662.498168	29590.582490
662.839456	29562.994776
663.180693	29695.564519
663.521879	29777.785738
663.863013	29735.898791
664.204097	29712.893485
664.545129	30129.496960
664.886110	30069.144266
665.227040	30173.912046
665.567918	30171.603197
665.908746	30244.173127
666.249522	30327.427783
666.590248	30357.485663
666.930922	30453.232298
667.271545	30453.622988
667.612118	30502.295328
667.952639	30316.430506
668.293109	30339.415647
668.633528	30214.531143
668.973896	30174.310297
669.314213	30144.897685
669.654480	29959.078233
669.994695	29951.541708
670.334859	29850.753920
670.674973	29701.082062
671.015035	29888.239940
671.355047	29825.021350
671.695008	29764.255281
672.034918	29660.031946
672.374777	29764.782082
672.714585	29636.005807
673.054342	29782.337900
673.394049	29622.777819
673.733705	29838.798823
674.073310	29568.650950
674.412864	29621.751944
674.752368	29317.621653
675.091820	29546.336283
675.431223	29144.553801
675.770574	28935.850032
676.109875	28771.004301
676.449125	28562.366067
676.788324	28452.105950
677.127473	27987.540937
677.466571	27886.543941
677.805619	27602.895858
678.144616	27543.508545
678.483562	27482.918917
678.822458	27185.538731
679.161303	27127.802396
679.500098	27050.781127
679.838842	26989.090007
680.177535	27073.534375
680.516179	27326.136512
680.854771	27456.094937
681.193314	28235.606036
681.531805	29271.613563
681.870247	30029.712361
682.208638	30751.267834
682.546978	31007.423984
682.885268	31145.591929
683.223508	30681.319304
683.561697	30421.858677
683.899836	30241.493754
684.237925	29837.455356
684.575963	29698.069972
684.913951	29338.703759
685.251889	29504.262813
685.589776	29547.334431
685.927614	29540.213802
686.265401	29736.778472
686.603137	29856.649549
686.940824	30359.728977
687.278460	30720.801621
687.616046	30887.573072
687.953582	31568.065827
688.291068	31455.285133
688.628504	31801.075520
688.965889	31781.969547
689.303224	31486.394094
689.640510	31188.595492
689.977745	30552.699305
690.314930	29789.307295
690.652065	29334.713686
690.989150	28681.216310
691.326185	27833.286671
691.663170	27190.093413
692.000105	26451.927338
692.336990	25849.438877
692.673825	25436.717091
693.010610	24940.659991
693.347345	24446.798313
693.684030	23825.856709
694.020665	23635.500219
694.357251	22952.242392
694.693786	22971.741575
695.030272	22737.552252
695.366707	22252.971339
695.703093	21986.435453
696.039429	22050.369886
696.375716	21814.890028
696.711952	21825.534425
697.048139	21699.177903
697.384276	21540.936084
697.720363	21651.521356
698.056400	21544.114532
698.392388	21390.886140
698.728326	21382.510263
699.064214	21214.443235
699.400053	21213.089685
699.735842	20832.475008
700.071581	20644.298817
700.407270	20384.873478
700.742910	20212.526511
701.078501	19963.841350
701.414042	19764.937584
701.749533	19452.038206
702.084974	19143.431371
702.420366	19371.115084
702.755709	18965.150965
703.091002	18663.785747
703.426246	18734.382065
703.761440	18661.439090
704.096584	18428.303368
704.431679	18368.452269
704.766725	18314.302715
705.101721	18255.427079
705.436668	18382.680926
705.771565	18097.903625
706.106413	18421.454961
706.441212	18495.408688
706.775961	18609.399258
707.110661	18689.271300
707.445311	19055.264110
707.779913	18943.022820
708.114465	19243.810826
708.448967	19553.383042
708.783421	20184.880823
709.117825	20563.950387
709.452180	20807.954836
709.786485	21244.937174
710.120742	22020.997603
710.454949	22137.894399
710.789107	22643.098673
711.123216	23373.589592
711.457275	23570.645775
711.791286	24132.883143
712.125247	24275.603249
712.459159	24006.549307
712.793023	24730.738783
713.126837	23697.166134
713.460602	23936.469707
713.794318	23584.642539
714.127985	23300.339106
714.461602	22400.936766
714.795171	22382.788612
715.128691	21401.865773
715.462162	20877.048890
715.795584	20442.980338
716.128957	20178.634833
716.462281	19801.478388
716.795556	19531.028046
717.128782	19052.171362
717.461960	18460.057596
717.795088	18417.464888
718.128167	18064.926917
718.461198	17623.147920
718.794180	17496.473806
719.127113	17171.382398
719.459997	16978.853170
719.792833	16615.905217
720.125619	16653.910476
720.458357	16327.878892
720.791046	16193.942996
721.123686	16043.482198
721.456278	15830.006976
721.788821	15820.761500
722.121315	15560.653085
722.453761	15658.796789
722.786158	15551.815942
723.118506	15628.648168
723.450805	15518.980387
723.783056	15703.466453
724.115259	15589.816160
724.447412	15584.079327
724.779518	15802.157122
725.111574	15859.936307
725.443582	16125.703417
725.775542	16096.578151
726.107453	16603.365347
726.439315	16530.069490
726.771129	16949.191021
727.102895	17382.165643
727.434612	17643.546949
727.766281	17813.985840
728.097901	18131.707082
728.429473	18207.281540
728.760996	18221.469867
729.092471	18342.833125
729.423897	18222.442810
729.755276	18101.127443
730.086606	18216.290082
730.417887	18802.208270
730.749120	19355.434575
731.080305	19571.450538
731.411442	19973.117073
731.742530	20096.390929
732.073570	20248.293497
732.404562	20558.581558
732.735506	20394.585261
733.066401	20173.142496
733.397249	19670.234468
733.728048	19055.939625
734.058798	18177.959668
734.389501	17418.227537
734.720156	16915.569046
735.050762	16326.845455
735.381320	15959.519260
735.711831	15689.147056
736.042293	15330.957951
736.372707	15378.072575
736.703073	15171.687737
737.033391	15368.254928
737.363661	15370.684764
737.693883	15508.688871
738.024056	15716.318875
738.354182	15928.813592
738.684260	16301.856456
739.014290	16585.030670
739.344272	16815.905434
739.674207	17159.664235
740.004093	17335.706369
740.333931	17375.493676
740.663722	17449.308771
740.993464	17479.366651
741.323159	17319.690623
741.652806	17022.335643
741.982405	16844.236719
742.311956	16479.252139
742.641460	16369.569234
742.970915	16031.096083
743.300323	15688.552199
743.629683	15473.791484
743.958996	15156.944882
744.288260	14844.058107
744.617477	14534.495973
744.946647	14499.412063
745.275768	14194.515516
745.604842	13989.098579
745.933869	13823.859639
746.262847	13788.725317
746.591778	13710.048029
746.920662	13598.048714
747.249498	13604.367800
747.578286	13772.170168
747.907027	13941.633595
748.235720	14212.088979
748.564365	14286.763591
748.892963	14206.337022
749.221514	14313.287622
749.550017	14176.523638
749.878473	14148.313341
750.206881	13926.956276
750.535242	13848.710007
750.863555	13772.759983
751.191821	13676.892360
751.520039	13688.038351
751.848210	13610.407102
752.176334	13668.483715
752.504411	13587.195110
752.832440	13410.139704
753.160421	13529.244526
753.488356	13415.783276
753.816243	13323.212568
754.144082	13162.747600
754.471875	13118.052730
754.799620	13069.014906
755.127318	13057.269017
755.454969	13039.751008
755.782572	13014.371319
756.110129	13028.622661
756.437638	12935.850306
756.765100	12939.815174
757.092515	12968.292652
757.419882	13008.987366
757.747203	13020.738296
758.074477	13123.426600
758.401703	13101.033794
758.728882	13293.452116
759.056014	13336.107839
759.383099	13512.223070
759.710138	13637.198315
760.037129	13756.867745
760.364073	13815.773628
760.690970	13843.298328
761.017820	13867.274056
761.344623	14093.952059
761.671379	14466.957114
761.998088	15183.736094
762.324751	16968.269268
762.651366	20409.290307
762.977935	24901.795216
763.304456	27864.889664
763.630931	28894.620955
763.957359	27640.371796
764.283740	25352.060995
764.610074	23062.023599
764.936362	20421.126936
765.262602	18542.767807
765.588796	16622.393182
765.914943	15343.419684
766.241044	14241.546961
766.567097	13460.110142
766.893104	12743.210174
767.219064	12274.831529
767.544978	11802.684621
767.870845	11422.037177
768.196665	11203.248579
768.522438	10974.690226
768.848165	10765.452094
769.173846	10565.552700
769.499479	10440.499317
769.825066	10264.134550
770.150607	10041.111383
770.476101	9952.356828
770.801548	9836.153191
771.126949	9673.631432
771.452303	9563.305780
771.777611	9360.719451
772.102872	9353.331640
772.428087	9214.074807
772.753256	9055.051608
773.078378	8964.819996
773.403453	8784.838201
773.728482	8671.976848
774.053465	8596.939273
774.378401	8500.212134
774.703291	8380.404072
775.028135	8260.291019
775.352932	8221.123775
775.677683	8121.762632
776.002388	8009.793564
776.327046	8021.983074
776.651658	7922.495903
776.976224	7821.960172
777.300743	7823.885893
777.625216	7734.337356
777.949643	7693.251953
778.274024	7710.641413
778.598359	7618.161445
778.922647	7644.488871
779.246889	7590.737568
779.571086	7602.367510
779.895236	7611.499561
780.219339	7620.167825
780.543397	7624.354503
780.867409	7709.116464
781.191374	7713.603091
781.515294	7681.596805
781.839167	7779.833770
782.162995	7742.627534
782.486776	7688.954369
782.810511	7642.520301
783.134201	7546.967750
783.457844	7543.980867
783.781441	7492.198134
784.104993	7423.033503
784.428498	7409.951709
784.751958	7391.085191
785.075372	7359.416662
785.398739	7303.215359
785.722061	7346.299580
786.045337	7354.146136
786.368568	7513.617997
786.691752	7544.520270
787.014891	7883.805047
787.337983	8248.461952
787.661030	8848.049229
787.984031	9476.552564
788.306987	9886.088341
788.629897	10089.718188
788.952760	10031.124857
789.275579	9805.923912
789.598351	9403.594465
789.921078	9047.643633
790.243759	8622.316442
790.566395	8334.953028
790.888984	8084.886592
791.211529	7874.612503
791.534027	7653.963720
791.856480	7452.672967
792.178888	7380.735702
792.501249	7285.677185
792.823566	7130.187835
793.145836	7128.980479
793.468062	7105.919721
793.790241	7060.027577
794.112375	7129.396374
794.434464	7280.681401
794.756507	7320.831671
795.078505	7485.800910
795.400457	7805.861247
795.722364	8158.767222
796.044226	8454.050288
796.366042	8717.984939
796.687812	8669.143720
797.009538	8745.068538
797.331218	8637.331518
797.652852	8550.994197
797.974442	8389.687356
798.295986	8301.701578
798.617484	8109.290818
798.938938	7965.806976
799.260346	7867.910289
799.581709	7660.260121
799.903026	7588.990809
800.224299	7478.728171
800.545526	7306.396327
800.866708	7211.791513
801.187845	7142.999928
801.508936	7039.406737
801.829983	6999.264029
802.150984	6847.772315
802.471940	6802.041488
802.792851	6788.795856
803.113717	6758.750579
803.434538	6723.848150
803.755314	6668.282032
804.076045	6672.312434
804.396731	6622.609178
804.717372	6652.835937
805.037967	6656.329456
805.358518	6695.196752
805.679024	6787.578417
805.999485	6798.873122
806.319901	6837.654719
806.640272	6861.983327
806.960598	6948.257634
807.280879	6951.272244
807.601115	7028.895931
807.921306	6968.669266
808.241453	6983.291133
808.561554	7004.038002
808.881611	6963.257587
809.201623	6968.999462
809.521590	6912.714979
809.841513	6890.213789
810.161390	6929.847340
810.481223	6794.804911
810.801011	6788.125382
811.120755	6754.715135
811.440453	6676.093300
811.760107	6651.479866
812.079716	6614.888651
812.399281	6549.406583
812.718801	6541.837291
813.038276	6494.891545
813.357707	6431.766217
813.677093	6474.547969
813.996434	6376.545418
814.315731	6422.712305
814.634983	6412.070429
814.954191	6424.723725
815.273354	6534.164654
815.592473	6596.944664
815.911547	6721.866977
816.230577	6805.250182
816.549562	6945.628672
816.868502	7050.368726
817.187399	7149.029148
817.506250	7299.310985
817.825058	7331.254257
818.143821	7602.788447
818.462539	7881.216415
818.781213	8241.469872
819.099843	8800.705232
819.418429	9811.580087
819.736970	10781.427511
820.055466	11976.014614
820.373919	13499.932737
820.692327	15848.223186
821.010691	19989.208437
821.329011	29018.398926
821.647286	42084.038779
821.965517	55548.030609
822.283704	60921.298191
822.601847	62872.121386
822.919945	60135.488171
823.237999	55900.066985
823.556010	49691.034069
823.873976	42930.435907
824.191897	36408.082676
824.509775	31544.379966
824.827609	27022.850614
825.145398	24445.351502
825.463144	23093.803033
825.780845	23409.217947
826.098502	25195.477715
826.416116	29038.508088
826.733685	32743.264653
827.051210	33960.390755
827.368692	32177.102747
827.686129	28151.660742
828.003522	23998.168389
828.320872	20258.209447
828.638177	17399.242551
828.955439	15230.374329
829.272656	13420.728648
829.589830	11928.486616
829.906960	10661.604325
830.224046	9724.441222
830.541088	8967.978279
830.858086	8511.799226
831.175041	8140.263667
831.491952	8028.050103
831.808819	8072.245899
832.125642	8474.484605
832.442421	9371.610864
832.759157	11172.943683
833.075849	14133.900683
833.392497	17386.087660
833.709101	19590.405276
834.025662	19420.646941
834.342179	17700.824539
834.658653	15466.416276
834.975083	13532.327191
835.291469	11906.784448
835.607811	10578.256408
835.924110	9669.948869
836.240366	8799.260942
836.556578	7993.883683
836.872746	7347.554827
837.188871	6846.670823
837.504952	6430.127842
837.820990	6115.892558
838.136984	5900.695783
838.452935	5803.643489
838.768842	5839.349982
839.084706	6259.820021
839.400526	7484.709500
839.716303	9074.742355
840.032037	10174.253297
840.347727	10100.339900
840.663373	9111.683931
840.978977	8059.118734
841.294537	7243.157572
841.610054	6644.757488
841.925527	6214.437033
842.240957	5854.720460
842.556344	5518.344428
842.871687	5238.683898
843.186987	4956.623778
843.502244	4730.770004
843.817458	4567.839912
844.132629	4432.495013
844.447756	4343.140561
844.762840	4260.604270
845.077881	4186.418650
845.392879	4125.740802
845.707833	4077.970828
846.022745	4034.069939
846.337613	4002.431658
846.652438	3960.017910
846.967221	3946.101805
847.281960	3913.011671
847.596656	3894.911408
847.911309	3876.065054
848.225919	3850.335005
848.540485	3835.957634
848.855009	3820.698062
849.169490	3799.736944
849.483928	3788.963998
849.798323	3779.658028
850.112675	3760.801592
850.426984	3770.893982
850.741251	3752.592073
851.055474	3751.525869
851.369654	3751.359511
851.683792	3753.383534
851.997887	3762.054319
852.311938	3760.191613
852.625947	3764.166563
852.939914	3749.564860
853.253837	3764.857201
853.567718	3762.495420
853.881555	3752.675252
854.195350	3764.763939
854.509103	3758.306221
854.822812	3763.407869
855.136479	3750.931013
855.450103	3761.398969
855.763685	3748.143255
856.077224	3752.050149
856.390720	3770.142850
856.704173	3790.463742
857.017584	3801.738282
857.330953	3810.167091
857.644278	3834.694825
857.957561	3839.927543
858.270802	3840.189683
858.584000	3846.894418
858.897155	3840.172039
859.210268	3820.337619
859.523339	3798.892551
859.836367	3798.637973
860.149352	3790.914925
860.462295	3777.152575
860.775195	3769.800052
861.088054	3766.334259
861.400869	3764.990791
861.713642	3764.481635
862.026373	3776.000671
862.339062	3781.825724
862.651708	3798.035555
862.964312	3834.815813
863.276873	3849.810725
863.589392	3907.322729
863.901869	3955.614462
864.214303	3999.144826
864.526696	4031.244373
864.839045	4078.074171
865.151353	4103.189200
865.463619	4113.057258
865.775842	4118.010192
866.088023	4137.350579
866.400162	4124.667036
866.712258	4135.606340
867.024313	4140.408039
867.336325	4131.565855
867.648296	4140.181187
867.960224	4141.146568
868.272110	4149.885408
868.583954	4152.494205
868.895755	4167.433664
869.207515	4163.612470
869.519233	4206.096794
869.830909	4222.455338
870.142542	4245.261518
870.454134	4258.807098
870.765684	4285.931027
871.077191	4323.253209
871.388657	4349.633567
871.700081	4384.901480
872.011463	4431.149025
872.322803	4464.133295
872.634101	4500.182586
872.945357	4540.973082
873.256571	4591.225824
873.567744	4623.113643
873.878874	4637.934635
874.189963	4680.441644
874.501010	4685.417263
874.812015	4682.805946
875.122979	4727.417637
875.433900	4725.186926
875.744780	4737.588164
876.055618	4762.841825
876.366415	4762.514150
876.677169	4784.914517
876.987882	4831.454449
877.298554	4884.308427
877.609183	4961.909428
877.919771	5072.398918
878.230317	5222.544644
878.540822	5431.911325
878.851285	5752.097691
879.161707	6219.649587
879.472087	6973.085317
879.782425	8215.762507
880.092722	10404.780222
880.402977	13727.588724
880.713191	17523.736366
881.023363	21284.888319
881.333494	23507.449870
881.643583	24736.518466
881.953631	24718.014911
882.263637	23840.725592
882.573602	22353.650743
882.883526	20776.490474
883.193408	19078.108099
883.503248	17366.361625
883.813048	15811.919316
884.122806	14375.258526
884.432522	12893.512176
884.742197	11632.737243
885.051831	10544.924298
885.361424	9537.333756
885.670975	8721.579282
885.980485	8031.525978
886.289954	7458.001467
886.599382	6987.626525
886.908768	6613.424196
887.218113	6246.934832
887.527417	5959.992355
887.836680	5693.335481
888.145901	5473.253827
888.455082	5310.714425
888.764221	5159.494933
889.073319	5026.529459
889.382376	4954.970280
889.691392	4893.415271
890.000366	4871.703021
890.309300	4857.832287
890.618193	4859.120301
890.927044	4843.921222
891.235855	4866.745047
891.544625	4895.222525
891.853353	4958.932627
892.162041	5078.352520
892.470687	5264.595429
892.779293	5518.944325
893.087858	5887.848402
893.396381	6470.076466
893.704864	7274.949609
894.013306	8437.943802
894.321707	9635.328745
894.630068	10468.588626
894.938387	10669.249235
895.246665	10430.129664
895.554903	9821.848917
895.863100	9110.501780
896.171256	8540.526241
896.479371	8030.676544
896.787446	7529.167436
897.095480	7102.264884
897.403473	6782.474249
897.711425	6460.752852
898.019336	6190.491553
898.327207	5916.804790
898.635038	5685.940108
898.942827	5437.403662
899.250576	5242.283282
899.558284	5046.618457
899.865952	4921.071041
900.173579	4774.829688
900.481165	4670.119882
900.788711	4574.713525
901.096216	4504.127289
901.403681	4438.350313
901.711105	4412.380809
902.018489	4398.711721
902.325832	4471.044717
902.633135	4592.544086
902.940397	4940.333290
903.247619	5739.484724
903.554800	7188.609767
903.861941	9124.417885
904.169041	10658.171299
904.476101	11280.582400
904.783121	10915.887687
905.090100	10168.433285
905.397039	9322.925921
905.703938	8563.917195
906.010796	7861.255966
906.317614	7310.300701
906.624391	6774.708351
906.931129	6345.388566
907.237826	5941.836639
907.544483	5572.652778
907.851099	5195.617321
908.157675	4841.229246
908.464211	4517.390564
908.770707	4279.712763
909.077163	4079.299172
909.383578	3935.943880
909.689954	3817.479285
909.996289	3751.546034
910.302584	3684.097916
910.608839	3656.260664
910.915054	3623.215901
911.221229	3609.509004
911.527363	3621.086013
911.833458	3634.863487
912.139513	3664.082015
912.445527	3693.844987
912.751502	3773.603603
913.057436	3877.287534
913.363331	4010.734438
913.669186	4213.288000
913.975000	4474.021518
914.280775	4898.743771
914.586510	5474.778777
914.892205	6281.355830
915.197859	7316.798748
915.503475	8563.672699
915.809050	9627.701480
916.114585	10288.495926
916.420081	10559.896525
916.725536	10513.243167
917.030952	10069.336803
917.336328	9655.243824
917.641665	9239.106656
917.946961	8747.127849
918.252218	8325.654620
918.557435	7808.764952
918.862612	7378.265537
919.167750	7000.035325
919.472848	6573.208391
919.777906	6194.907603
920.082925	5836.342933
920.387904	5464.464576
920.692843	5198.374832
920.997743	4951.925423
921.302603	4713.153692
921.607423	4554.097726
921.912204	4388.904156
922.216946	4271.392339
922.521647	4145.197135
922.826310	4041.510682
923.130932	3947.987196
923.435516	3849.296527
923.740059	3780.265487
924.044564	3704.378478
924.349028	3645.898573
924.653454	3581.144952
924.957840	3511.627440
925.262186	3465.284113
925.566493	3403.240112
925.870761	3344.873633
926.174989	3309.099084
926.479178	3274.967952
926.783328	3230.142012
927.087438	3204.280893
927.391509	3168.438289
927.695541	3139.537354
927.999533	3113.237654
928.303486	3090.451639
928.607400	3076.958991
928.911275	3065.283678
929.215110	3044.839279
929.518906	3040.619833
929.822663	3036.690254
930.126381	3035.661858
930.430060	3042.701830
930.733699	3046.303734
931.037299	3057.885785
931.340861	3051.360012
931.644383	3064.363668
931.947866	3059.622463
932.251309	3054.160373
932.554714	3054.614076
932.858080	3048.899928
933.161407	3039.533465
933.464694	3032.072557
933.767943	3025.889582
934.071153	3020.679549
934.374323	3009.755369
934.677455	3003.595079
934.980548	2998.639625
935.283602	2993.540498
935.586617	2989.426916
935.889593	2999.113493
936.192530	3004.394102
936.495428	3017.594363
936.798287	3042.848023
937.101108	3073.808270
937.403890	3125.313738
937.706632	3190.523584
938.009336	3272.654063
938.312002	3348.639374
938.614628	3410.852254
938.917216	3463.638176
939.219765	3495.188237
939.522275	3525.878782
939.824747	3532.626366
940.127179	3527.650748
940.429573	3518.319572
940.731929	3520.948533
941.034246	3504.902541
941.336524	3488.521311
941.638763	3473.496152
941.940964	3463.169349
942.243126	3420.773245
942.545250	3393.356930
942.847335	3351.041484
943.149381	3315.892039
943.451389	3288.034623
943.753359	3249.333685
944.055290	3225.783935
944.357182	3199.711087
944.659036	3188.592822
944.960851	3179.513704
945.262628	3161.857063
945.564367	3165.693381
945.866067	3159.913698
946.167729	3156.919252
946.469352	3156.624345
946.770937	3149.866678
947.072484	3136.063999
947.373992	3139.925523
947.675462	3131.658031
947.976893	3112.383179
948.278286	3107.457972
948.579641	3096.627052
948.880958	3093.569593
949.182236	3092.168152
949.483476	3085.551637
949.784678	3086.587595
950.085841	3091.177565
950.386967	3102.091663
950.688054	3118.067080
950.989103	3134.718011
951.290114	3160.722803
951.591087	3188.829756
951.892021	3217.637430
952.192917	3245.315885
952.493776	3269.011829
952.794596	3276.460134
953.095378	3283.706792
953.396122	3275.867798
953.696828	3267.318001
953.997496	3257.555807
954.298126	3234.595872
954.598718	3213.178529
954.899272	3189.066691
955.199788	3160.995025
955.500266	3127.657875
955.800706	3092.505909
956.101108	3050.719785
956.401472	3018.935310
956.701798	2987.430619
957.002087	2947.033333
957.302337	2920.821853
957.602550	2891.716752
957.902724	2860.701052
958.202861	2836.652228
958.502960	2817.311841
958.803022	2794.409879
959.103045	2773.610079
959.403031	2756.026534
959.702979	2744.598238
960.002889	2732.537278
960.302762	2718.076728
960.602596	2706.527444
960.902393	2697.677699
961.202153	2692.301308
961.501875	2681.873682
961.801559	2677.407219
962.101205	2670.483194
962.400814	2665.673934
962.700385	2658.397028
962.999918	2651.238590
963.299414	2642.046046
963.598873	2641.640233
963.898293	2633.975158
964.197677	2637.090591
964.497022	2635.351393
964.796331	2632.341824
965.095601	2628.510547
965.394835	2627.555249
965.694030	2624.522995
965.993189	2623.497120
966.292309	2620.810185
966.591393	2624.971657
966.890439	2623.461832
967.189447	2620.779938
967.488419	2622.312449
967.787353	2622.181379
968.086249	2624.719600
968.385108	2624.812861
968.683930	2625.886627
968.982714	2632.729993
969.281462	2636.321815
969.580172	2640.816004
969.878844	2647.165337
970.177480	2659.208654
970.476078	2663.097904
970.774639	2670.309275
971.073162	2678.982580
971.371649	2683.764114
971.670098	2691.139322
971.968510	2696.974458
972.266885	2698.438913
972.565223	2704.319419
972.863524	2706.192208
973.161788	2710.583053
973.460014	2712.589432
973.758204	2715.619165
974.056356	2720.259547
974.354471	2722.918756
974.652550	2722.880947
974.950591	2718.875751
975.248595	2716.556820
975.546563	2713.169165
975.844493	2708.717826
976.142386	2704.314378
976.440243	2699.268183
976.738062	2692.722245
977.035845	2689.374918
977.333590	2683.738908
977.631299	2678.125584
977.928971	2673.810356
978.226606	2664.733758
978.524204	2661.159580
978.821765	2657.519867
979.119290	2658.586071
979.416777	2658.797800
979.714228	2665.066475
980.011642	2664.766526
980.309020	2674.387568
980.606360	2689.634538
980.903664	2712.806202
981.200931	2745.631675
981.498162	2796.910292
981.795356	2871.864688
982.092513	2960.873821
982.389633	3065.858370
982.686717	3167.520799
982.983764	3239.765575
983.280775	3288.611835
983.577749	3295.969399
983.874686	3284.178140
984.171587	3247.806215
984.468451	3207.663507
984.765279	3163.318997
985.062070	3116.605145
985.358824	3073.518403
985.655543	3015.167048
985.952224	2959.275775
986.248869	2897.357803
986.545478	2838.366220
986.842050	2784.791358
987.138586	2736.416446
987.435086	2697.932277
987.731549	2669.434634
988.027975	2643.868423
988.324366	2627.635907
988.620719	2612.144442
988.917037	2599.644901
989.213318	2588.277099
989.509563	2583.994638
989.805772	2580.980028
990.101944	2576.619430
990.398080	2572.742783
990.694180	2572.392423
990.990244	2570.378482
991.286271	2573.375448
991.582262	2573.332598
991.878217	2578.640933
992.174136	2579.944071
992.470019	2581.393403
992.765865	2586.890781
993.061676	2588.226687
993.357450	2599.682709
993.653188	2605.568256
993.948890	2624.618777
994.244556	2645.627785
994.540186	2664.811896
994.835780	2697.322297
995.131337	2733.860581
995.426859	2776.302055
995.722345	2824.248469
996.017795	2879.819628
996.313208	2913.416398
996.608586	2942.075358
996.903928	2955.946093
997.199234	2952.051801
997.494504	2952.750001
997.789738	2935.199224
998.084936	2911.904052
998.380099	2880.192674
998.675225	2850.948940
998.970316	2822.516833
999.265371	2783.223559
999.560390	2747.292735
999.855373	2716.612273
1000.150320	2687.691173
1000.445232	2662.273675
1000.740108	2643.258443
1001.034948	2621.808333
1001.329752	2606.357197
1001.624521	2594.613829
1001.919254	2584.765935
1002.213951	2576.639595
1002.508613	2567.477298
1002.803239	2562.055537
1003.097829	2556.530432
1003.392384	2551.358208
1003.686903	2543.589790
1003.981386	2542.770603
1004.275834	2539.100643
1004.570246	2533.270548
1004.864623	2532.569828
1005.158964	2533.469674
1005.453270	2530.066895
1005.747540	2527.264014
1006.041775	2526.112110
1006.335974	2523.132788
1006.630138	2523.457942
1006.924266	2523.762932
1007.218359	2521.015503
1007.512416	2518.005935
1007.806438	2516.917045
1008.100425	2519.419978
1008.394376	2515.127436
1008.688292	2517.148938
1008.982172	2520.521470
1009.276017	2518.303363
1009.569827	2518.867972
1009.863602	2518.205060
1010.157341	2515.994514
1010.451045	2515.230779
1010.744714	2515.795389
1011.038347	2514.366222
1011.331945	2513.098371
1011.625508	2507.434635
1011.919036	2510.673576
1012.212528	2507.805160
1012.505986	2506.640653
1012.799408	2509.740963
1013.092795	2509.370438
1013.386147	2506.391116
1013.679464	2509.304903
1013.972745	2507.275839
1014.265992	2504.777947
1014.559204	2506.232320
1014.852380	2507.792557
1015.145521	2507.409429
1015.438628	2506.711229
1015.731699	2507.943792
1016.024736	2509.360356
1016.317737	2509.801457
1016.610703	2509.909842
1016.903635	2512.962260
1017.196531	2512.536283
1017.489393	2513.242044
1017.782219	2514.265398
1018.075011	2515.835718
1018.367768	2516.299504
1018.660490	2516.125584
1018.953177	2516.125584
1019.245829	2516.125584
