Dividing Wavelength (nm)	Counts (n)	Blue Motor Position (mm): 41.700000	Red Motor Position (mm): 0.000000	
326.493990	2130.633591
326.888308	2130.633591
327.282561	2130.633591
327.676750	2097.334249
328.070874	2097.619074
328.464933	2096.991451
328.858929	2109.730446
329.252859	2114.511981
329.646726	2126.109155
330.040528	2140.088275
330.434265	2156.787097
330.827938	2173.012051
331.221547	2191.082067
331.615091	2212.065869
332.008571	2230.982799
332.401986	2249.882085
332.795338	2269.038470
333.188625	2286.405245
333.581847	2305.072637
333.975006	2328.637511
334.368100	2344.416323
334.761129	2361.722604
335.154095	2376.999820
335.546996	2397.363561
335.939833	2424.318611
336.332606	2440.314192
336.725315	2450.552776
337.117960	2461.315639
337.510540	2472.116311
337.903056	2481.235758
338.295508	2489.745226
338.687896	2494.962820
339.080220	2506.214676
339.472480	2513.509225
339.864676	2515.094668
340.256807	2520.876872
340.648875	2523.699918
341.040879	2530.387008
341.432818	2526.583458
341.824694	2531.455733
342.216506	2527.589168
342.608253	2530.071936
342.999937	2529.693850
343.391557	2530.192924
343.783113	2530.097142
344.174605	2529.343490
344.566033	2526.177645
344.957397	2522.298477
345.348697	2524.670340
345.739934	2521.151615
346.131106	2520.690349
346.522215	2515.976870
346.913260	2515.316479
347.304241	2513.226921
347.695159	2512.284225
348.086012	2509.879595
348.476802	2508.077382
348.867528	2507.764831
349.258191	2504.725015
349.648789	2508.394975
350.039324	2502.227123
350.429796	2503.762154
350.820203	2499.666217
351.210548	2500.896258
351.600828	2499.174704
351.991045	2497.944663
352.381198	2498.219406
352.771288	2497.909375
353.161314	2497.652276
353.551276	2498.491628
353.941175	2499.005826
354.331010	2498.017760
354.720782	2498.531957
355.110490	2498.816783
355.500135	2498.337873
355.889717	2496.835609
356.279235	2497.001967
356.668689	2500.288799
357.058080	2496.901144
357.447408	2497.591782
357.836672	2493.674806
358.225873	2497.866525
358.615010	2496.114724
359.004084	2502.106135
359.393095	2500.540857
359.782043	2501.939777
360.170927	2499.509941
360.559748	2502.214520
360.948505	2504.394819
361.337199	2505.004799
361.725830	2505.518997
362.114398	2504.203255
362.502903	2506.650736
362.891344	2505.713081
363.279722	2506.749038
363.668037	2506.156702
364.056289	2507.260715
364.444478	2508.757938
364.832603	2508.846158
365.220665	2511.850686
365.608665	2508.699965
365.996601	2509.723319
366.384474	2509.516632
366.772284	2510.421519
367.160031	2511.669204
367.547715	2514.525018
367.935336	2513.486540
368.322893	2515.014010
368.710388	2513.872188
369.097820	2515.515605
369.485189	2512.748011
369.872495	2517.698424
370.259738	2515.790347
370.646918	2513.796571
371.034035	2516.082734
371.421090	2515.669360
371.808081	2516.332272
372.195010	2517.300173
372.581875	2514.411592
372.968678	2521.007942
373.355418	2521.925432
373.742096	2520.488703
374.128710	2519.298991
374.515262	2519.165400
374.901751	2520.108096
375.288177	2519.697242
375.674540	2518.424350
376.060841	2522.066584
376.447079	2519.971985
376.833254	2523.780576
377.219367	2515.014010
377.605417	2520.110616
377.991404	2519.011645
378.377329	2521.222191
378.763191	2517.413599
379.148991	2526.298633
379.534727	2524.355268
379.920402	2525.335772
380.306013	2527.266534
380.691563	2526.452388
381.077049	2525.786956
381.462474	2526.769981
381.847835	2529.703932
382.233134	2528.932636
382.618371	2533.391536
383.003545	2539.932433
383.388657	2537.255581
383.773706	2541.895963
384.158693	2548.908208
384.543618	2555.227294
384.928480	2564.835733
385.313280	2573.420818
385.698017	2584.649988
386.082692	2596.983171
386.467305	2610.788371
386.851856	2626.473921
387.236344	2638.948257
387.620770	2657.628252
388.005133	2679.829494
388.389435	2694.584951
388.773674	2715.472972
389.157851	2741.661766
389.541965	2761.541556
389.926018	2776.796088
390.310008	2810.090388
390.693936	2837.247084
391.077802	2868.257742
391.461606	2893.723131
391.845348	2935.836930
392.229027	2962.842391
392.612645	2992.824654
392.996200	3048.300031
393.379694	3093.738471
393.763125	3151.263078
394.146494	3171.074812
394.529801	3229.786611
394.913047	3286.265178
395.296230	3302.744710
395.679351	3363.445243
396.062410	3415.091864
396.445408	3432.592230
396.828343	3488.395282
397.211217	3534.920091
397.594028	3518.072555
397.976778	3595.068618
398.359466	3645.729694
398.742092	3696.673074
399.124656	3671.333714
399.507158	3755.432763
399.889598	3802.769198
400.271977	3884.022516
400.654294	3887.130387
401.036549	3921.173299
401.418742	3918.529214
401.800874	4032.320659
402.182944	4070.610743
402.564952	4148.594873
402.946898	4160.123991
403.328783	4177.473122
403.710606	4121.884319
404.092367	4314.635357
404.474067	4299.549704
404.855705	4319.177436
405.237282	4270.144653
405.618797	4385.143455
406.000250	4429.724899
406.381642	4517.390564
406.762972	4494.854086
407.144240	4513.700440
407.525447	4524.463303
407.906593	4585.914969
408.287677	4637.216271
408.668700	4572.747475
409.049661	4630.650168
409.430560	4676.549874
409.811399	4610.190645
410.192176	4774.517137
410.572891	4718.063776
410.953545	4821.528417
411.334138	4705.791087
411.714669	4773.337507
412.095139	4675.370244
412.475547	4814.710257
412.855894	4801.507475
413.236180	4805.280778
413.616405	4763.479531
413.996568	4849.968087
414.376670	4794.308707
414.756711	4752.373869
415.136691	4783.646667
415.516609	4860.030230
415.896466	4895.605652
416.276262	4936.502013
416.655997	4912.717849
417.035670	5096.551086
417.415283	5188.814283
417.794834	5133.797651
418.174324	5085.871401
418.553753	4990.311289
418.933121	5176.932284
419.312428	5242.742027
419.691674	5185.134241
420.070859	5306.527746
420.449983	5224.359459
420.829045	5337.160318
421.208047	5247.095063
421.586988	5316.486546
421.965867	5328.229914
422.344686	5457.185150
422.723444	5311.941946
423.102141	5138.271675
423.480777	5427.850675
423.859352	5200.545048
424.237866	5462.884174
424.616319	5452.443944
424.994712	5566.026182
425.373044	5435.805616
425.751314	5581.452112
426.129524	5388.993462
426.507673	5576.935239
426.885762	5659.847096
427.263789	5594.100367
427.641756	5477.485876
428.019662	5597.452735
428.397508	5605.074959
428.775292	5547.429365
429.153016	5648.733872
429.530679	5578.276186
429.908282	5661.528321
430.285824	5537.316811
430.663305	5807.263037
431.040726	5538.773704
431.418086	5546.673192
431.795385	5642.860928
432.172624	5659.998331
432.549802	5653.167567
432.926920	5665.770452
433.303977	5675.600702
433.680974	5716.923040
434.057910	5730.945009
434.434786	5736.583540
434.811601	5706.281164
435.188355	5943.354027
435.565050	5814.146733
435.941683	5794.980266
436.318257	6011.792731
436.694770	5992.555688
437.071222	6029.620772
437.447614	5958.006140
437.823946	5872.419951
438.200218	6028.259660
438.576429	5893.328136
438.952580	5994.519218
439.328670	6034.450197
439.704700	5945.456188
440.080670	5927.313075
440.456580	6201.370363
440.832429	6085.862405
441.208218	5931.353560
441.583947	6088.468681
441.959616	6085.907775
442.335224	6012.183421
442.710773	6153.055944
443.086261	6179.229615
443.461689	5970.979550
443.837057	6122.647704
444.212365	6280.037568
444.587612	6169.666546
444.962800	6324.356872
445.337927	6303.005065
445.712995	5912.378657
446.088002	6489.729404
446.462949	6325.135731
446.837837	6252.331387
447.212664	6427.125835
447.587431	6567.327885
447.962139	7112.652182
448.336786	8036.882204
448.711374	7771.430166
449.085901	6851.356575
449.460369	6770.372959
449.834776	6703.121446
450.209124	7100.203052
450.583412	7246.497337
450.957640	7390.356744
451.331808	7158.927453
451.705917	6714.678291
452.079965	6637.117619
452.453954	6843.724268
452.827883	6716.636780
453.201752	6815.708056
453.575562	6616.958045
453.949311	6815.677809
454.323001	6710.968002
454.696632	6785.781246
455.070202	6925.161588
455.443713	7077.550627
455.817164	7177.211718
456.190556	7258.381857
456.563888	7336.769279
456.937160	7374.262861
457.310373	7035.240223
457.683526	7061.628143
458.056619	6949.671678
458.429653	6940.322858
458.802628	6877.517643
459.175542	6979.971533
459.548398	7335.070410
459.921194	7496.989751
460.293930	7502.053590
460.666607	8026.550360
461.039224	8335.580652
461.411782	8464.089746
461.784280	8485.300401
462.156719	8369.537864
462.529099	8246.122857
462.901419	7844.267278
463.273680	7740.041422
463.645882	7743.746670
464.018024	7618.463915
464.390106	7774.774972
464.762130	8165.744179
465.134094	8640.116756
465.505999	9654.853134
465.877845	10881.784281
466.249631	11527.011644
466.621358	11140.992850
466.993026	10515.173929
467.364634	10256.754301
467.736184	9896.757943
468.107674	9564.404752
468.479105	9595.362478
468.850477	9356.648720
469.221790	9127.755129
469.593043	8805.607754
469.964238	8660.243563
470.335373	8685.288015
470.706449	8732.057320
471.077467	8717.989980
471.448425	10026.887768
471.819324	11093.724471
472.190164	11124.329316
472.560945	9873.109890
472.931667	9092.076363
473.302330	8948.952964
473.672934	8593.816278
474.043479	8950.298952
474.413965	8888.413747
474.784393	8774.907127
475.154761	8929.070653
475.525070	9018.606587
475.895321	8844.681738
476.265513	9024.091362
476.635645	9190.025982
477.005719	9193.874903
477.375734	9310.663314
477.745691	9546.213748
478.115588	9682.140900
478.485427	9922.069576
478.855207	10468.263472
479.224928	11276.138623
479.594591	11905.196485
479.964194	11715.311343
480.333739	11652.642239
480.703226	11569.122923
481.072653	11660.614824
481.442022	11891.988662
481.811333	12083.257600
482.180584	11892.283569
482.549777	11601.096441
482.918912	11427.088413
483.287988	11442.779004
483.657005	11454.872732
484.025964	11134.799792
484.394864	11271.536049
484.763706	11241.057233
485.132489	11000.299287
485.501213	10958.321599
485.869879	11037.303877
486.238487	10875.997036
486.607036	10988.117339
486.975527	10770.034503
487.343959	10961.852927
487.712333	11010.477377
488.080648	10942.310894
488.448905	10982.214148
488.817104	10920.263408
489.185244	11192.102588
489.553326	11345.391474
489.921350	11882.143288
490.289315	12942.308024
490.657222	13289.512454
491.025070	13196.780429
491.392861	13064.679513
491.760593	12686.900485
492.128267	12335.584994
492.495883	12006.929490
492.863440	11662.427118
493.230939	11336.226656
493.598380	11263.034143
493.965763	11135.727365
494.333088	11030.757939
494.700354	10962.757814
495.067563	11014.958963
495.434713	10850.897131
495.801805	10972.502365
496.168839	10894.775334
496.535815	10833.842908
496.902733	10833.568165
497.269593	10768.270099
497.636395	10868.770542
498.003139	10853.954591
498.369825	10729.075128
498.736453	10879.848478
499.103023	10812.170987
499.469535	10842.395225
499.835989	10825.441825
500.202385	10789.042173
500.568723	10637.076591
500.935003	10858.237051
501.301226	10662.983080
501.667390	10931.331261
502.033497	11020.184118
502.399546	10888.418439
502.765537	10789.430342
503.131470	10858.617658
503.497345	11041.384691
503.863163	10654.685341
504.228923	10958.029212
504.594625	11023.072700
504.960269	10776.151943
505.325856	10987.540127
505.691385	10777.510534
506.056856	10939.389546
506.422270	10964.993566
506.787625	10852.296051
507.152924	10971.700821
507.518164	10950.747265
507.883347	10875.560976
508.248472	10790.352873
508.613540	11023.901969
508.978550	10916.122100
509.343503	10885.388706
509.708398	11003.344144
510.073236	11119.726742
510.438016	11122.333019
510.802738	11074.560524
511.167403	11122.441404
511.532010	11014.384271
511.896561	11259.492733
512.261053	11320.349542
512.625488	11196.117867
512.989866	11174.912253
513.354186	11164.996304
513.718449	11064.301776
514.082655	11257.511559
514.446803	11150.707153
514.810894	11273.794486
515.174927	11139.409927
515.538904	11161.159986
515.902822	11314.703450
516.266684	11195.366735
516.630488	11138.305915
516.994235	11196.795902
517.357925	11259.301169
517.721558	11349.411794
518.085133	11360.913186
518.448651	11367.040709
518.812112	11254.517114
519.175516	11277.265321
519.538863	11393.589946
519.902152	11309.256483
520.265385	11463.818260
520.628560	11381.614685
520.991678	11355.829183
521.354739	11421.853175
521.717743	11360.703978
522.080690	11334.338744
522.443580	11472.736061
522.806413	11428.222672
523.169189	11454.345932
523.531908	11518.887824
523.894569	11335.578868
524.257174	11341.421565
524.619722	11465.325565
524.982213	11407.828685
525.344647	11466.570730
525.707025	11405.194682
526.069345	11503.466935
526.431608	11418.445355
526.793815	11530.222859
527.155964	11312.031638
527.518057	11372.971626
527.880093	11313.082719
528.242072	11387.139789
528.603995	11293.674276
528.965860	11215.848943
529.327669	11266.532704
529.689421	11210.956503
530.051117	11187.605879
530.412755	11289.197732
530.774337	11182.657986
531.135862	11159.201498
531.497331	11184.797956
531.858743	11036.570389
532.220098	11203.089783
532.581396	11074.648745
532.942638	11058.028060
533.303824	11016.068016
533.664953	11029.535459
534.026025	10940.722931
534.387040	11052.177801
534.747999	11046.869466
535.108902	11105.094793
535.469748	10864.798113
535.830537	10970.072529
536.191270	10948.110742
536.551947	10969.006325
536.912567	10969.923815
537.273131	10894.268698
537.633638	10878.106759
537.994089	10863.769718
538.354483	10810.043620
538.714821	10962.218411
539.075103	10966.458021
539.435328	10929.213977
539.795497	10756.869530
540.155609	10910.962479
540.515665	10996.188226
540.875665	10738.139123
541.235609	10803.802672
541.595496	10802.562548
541.955328	10956.889911
542.315102	10839.473877
542.674821	10792.850765
543.034483	10793.639706
543.394090	10795.368822
543.753640	10722.297297
544.113134	10945.259969
544.472571	10794.968050
544.831953	10938.358630
545.191278	10748.791081
545.550548	10780.666296
545.909761	10915.819631
546.268918	10883.132789
546.628019	10971.214350
546.987064	10834.412558
547.346053	10759.664849
547.704986	10858.622699
548.063863	10840.661068
548.422684	10839.431027
548.781449	10749.975752
549.140158	10857.652277
549.498811	10734.401107
549.857408	10589.402399
550.215949	10818.290948
550.574434	10671.187558
550.932864	10773.230594
551.291237	10827.536424
551.649555	10776.714032
552.007817	10794.171548
552.366022	10746.356203
552.724173	10742.555173
553.082267	10727.847607
553.440305	10865.471107
553.798288	10671.139667
554.156215	10820.448562
554.514086	10786.524117
554.871902	10652.711729
555.229661	10681.211893
555.587365	10658.357822
555.945014	10552.710361
556.302606	10684.614672
556.660143	10575.665255
557.017625	10729.236445
557.375050	10621.265012
557.732421	10754.779971
558.089735	10670.680922
558.446994	10670.365850
558.804197	10709.828003
559.161345	10713.288755
559.518437	10564.559593
559.875474	10648.540175
560.232455	10678.719042
560.589381	10626.616197
560.946251	10625.156782
561.303065	10732.845911
561.659825	10663.454428
562.016528	10596.943965
562.373177	10478.398712
562.729770	10596.699469
563.086307	10504.796714
563.442789	10599.091497
563.799216	10477.761006
564.155587	10527.265137
564.511904	10478.449123
564.868164	10472.119955
565.224370	10492.191309
565.580520	10411.053937
565.936615	10415.364124
566.292654	10286.479464
566.648638	10421.506770
567.004567	10374.755109
567.360441	10358.540238
567.716260	10265.294015
568.072023	10365.960816
568.427732	10317.850565
568.783385	10231.598943
569.138982	10303.730293
569.494525	10309.484770
569.850013	10183.844093
570.205445	10264.842832
570.560823	10159.689404
570.916145	10081.057486
571.271412	10149.019802
571.626625	10099.389642
571.981782	10066.866638
572.336884	10045.792094
572.691931	10051.218897
573.046923	9994.684877
573.401860	9954.610224
573.756743	9890.937931
574.111570	9936.479714
574.466342	9913.557588
574.821059	9948.094533
575.175722	9838.701494
575.530330	9843.677113
575.884882	9837.410959
576.239380	9765.992933
576.593823	9744.661290
576.948211	9763.079146
577.302544	9639.323860
577.656823	9653.653340
578.011047	9653.935644
578.365216	9636.193303
578.719330	9555.353360
579.073389	9569.024969
579.427394	9515.382051
579.781344	9492.548145
580.135239	9439.182490
580.489080	9453.199419
580.842866	9350.254016
581.196597	9349.225621
581.550273	9397.923167
581.903895	9366.277323
582.257463	9433.448178
582.610975	9313.839241
582.964434	9336.277417
583.317837	9257.998380
583.671186	9240.314012
584.024481	9233.200944
584.377721	9159.859718
584.730906	9128.355027
585.084037	9165.034462
585.437113	9096.464687
585.790135	9122.025858
586.143103	9021.260754
586.496016	8988.818409
586.848874	9048.046925
587.201679	9034.186273
587.554428	8919.709231
587.907124	8966.415521
588.259765	8944.720915
588.612352	8947.410371
588.964884	8821.709200
589.317362	8831.829316
589.669786	8832.784615
590.022155	8878.530565
590.374470	8896.061178
590.726731	8842.617385
591.078937	8680.435904
591.431090	8797.715828
591.783188	8670.814862
592.135232	8666.043410
592.487222	8659.961258
592.839157	8719.668684
593.191038	8648.001121
593.542866	8600.296682
593.894639	8493.446905
594.246358	8546.704175
594.598022	8564.698574
594.949633	8460.931463
595.301190	8437.409439
595.652692	8461.208727
596.004141	8575.189215
596.355535	8354.124537
596.706876	8336.561157
597.058162	8266.151361
597.409395	8341.990479
597.760573	8406.055983
598.111698	8312.819843
598.462768	8301.512534
598.813785	8268.482894
599.164748	8233.320846
599.515657	8225.181903
599.866511	8134.083212
600.217312	8262.597347
600.568060	8117.810368
600.918753	8224.259372
601.269392	8192.638735
601.619978	8103.523738
601.970510	8168.877256
602.320988	8160.466091
602.671412	8222.726862
603.021783	8154.946027
603.372100	8130.841750
603.722363	8136.427349
604.072572	8108.706044
604.422728	8120.189792
604.772830	8046.553658
605.122878	8060.336173
605.472872	8057.923981
605.822813	8082.524811
606.172701	8022.111624
606.522534	8101.663552
606.872314	8098.911082
607.222041	8070.259684
607.571714	8126.282027
607.921333	8083.850635
608.270899	8086.187210
608.620411	8172.476640
608.969870	8081.067918
609.319276	8075.938544
609.668627	8095.145340
610.017926	8128.376626
610.367171	8177.008637
610.716362	8154.094073
611.065500	8140.664439
611.414585	8168.247112
611.763616	8159.830906
612.112594	8143.167372
612.461518	8158.104310
612.810389	8215.603711
613.159207	8155.853435
613.507971	8109.091692
613.856682	8218.948517
614.205340	8184.048609
614.553945	8256.086697
614.902496	8155.109865
615.250994	8210.398720
615.599439	8194.498921
615.947830	8203.971249
616.296169	8177.762290
616.644454	8192.036317
616.992686	8188.225205
617.340864	8248.945903
617.688990	8151.568454
618.037063	8244.867609
618.385082	8189.331738
618.733048	8271.810056
619.080961	8213.662867
619.428821	8233.141885
619.776628	8236.713543
620.124382	8191.602778
620.472083	8176.401178
620.819731	8197.715177
621.167326	8092.808765
621.514868	8101.696319
621.862357	7988.172055
622.209793	8005.816094
622.557176	7936.593490
622.904506	7908.915035
623.251783	7847.261723
623.599007	7795.829351
623.946179	7803.106257
624.293297	7758.862570
624.640363	7681.354829
624.987376	7659.244329
625.334336	7605.777851
625.681243	7558.055768
626.028097	7546.342647
626.374899	7519.349789
626.721647	7515.871393
627.068343	7441.521935
627.414987	7417.669716
627.761577	7374.129270
628.108115	7409.838283
628.454600	7305.312479
628.801032	7357.223761
629.147412	7314.295815
629.493739	7299.129504
629.840014	7238.817139
630.186236	7298.874925
630.532405	7178.406472
630.878521	7232.755152
631.224585	7187.304108
631.570597	7112.664785
631.916556	7144.592932
632.262462	7138.767879
632.608316	7105.352591
632.954117	7073.464772
633.299866	7069.252888
633.645562	7055.669499
633.991206	6976.999773
634.336797	6923.873573
634.682336	6880.892695
635.027823	6845.367684
635.373257	6840.013979
635.718639	6767.829697
636.063968	6784.394928
636.409245	6678.886099
636.754470	6676.254617
637.099642	6632.804912
637.444762	6573.977167
637.789829	6588.142809
638.134845	6522.408684
638.479808	6512.996849
638.824719	6517.843919
639.169577	6442.982784
639.514383	6464.072451
639.859137	6391.784826
640.203839	6402.953502
640.548489	6391.721811
640.893086	6364.242482
641.237632	6335.654098
641.582125	6355.622109
641.926566	6327.300906
642.270955	6338.378842
642.615292	6331.011196
642.959576	6353.950966
643.303809	6338.968657
643.647990	6348.440985
643.992118	6339.591239
644.336195	6280.745851
644.680219	6305.099665
645.024192	6297.336288
645.368112	6394.837244
645.711981	6418.497900
646.055797	6490.271328
646.399562	6451.628363
646.743274	6577.064874
647.086935	6629.823069
647.430544	6620.441482
647.774101	6646.784031
648.117606	6655.401884
648.461059	6642.332693
648.804460	6607.016889
649.147810	6511.003073
649.491108	6485.298230
649.834354	6458.522141
650.177548	6373.556013
650.520690	6292.859743
650.863781	6265.176247
651.206820	6289.703981
651.549807	6211.334203
651.892742	6149.937991
652.235626	6157.424104
652.578458	6145.721065
652.921238	6050.181118
653.263967	6088.541778
653.606644	6029.759403
653.949269	6029.388879
654.291843	5974.531043
654.634365	6023.087436
654.976836	5975.138502
655.319255	5977.185210
655.661622	5953.970697
656.003938	5948.649759
656.346203	5912.640797
656.688416	5943.606084
657.030577	5889.149020
657.372687	5869.911977
657.714746	5853.031673
658.056753	5902.124950
658.398708	5832.864537
658.740612	5826.104350
659.082465	5874.880034
659.424266	5867.598087
659.766016	5863.950812
660.107715	5839.266803
660.449362	5853.659297
660.790958	5852.235171
661.132503	5834.399568
661.473996	5870.895002
661.815438	5860.124577
662.156829	5859.572570
662.498168	5851.945304
662.839456	5828.680379
663.180693	5860.706830
663.521879	5857.001582
663.863013	5848.971024
664.204097	5867.852665
664.545129	5909.527884
664.886110	5911.564510
665.227040	5946.711435
665.567918	5907.370270
665.908746	5933.987563
666.249522	5936.470331
666.590248	5925.203352
666.930922	5952.549091
667.271545	5962.185257
667.612118	5970.356967
667.952639	5939.618532
668.293109	5961.482016
668.633528	5917.122383
668.973896	5926.617396
669.314213	5912.325725
669.654480	5892.173712
669.994695	5888.148351
670.334859	5877.897164
670.674973	5873.050095
671.015035	5879.396908
671.355047	5872.616556
671.695008	5855.242219
672.034918	5828.655174
672.374777	5847.357854
672.714585	5830.205328
673.054342	5831.838662
673.394049	5826.101829
673.733705	5859.622982
674.073310	5848.169480
674.412864	5803.870341
674.752368	5795.527231
675.091820	5798.531759
675.431223	5731.897787
675.770574	5739.794755
676.109875	5687.339028
676.449125	5692.304565
676.788324	5659.763917
677.127473	5603.670998
677.466571	5598.518939
677.805619	5585.454789
678.144616	5568.360236
678.483562	5552.014295
678.822458	5520.620509
679.161303	5514.243449
679.500098	5502.926059
679.838842	5488.538606
680.177535	5489.577084
680.516179	5504.952603
680.854771	5515.549108
681.193314	5607.797182
681.531805	5710.858532
681.870247	5856.444534
682.208638	5967.453263
682.546978	5974.924252
682.885268	5950.764523
683.223508	5860.787488
683.561697	5809.420651
683.899836	5778.074757
684.237925	5735.076235
684.575963	5698.238003
684.913951	5657.450027
685.251889	5723.138783
685.589776	5688.133010
685.927614	5662.491181
686.265401	5731.307972
686.603137	5715.735848
686.940824	5793.281397
687.278460	5814.970962
687.616046	5827.069731
687.953582	5894.192694
688.291068	5878.756681
688.628504	5941.448470
688.965889	5900.010186
689.303224	5843.314849
689.640510	5799.555113
689.977745	5721.775150
690.314930	5618.134068
690.652065	5568.599691
690.989150	5479.061237
691.326185	5399.645420
691.663170	5351.497359
692.000105	5268.797230
692.336990	5187.911917
692.673825	5167.127240
693.010610	5101.730871
693.347345	5026.373183
693.684030	5015.330536
694.020665	4975.470132
694.357251	4880.651069
694.693786	4892.016351
695.030272	4858.447307
695.366707	4820.646215
695.703093	4790.260660
696.039429	4811.302437
696.375716	4793.290394
696.711952	4767.164614
697.048139	4755.587604
697.384276	4734.656733
697.720363	4746.329525
698.056400	4757.432667
698.392388	4705.239080
698.728326	4687.854661
699.064214	4663.727699
699.400053	4659.566226
699.735842	4623.519456
700.071581	4600.889716
700.407270	4575.918361
700.742910	4553.845668
701.078501	4502.897247
701.414042	4499.602853
701.749533	4469.035817
702.084974	4406.142381
702.420366	4461.262358
702.755709	4404.924943
703.091002	4346.669369
703.426246	4397.922780
703.761440	4351.592056
704.096584	4319.575688
704.431679	4336.032534
704.766725	4324.442922
705.101721	4309.082526
705.436668	4335.846012
705.771565	4285.754586
706.106413	4310.012619
706.441212	4347.395295
706.775961	4358.379969
707.110661	4333.658151
707.445311	4364.605794
707.779913	4383.515162
708.114465	4395.820619
708.448967	4418.921706
708.783421	4484.507118
709.117825	4525.869785
709.452180	4528.987739
709.786485	4577.355089
710.120742	4659.142769
710.454949	4641.735665
710.789107	4710.426427
711.123216	4785.832007
711.457275	4779.717087
711.791286	4849.126214
712.125247	4868.718658
712.459159	4770.955562
712.793023	4844.332077
713.126837	4802.059481
713.460602	4798.364315
713.794318	4717.022777
714.127985	4722.479826
714.461602	4634.143688
714.795171	4612.030666
715.128691	4542.719842
715.462162	4485.311182
715.795584	4439.449285
716.128957	4419.209052
716.462281	4369.886403
716.795556	4343.833720
717.128782	4301.026762
717.461960	4232.945979
717.795088	4247.835027
718.128167	4203.944221
718.461198	4143.899038
718.794180	4138.212616
719.127113	4120.061942
719.459997	4100.116617
719.792833	4055.693969
720.125619	4046.226682
720.458357	4011.367103
720.791046	4017.073689
721.123686	3989.473372
721.456278	3948.251857
721.788821	3963.032520
722.121315	3937.846915
722.453761	3909.850867
722.786158	3923.703958
723.118506	3945.204479
723.450805	3903.327614
723.783056	3924.818053
724.115259	3937.509158
724.447412	3943.717339
724.779518	3935.933797
725.111574	3939.303809
725.443582	3967.584682
725.775542	3956.806695
726.107453	4004.392667
726.439315	4008.370137
726.771129	4021.812374
727.102895	4056.883681
727.434612	4106.239098
727.766281	4115.219913
728.097901	4117.730408
728.429473	4120.855923
728.760996	4131.286071
729.092471	4121.193681
729.423897	4107.365796
729.755276	4113.553812
730.086606	4116.079430
730.417887	4152.355573
730.749120	4210.759861
731.080305	4279.869039
731.411442	4313.969924
731.742530	4275.291672
732.073570	4282.092188
732.404562	4337.227288
732.735506	4327.938962
733.066401	4292.776914
733.397249	4225.638827
733.728048	4145.464316
734.058798	4063.553128
734.389501	3990.983197
734.720156	3930.723765
735.050762	3888.131056
735.381320	3882.948750
735.711831	3829.973785
736.042293	3799.442037
736.372707	3822.606138
736.703073	3794.219401
737.033391	3786.922331
737.363661	3802.081081
737.693883	3828.486644
738.024056	3833.936132
738.354182	3832.494362
738.684260	3898.052047
739.014290	3915.882608
739.344272	3913.634253
739.674207	3950.739666
740.004093	3960.242241
740.333931	3957.363742
740.663722	3952.796457
740.993464	3953.348463
741.323159	3929.460956
741.652806	3898.173035
741.982405	3871.079353
742.311956	3840.275383
742.641460	3831.718024
742.970915	3807.616267
743.300323	3766.336779
743.629683	3730.836974
743.958996	3721.281467
744.288260	3694.593598
744.617477	3661.997498
744.946647	3649.243378
745.275768	3621.887557
745.604842	3621.121302
745.933869	3572.784198
746.262847	3565.782035
746.591778	3601.997684
746.920662	3573.837799
747.249498	3541.524003
747.578286	3588.820108
747.907027	3610.050928
748.235720	3607.109414
748.564365	3627.054740
748.892963	3631.543887
749.221514	3610.547481
749.550017	3587.196857
749.878473	3587.211980
750.206881	3558.379101
750.535242	3554.688976
750.863555	3554.383986
751.191821	3547.777554
751.520039	3530.262065
751.848210	3507.143334
752.176334	3540.230947
752.504411	3547.013819
752.832440	3507.536544
753.160421	3489.965602
753.488356	3501.542612
753.816243	3512.779344
754.144082	3469.377530
754.471875	3457.218267
754.799620	3474.368272
755.127318	3465.538691
755.454969	3464.684215
755.782572	3472.530771
756.110129	3445.001030
756.437638	3436.731017
756.765100	3452.245168
757.092515	3462.874441
757.419882	3470.453816
757.747203	3441.845268
758.074477	3443.526493
758.401703	3461.004173
758.728882	3479.608551
759.056014	3485.599963
759.383099	3490.817557
759.710138	3487.218173
760.037129	3505.446985
760.364073	3533.712735
760.690970	3519.456352
761.017820	3496.236797
761.344623	3517.616331
761.671379	3560.997980
761.998088	3611.364148
762.324751	3740.573963
762.651366	3985.521107
762.977935	4458.938386
763.304456	4906.202158
763.630931	5002.785624
763.957359	4641.803721
764.283740	4297.918891
764.610074	4104.005867
764.936362	3908.028490
765.262602	3746.514962
765.588796	3636.630411
765.914943	3547.091957
766.241044	3458.685242
766.567097	3429.481838
766.893104	3379.259343
767.219064	3348.979652
767.544978	3323.229438
767.870845	3267.212137
768.196665	3250.813263
768.522438	3257.422216
768.848165	3256.179572
769.173846	3217.871844
769.499479	3202.335007
769.825066	3185.558047
770.150607	3167.165398
770.476101	3182.936647
770.801548	3176.995648
771.126949	3132.983854
771.452303	3111.609362
771.777611	3119.997842
772.102872	3123.579582
772.428087	3100.891869
772.753256	3093.110848
773.078378	3084.969384
773.403453	3050.064435
773.728482	3041.265101
774.053465	3060.663461
774.378401	3045.865154
774.703291	3016.323992
775.028135	3017.793489
775.352932	3014.100843
775.677683	2997.243225
776.002388	2996.907988
776.327046	2999.196672
776.651658	2987.027327
776.976224	2975.667087
777.300743	2976.128352
777.625216	2965.115952
777.949643	2963.943883
778.274024	2964.130406
778.598359	2955.784776
778.922647	2961.216619
779.246889	2958.065898
779.571086	2944.961418
779.895236	2935.088319
780.219339	2944.180040
780.543397	2957.097996
780.867409	2964.634521
781.191374	2953.725464
781.515294	2952.593725
781.839167	2950.297480
782.162995	2943.464196
782.486776	2957.256793
782.810511	2952.926442
783.134201	2937.006478
783.457844	2944.500153
783.781441	2934.443051
784.104993	2914.263312
784.428498	2914.583425
784.751958	2930.984819
785.075372	2922.621545
785.398739	2904.203690
785.722061	2921.333530
786.045337	2936.824996
786.368568	2919.478386
786.691752	2909.874988
787.014891	2961.506485
787.337983	2989.648727
787.661030	3019.411699
787.984031	3086.406113
788.306987	3131.390849
788.629897	3122.049591
788.952760	3107.528548
789.275579	3093.078080
789.598351	3035.863505
789.921078	2990.228459
790.243759	2980.183960
790.566395	2960.551187
790.888984	2936.877928
791.211529	2918.996956
791.534027	2912.574526
791.856480	2902.247722
792.178888	2886.660474
792.501249	2877.198228
792.823566	2876.550440
793.145836	2871.705891
793.468062	2870.765716
793.790241	2868.325798
794.112375	2872.711602
794.434464	2886.254661
794.756507	2890.151473
795.078505	2894.822102
795.400457	2908.962539
795.722364	2945.304217
796.044226	2975.016778
796.366042	2973.837148
796.687812	2960.188224
797.009538	2981.169506
797.331218	2970.789770
797.652852	2953.675053
797.974442	2936.275510
798.295986	2931.322577
798.617484	2930.084973
798.938938	2915.100144
799.260346	2898.126579
799.581709	2892.082235
799.903026	2882.589743
800.224299	2880.714433
800.545526	2868.603061
800.866708	2854.354240
801.187845	2844.987776
801.508936	2845.441480
801.829983	2854.213087
802.150984	2839.616427
802.471940	2826.204437
802.792851	2826.713593
803.113717	2827.462205
803.434538	2832.483194
803.755314	2828.175528
804.076045	2820.044147
804.396731	2817.881492
804.717372	2819.996256
805.037967	2815.386121
805.358518	2819.900474
805.679024	2834.038390
805.999485	2828.674602
806.319901	2833.824141
806.640272	2825.801144
806.960598	2830.814572
807.280879	2841.622806
807.601115	2847.558764
807.921306	2832.936898
808.241453	2827.230312
808.561554	2834.965962
808.881611	2837.110973
809.201623	2833.756085
809.521590	2833.662824
809.841513	2829.725683
810.161390	2830.960765
810.481223	2825.765856
810.801011	2813.553661
811.120755	2810.627271
811.440453	2814.861841
811.760107	2812.915955
812.079716	2811.653146
812.399281	2803.342804
812.718801	2796.340641
813.038276	2792.733696
813.357707	2796.968265
813.677093	2804.030922
813.996434	2799.254428
814.315731	2793.399128
814.634983	2788.065587
814.954191	2789.411575
815.273354	2805.996972
815.592473	2812.968887
815.911547	2815.832263
816.230577	2822.494147
816.549562	2831.553101
816.868502	2834.570232
817.187399	2841.736232
817.506250	2857.399097
817.825058	2850.797706
818.143821	2866.453009
818.462539	2879.638147
818.781213	2905.375758
819.099843	2942.851696
819.418429	3003.297651
819.736970	3063.655386
820.055466	3136.091725
820.373919	3244.897469
820.692327	3384.461814
821.010691	3551.893656
821.329011	3999.001153
821.647286	4903.061519
821.965517	6292.874867
822.283704	7046.761780
822.601847	7027.938112
822.919945	6390.338015
823.237999	5877.569489
823.556010	5288.248523
823.873976	4730.608687
824.191897	4317.697858
824.509775	4023.889329
824.827609	3754.056528
825.145398	3626.908546
825.463144	3616.117956
825.780845	3706.208417
826.098502	3812.942247
826.416116	4095.771142
826.733685	4415.594545
827.051210	4485.167509
827.368692	4362.319631
827.686129	4095.919856
828.003522	3769.490021
828.320872	3508.832120
828.638177	3312.847182
828.955439	3176.390709
829.272656	3092.042123
829.589830	3022.181813
829.906960	2970.109214
830.224046	2925.691608
830.541088	2894.749006
830.858086	2880.812736
831.175041	2860.474201
831.491952	2858.825743
831.808819	2875.141438
832.125642	2896.979716
832.442421	2940.321036
832.759157	3023.167359
833.075849	3204.459854
833.392497	3488.617093
833.709101	3693.965975
834.025662	3641.026297
834.342179	3482.255157
834.658653	3302.827889
834.975083	3157.188954
835.291469	3059.556928
835.607811	2972.077785
835.924110	2909.630492
836.240366	2859.586958
836.556578	2816.006182
836.872746	2796.703604
837.188871	2773.126128
837.504952	2753.510998
837.820990	2744.966242
838.136984	2732.023080
838.452935	2724.960423
838.768842	2722.439847
839.084706	2741.659246
839.400526	2823.162100
839.716303	2954.673201
840.032037	3034.875438
840.347727	3019.983870
840.663373	2958.983388
840.978977	2881.581512
841.294537	2812.792447
841.610054	2764.311670
841.925527	2741.785274
842.240957	2717.406254
842.556344	2697.445806
842.871687	2681.825791
843.186987	2672.045952
843.502244	2667.261897
843.817458	2660.988181
844.132629	2652.151038
844.447756	2639.064203
844.762840	2633.599592
845.077881	2636.803246
845.392879	2637.519089
845.707833	2631.449540
846.022745	2622.854373
846.337613	2627.590537
846.652438	2626.453757
846.967221	2625.470732
847.281960	2621.268930
847.596656	2624.076853
847.911309	2621.342027
848.225919	2619.166769
848.540485	2615.569906
848.855009	2614.034874
849.169490	2616.709206
849.483928	2616.988990
849.798323	2615.975718
850.112675	2614.564195
850.426984	2612.640995
850.741251	2614.123094
851.055474	2612.439349
851.369654	2617.520832
851.683792	2614.337343
851.997887	2614.516304
852.311938	2613.205604
852.625947	2614.722992
852.939914	2618.541666
853.253837	2617.183075
853.567718	2612.673763
853.881555	2610.526231
854.195350	2617.109978
854.509103	2613.427415
854.822812	2611.685697
855.136479	2610.637137
855.450103	2615.716099
855.763685	2614.602004
856.077224	2610.901797
856.390720	2611.063114
856.704173	2614.236520
857.017584	2614.823815
857.330953	2616.215173
857.644278	2619.083590
857.957561	2619.068466
858.270802	2618.007303
858.584000	2617.515791
858.897155	2618.471090
859.210268	2619.731378
859.523339	2615.902622
859.836367	2611.199225
860.149352	2610.339708
860.462295	2613.175357
860.775195	2611.181581
861.088054	2610.705192
861.400869	2607.887187
861.713642	2606.584049
862.026373	2607.602362
862.339062	2612.295676
862.651708	2619.199536
862.964312	2616.618466
863.276873	2614.927158
863.589392	2618.191306
863.901869	2623.310597
864.214303	2627.545167
864.526696	2629.417955
864.839045	2627.973665
865.151353	2631.031124
865.463619	2633.292082
865.775842	2633.375261
866.088023	2634.683440
866.400162	2633.468522
866.712258	2633.460961
867.024313	2632.374592
867.336325	2626.864611
867.648296	2632.145219
867.960224	2637.811476
868.272110	2635.016157
868.583954	2626.254631
868.895755	2628.223202
869.207515	2633.329891
869.519233	2639.515386
869.830909	2637.700571
870.142542	2632.172946
870.454134	2634.678399
870.765684	2638.920530
871.077191	2639.038997
871.388657	2644.342291
871.700081	2641.362969
872.011463	2644.707775
872.322803	2643.785244
872.634101	2650.691624
872.945357	2657.340906
873.256571	2662.863490
873.567744	2658.729744
873.878874	2657.676143
874.189963	2657.887872
874.501010	2661.739313
874.812015	2667.549243
875.122979	2667.062772
875.433900	2660.597492
875.744780	2655.241266
876.055618	2662.306443
876.366415	2667.478667
876.677169	2667.002278
876.987882	2661.706546
877.298554	2661.378871
877.609183	2671.670386
877.919771	2678.848989
878.230317	2686.002387
878.540822	2697.160981
878.851285	2710.777137
879.161707	2736.023236
879.472087	2775.656787
879.782425	2825.193685
880.092722	2940.608382
880.402977	3130.937146
880.713191	3396.500089
881.023363	3694.661654
881.333494	3886.865727
881.643583	4061.640010
881.953631	4056.298907
882.263637	3883.092423
882.573602	3656.215294
882.883526	3524.434491
883.193408	3407.588107
883.503248	3305.908034
883.813048	3189.391845
884.122806	3069.770305
884.432522	2984.932727
884.742197	2919.617018
885.051831	2882.015051
885.361424	2844.907117
885.670975	2809.659370
885.980485	2777.758948
886.289954	2758.685743
886.599382	2741.291241
886.908768	2732.128944
887.218113	2714.525235
887.527417	2698.360775
887.836680	2690.985567
888.145901	2686.191430
888.455082	2677.129956
888.764221	2666.926660
889.073319	2660.244611
889.382376	2659.097748
889.691392	2659.866524
890.000366	2659.347286
890.309300	2657.623211
890.618193	2662.976916
890.927044	2662.455157
891.235855	2663.927174
891.544625	2661.918274
891.853353	2663.743172
892.162041	2668.991013
892.470687	2687.519774
892.779293	2699.855477
893.087858	2712.360059
893.396381	2732.118862
893.704864	2777.511932
894.013306	2849.784434
894.321707	2943.509566
894.630068	2996.671054
894.938387	3015.691328
895.246665	3007.428876
895.554903	2966.323308
895.863100	2921.358736
896.171256	2860.970754
896.479371	2796.779222
896.787446	2762.285127
897.095480	2741.719739
897.403473	2734.034500
897.711425	2717.542366
898.019336	2699.273224
898.327207	2681.848476
898.635038	2683.978363
898.942827	2681.069617
899.250576	2670.841116
899.558284	2660.592451
899.865952	2657.761843
900.173579	2654.616163
900.481165	2649.396048
900.788711	2641.683082
901.096216	2636.185704
901.403681	2635.389202
901.711105	2634.035652
902.018489	2631.101701
902.325832	2632.566156
902.633135	2637.040180
902.940397	2651.442756
903.247619	2689.778211
903.554800	2762.406114
903.861941	2889.929663
904.169041	3019.567975
904.476101	3085.279415
904.783121	3078.168868
905.090100	3020.987060
905.397039	2943.121397
905.703938	2867.453678
906.010796	2801.275931
906.317614	2748.185019
906.624391	2712.803681
906.931129	2686.710669
907.237826	2662.752585
907.544483	2643.225676
907.851099	2631.426855
908.157675	2621.543673
908.464211	2612.643516
908.770707	2601.121959
909.077163	2597.837647
909.383578	2592.181472
909.689954	2592.695670
909.996289	2592.574682
910.302584	2591.780701
910.608839	2584.811305
910.915054	2589.854980
911.221229	2591.372367
911.527363	2593.151894
911.833458	2588.624938
912.139513	2590.122161
912.445527	2593.351020
912.751502	2600.244798
913.057436	2603.549274
913.363331	2614.980091
913.669186	2623.426544
913.975000	2636.543626
914.280775	2653.350833
914.586510	2671.148627
914.892205	2709.572301
915.197859	2780.410595
915.503475	2864.043337
915.809050	2933.268462
916.114585	2949.594239
916.420081	2964.846250
916.725536	2974.371510
917.030952	2946.072993
917.336328	2897.609860
917.641665	2845.436439
917.946961	2794.397277
918.252218	2760.256062
918.557435	2734.871332
918.862612	2709.272353
919.167750	2691.232584
919.472848	2678.107940
919.777906	2658.192861
920.082925	2645.700882
920.387904	2637.282155
920.692843	2631.447020
920.997743	2625.127933
921.302603	2619.007972
921.607423	2612.575460
921.912204	2605.245622
922.216946	2605.026332
922.521647	2601.063985
922.826310	2597.809921
923.130932	2593.265320
923.435516	2586.018662
923.740059	2586.033785
924.044564	2583.719896
924.349028	2584.239134
924.653454	2575.099523
924.957840	2572.110118
925.262186	2569.493759
925.566493	2570.827145
925.870761	2565.750703
926.174989	2568.745148
926.479178	2565.551577
926.783328	2565.120558
927.087438	2563.182235
927.391509	2562.108469
927.695541	2558.919939
927.999533	2559.509754
928.303486	2556.109496
928.607400	2557.578992
928.911275	2556.255689
929.215110	2556.028837
929.518906	2555.804506
929.822663	2555.693601
930.126381	2556.094372
930.430060	2556.364074
930.733699	2554.808878
931.037299	2557.699980
931.340861	2558.854404
931.644383	2559.701318
931.947866	2555.698642
932.251309	2556.850546
932.554714	2553.629248
932.858080	2554.098076
933.161407	2556.296019
933.464694	2554.261913
933.767943	2555.857438
934.071153	2553.994732
934.374323	2554.519012
934.677455	2555.035730
934.980548	2553.273847
935.283602	2553.656975
935.586617	2554.682849
935.889593	2553.788045
936.192530	2553.253682
936.495428	2554.027499
936.798287	2553.420040
937.101108	2555.733930
937.403890	2559.547563
937.706632	2564.901268
938.009336	2565.816238
938.312002	2569.897052
938.614628	2574.139183
938.917216	2577.887281
939.219765	2576.400140
939.522275	2578.840059
939.824747	2577.975501
940.127179	2573.758576
940.429573	2569.370251
940.731929	2570.401167
941.034246	2565.322205
941.336524	2564.989488
941.638763	2568.866136
941.940964	2567.343707
942.243126	2566.002760
942.545250	2566.164077
942.847335	2565.670044
943.149381	2562.161401
943.451389	2561.909343
943.753359	2558.582182
944.055290	2560.966648
944.357182	2556.653941
944.659036	2561.753068
944.960851	2555.713765
945.262628	2557.142932
945.564367	2560.535629
945.866067	2554.166131
946.167729	2556.880792
946.469352	2554.173693
946.770937	2557.669733
947.072484	2555.620504
947.373992	2557.329455
947.675462	2556.618653
947.976893	2556.963972
948.278286	2552.021120
948.579641	2555.809547
948.880958	2550.113043
949.182236	2554.640000
949.483476	2553.485575
949.784678	2555.713765
950.085841	2553.833415
950.386967	2555.446584
950.688054	2554.927345
950.989103	2555.529763
951.290114	2553.263765
951.591087	2556.928683
951.892021	2557.402552
952.192917	2560.076884
952.493776	2560.507903
952.794596	2561.516133
953.095378	2560.467573
953.396122	2561.531257
953.696828	2560.926318
953.997496	2559.368602
954.298126	2556.785011
954.598718	2558.327604
954.899272	2555.759136
955.199788	2554.834084
955.500266	2552.457180
955.800706	2547.887374
956.101108	2545.535676
956.401472	2545.187836
956.701798	2543.907383
957.002087	2541.548123
957.302337	2544.814791
957.602550	2545.069369
957.902724	2542.500901
958.202861	2544.013247
958.502960	2544.797147
958.803022	2543.551982
959.103045	2541.336395
959.403031	2540.791950
959.702979	2541.696837
960.002889	2541.533000
960.302762	2538.553678
960.602596	2538.951929
960.902393	2539.065355
961.202153	2542.755479
961.501875	2538.140303
961.801559	2540.121477
962.101205	2538.636857
962.400814	2540.517207
962.700385	2536.433873
962.999918	2540.469316
963.299414	2536.474202
963.598873	2539.168698
963.898293	2535.584438
964.197677	2539.725746
964.497022	2541.144831
964.796331	2539.748431
965.095601	2537.358924
965.394835	2538.500746
965.694030	2537.227854
965.993189	2539.393030
966.292309	2536.774150
966.591393	2536.300282
966.890439	2537.389171
967.189447	2537.154758
967.488419	2536.539737
967.787353	2540.204656
968.086249	2536.456558
968.385108	2536.726259
968.683930	2536.733821
968.982714	2538.646939
969.281462	2537.512679
969.580172	2539.282124
969.878844	2537.172402
970.177480	2538.556198
970.476078	2536.910262
970.774639	2539.385468
971.073162	2539.390509
971.371649	2534.359438
971.670098	2534.009077
971.968510	2536.262473
972.266885	2534.369520
972.565223	2539.776158
972.863524	2538.687268
973.161788	2539.093081
973.460014	2537.245498
973.758204	2540.033256
974.056356	2539.261960
974.354471	2537.986548
974.652550	2538.193235
974.950591	2538.674665
975.248595	2540.376055
975.546563	2539.645087
975.844493	2538.084850
976.142386	2540.870088
976.440243	2541.107022
976.738062	2537.701723
977.035845	2536.237267
977.333590	2538.115097
977.631299	2537.452186
977.928971	2537.353883
978.226606	2536.418749
978.524204	2536.554860
978.821765	2536.295241
979.119290	2537.086702
979.416777	2535.836496
979.714228	2535.019829
980.011642	2535.075282
980.309020	2538.190715
980.606360	2537.749614
980.903664	2540.691127
981.200931	2536.869932
981.498162	2537.633667
981.795356	2541.114584
982.092513	2544.613145
982.389633	2545.066848
982.686717	2548.872920
982.983764	2552.920966
983.280775	2552.910884
983.577749	2553.641851
983.874686	2554.224104
984.171587	2547.337888
984.468451	2547.610111
984.765279	2544.550130
985.062070	2540.676003
985.358824	2538.730118
985.655543	2539.836651
985.952224	2538.052083
986.248869	2537.767258
986.545478	2532.504293
986.842050	2536.270035
987.138586	2530.646628
987.435086	2532.353058
987.731549	2529.635877
988.027975	2535.362627
988.324366	2532.968079
988.620719	2533.053779
988.917037	2535.970086
989.213318	2531.707791
989.509563	2535.367668
989.805772	2535.145858
990.101944	2538.392361
990.398080	2533.711649
990.694180	2534.614016
990.990244	2533.615867
991.286271	2530.825589
991.582262	2532.773995
991.878217	2534.377082
992.174136	2534.399767
992.470019	2533.247863
992.765865	2533.835158
993.061676	2531.120496
993.357450	2536.292720
993.653188	2533.504962
993.948890	2533.648635
994.244556	2532.262318
994.540186	2535.546629
994.835780	2535.710467
995.131337	2535.342463
995.426859	2537.956301
995.722345	2536.189377
996.017795	2537.953780
996.313208	2537.537885
996.608586	2538.346990
996.903928	2536.605272
997.199234	2540.895294
997.494504	2536.191897
997.789738	2533.716691
998.084936	2538.004192
998.380099	2535.019829
998.675225	2539.062834
998.970316	2532.116124
999.265371	2534.114942
999.560390	2535.803728
999.855373	2534.964376
1000.150320	2533.404139
1000.445232	2534.669469
1000.740108	2531.271731
1001.034948	2533.613347
1001.329752	2530.709642
1001.624521	2533.502442
1001.919254	2529.882893
1002.213951	2534.268697
1002.508613	2529.575383
1002.803239	2532.700898
1003.097829	2527.715197
1003.392384	2532.043027
1003.686903	2531.042358
1003.981386	2533.066382
1004.275834	2532.650487
1004.570246	2529.406504
1004.864623	2532.143851
1005.158964	2531.085208
1005.453270	2532.705939
1005.747540	2531.473377
1006.041775	2529.164529
1006.335974	2533.996475
1006.630138	2529.892975
1006.924266	2532.484128
1007.218359	2530.137471
1007.512416	2533.671320
1007.806438	2529.290557
1008.100425	2533.489839
1008.394376	2530.669313
1008.688292	2532.121165
1008.982172	2532.085877
1009.276017	2532.932791
1009.569827	2533.381454
1009.863602	2532.073274
1010.157341	2530.250897
1010.451045	2532.663089
1010.744714	2531.866587
1011.038347	2529.552697
1011.331945	2532.186700
1011.625508	2529.169570
1011.919036	2528.670496
1012.212528	2532.952956
1012.505986	2528.027748
1012.799408	2531.107893
1013.092795	2531.891793
1013.386147	2531.675023
1013.679464	2532.768954
1013.972745	2534.140147
1014.265992	2532.300126
1014.559204	2531.687626
1014.852380	2530.651669
1015.145521	2531.115455
1015.438628	2528.947759
1015.731699	2532.978162
1016.024736	2531.380116
1016.317737	2529.285516
1016.610703	2532.509334
1016.903635	2527.228726
1017.196531	2526.636390
1017.489393	2528.650331
1017.782219	2526.044054
1018.075011	2528.809127
1018.367768	2531.450692
1018.660490	2534.787936
1018.953177	2534.787936
1019.245829	2534.787936
