Dividing Wavelength (nm)	Counts (n)	Blue Motor Position (mm): 24.900000	Red Motor Position (mm): 0.000000	
326.493990	2197.161698
326.888308	2197.161698
327.282561	2197.161698
327.676750	2157.278609
328.070874	2153.936324
328.464933	2154.243835
328.858929	2155.743578
329.252859	2163.418735
329.646726	2172.933913
330.040528	2185.680470
330.434265	2195.430062
330.827938	2216.113916
331.221547	2229.697305
331.615091	2247.958885
332.008571	2267.538726
332.401986	2284.348454
332.795338	2303.414098
333.188625	2323.203147
333.581847	2340.617813
333.975006	2359.804445
334.368100	2381.161293
334.761129	2399.069992
335.154095	2417.349216
335.546996	2440.730087
335.939833	2477.371714
336.332606	2490.025010
336.725315	2501.468429
337.117960	2515.389576
337.510540	2527.783253
337.903056	2539.340098
338.295508	2546.264123
338.687896	2555.716286
339.080220	2564.107287
339.472480	2569.650035
339.864676	2576.420305
340.256807	2580.516242
340.648875	2585.416244
341.040879	2585.723754
341.432818	2589.829774
341.824694	2594.974272
342.216506	2593.502255
342.608253	2596.042996
342.999937	2596.622729
343.391557	2595.554004
343.783113	2596.174066
344.174605	2593.242635
344.566033	2596.216916
344.957397	2596.075764
345.348697	2591.735330
345.739934	2587.581419
346.131106	2586.953796
346.522215	2587.087386
346.913260	2583.861048
347.304241	2584.619742
347.695159	2581.030440
348.086012	2581.882395
348.476802	2576.972311
348.867528	2570.902762
349.258191	2568.621640
349.648789	2571.217834
350.039324	2565.692729
350.429796	2569.340004
350.820203	2563.961093
351.210548	2565.869170
351.600828	2567.373954
351.991045	2564.918912
352.381198	2561.934549
352.771288	2563.041082
353.161314	2563.162070
353.551276	2560.868345
353.941175	2561.450598
354.331010	2560.255845
354.720782	2561.069991
355.110490	2561.006977
355.500135	2561.284240
355.889717	2559.923129
356.279235	2559.839950
356.668689	2560.555794
357.058080	2561.979920
357.447408	2561.052347
357.836672	2561.009498
358.225873	2561.236349
358.615010	2562.431103
359.004084	2563.656103
359.393095	2564.437482
359.782043	2563.325908
360.170927	2562.867163
360.559748	2563.880435
360.948505	2567.492421
361.337199	2564.921433
361.725830	2566.937894
362.114398	2567.406722
362.502903	2567.119376
362.891344	2566.953018
363.279722	2569.148440
363.668037	2568.992165
364.056289	2569.687844
364.444478	2568.409911
364.832603	2571.278328
365.220665	2569.347566
365.608665	2573.539285
365.996601	2570.673389
366.384474	2572.707495
366.772284	2570.265056
367.160031	2570.829665
367.547715	2573.614903
367.935336	2572.137845
368.322893	2568.858574
368.710388	2569.927299
369.097820	2572.936867
369.485189	2568.031825
369.872495	2573.340160
370.259738	2574.892835
370.646918	2574.885273
371.034035	2578.227558
371.421090	2576.342167
371.808081	2577.126066
372.195010	2579.601273
372.581875	2576.682445
372.968678	2577.181519
373.355418	2574.469378
373.742096	2576.848803
374.128710	2579.056828
374.515262	2579.911304
374.901751	2578.996334
375.288177	2578.588001
375.674540	2576.347208
376.060841	2578.131777
376.447079	2577.983062
376.833254	2578.172106
377.219367	2581.506829
377.605417	2576.571539
377.991404	2580.274267
378.377329	2579.195460
378.763191	2580.506160
379.148991	2581.577405
379.534727	2580.599421
379.920402	2580.044894
380.306013	2581.839545
380.691563	2585.464135
381.077049	2581.547158
381.462474	2580.733012
381.847835	2583.203177
382.233134	2583.369535
382.618371	2582.245358
383.003545	2582.711665
383.388657	2582.240317
383.773706	2584.886923
384.158693	2583.465317
384.543618	2586.119485
384.928480	2582.119329
385.313280	2585.360791
385.698017	2587.450349
386.082692	2586.570668
386.467305	2587.835998
386.851856	2587.591502
387.236344	2586.638724
387.620770	2586.210226
388.005133	2582.963722
388.389435	2586.058991
388.773674	2585.053281
389.157851	2588.083014
389.541965	2586.540421
389.926018	2586.976481
390.310008	2589.890268
390.693936	2586.351378
391.077802	2589.363467
391.461606	2590.843046
391.845348	2590.422110
392.229027	2590.502768
392.612645	2589.779363
392.996200	2590.888416
393.379694	2589.822212
393.763125	2588.597212
394.146494	2591.687439
394.529801	2592.872110
394.913047	2595.538881
395.296230	2592.972933
395.679351	2591.745412
396.062410	2593.444281
396.445408	2592.131061
396.828343	2593.653489
397.211217	2592.098293
397.594028	2596.030393
397.976778	2592.259610
398.359466	2593.232553
398.742092	2594.059302
399.124656	2594.679364
399.507158	2595.934611
399.889598	2597.958635
400.271977	2596.615167
400.654294	2596.990733
401.036549	2596.486618
401.418742	2597.099118
401.800874	2597.751947
402.182944	2596.206834
402.564952	2596.952924
402.946898	2595.841350
403.328783	2598.997112
403.710606	2598.740013
404.092367	2597.799838
404.474067	2596.983171
404.855705	2600.892586
405.237282	2597.966196
405.618797	2599.405446
406.000250	2602.906527
406.381642	2600.874942
406.762972	2597.777153
407.144240	2598.402256
407.525447	2598.165322
407.906593	2595.765733
408.287677	2601.863008
408.668700	2601.215220
409.049661	2601.812597
409.430560	2602.712443
409.811399	2601.053903
410.192176	2600.811928
410.572891	2603.208996
410.953545	2605.338884
411.334138	2602.934253
411.714669	2603.975252
412.095139	2604.071034
412.475547	2604.217227
412.855894	2606.339553
413.236180	2604.562546
413.616405	2606.392485
413.996568	2605.593462
414.376670	2605.018771
414.756711	2604.612958
415.136691	2606.957094
415.516609	2606.581528
415.896466	2605.013729
416.276262	2606.891559
416.655997	2606.354676
417.035670	2606.785695
417.415283	2607.297372
417.794834	2608.688731
418.174324	2605.772423
418.553753	2605.996754
418.933121	2607.604882
419.312428	2610.833742
419.691674	2607.249481
420.070859	2608.746704
420.449983	2610.876591
420.829045	2609.762496
421.208047	2610.858947
421.586988	2610.997579
421.965867	2612.237703
422.344686	2611.448762
422.723444	2612.479678
423.102141	2611.690738
423.480777	2612.005810
423.859352	2610.047322
424.237866	2613.074534
424.616319	2614.372632
424.994712	2612.194853
425.373044	2612.746859
425.751314	2608.144286
426.129524	2609.976745
426.507673	2610.465737
426.885762	2609.245778
427.263789	2612.814915
427.641756	2612.845162
428.019662	2615.196860
428.397508	2617.349433
428.775292	2616.074021
429.153016	2614.864144
429.530679	2614.740636
429.908282	2617.099896
430.285824	2615.683332
430.663305	2616.933538
431.040726	2618.062756
431.418086	2616.850359
431.795385	2616.356326
432.172624	2618.831532
432.549802	2621.820936
432.926920	2620.066615
433.303977	2620.674074
433.680974	2618.823970
434.057910	2619.996039
434.434786	2621.284053
434.811601	2620.147273
435.188355	2620.691718
435.565050	2623.048457
435.941683	2623.976030
436.318257	2627.008284
436.694770	2623.166924
437.071222	2624.951493
437.447614	2627.640948
437.823946	2625.964765
438.200218	2625.248921
438.576429	2627.482152
438.952580	2627.444343
439.328670	2630.847122
439.704700	2627.487193
440.080670	2630.511886
440.456580	2629.377626
440.832429	2629.032307
441.208218	2633.019860
441.583947	2631.353758
441.959616	2632.170425
442.335224	2633.574387
442.710773	2633.770992
443.086261	2636.016826
443.461689	2631.250415
443.837057	2636.029428
444.212365	2638.144192
444.587612	2634.935498
444.962800	2633.889459
445.337927	2638.134110
445.712995	2636.566311
446.088002	2643.828093
446.462949	2642.240130
446.837837	2646.734319
447.212664	2645.700882
447.587431	2649.723723
447.962139	2656.798982
448.336786	2661.111689
448.711374	2666.132679
449.085901	2664.948007
449.460369	2664.257369
449.834776	2668.605365
450.209124	2674.198525
450.583412	2681.949299
450.957640	2696.808100
451.331808	2696.523275
451.705917	2695.580579
452.079965	2701.453523
452.453954	2714.000955
452.827883	2722.107130
453.201752	2732.620457
453.575562	2740.855182
453.949311	2755.305649
454.323001	2770.802156
454.696632	2789.686318
455.070202	2811.396047
455.443713	2835.344049
455.817164	2861.472349
456.190556	2889.319683
456.563888	2926.122627
456.937160	2961.763584
457.310373	2971.122486
457.683526	3000.792197
458.056619	3019.583098
458.429653	3059.254458
458.802628	3079.406471
459.175542	3131.411014
459.548398	3221.884602
459.921194	3298.779842
460.293930	3360.864173
460.666607	3489.229593
461.039224	3647.753717
461.411782	3789.402579
461.784280	3846.430632
462.156719	3926.239659
462.529099	3964.640648
462.901419	3945.698512
463.273680	3997.234228
463.645882	4057.725554
464.018024	4115.038432
464.390106	4229.278540
464.762130	4428.378911
465.134094	4633.175786
465.505999	5072.353547
465.877845	5781.956445
466.249631	6423.773467
466.621358	6492.711246
466.993026	6368.154417
467.364634	6395.439662
467.736184	6289.290606
468.107674	6263.434528
468.479105	6440.104285
468.850477	6495.337687
469.221790	6535.014089
469.593043	6514.935173
469.964238	6546.578496
470.335373	6592.092553
470.706449	6845.647468
471.077467	6858.618357
471.448425	7518.578492
471.819324	8890.982215
472.190164	9741.871011
472.560945	8904.432014
472.931667	8305.696692
473.302330	8258.934949
473.672934	8229.096359
474.043479	8558.893685
474.413965	8662.088625
474.784393	8704.860295
475.154761	9130.600861
475.525070	9320.359974
475.895321	9320.967433
476.265513	9754.476417
476.635645	10157.284773
477.005719	10275.126786
477.375734	10545.849350
477.745691	10973.129988
478.115588	11355.912362
478.485427	11837.881957
478.855207	12536.207794
479.224928	13605.008027
479.594591	14992.762063
479.964194	15252.426857
480.333739	15724.417488
480.703226	15682.137331
481.072653	15778.768689
481.442022	16338.611508
481.811333	17076.770022
482.180584	17331.749063
482.549777	16985.797360
482.918912	17062.879123
483.287988	17353.264708
483.657005	17399.217346
484.025964	17437.197399
484.394864	17653.084812
484.763706	17699.886884
485.132489	17575.488852
485.501213	17864.415022
485.869879	18069.098472
486.238487	18039.574954
486.607036	18460.987689
486.975527	18402.603566
487.343959	18844.054888
487.712333	19036.752993
488.080648	18930.641746
488.448905	19496.004629
488.817104	19484.258741
489.185244	20167.524130
489.553326	20373.409895
489.921350	21242.048593
490.289315	23186.139327
490.657222	24843.373284
491.025070	25470.124818
491.392861	25511.137125
491.760593	25005.252295
492.128267	24532.389544
492.495883	23824.611544
492.863440	23265.287963
493.230939	22632.539976
493.598380	22665.738495
493.965763	22429.567999
494.333088	22192.054036
494.700354	22230.175241
495.067563	22264.389552
495.434713	22148.674907
495.801805	22349.648067
496.168839	22345.652952
496.535815	22268.634204
496.902733	22556.322771
497.269593	22323.928100
497.636395	22610.293364
498.003139	22675.558663
498.369825	22531.560624
498.736453	22771.731275
499.103023	22735.971850
499.469535	22823.302279
499.835989	23078.687133
500.202385	23180.142875
500.568723	22760.257609
500.935003	23078.790477
501.301226	22729.982960
501.667390	23556.281007
502.033497	23863.504046
502.399546	23641.448781
502.765537	23303.366319
503.131470	23702.330796
503.497345	23881.206058
503.863163	23129.663281
504.228923	23801.762514
504.594625	24005.137784
504.960269	23545.039234
505.325856	24069.919131
505.691385	23528.345453
506.056856	24141.044771
506.422270	24142.179031
506.787625	23763.968984
507.152924	24192.320867
507.518164	24228.309665
507.883347	24051.970103
508.248472	23761.176185
508.613540	24537.256778
508.978550	24340.946686
509.343503	24334.289842
509.708398	24634.435101
510.073236	24793.334791
510.438016	25008.665157
510.802738	24705.958992
511.167403	24970.395237
511.532010	24655.552494
511.896561	25449.700583
512.261053	25435.711381
512.625488	25276.113492
512.989866	25204.120773
513.354186	25049.042278
513.718449	25146.157587
514.082655	25538.409767
514.446803	25282.954337
514.810894	25713.882250
515.174927	25231.199331
515.538904	25262.998930
515.902822	25754.166111
516.266684	25508.969429
516.630488	25413.605922
516.994235	25406.530662
517.357925	25696.873397
517.721558	25892.303808
518.085133	25979.732540
518.448651	25906.504739
518.812112	25620.046213
519.175516	25811.973022
519.538863	25983.639434
519.902152	25763.633398
520.265385	26073.898773
520.628560	25849.549783
520.991678	25869.467382
521.354739	25953.878982
521.717743	25990.218140
522.080690	25792.781349
522.443580	26110.865554
522.806413	26131.582176
523.169189	26218.655506
523.531908	26280.162624
523.894569	25873.207918
524.257174	25956.913757
524.619722	26158.852297
524.982213	25840.498391
525.344647	25914.812560
525.707025	26023.313315
526.069345	26023.290629
526.431608	25985.761760
526.793815	26177.713775
527.155964	25610.402485
527.518057	25787.709948
527.880093	25718.797375
528.242072	25950.844208
528.603995	25641.365252
528.965860	25443.142042
529.327669	25500.651525
529.689421	25495.993499
530.051117	25328.859084
530.412755	25507.265519
530.774337	25304.958974
531.135862	25182.723596
531.497331	25386.217333
531.858743	24925.052579
532.220098	25411.503760
532.581396	25083.485962
532.942638	25048.462546
533.303824	25133.446317
533.664953	25159.151161
534.026025	24811.510671
534.387040	25048.323914
534.747999	25116.913853
535.108902	25282.719924
535.469748	24756.567135
535.830537	24957.512568
536.191270	25080.514202
536.551947	24961.666479
536.912567	24631.637260
537.273131	24930.232364
537.633638	24665.523897
537.994089	24865.345153
538.354483	24421.516927
538.714821	24916.084366
539.075103	24968.751821
539.435328	24752.524130
539.795497	24292.564212
540.155609	24701.434556
540.515665	25000.750545
540.875665	24240.869699
541.235609	24516.560321
541.595496	24490.321115
541.955328	24844.200033
542.315102	24754.089408
542.674821	24328.469830
543.034483	24205.490882
543.394090	24361.617937
543.753640	24151.603468
544.113134	24780.925990
544.472571	24387.791608
544.831953	24673.977912
545.191278	24278.620380
545.550548	24222.416556
545.909761	24436.423619
546.268918	24655.423945
546.628019	24612.314518
546.987064	24316.250073
547.346053	24081.667540
547.704986	24213.841553
548.063863	24375.506316
548.422684	24361.703637
548.781449	23917.328446
549.140158	24322.710312
549.498811	23898.141814
549.857408	23629.833962
550.215949	24076.424740
550.574434	23747.116407
550.932864	23978.248269
551.291237	24106.855666
551.649555	23987.652542
552.007817	24029.761300
552.366022	23910.374174
552.724173	23948.041675
553.082267	23885.400298
553.440305	24361.774213
553.798288	23641.176558
554.156215	24154.928109
554.514086	24235.871395
554.871902	23600.411268
555.229661	23900.536362
555.587365	23765.728347
555.945014	23589.744186
556.302606	23875.307908
556.660143	23805.429954
557.017625	24056.789446
557.375050	23602.997380
557.732421	23996.635878
558.089735	23797.961484
558.446994	23855.206307
558.804197	23875.197002
559.161345	23844.685419
559.518437	23580.024842
559.875474	23781.403814
560.232455	23950.489156
560.589381	23786.364310
560.946251	23759.242902
561.303065	24093.700775
561.659825	24169.232383
562.016528	23777.980871
562.373177	23521.141644
562.729770	23872.361353
563.086307	23740.935952
563.442789	23912.446088
563.799216	23732.910435
564.155587	23758.723663
564.511904	23729.686617
564.868164	23668.754191
565.224370	23654.049145
565.580520	23551.242374
565.936615	23688.815462
566.292654	23354.057641
566.648638	23668.421474
567.004567	23498.988294
567.360441	23461.076296
567.716260	23174.030476
568.072023	23495.981245
568.427732	23254.701540
568.783385	23046.259911
569.138982	23278.483183
569.494525	23311.482576
569.850013	23052.495818
570.205445	23165.740298
570.560823	22958.808494
570.916145	22720.588769
571.271412	22897.752560
571.626625	22649.745434
571.981782	22764.265326
572.336884	22566.415161
572.691931	22703.736192
573.046923	22443.040483
573.401860	22321.465496
573.756743	22325.216114
574.111570	22237.827713
574.466342	22176.849916
574.821059	22261.138008
575.175722	21965.396197
575.530330	21949.803908
575.884882	21979.962611
576.239380	21882.398640
576.593823	21767.619129
576.948211	21744.878484
577.302544	21598.317018
577.656823	21468.575362
578.011047	21568.085218
578.365216	21440.415477
578.719330	21315.583904
579.073389	21223.655943
579.427394	21363.820185
579.781344	21135.304681
580.135239	21024.754698
580.489080	21000.342910
580.842866	20767.126531
581.196597	20954.130653
581.550273	20927.286509
581.903895	20831.300419
582.257463	21135.697891
582.610975	20659.802886
582.964434	20962.667847
583.317837	20680.529590
583.671186	20779.968870
584.024481	20731.896427
584.377721	20512.639002
584.730906	20561.843184
585.084037	20602.976479
585.437113	20492.398769
585.790135	20700.631191
586.143103	20171.499080
586.496016	20179.131387
586.848874	20429.923750
587.201679	20359.884479
587.554428	20027.170846
587.907124	20361.238029
588.259765	20140.160747
588.612352	20221.895495
588.964884	19784.388876
589.317362	19956.955134
589.669786	20003.812659
590.022155	20060.530681
590.374470	20236.194728
590.726731	20043.184071
591.078937	19793.578900
591.431090	19893.663448
591.783188	19637.620723
592.135232	19620.982395
592.487222	19714.556293
592.839157	19734.315095
593.191038	19622.131778
593.542866	19507.773203
593.894639	19235.137521
594.246358	19440.383058
594.598022	19359.782570
594.949633	19112.261916
595.301190	19066.480678
595.652692	19232.107787
596.004141	19469.677203
596.355535	18811.947779
596.706876	18816.026072
597.058162	18705.715544
597.409395	18932.650646
597.760573	19018.199027
598.111698	18794.238205
598.462768	18727.412670
598.813785	18683.254683
599.164748	18509.841511
599.515657	18542.566161
599.866511	18340.052929
600.217312	18701.727991
600.568060	18226.957163
600.918753	18536.257157
601.269392	18433.896528
601.619978	18212.622642
601.970510	18426.717925
602.320988	18373.702631
602.671412	18581.418334
603.021783	18484.126585
603.372100	18209.204740
603.722363	18346.767746
604.072572	18287.007388
604.422728	18416.857428
604.772830	18182.574845
605.122878	18132.352349
605.472872	18127.603582
605.822813	18120.538405
606.172701	18078.437209
606.522534	18279.370040
606.872314	18303.350808
607.222041	18135.891239
607.571714	18357.785188
607.921333	18184.399742
608.270899	18257.302389
608.620411	18440.971788
608.969870	18193.741000
609.319276	18207.798258
609.668627	18238.607270
610.017926	18367.612917
610.367171	18481.757243
610.716362	18524.980096
611.065500	18352.219754
611.414585	18474.689545
611.763616	18458.668758
612.112594	18412.000277
612.461518	18382.328045
612.810389	18570.751253
613.159207	18419.073016
613.507971	18331.591352
613.856682	18612.933107
614.205340	18546.120175
614.553945	18688.515127
614.902496	18421.323891
615.250994	18671.062652
615.599439	18593.857381
615.947830	18592.002237
616.296169	18637.561664
616.644454	18611.743395
616.992686	18569.049863
617.340864	18783.230846
617.688990	18553.480259
618.037063	18725.272700
618.385082	18575.431964
618.733048	18853.912864
619.080961	18716.730465
619.428821	18756.842926
619.776628	18652.574221
620.124382	18576.120081
620.472083	18602.500439
620.819731	18630.798957
621.167326	18326.346032
621.514868	18371.212301
621.862357	18122.630484
622.209793	18140.203947
622.557176	17969.606259
622.904506	17793.233930
623.251783	17702.883850
623.599007	17469.816185
623.946179	17418.842557
624.293297	17359.742590
624.640363	17116.940457
624.987376	17136.086759
625.334336	16930.148062
625.681243	16780.844209
626.028097	16777.411183
626.374899	16715.140330
626.721647	16581.199393
627.068343	16409.238074
627.414987	16338.399780
627.761577	16308.286447
628.108115	16357.916607
628.454600	16074.623926
628.801032	16174.466498
629.147412	16107.983761
629.493739	16129.887575
629.840014	15941.653411
630.186236	16028.331010
630.532405	15801.373223
630.878521	16004.670354
631.224585	15889.449742
631.570597	15720.752570
631.916556	15747.016981
632.262462	15728.258848
632.608316	15640.449509
632.954117	15588.812971
633.299866	15577.041876
633.645562	15506.863974
633.991206	15253.571199
634.336797	15120.996414
634.682336	15088.140694
635.027823	14989.507998
635.373257	14871.197159
635.718639	14764.352424
636.063968	14716.980701
636.409245	14472.938443
636.754470	14486.473941
637.099642	14342.957333
637.444762	14115.883599
637.789829	14153.717458
638.134845	13995.087470
638.479808	14017.112271
638.824719	13965.057317
639.169577	13819.181448
639.514383	13868.254560
639.859137	13694.677551
640.203839	13770.620013
640.548489	13613.144449
640.893086	13601.862347
641.237632	13468.617089
641.582125	13621.827837
641.926566	13451.676291
642.270955	13463.091984
642.615292	13426.641921
642.959576	13436.933437
643.303809	13469.887460
643.647990	13400.866502
643.992118	13462.182056
644.336195	13231.239237
644.680219	13432.673662
645.024192	13353.174666
645.368112	13598.270525
645.711981	13658.119103
646.055797	13829.377182
646.399562	13796.942398
646.743274	14067.294437
647.086935	14343.063197
647.430544	14298.015446
647.774101	14341.129914
648.117606	14490.743799
648.461059	14457.578047
648.804460	14452.562099
649.147810	14181.136294
649.491108	14086.128188
649.834354	14097.465743
650.177548	13796.758396
650.520690	13604.599693
650.863781	13522.809493
651.206820	13564.368765
651.549807	13401.763827
651.892742	13208.387686
652.235626	13142.920742
652.578458	13145.305207
652.921238	12828.239316
653.263967	13027.783308
653.606644	12848.378725
653.949269	12833.895490
654.291843	12635.596663
654.634365	12790.559211
654.976836	12638.185295
655.319255	12650.412614
655.661622	12600.490067
656.003938	12523.778829
656.346203	12451.274434
656.688416	12522.568952
657.030577	12486.623005
657.372687	12411.151891
657.714746	12378.260882
658.056753	12566.399264
658.398708	12392.189590
658.740612	12382.119886
659.082465	12489.675423
659.424266	12450.490535
659.766016	12473.924338
660.107715	12386.024259
660.449362	12464.676342
660.790958	12420.992223
661.132503	12365.267308
661.473996	12426.570260
661.815438	12447.410390
662.156829	12455.887090
662.498168	12435.263729
662.839456	12438.774893
663.180693	12464.028553
663.521879	12549.314794
663.863013	12515.624763
664.204097	12495.618944
664.545129	12614.149074
664.886110	12588.245105
665.227040	12670.224348
665.567918	12679.459742
665.908746	12707.228938
666.249522	12701.033360
666.590248	12744.770411
666.930922	12857.694778
667.271545	12835.191067
667.612118	12922.685333
667.952639	12838.689628
668.293109	12842.203312
668.633528	12793.377216
668.973896	12761.600303
669.314213	12847.897295
669.654480	12590.291813
669.994695	12657.170281
670.334859	12683.482583
670.674973	12630.071558
671.015035	12668.066735
671.355047	12600.573246
671.695008	12576.839494
672.034918	12579.034917
672.374777	12622.174591
672.714585	12529.445086
673.054342	12568.002351
673.394049	12527.607586
673.733705	12614.975823
674.073310	12527.169005
674.412864	12544.505533
674.752368	12414.887386
675.091820	12424.067327
675.431223	12415.993919
675.770574	12292.722584
676.109875	12209.152856
676.449125	12175.243535
676.788324	12118.850667
677.127473	11946.095366
677.466571	11937.207812
677.805619	11839.701814
678.144616	11758.874474
678.483562	11719.324101
678.822458	11597.232396
679.161303	11581.398132
679.500098	11565.339537
679.838842	11523.382013
680.177535	11542.142667
680.516179	11596.698034
680.854771	11545.240456
681.193314	11763.066193
681.531805	11915.346848
681.870247	12319.551605
682.208638	12733.667270
682.546978	13043.027758
682.885268	13105.278446
683.223508	12788.663737
683.561697	12636.746046
683.899836	12539.270295
684.237925	12347.829957
684.575963	12256.673293
684.913951	12177.519616
685.251889	12127.312244
685.589776	12228.203376
685.927614	12151.827375
686.265401	12121.383847
686.603137	12161.705516
686.940824	12309.814616
687.278460	12429.758789
687.616046	12477.667395
687.953582	12650.878921
688.291068	12572.914956
688.628504	12812.964620
688.965889	12828.725787
689.303224	12790.813790
689.640510	12682.250021
689.977745	12370.225283
690.314930	12152.434834
690.652065	12069.593553
690.989150	11779.744851
691.326185	11547.622401
691.663170	11345.852739
692.000105	11099.400810
692.336990	10997.662764
692.673825	10743.054247
693.010610	10625.761721
693.347345	10413.151058
693.684030	10216.331808
694.020665	10158.625720
694.357251	9963.495258
694.693786	9909.564994
695.030272	9738.962266
695.366707	9627.832550
695.703093	9554.718175
696.039429	9553.102485
696.375716	9482.541455
696.711952	9349.611269
697.048139	9384.438080
697.384276	9341.033746
697.720363	9361.793217
698.056400	9294.445922
698.392388	9251.429757
698.728326	9210.551040
699.064214	9148.375969
699.400053	9193.688380
699.735842	9008.713322
700.071581	8970.060275
700.407270	8891.352740
700.742910	8810.041449
701.078501	8724.646824
701.414042	8595.799973
701.749533	8531.028707
702.084974	8399.794870
702.420366	8508.250254
702.755709	8388.321204
703.091002	8260.686750
703.426246	8280.566540
703.761440	8237.880570
704.096584	8190.481121
704.431679	8129.468036
704.766725	8115.670398
705.101721	8064.185094
705.436668	8107.271836
705.771565	8006.468923
706.106413	8085.609997
706.441212	8130.032645
706.775961	8085.552024
707.110661	8121.762632
707.445311	8261.831092
707.779913	8156.463415
708.114465	8290.721945
708.448967	8330.174015
708.783421	8458.894837
709.117825	8649.047160
709.452180	8682.953961
709.786485	8771.829503
710.120742	9051.202687
710.454949	9047.860402
710.789107	9155.113471
711.123216	9364.283547
711.457275	9528.504175
711.791286	9690.352940
712.125247	9684.033853
712.459159	9673.192852
712.793023	9923.077807
713.126837	9501.803703
713.460602	9648.218976
713.794318	9476.436617
714.127985	9511.969190
714.461602	9189.526908
714.795171	9141.046131
715.128691	8896.978668
715.462162	8636.913103
715.795584	8586.315042
716.128957	8440.850027
716.462281	8272.432638
716.795556	8319.985843
717.128782	8116.766849
717.461960	7851.433278
717.795088	7920.834843
718.128167	7829.693302
718.461198	7663.678023
718.794180	7600.623271
719.127113	7596.565142
719.459997	7447.261289
719.792833	7217.593881
720.125619	7280.202492
720.458357	7143.619990
720.791046	7127.062320
721.123686	7127.485777
721.456278	6966.947712
721.788821	6988.846484
722.121315	6878.046964
722.453761	6945.222860
722.786158	6887.085753
723.118506	6895.766620
723.450805	6867.503391
723.783056	6936.400840
724.115259	6843.744433
724.447412	6841.221335
724.779518	6882.185751
725.111574	6889.016515
725.443582	6968.180274
725.775542	6949.565814
726.107453	7137.121942
726.439315	7051.656741
726.771129	7106.433918
727.102895	7276.499764
727.434612	7389.540077
727.766281	7420.066784
728.097901	7500.458065
728.429473	7493.317270
728.760996	7472.905638
729.092471	7445.080990
729.423897	7388.942701
729.755276	7409.797954
730.086606	7331.939853
730.417887	7432.621778
730.749120	7623.343752
731.080305	7812.313924
731.411442	7938.373017
731.742530	7928.462109
732.073570	8035.450517
732.404562	8128.111966
732.735506	7978.319120
733.066401	8114.362218
733.397249	8049.467445
733.728048	7809.437946
734.058798	7478.806309
734.389501	7257.290447
734.720156	7080.396359
735.050762	6847.709300
735.381320	6751.077943
735.711831	6700.232865
736.042293	6595.575991
736.372707	6616.186748
736.703073	6472.566796
737.033391	6510.592219
737.363661	6525.261977
737.693883	6556.607871
738.024056	6631.947916
738.354182	6684.683426
738.684260	6712.656789
739.014290	6824.388922
739.344272	6939.486027
739.674207	6964.091898
740.004093	7033.861468
740.333931	7051.387039
740.663722	7057.522123
740.993464	7133.940974
741.323159	7127.679861
741.652806	6879.042592
741.982405	6883.594754
742.311956	6944.239835
742.641460	6791.664272
742.970915	6594.545075
743.300323	6579.940852
743.629683	6529.030239
743.958996	6400.790847
744.288260	6312.910933
744.617477	6254.239464
744.946647	6265.075424
745.275768	6094.805412
745.604842	6055.071037
745.933869	6036.096134
746.262847	5992.076778
746.591778	5980.620756
746.920662	5939.787410
747.249498	5927.688641
747.578286	5975.866948
747.907027	6051.958124
748.235720	6112.835098
748.564365	6083.785449
748.892963	6106.941989
749.221514	6261.791112
749.550017	6101.230362
749.878473	5972.980888
750.206881	6032.774013
750.535242	5973.263192
750.863555	5902.777779
751.191821	5924.275780
751.520039	5920.573052
751.848210	5826.648794
752.176334	5851.526889
752.504411	5904.617800
752.832440	5829.895298
753.160421	5755.399647
753.488356	5805.614580
753.816243	5836.398386
754.144082	5686.474471
754.471875	5660.946067
754.799620	5703.037182
755.127318	5715.216609
755.454969	5667.754146
755.782572	5629.625379
756.110129	5675.956103
756.437638	5667.129043
756.765100	5602.710658
757.092515	5606.602429
757.419882	5646.049458
757.747203	5629.393486
758.074477	5697.441501
758.401703	5685.103277
758.728882	5635.742819
759.056014	5689.373134
759.383099	5815.076826
759.710138	5827.720040
760.037129	5810.766639
760.364073	5818.527496
760.690970	5903.735598
761.017820	5886.066354
761.344623	5835.228838
761.671379	5934.564775
761.998088	6052.855450
762.324751	6295.486184
762.651366	6882.316821
762.977935	8175.297166
763.304456	9804.424169
763.630931	10714.100380
763.957359	10332.535446
764.283740	9402.515658
764.610074	8578.110564
764.936362	7581.547545
765.262602	6987.082081
765.588796	6442.816426
765.914943	6105.601043
766.241044	5945.357885
766.567097	5747.250621
766.893104	5488.939378
767.219064	5309.335669
767.544978	5246.331328
767.870845	5172.536398
768.196665	5064.322989
768.522438	4994.997042
768.848165	4961.233914
769.173846	4898.562289
769.499479	4852.851627
769.825066	4797.923214
770.150607	4740.927929
770.476101	4711.096901
770.801548	4709.569431
771.126949	4636.054285
771.452303	4583.177622
771.777611	4538.795304
772.102872	4558.165937
772.428087	4522.010782
772.753256	4479.828927
773.078378	4440.785191
773.403453	4369.102503
773.728482	4354.868806
774.053465	4310.849450
774.378401	4296.701452
774.703291	4297.497954
775.028135	4225.026327
775.352932	4175.151671
775.677683	4162.059794
776.002388	4183.716591
776.327046	4193.355278
776.651658	4119.464565
776.976224	4060.692273
777.300743	4063.343920
777.625216	4081.789502
777.949643	4080.584666
778.274024	4033.757388
778.598359	3986.539420
778.922647	4011.614120
779.246889	4006.731762
779.571086	3999.729599
779.895236	3986.609997
780.219339	3971.277327
780.543397	3964.756595
780.867409	4018.444883
781.191374	4033.139847
781.515294	3971.577276
781.839167	3964.204588
782.162995	3982.009944
782.486776	3971.700784
782.810511	3977.699757
783.134201	3977.714881
783.457844	3930.133950
783.781441	3877.869787
784.104993	3880.579408
784.428498	3903.158736
784.751958	3899.163621
785.075372	3875.326525
785.398739	3839.362934
785.722061	3850.703009
786.045337	3890.659195
786.368568	3926.590019
786.691752	3837.404446
787.014891	3888.988052
787.337983	4011.775437
787.661030	4168.910723
787.984031	4327.815453
788.306987	4498.118233
788.629897	4586.361111
788.952760	4541.089029
789.275579	4474.112259
789.598351	4409.882918
789.921078	4272.604737
790.243759	4074.875559
790.566395	4049.747928
790.888984	4049.815983
791.211529	3943.535857
791.534027	3880.105539
791.856480	3871.117162
792.178888	3808.203562
792.501249	3760.932662
792.823566	3766.780401
793.145836	3802.156698
793.468062	3749.322885
793.790241	3702.606512
794.112375	3733.400401
794.434464	3796.790390
794.756507	3819.878874
795.078505	3803.046462
795.400457	3835.367819
795.722364	3969.790187
796.044226	4075.488059
796.366042	4145.058503
796.687812	4126.827170
797.009538	4134.283037
797.331218	4093.752160
797.652852	4068.458170
797.974442	4046.186353
798.295986	4045.614182
798.617484	3966.916729
798.938938	3880.075292
799.260346	3919.353442
799.581709	3913.563677
799.903026	3845.049355
800.224299	3805.851864
800.545526	3800.440185
800.866708	3763.599433
801.187845	3701.033672
801.508936	3739.432141
801.829983	3736.931729
802.150984	3657.727640
802.471940	3644.786998
802.792851	3655.454080
803.113717	3657.742764
803.434538	3660.404493
803.755314	3602.131275
804.076045	3573.069023
804.396731	3596.260851
804.717372	3621.043164
805.037967	3607.421966
805.358518	3595.345882
805.679024	3623.956951
805.999485	3635.438178
806.319901	3640.428921
806.640272	3654.395437
806.960598	3671.467305
807.280879	3644.688696
807.601115	3655.577588
807.921306	3671.316070
808.241453	3709.742266
808.561554	3688.098072
808.881611	3621.136425
809.201623	3659.103875
809.521590	3671.681554
809.841513	3644.721463
810.161390	3670.897655
810.481223	3653.742608
810.801011	3596.170111
811.120755	3588.910849
811.440453	3623.092393
811.760107	3626.981643
812.079716	3585.815581
812.399281	3550.714026
812.718801	3574.994744
813.038276	3549.922565
813.357707	3545.836710
813.677093	3566.938980
813.996434	3511.203983
814.315731	3520.812422
814.634983	3523.985829
814.954191	3539.706667
815.273354	3564.541911
815.592473	3564.675502
815.911547	3566.137437
816.230577	3608.170577
816.549562	3662.224349
816.868502	3703.032490
817.187399	3726.725913
817.506250	3722.345150
817.825058	3693.562682
818.143821	3785.828401
818.462539	3886.180130
818.781213	3934.902882
819.099843	3989.901870
819.418429	4228.638313
819.736970	4468.168738
820.055466	4713.887180
820.373919	5072.950924
820.692327	5480.616433
821.010691	5916.341004
821.329011	7271.153620
821.647286	9977.847423
821.965517	14497.350231
822.283704	18529.519655
822.601847	20745.056359
822.919945	18949.152863
823.237999	16399.435550
823.556010	13914.892795
823.873976	11824.507776
824.191897	9738.780784
824.509775	8383.383393
824.827609	7258.603668
825.145398	6705.929369
825.463144	6589.274548
825.780845	6700.268153
826.098502	6884.050978
826.416116	7741.601659
826.733685	9060.543946
827.051210	10176.909985
827.368692	10239.067412
827.686129	9009.517386
828.003522	7491.575552
828.320872	6469.300128
828.638177	5772.027893
828.955439	5217.138006
829.272656	4718.411615
829.589830	4435.287812
829.906960	4259.064197
830.224046	4076.841609
830.541088	3952.093216
830.858086	3902.586565
831.175041	3828.085873
831.491952	3809.148778
831.808819	3817.393585
832.125642	3893.875451
832.442421	4039.857184
832.759157	4308.984223
833.075849	4849.839537
833.392497	5709.923398
833.709101	6477.900336
834.025662	6826.133162
834.342179	6475.500747
834.658653	5816.906765
834.975083	5168.269061
835.291469	4600.080611
835.607811	4183.905635
835.924110	4047.098802
836.240366	3846.193697
836.556578	3640.849857
836.872746	3537.717932
837.188871	3496.960203
837.504952	3429.749019
837.820990	3346.375896
838.136984	3299.904020
838.452935	3322.052329
838.768842	3321.114674
839.084706	3341.682582
839.400526	3498.691839
839.716303	3830.624094
840.032037	4352.260008
840.347727	4620.174650
840.663373	4351.155996
840.978977	3970.316987
841.294537	3665.853980
841.610054	3435.735389
841.925527	3325.286229
842.240957	3259.226949
842.556344	3204.429607
842.871687	3145.939619
843.186987	3096.485900
843.502244	3061.777556
843.817458	3024.346989
844.132629	2992.083604
844.447756	3001.984430
844.762840	2989.484889
845.077881	2956.109930
845.392879	2940.552929
845.707833	2933.407094
846.022745	2932.552618
846.337613	2932.174532
846.652438	2925.724375
846.967221	2919.425454
847.281960	2907.447672
847.596656	2903.228226
847.911309	2901.617578
848.225919	2895.981568
848.540485	2891.260527
848.855009	2890.143912
849.169490	2881.198384
849.483928	2874.307127
849.798323	2872.058772
850.112675	2866.745396
850.426984	2877.785523
850.741251	2876.593290
851.055474	2866.722711
851.369654	2860.159128
851.683792	2863.796321
851.997887	2872.000799
852.311938	2875.796788
852.625947	2863.692977
852.939914	2867.846888
853.253837	2875.161602
853.567718	2856.574868
853.881555	2852.819208
854.195350	2871.355531
854.509103	2869.205479
854.822812	2861.638707
855.136479	2856.153932
855.450103	2858.520753
855.763685	2853.832480
856.077224	2848.108250
856.390720	2861.444623
856.704173	2870.823689
857.017584	2865.129706
857.330953	2860.537215
857.644278	2868.242619
857.957561	2878.778630
858.270802	2881.702499
858.584000	2882.514125
858.897155	2871.330325
859.210268	2867.221785
859.523339	2865.429655
859.836367	2863.098121
860.149352	2857.250383
860.462295	2854.402131
860.775195	2862.004191
861.088054	2862.750282
861.400869	2848.163703
861.713642	2842.482322
862.026373	2857.313397
862.339062	2862.389839
862.651708	2869.230685
862.964312	2870.533823
863.276873	2863.420755
863.589392	2872.472147
863.901869	2883.114023
864.214303	2906.784760
864.526696	2921.106678
864.839045	2920.736154
865.151353	2917.368663
865.463619	2916.806574
865.775842	2917.882861
866.088023	2932.582865
866.400162	2941.321705
866.712258	2913.434042
867.024313	2902.424162
867.336325	2914.903539
867.648296	2931.476332
867.960224	2924.222112
868.272110	2909.590163
868.583954	2914.308683
868.895755	2928.534819
869.207515	2917.088879
869.519233	2921.288160
869.830909	2933.248298
870.142542	2942.448403
870.454134	2940.893207
870.765684	2945.614248
871.077191	2944.301027
871.388657	2953.483489
871.700081	2963.527988
872.011463	2977.610451
872.322803	2975.324288
872.634101	2975.641881
872.945357	2994.299191
873.256571	3017.337264
873.567744	3011.103877
873.878874	3004.222703
874.189963	3029.735982
874.501010	3029.284799
874.812015	3018.859693
875.122979	3023.124509
875.433900	3016.008920
875.744780	3020.097296
876.055618	3030.850077
876.366415	3024.155425
876.677169	3037.320398
876.987882	3034.283103
877.298554	3024.248686
877.609183	3049.358673
877.919771	3071.809452
878.230317	3099.344234
878.540822	3149.740649
878.851285	3187.367822
879.161707	3233.065881
879.472087	3331.673371
879.782425	3551.797874
880.092722	3984.875840
880.402977	4510.605171
880.713191	5132.386128
881.023363	6272.221259
881.333494	7558.814462
881.643583	8119.920091
881.953631	7829.216913
882.263637	7206.281532
882.573602	6623.866946
882.883526	6042.269027
883.193408	5474.234332
883.503248	5009.981871
883.813048	4706.708577
884.122806	4406.807814
884.432522	4089.525152
884.742197	3856.613762
885.051831	3663.938342
885.361424	3526.723175
885.670975	3455.574850
885.980485	3369.381202
886.289954	3294.981333
886.599382	3252.733943
886.908768	3215.678942
887.218113	3169.280162
887.527417	3112.786471
887.836680	3061.414593
888.145901	3056.234807
888.455082	3047.745504
888.764221	2995.579644
889.073319	2968.745582
889.382376	2962.050930
889.691392	2969.305150
890.000366	2967.472691
890.309300	2955.719241
890.618193	2966.686271
890.927044	2984.753766
891.235855	2984.637820
891.544625	2970.908237
891.853353	2981.333343
892.162041	3000.865294
892.470687	3038.464740
892.779293	3091.601022
893.087858	3134.816313
893.396381	3206.133517
893.704864	3329.800583
894.013306	3563.657189
894.321707	3862.910163
894.630068	4067.757450
894.938387	4069.479004
895.246665	4021.948485
895.554903	3902.551277
895.863100	3706.634394
896.171256	3538.017880
896.479371	3401.508475
896.787446	3278.325361
897.095480	3176.446162
897.403473	3113.283025
897.711425	3075.668455
898.019336	3067.675706
898.327207	3039.722508
898.635038	3002.009636
898.942827	2984.237048
899.250576	2973.706078
899.558284	2945.699948
899.865952	2924.527101
900.173579	2903.684451
900.481165	2896.702453
900.788711	2886.196688
901.096216	2861.026207
901.403681	2846.464834
901.711105	2857.071422
902.018489	2854.770135
902.325832	2853.502285
902.633135	2860.993439
902.940397	2895.124572
903.247619	2976.506439
903.554800	3165.872342
903.861941	3504.610154
904.169041	3930.438940
904.476101	4230.034713
904.783121	4193.602294
905.090100	3948.030046
905.397039	3678.280424
905.703938	3427.281374
906.010796	3243.672469
906.317614	3134.060140
906.624391	3037.595141
906.931129	2964.637042
907.237826	2906.555388
907.544483	2858.210722
907.851099	2829.982782
908.157675	2804.572846
908.464211	2787.911832
908.770707	2776.551592
909.077163	2763.575662
909.383578	2747.131418
909.689954	2735.430900
909.996289	2734.462998
910.302584	2733.716908
910.608839	2736.484501
910.915054	2729.623491
911.221229	2722.938921
911.527363	2725.961092
911.833458	2729.948645
912.139513	2736.993658
912.445527	2742.175964
912.751502	2749.967067
913.057436	2759.212543
913.363331	2769.735952
913.669186	2791.586833
913.975000	2825.670074
914.280775	2884.593601
914.586510	2954.378294
914.892205	3034.073895
915.197859	3157.773728
915.503475	3349.135928
915.809050	3564.360430
916.114585	3708.098849
916.420081	3733.372674
916.725536	3673.382943
917.030952	3554.240313
917.336328	3430.122065
917.641665	3300.544246
917.946961	3196.706559
918.252218	3128.270375
918.557435	3051.831359
918.862612	2993.497648
919.167750	2943.265070
919.472848	2903.215623
919.777906	2879.776779
920.082925	2850.636389
920.387904	2819.240083
920.692843	2803.481436
920.997743	2792.582461
921.302603	2781.136521
921.607423	2769.632608
921.912204	2757.838829
922.216946	2745.407343
922.521647	2737.631364
922.826310	2728.214488
923.130932	2723.453118
923.435516	2714.875595
923.740059	2706.083823
924.044564	2699.472350
924.349028	2694.501772
924.653454	2684.792510
924.957840	2681.402334
925.262186	2676.346056
925.566493	2670.233657
925.870761	2668.439007
926.174989	2662.235867
926.479178	2657.703869
926.783328	2656.100782
927.087438	2652.393014
927.391509	2649.189361
927.695541	2647.316572
927.999533	2642.605614
928.303486	2641.506642
928.607400	2639.875829
928.911275	2643.553351
929.215110	2639.270890
929.518906	2639.379275
929.822663	2638.197125
930.126381	2637.370375
930.430060	2636.488173
930.733699	2641.060500
931.037299	2640.523617
931.340861	2641.738535
931.644383	2644.037301
931.947866	2641.778864
932.251309	2641.100829
932.554714	2638.643267
932.858080	2634.910292
933.161407	2637.206538
933.464694	2637.100674
933.767943	2631.898203
934.071153	2633.090436
934.374323	2634.378451
934.677455	2634.348204
934.980548	2632.162863
935.283602	2629.687657
935.586617	2630.615229
935.889593	2631.782256
936.192530	2629.231432
936.495428	2628.737399
936.798287	2632.177987
937.101108	2638.441621
937.403890	2640.258957
937.706632	2642.363638
938.009336	2651.447797
938.312002	2659.856442
938.614628	2666.800632
938.917216	2673.064265
939.219765	2672.703823
939.522275	2674.732887
939.824747	2671.889676
940.127179	2669.850530
940.429573	2666.833399
940.731929	2665.552946
941.034246	2660.922646
941.336524	2658.074394
941.638763	2654.974085
941.940964	2654.306132
942.243126	2650.822694
942.545250	2648.861686
942.847335	2648.271871
943.149381	2644.112919
943.451389	2639.570839
943.753359	2637.662762
944.055290	2635.421969
944.357182	2636.304171
944.659036	2632.898872
944.960851	2634.227216
945.262628	2631.333594
945.564367	2633.876856
945.866067	2632.402318
946.167729	2635.840385
946.469352	2634.527165
946.770937	2633.665127
947.072484	2631.033645
947.373992	2632.188069
947.675462	2628.457615
947.976893	2626.257152
948.278286	2622.627521
948.579641	2625.556431
948.880958	2620.253137
949.182236	2624.341513
949.483476	2621.374794
949.784678	2624.152470
950.085841	2622.110803
950.386967	2623.358488
950.688054	2626.133643
950.989103	2625.029631
951.290114	2627.756895
951.591087	2629.385188
951.892021	2631.079015
952.192917	2633.891979
952.493776	2636.664614
952.794596	2636.846095
953.095378	2637.899697
953.396122	2636.309212
953.696828	2632.074643
953.997496	2635.384161
954.298126	2630.615229
954.598718	2627.734210
954.899272	2625.783283
955.199788	2620.691718
955.500266	2620.704321
955.800706	2617.664505
956.101108	2614.576798
956.401472	2613.215687
956.701798	2612.570419
957.002087	2608.023298
957.302337	2609.568412
957.602550	2609.633947
957.902724	2607.287290
958.202861	2605.812752
958.502960	2602.611620
958.803022	2604.370982
959.103045	2603.151023
959.403031	2602.379727
959.702979	2601.618512
960.002889	2601.595827
960.302762	2600.698502
960.602596	2597.595672
960.902393	2597.149529
961.202153	2598.775302
961.501875	2598.843357
961.801559	2597.809921
962.101205	2598.147678
962.400814	2599.665065
962.700385	2597.273038
962.999918	2596.539550
963.299414	2593.600557
963.598873	2596.506782
963.898293	2590.354054
964.197677	2597.149529
964.497022	2597.141968
964.796331	2598.291351
965.095601	2598.901330
965.394835	2597.094077
965.694030	2594.868407
965.993189	2595.483428
966.292309	2596.481577
966.591393	2597.633480
966.890439	2595.702718
967.189447	2595.760692
967.488419	2595.342276
967.787353	2595.828747
968.086249	2595.037286
968.385108	2593.335897
968.683930	2598.520723
968.982714	2595.306988
969.281462	2595.601895
969.580172	2596.526947
969.878844	2595.402770
970.177480	2595.261617
970.476078	2598.200610
970.774639	2598.931577
971.073162	2596.405959
971.371649	2596.489138
971.670098	2594.507965
971.968510	2594.346648
972.266885	2598.356886
972.565223	2599.536516
972.863524	2596.040476
973.161788	2597.567945
973.460014	2599.342431
973.758204	2595.090218
974.056356	2594.840681
974.354471	2593.996288
974.652550	2595.924529
974.950591	2595.901844
975.248595	2596.174066
975.546563	2596.353027
975.844493	2594.286154
976.142386	2593.000660
976.440243	2590.240628
976.738062	2596.035434
977.035845	2592.040320
977.333590	2594.016452
977.631299	2596.380753
977.928971	2593.061154
978.226606	2590.792634
978.524204	2591.730289
978.821765	2590.313725
979.119290	2591.679877
979.416777	2595.700198
979.714228	2595.138109
980.011642	2590.777511
980.309020	2595.314549
980.606360	2596.930239
980.903664	2593.015783
981.200931	2595.047368
981.498162	2592.546956
981.795356	2596.632811
982.092513	2596.501741
982.389633	2596.988212
982.686717	2603.894593
982.983764	2605.689244
983.280775	2608.187136
983.577749	2613.871037
983.874686	2609.220572
984.171587	2610.372476
984.468451	2604.151692
984.765279	2602.881321
985.062070	2604.479367
985.358824	2599.304623
985.655543	2598.089705
985.952224	2598.777822
986.248869	2597.343614
986.545478	2594.802872
986.842050	2595.007039
987.138586	2593.832450
987.435086	2594.913778
987.731549	2591.415217
988.027975	2590.444795
988.324366	2589.834815
988.620719	2591.740371
988.917037	2588.370360
989.213318	2588.695514
989.509563	2593.111565
989.805772	2586.346337
990.101944	2590.744743
990.398080	2590.752305
990.694180	2587.873806
990.990244	2589.136615
991.286271	2588.655185
991.582262	2589.650813
991.878217	2588.796337
992.174136	2591.332038
992.470019	2591.001842
992.765865	2590.013776
993.061676	2584.579412
993.357450	2587.795668
993.653188	2586.104361
993.948890	2590.885896
994.244556	2591.614343
994.540186	2589.000504
994.835780	2591.064857
995.131337	2591.090063
995.426859	2588.196440
995.722345	2594.238263
996.017795	2593.865218
996.313208	2594.805393
996.608586	2594.134919
996.903928	2596.965527
997.199234	2597.061309
997.494504	2595.387646
997.789738	2589.822212
998.084936	2593.812286
998.380099	2593.640886
998.675225	2591.001842
998.970316	2591.334558
999.265371	2589.885227
999.560390	2590.520412
999.855373	2588.844228
1000.150320	2589.814651
1000.445232	2589.610484
1000.740108	2588.020000
1001.034948	2588.362798
1001.329752	2589.834815
1001.624521	2590.956472
1001.919254	2585.862386
1002.213951	2589.779362
1002.508613	2588.443457
1002.803239	2588.143508
1003.097829	2587.964547
1003.392384	2588.990422
1003.686903	2587.757860
1003.981386	2587.662078
1004.275834	2587.926738
1004.570246	2589.189547
1004.864623	2589.844897
1005.158964	2587.362129
1005.453270	2588.322469
1005.747540	2587.336923
1006.041775	2587.999835
1006.335974	2586.222828
1006.630138	2588.813982
1006.924266	2589.890268
1007.218359	2588.206523
1007.512416	2584.544124
1007.806438	2585.338106
1008.100425	2585.766604
1008.394376	2583.621593
1008.688292	2588.032603
1008.982172	2587.561255
1009.276017	2588.277099
1009.569827	2586.842890
1009.863602	2587.510843
1010.157341	2589.572675
1010.451045	2588.254413
1010.744714	2587.483117
1011.038347	2588.808940
1011.331945	2584.090420
1011.625508	2586.535380
1011.919036	2586.696697
1012.212528	2588.987901
1012.505986	2584.949937
1012.799408	2585.252406
1013.092795	2586.802561
1013.386147	2587.936821
1013.679464	2584.465986
1013.972745	2586.777355
1014.265992	2587.367170
1014.559204	2587.604105
1014.852380	2587.493199
1015.145521	2586.074114
1015.438628	2585.683425
1015.731699	2587.379773
1016.024736	2588.163673
1016.317737	2585.663260
1016.610703	2586.762232
1016.903635	2587.029413
1017.196531	2587.667119
1017.489393	2587.909094
1017.782219	2587.624269
1018.075011	2586.021182
1018.367768	2585.370873
1018.660490	2585.640575
1018.953177	2585.640575
1019.245829	2585.640575
