Dividing Wavelength (nm)	Counts (n)	Blue Motor Position (mm): 16.200000	Red Motor Position (mm): 0.000000	
326.493990	2136.899745
326.888308	2136.899745
327.282561	2136.899745
327.676750	2102.572008
328.070874	2104.361618
328.464933	2101.531010
328.858929	2112.556013
329.252859	2122.106479
329.646726	2133.083592
330.040528	2143.637247
330.434265	2163.537202
330.827938	2178.695952
331.221547	2199.644466
331.615091	2216.960830
332.008571	2238.559653
332.401986	2256.473394
332.795338	2273.862854
333.188625	2294.362706
333.581847	2314.499595
333.975006	2332.647749
334.368100	2349.434791
334.761129	2367.025898
335.154095	2384.407796
335.546996	2406.304048
335.939833	2420.084042
336.332606	2438.761517
336.725315	2451.508074
337.117960	2460.052830
337.510540	2470.102370
337.903056	2481.124853
338.295508	2485.591315
338.687896	2495.449292
339.080220	2503.772237
339.472480	2510.323216
339.864676	2516.070132
340.256807	2520.569361
340.648875	2521.484331
341.040879	2523.949455
341.432818	2525.096318
341.824694	2529.154446
342.216506	2528.509179
342.608253	2528.279806
342.999937	2526.447347
343.391557	2526.981709
343.783113	2526.437264
344.174605	2528.340300
344.566033	2524.851822
344.957397	2522.411903
345.348697	2521.817047
345.739934	2518.850328
346.131106	2516.261695
346.522215	2514.804802
346.913260	2514.310769
347.304241	2511.517970
347.695159	2510.048473
348.086012	2506.668380
348.476802	2508.279028
348.867528	2507.974038
349.258191	2501.707884
349.648789	2505.866836
350.039324	2500.558501
350.429796	2498.569766
350.820203	2500.147647
351.210548	2498.458861
351.600828	2497.140599
351.991045	2495.920640
352.381198	2495.479539
352.771288	2494.793942
353.161314	2494.814106
353.551276	2494.703201
353.941175	2494.841833
354.331010	2495.252687
354.720782	2497.135558
355.110490	2494.655310
355.500135	2493.785711
355.889717	2497.498521
356.279235	2496.255876
356.668689	2496.298726
357.058080	2494.108345
357.447408	2495.040958
357.836672	2492.543067
358.225873	2493.906699
358.615010	2491.464260
359.004084	2495.262769
359.393095	2497.904334
359.782043	2500.873573
360.170927	2499.149499
360.559748	2500.198059
360.948505	2498.905003
361.337199	2501.387771
361.725830	2499.729231
362.114398	2503.774757
362.502903	2499.552791
362.891344	2502.837103
363.279722	2501.896927
363.668037	2504.167967
364.056289	2502.983296
364.444478	2504.772906
364.832603	2502.758965
365.220665	2507.558143
365.608665	2505.536641
365.996601	2507.172495
366.384474	2505.902124
366.772284	2507.061590
367.160031	2505.259377
367.547715	2507.109481
367.935336	2509.471261
368.322893	2506.565036
368.710388	2505.534120
369.097820	2506.996055
369.485189	2509.115860
369.872495	2509.854389
370.259738	2509.471261
370.646918	2507.943792
371.034035	2507.187618
371.421090	2511.828001
371.808081	2512.458145
372.195010	2511.212980
372.581875	2512.415295
372.968678	2513.642816
373.355418	2510.114008
373.742096	2512.236334
374.128710	2510.587877
374.515262	2512.216169
374.901751	2511.288597
375.288177	2511.863289
375.674540	2511.888494
376.060841	2511.570902
376.447079	2510.797085
376.833254	2511.573422
377.219367	2508.909173
377.605417	2510.862620
377.991404	2510.313134
378.377329	2510.257681
378.763191	2506.970849
379.148991	2513.617610
379.534727	2515.455111
379.920402	2514.146931
380.306013	2514.585512
380.691563	2514.368742
381.077049	2513.431088
381.462474	2517.849659
381.847835	2512.803464
382.233134	2517.761439
382.618371	2515.994514
383.003545	2514.734226
383.388657	2515.954185
383.773706	2517.063239
384.158693	2517.592560
384.543618	2518.313445
384.928480	2519.077180
385.313280	2515.770183
385.698017	2517.582478
386.082692	2518.994001
386.467305	2515.329082
386.851856	2517.050636
387.236344	2518.273116
387.620770	2519.611542
388.005133	2518.116840
388.389435	2519.520801
388.773674	2521.035668
389.157851	2519.349402
389.541965	2518.323527
389.926018	2521.204547
390.310008	2522.631193
390.693936	2519.220853
391.077802	2518.061387
391.461606	2522.497603
391.845348	2519.228414
392.229027	2522.215298
392.612645	2523.163035
392.996200	2519.387211
393.379694	2524.960206
393.763125	2523.145391
394.146494	2524.267048
394.529801	2522.500123
394.913047	2520.438291
395.296230	2522.666481
395.679351	2521.872500
396.062410	2520.236645
396.445408	2520.907119
396.828343	2524.007428
397.211217	2517.423681
397.594028	2520.947448
397.976778	2519.596419
398.359466	2520.357633
398.742092	2520.148425
399.124656	2526.152439
399.507158	2525.822244
399.889598	2521.854856
400.271977	2526.059178
400.654294	2528.032790
401.036549	2522.447191
401.418742	2527.143026
401.800874	2524.415762
402.182944	2527.087573
402.564952	2526.364168
402.946898	2526.107069
403.328783	2525.295443
403.710606	2526.381812
404.092367	2528.549508
404.474067	2527.478263
404.855705	2525.320649
405.237282	2526.674199
405.618797	2528.799045
406.000250	2526.903571
406.381642	2527.175793
406.762972	2531.082688
407.144240	2528.221833
407.525447	2533.520086
407.906593	2527.725279
408.287677	2527.929446
408.668700	2530.853315
409.049661	2529.043541
409.430560	2527.586648
409.811399	2529.414066
410.192176	2528.993129
410.572891	2526.275948
410.953545	2526.669158
411.334138	2529.976154
411.714669	2529.991278
412.095139	2531.916999
412.475547	2530.581093
412.855894	2533.880528
413.236180	2528.599919
413.616405	2530.639066
413.996568	2529.358613
414.376670	2531.450692
414.756711	2532.032945
415.136691	2531.753161
415.516609	2529.275434
415.896466	2532.768954
416.276262	2532.710980
416.655997	2529.484642
417.035670	2527.967255
417.415283	2529.693850
417.794834	2527.740403
418.174324	2532.078316
418.553753	2532.998326
418.933121	2530.477749
419.312428	2529.421627
419.691674	2531.980013
420.070859	2532.156453
420.449983	2531.516227
420.829045	2535.045035
421.208047	2534.654345
421.586988	2532.514375
421.965867	2532.673172
422.344686	2533.840199
422.723444	2533.943542
423.102141	2532.748789
423.480777	2537.298430
423.859352	2533.983872
424.237866	2533.084026
424.616319	2535.377751
424.994712	2532.995806
425.373044	2535.440765
425.751314	2532.274921
426.129524	2534.152750
426.507673	2538.697351
426.885762	2535.672658
427.263789	2536.486805
427.641756	2537.626105
428.019662	2536.789274
428.397508	2536.264994
428.775292	2536.171733
429.153016	2536.280117
429.530679	2535.798687
429.908282	2534.913965
430.285824	2537.855478
430.663305	2536.398584
431.040726	2535.223996
431.418086	2534.581248
431.795385	2534.465302
432.172624	2538.231044
432.549802	2535.904551
432.926920	2537.590817
433.303977	2538.467978
433.680974	2537.704243
434.057910	2535.652494
434.434786	2537.311033
434.811601	2537.978986
435.188355	2537.978986
435.565050	2537.404295
435.941683	2540.890253
436.318257	2536.625436
436.694770	2535.236598
437.071222	2534.810621
437.447614	2536.713657
437.823946	2535.511341
438.200218	2537.250539
438.576429	2538.359593
438.952580	2539.425797
439.328670	2539.261960
439.704700	2537.885725
440.080670	2537.694161
440.456580	2537.542926
440.832429	2539.564429
441.208218	2536.088553
441.583947	2538.956970
441.959616	2538.714995
442.335224	2540.764224
442.710773	2542.437887
443.086261	2540.053421
443.461689	2536.685930
443.837057	2541.560726
444.212365	2541.631302
444.587612	2540.028215
444.962800	2539.682896
445.337927	2542.793288
445.712995	2537.018646
446.088002	2542.185829
446.462949	2540.887732
446.837837	2541.953936
447.212664	2543.264636
447.587431	2541.326312
447.962139	2541.749769
448.336786	2541.449821
448.711374	2539.556867
449.085901	2542.168185
449.460369	2539.887063
449.834776	2540.189532
450.209124	2540.280273
450.583412	2544.247661
450.957640	2541.288504
451.331808	2541.676673
451.705917	2540.197094
452.079965	2542.768082
452.453954	2543.020140
452.827883	2542.591642
453.201752	2541.228010
453.575562	2544.545089
453.949311	2544.708927
454.323001	2544.393854
454.696632	2540.938143
455.070202	2543.141128
455.443713	2541.311189
455.817164	2541.200283
456.190556	2539.725746
456.563888	2544.371169
456.937160	2537.923533
457.310373	2545.379400
457.683526	2544.401416
458.056619	2546.425439
458.429653	2543.930068
458.802628	2544.880326
459.175542	2543.993083
459.548398	2541.558205
459.921194	2543.430994
460.293930	2543.007537
460.666607	2546.248999
461.039224	2544.713968
461.411782	2543.950233
461.784280	2546.934596
462.156719	2544.648433
462.529099	2543.937630
462.901419	2544.197249
463.273680	2544.078782
463.645882	2543.975439
464.018024	2546.720347
464.390106	2546.248999
464.762130	2547.128680
465.134094	2546.508618
465.505999	2544.857641
465.877845	2548.313352
466.249631	2548.467107
466.621358	2542.977290
466.993026	2550.042467
467.364634	2550.251675
467.736184	2549.490461
468.107674	2547.111036
468.479105	2546.647250
468.850477	2547.721016
469.221790	2547.020296
469.593043	2545.797816
469.964238	2546.448125
470.335373	2546.034750
470.706449	2549.278732
471.077467	2546.276725
471.448425	2549.513146
471.819324	2546.188505
472.190164	2546.102806
472.560945	2547.327806
472.931667	2547.957950
473.302330	2549.301418
473.672934	2548.716644
474.043479	2548.278063
474.413965	2547.847045
474.784393	2545.107178
475.154761	2546.730429
475.525070	2544.416540
475.895321	2544.976108
476.265513	2546.390151
476.635645	2548.696479
477.005719	2549.881150
477.375734	2547.239586
477.745691	2548.396531
478.115588	2550.292004
478.485427	2550.997766
478.855207	2549.540872
479.224928	2550.526418
479.594591	2549.971891
479.964194	2550.859134
480.333739	2550.942313
480.703226	2549.908877
481.072653	2548.933413
481.442022	2549.031716
481.811333	2549.122457
482.180584	2550.039947
482.549777	2550.256716
482.918912	2551.766542
483.287988	2554.962633
483.657005	2551.804351
484.025964	2552.074052
484.394864	2552.747046
484.763706	2551.544731
485.132489	2553.404917
485.501213	2556.411965
485.869879	2551.622869
486.238487	2551.632951
486.607036	2551.809392
486.975527	2552.452139
487.343959	2552.525236
487.712333	2551.955585
488.080648	2550.962478
488.448905	2551.501881
488.817104	2551.769062
489.185244	2552.684032
489.553326	2551.948023
489.921350	2552.678991
490.289315	2555.171841
490.657222	2556.898437
491.025070	2554.037582
491.392861	2555.433981
491.760593	2554.065308
492.128267	2556.752243
492.495883	2553.644372
492.863440	2554.219063
493.230939	2552.810061
493.598380	2554.382901
493.965763	2552.500030
494.333088	2552.137067
494.700354	2550.647406
495.067563	2553.110009
495.434713	2549.190512
495.801805	2554.942469
496.168839	2555.691080
496.535815	2556.555638
496.902733	2553.949362
497.269593	2557.435319
497.636395	2553.684701
498.003139	2555.247459
498.369825	2556.069167
498.736453	2555.370967
499.103023	2554.950031
499.469535	2557.815927
499.835989	2556.762325
500.202385	2557.904147
500.568723	2555.431461
500.935003	2556.417006
501.301226	2554.952551
501.667390	2557.657130
502.033497	2557.095042
502.399546	2556.961451
502.765537	2558.083108
503.131470	2555.088662
503.497345	2556.790052
503.863163	2558.501523
504.228923	2559.403890
504.594625	2558.007490
504.960269	2558.723334
505.325856	2560.109652
505.691385	2559.476987
506.056856	2562.602502
506.422270	2558.930022
506.787625	2560.399518
507.152924	2558.501523
507.518164	2561.584189
507.883347	2559.963458
508.248472	2562.801628
508.613540	2561.657286
508.978550	2560.520506
509.343503	2559.608057
509.708398	2564.356824
510.073236	2564.180383
510.438016	2564.155177
510.802738	2564.286247
511.167403	2562.443706
511.532010	2561.818603
511.896561	2565.307081
512.261053	2563.593089
512.625488	2561.160732
512.989866	2561.788356
513.354186	2563.623336
513.718449	2560.853222
514.082655	2564.608881
514.446803	2564.787842
514.810894	2567.182390
515.174927	2565.838923
515.538904	2567.089129
515.902822	2566.413614
516.266684	2569.849161
516.630488	2568.692216
516.994235	2570.239850
517.357925	2571.696744
517.721558	2569.846640
518.085133	2569.350087
518.448651	2574.179512
518.812112	2571.275807
519.175516	2574.338308
519.538863	2573.199007
519.902152	2574.418967
520.265385	2576.735377
520.628560	2577.100861
520.991678	2576.538772
521.354739	2580.002045
521.717743	2577.204204
522.080690	2579.117322
522.443580	2583.979515
522.806413	2585.766604
523.169189	2582.315934
523.531908	2585.625452
523.894569	2584.516398
524.257174	2587.324321
524.619722	2586.011100
524.982213	2590.724579
525.344647	2593.756833
525.707025	2593.754312
526.069345	2595.128027
526.431608	2601.056424
526.793815	2599.881835
527.155964	2606.319388
527.518057	2607.599841
527.880093	2609.994389
528.242072	2610.387599
528.603995	2614.075203
528.965860	2613.523197
529.327669	2619.504526
529.689421	2621.185751
530.051117	2622.183899
530.412755	2629.344858
530.774337	2631.525157
531.135862	2635.527834
531.497331	2636.717546
531.858743	2637.496404
532.220098	2643.427322
532.581396	2643.669297
532.942638	2648.382776
533.303824	2654.071718
533.664953	2662.566062
534.026025	2666.278872
534.387040	2670.899090
534.747999	2676.698937
535.108902	2683.002900
535.469748	2681.253620
535.830537	2689.626976
536.191270	2695.484797
536.551947	2699.696681
536.912567	2709.060624
537.273131	2711.130018
537.633638	2718.953889
537.994089	2724.400855
538.354483	2731.609705
538.714821	2742.130593
539.075103	2747.751480
539.435328	2757.044847
539.795497	2760.780342
540.155609	2775.810542
540.515665	2784.814043
540.875665	2787.140536
541.235609	2798.089922
541.595496	2807.078299
541.955328	2818.982984
542.315102	2825.365085
542.674821	2834.708863
543.034483	2841.690861
543.394090	2856.156452
543.753640	2864.759181
544.113134	2887.189795
544.472571	2887.414127
544.831953	2909.592683
545.191278	2912.382962
545.550548	2923.854107
545.909761	2943.181891
546.268918	2955.116823
546.628019	2974.913434
546.987064	2983.284270
547.346053	2986.150166
547.704986	3014.415916
548.063863	3024.238604
548.422684	3039.919113
548.781449	3053.331103
549.140158	3071.653176
549.498811	3081.614496
549.857408	3092.256372
550.215949	3124.237452
550.574434	3129.306332
550.932864	3157.357833
551.291237	3175.558919
551.649555	3197.931560
552.007817	3211.756924
552.366022	3226.613204
552.724173	3252.499529
553.082267	3267.391098
553.440305	3312.146462
553.798288	3308.519352
554.156215	3348.687265
554.514086	3369.182076
554.871902	3378.974518
555.229661	3403.696336
555.587365	3425.973195
555.945014	3431.916715
556.302606	3475.280721
556.660143	3482.572750
557.017625	3534.310112
557.375050	3545.937533
557.732421	3583.194181
558.089735	3602.711008
558.446994	3625.439050
558.804197	3656.651354
559.161345	3686.895756
559.518437	3686.580684
559.875474	3734.557345
560.232455	3770.347017
560.589381	3784.744553
560.946251	3827.314576
561.303065	3857.889174
561.659825	3887.337074
562.016528	3905.092018
562.373177	3902.029517
562.729770	3966.178200
563.086307	3976.310919
563.442789	4021.895553
563.799216	4045.546126
564.155587	4077.365889
564.511904	4103.385805
564.868164	4132.947131
565.224370	4157.061490
565.580520	4196.448025
565.936615	4211.931929
566.292654	4235.393459
566.648638	4283.768372
567.004567	4317.171057
567.360441	4341.398843
567.716260	4364.923387
568.072023	4413.696550
568.427732	4447.777271
568.783385	4444.467753
569.138982	4508.427393
569.494525	4541.071385
569.850013	4543.256725
570.205445	4608.285089
570.560823	4607.571766
570.916145	4630.105723
571.271412	4686.702757
571.626625	4703.764543
571.981782	4729.388728
572.336884	4766.592443
572.691931	4787.470382
573.046923	4826.466227
573.401860	4844.500955
573.756743	4863.337227
574.111570	4912.586779
574.466342	4933.895736
574.821059	4988.751052
575.175722	4983.266277
575.530330	5029.012227
575.884882	5050.769847
576.239380	5070.301798
576.593823	5093.329788
576.948211	5140.799814
577.302544	5121.502277
577.656823	5173.915153
578.011047	5204.237694
578.365216	5238.371346
578.719330	5237.693311
579.073389	5288.712309
579.427394	5291.852948
579.781344	5313.973531
580.135239	5337.117468
580.489080	5368.165934
580.842866	5368.052508
581.196597	5404.487448
581.550273	5453.406805
581.903895	5481.475949
582.257463	5538.866965
582.610975	5533.135173
582.964434	5567.614145
583.317837	5574.417182
583.671186	5589.230613
584.024481	5628.271829
584.377721	5621.115911
584.730906	5640.476462
585.084037	5695.493095
585.437113	5695.311613
585.790135	5743.673923
586.143103	5726.176078
586.496016	5740.505557
586.848874	5803.255320
587.201679	5824.957487
587.554428	5809.821423
587.907124	5862.796388
588.259765	5875.449684
588.612352	5920.590696
588.964884	5875.691660
589.317362	5919.625315
589.669786	5947.888544
590.022155	5995.456872
590.374470	6043.211723
590.726731	6030.893663
591.078937	5991.749103
591.431090	6094.903714
591.783188	6039.965219
592.135232	6074.194654
592.487222	6092.494042
592.839157	6164.340567
593.191038	6151.180635
593.542866	6140.261496
593.894639	6115.542198
594.246358	6169.091855
594.598022	6210.842691
594.949633	6177.707187
595.301190	6185.793197
595.652692	6234.400003
596.004141	6337.763821
596.355535	6219.422735
596.706876	6232.791875
597.058162	6219.392488
597.409395	6292.529548
597.760573	6365.462441
598.111698	6325.697819
598.462768	6351.579103
598.813785	6344.798751
599.164748	6356.370720
599.515657	6367.090734
599.866511	6347.410069
600.217312	6443.386077
600.568060	6370.344798
600.918753	6469.900025
601.269392	6470.565457
601.619978	6440.336178
601.970510	6507.943093
602.320988	6521.317274
602.671412	6590.635660
603.021783	6564.293110
603.372100	6572.177475
603.722363	6597.443738
604.072572	6592.861329
604.422728	6627.962883
604.772830	6593.229333
605.122878	6626.984900
605.472872	6638.919831
605.822813	6681.583116
606.172701	6657.562018
606.522534	6739.412713
606.872314	6755.733448
607.222041	6756.749241
607.571714	6819.254507
607.921333	6805.290511
608.270899	6833.276477
608.620411	6923.193017
608.969870	6867.485747
609.319276	6878.563682
609.668627	6917.811586
610.017926	6955.746268
610.367171	7018.614498
610.716362	7012.129053
611.065500	7027.237392
611.414585	7069.036119
611.763616	7071.125677
612.112594	7074.538538
612.461518	7107.870647
612.810389	7163.167064
613.159207	7141.326265
613.507971	7105.090451
613.856682	7228.376909
614.205340	7195.322064
614.553945	7278.458252
614.902496	7216.026083
615.250994	7274.692510
615.599439	7268.932992
615.947830	7300.672097
616.296169	7290.239429
616.644454	7318.437123
616.992686	7321.572721
617.340864	7390.359265
617.688990	7318.016187
618.037063	7407.907521
618.385082	7370.487036
618.733048	7466.576470
619.080961	7418.814058
619.428821	7444.634848
619.776628	7466.100081
620.124382	7431.263187
620.472083	7439.991945
620.819731	7470.730381
621.167326	7395.067702
621.514868	7414.269458
621.862357	7330.377096
622.209793	7354.209151
622.557176	7314.527708
622.904506	7303.101933
623.251783	7254.868173
623.599007	7223.287865
623.946179	7240.674804
624.293297	7218.765950
624.640363	7154.158522
624.987376	7147.597460
625.334336	7109.057839
625.681243	7079.982984
626.028097	7070.964360
626.374899	7055.435086
626.721647	7068.602579
627.068343	7011.859352
627.414987	6993.151630
627.761577	6961.326826
628.108115	7001.759400
628.454600	6911.540390
628.801032	6971.023485
629.147412	6933.121570
629.493739	6933.741632
629.840014	6880.267592
630.186236	6938.253464
630.532405	6839.708989
630.878521	6893.087247
631.224585	6850.363468
631.570597	6788.092615
631.916556	6824.807338
632.262462	6827.310271
632.608316	6795.487988
632.954117	6774.693228
633.299866	6775.542662
633.645562	6768.245592
633.991206	6700.434511
634.336797	6655.364075
634.682336	6618.528364
635.027823	6593.320074
635.373257	6592.659683
635.718639	6526.481936
636.063968	6550.203085
636.409245	6454.065761
636.754470	6456.520803
637.099642	6419.455719
637.444762	6373.167845
637.789829	6383.335852
638.134845	6332.712585
638.479808	6325.251677
638.824719	6329.398026
639.169577	6265.216576
639.514383	6291.407891
639.859137	6223.964814
640.203839	6235.292287
640.548489	6224.146296
640.893086	6206.366146
641.237632	6181.573752
641.582125	6205.753646
641.926566	6174.664850
642.270955	6196.813160
642.615292	6192.618920
642.959576	6207.573502
643.303809	6198.814498
643.647990	6210.731785
643.992118	6201.398089
644.336195	6148.639893
644.680219	6180.686508
645.024192	6171.060425
645.368112	6266.126504
645.711981	6284.993023
646.055797	6362.566298
646.399562	6323.227654
646.743274	6445.866324
647.086935	6498.427915
647.430544	6501.976887
647.774101	6518.116141
648.117606	6524.833479
648.461059	6518.418610
648.804460	6484.320246
649.147810	6398.739097
649.491108	6371.809254
649.834354	6352.110945
650.177548	6268.662205
650.520690	6187.028280
650.863781	6165.805022
651.206820	6187.970976
651.549807	6114.057578
651.892742	6056.049021
652.235626	6064.770217
652.578458	6052.681530
652.921238	5960.698116
653.263967	6002.315362
653.606644	5946.905519
653.949269	5949.353000
654.291843	5890.563063
654.634365	5940.825888
654.976836	5903.690228
655.319255	5897.746708
655.661622	5876.967072
656.003938	5875.185024
656.346203	5839.813768
656.688416	5866.214290
657.030577	5825.186860
657.372687	5795.108815
657.714746	5784.532475
658.056753	5828.014947
658.398708	5769.555207
658.740612	5762.449700
659.082465	5806.753881
659.424266	5799.403878
659.766016	5797.967150
660.107715	5782.107680
660.449362	5789.939112
660.790958	5783.524244
661.132503	5776.146515
661.473996	5811.903419
661.815438	5795.527231
662.156829	5796.953878
662.498168	5795.864988
662.839456	5765.582777
663.180693	5802.103416
663.521879	5799.270288
663.863013	5793.848527
664.204097	5810.227236
664.545129	5850.470767
664.886110	5848.948338
665.227040	5883.974275
665.567918	5849.230643
665.908746	5874.234766
666.249522	5877.453543
666.590248	5867.588005
666.930922	5898.603704
667.271545	5909.878244
667.612118	5912.285395
667.952639	5881.183997
668.293109	5907.950003
668.633528	5864.754876
668.973896	5872.258634
669.314213	5861.152972
669.654480	5844.827195
669.994695	5835.632131
670.334859	5830.200287
670.674973	5819.646632
671.015035	5823.351880
671.355047	5819.170243
671.695008	5808.263706
672.034918	5781.837978
672.374777	5787.708402
672.714585	5780.030724
673.054342	5780.620539
673.394049	5774.989570
673.733705	5809.140867
674.073310	5798.887160
674.412864	5752.788329
674.752368	5746.537298
675.091820	5752.453092
675.431223	5684.594120
675.770574	5684.967166
676.109875	5642.510568
676.449125	5642.898737
676.788324	5614.050734
677.127473	5557.695675
677.466571	5547.494900
677.805619	5539.970978
678.144616	5523.461199
678.483562	5506.069218
678.822458	5477.969827
679.161303	5470.534125
679.500098	5462.730419
679.838842	5444.925063
680.177535	5450.513182
680.516179	5462.007013
680.854771	5475.348427
681.193314	5553.756013
681.531805	5663.007899
681.870247	5810.801927
682.208638	5914.944604
682.546978	5926.017498
682.885268	5906.238531
683.223508	5817.121014
683.561697	5765.507160
683.899836	5735.139249
684.237925	5690.240212
684.575963	5655.602444
684.913951	5620.765551
685.251889	5678.627915
685.589776	5646.288913
685.927614	5618.781857
686.265401	5688.624523
686.603137	5671.368653
686.940824	5746.648203
687.278460	5770.926400
687.616046	5781.404439
687.953582	5847.131003
688.291068	5825.542261
688.628504	5894.863168
688.965889	5853.379513
689.303224	5798.350277
689.640510	5753.413432
689.977745	5672.923849
690.314930	5575.281740
690.652065	5520.557495
690.989150	5430.668680
691.326185	5359.938771
691.663170	5306.943642
692.000105	5225.188729
692.336990	5157.765817
692.673825	5127.264316
693.010610	5058.049273
693.347345	4992.665508
693.684030	4979.611440
694.020665	4935.516467
694.357251	4853.756514
694.693786	4859.354715
695.030272	4825.122760
695.366707	4791.221000
695.703093	4762.720837
696.039429	4782.686327
696.375716	4763.640847
696.711952	4740.317949
697.048139	4726.263212
697.384276	4705.213874
697.720363	4720.428077
698.056400	4731.818564
698.392388	4677.139689
698.728326	4658.873068
699.064214	4637.806086
699.400053	4628.789982
699.735842	4600.136064
700.071581	4570.201692
700.407270	4545.961304
700.742910	4526.136966
701.078501	4473.477073
701.414042	4477.963700
701.749533	4445.647383
702.084974	4383.671438
702.420366	4436.288481
702.755709	4376.286148
703.091002	4325.662881
703.426246	4372.162484
703.761440	4328.869055
704.096584	4291.998055
704.431679	4309.538750
704.766725	4295.562151
705.101721	4286.016726
705.436668	4314.960511
705.771565	4262.658540
706.106413	4290.004279
706.441212	4322.663394
706.775961	4330.633458
707.110661	4311.530006
707.445311	4340.309953
707.779913	4360.323334
708.114465	4374.516703
708.448967	4398.144591
708.783421	4455.223055
709.117825	4497.851052
709.452180	4502.514119
709.786485	4547.468609
710.120742	4633.173265
710.454949	4616.033342
710.789107	4684.151934
711.123216	4754.992748
711.457275	4747.088219
711.791286	4817.480371
712.125247	4835.706662
712.459159	4737.149584
712.793023	4813.432324
713.126837	4772.485552
713.460602	4764.379377
713.794318	4686.639743
714.127985	4695.330692
714.461602	4610.467908
714.795171	4576.755192
715.128691	4514.209596
715.462162	4459.210608
715.795584	4409.404008
716.128957	4395.750043
716.462281	4341.817258
716.795556	4314.978155
717.128782	4276.176394
717.461960	4211.261456
717.795088	4221.021130
718.128167	4181.674924
718.461198	4119.504894
718.794180	4117.967342
719.127113	4099.128550
719.459997	4077.219696
719.792833	4034.412738
720.125619	4026.747663
720.458357	3989.438084
720.791046	3997.587109
721.123686	3967.057881
721.456278	3928.782921
721.788821	3944.571815
722.121315	3919.035850
722.453761	3893.446953
722.786158	3907.668048
723.118506	3930.864917
723.450805	3880.773492
723.783056	3904.136720
724.115259	3918.262033
724.447412	3921.894184
724.779518	3914.929830
725.111574	3921.080038
725.443582	3946.265642
725.775542	3935.863221
726.107453	3983.885253
726.439315	3984.696879
726.771129	3997.705576
727.102895	4034.110269
727.434612	4084.322682
727.766281	4092.176799
728.097901	4095.987912
728.429473	4098.833643
728.760996	4106.362606
729.092471	4101.722224
729.423897	4084.897373
729.755276	4096.454218
730.086606	4090.500616
730.417887	4130.416472
730.749120	4195.419630
731.080305	4252.034308
731.411442	4280.524389
731.742530	4252.873660
732.073570	4254.073455
732.404562	4307.156805
732.735506	4301.356958
733.066401	4264.213736
733.397249	4197.327707
733.728048	4118.544554
734.058798	4042.644942
734.389501	3969.838078
734.720156	3909.467740
735.050762	3867.820247
735.381320	3859.146942
735.711831	3808.241371
736.042293	3781.742545
736.372707	3805.282213
736.703073	3776.119138
737.033391	3767.140843
737.363661	3781.843368
737.693883	3809.773881
738.024056	3818.893329
738.354182	3811.586176
738.684260	3881.292731
739.014290	3896.635483
739.344272	3891.440574
739.674207	3933.365330
740.004093	3938.857667
740.333931	3932.536060
740.663722	3934.204682
740.993464	3930.688477
741.323159	3908.325918
741.652806	3879.558574
741.982405	3849.919110
742.311956	3821.217301
742.641460	3811.225734
742.970915	3787.333185
743.300323	3747.180395
743.629683	3712.174622
743.958996	3702.989640
744.288260	3678.008202
744.617477	3645.245743
744.946647	3628.027682
745.275768	3609.682923
745.604842	3605.392902
745.933869	3557.446487
746.262847	3551.550858
746.591778	3585.896239
746.920662	3557.428843
747.249498	3527.554966
747.578286	3571.965010
747.907027	3587.292639
748.235720	3589.157866
748.564365	3611.565794
748.892963	3612.304323
749.221514	3593.102568
749.550017	3574.039445
749.878473	3568.733631
750.206881	3542.922923
750.535242	3536.997047
750.863555	3541.171122
751.191821	3532.729710
751.520039	3513.283459
751.848210	3492.680263
752.176334	3522.879295
752.504411	3533.417827
752.832440	3492.886951
753.160421	3473.970021
753.488356	3486.953512
753.816243	3496.461129
754.144082	3451.262143
754.471875	3441.933488
754.799620	3462.156077
755.127318	3449.787606
755.454969	3453.079479
755.782572	3459.816981
756.110129	3430.875717
756.437638	3422.855241
756.765100	3438.606327
757.092515	3449.591001
757.419882	3452.882874
757.747203	3426.739450
758.074477	3429.267589
758.401703	3448.113943
758.728882	3466.509113
759.056014	3474.237202
759.383099	3476.374651
759.710138	3473.410453
760.037129	3490.867968
760.364073	3520.388965
760.690970	3503.430524
761.017820	3479.777430
761.344623	3500.388188
761.671379	3545.985424
761.998088	3594.307404
762.324751	3721.341961
762.651366	3967.327583
762.977935	4435.348306
763.304456	4871.244276
763.630931	4953.682265
763.957359	4598.265796
764.283740	4258.970936
764.610074	4075.861105
764.936362	3879.707288
765.262602	3725.606777
765.588796	3614.789612
765.914943	3526.166128
766.241044	3443.256791
766.567097	3412.956936
766.893104	3367.601675
767.219064	3336.094463
767.544978	3313.389106
767.870845	3252.290322
768.196665	3237.388671
768.522438	3245.371338
768.848165	3239.417735
769.173846	3207.277859
769.499479	3189.648944
769.825066	3170.908454
770.150607	3156.180723
770.476101	3174.243178
770.801548	3164.324707
771.126949	3119.397944
771.452303	3105.154164
771.777611	3110.598610
772.102872	3117.300824
772.428087	3094.255190
772.753256	3080.656677
773.078378	3072.805080
773.403453	3043.435318
773.728482	3031.533153
774.053465	3052.554765
774.378401	3038.835265
774.703291	3009.256295
775.028135	3010.481295
775.352932	3003.398474
775.677683	2993.994201
776.002388	2986.528253
776.327046	2991.934890
776.651658	2979.853765
776.976224	2969.915130
777.300743	2971.271200
777.625216	2960.654530
777.949643	2954.448870
778.274024	2960.626804
778.598359	2947.638271
778.922647	2950.927624
779.246889	2949.896708
779.571086	2936.174687
779.895236	2931.176383
780.219339	2939.378341
780.543397	2952.755042
780.867409	2956.493058
781.191374	2948.147428
781.515294	2946.708178
781.839167	2947.960905
782.162995	2940.757096
782.486776	2946.965277
782.810511	2944.575770
783.134201	2930.087494
783.457844	2942.229113
783.781441	2929.540529
784.104993	2907.856006
784.428498	2910.454720
784.751958	2923.725558
785.075372	2917.668612
785.398739	2900.334604
785.722061	2917.572830
786.045337	2931.761157
786.368568	2913.234917
786.691752	2904.521282
787.014891	2954.665640
787.337983	2982.142449
787.661030	3009.629340
787.984031	3076.313723
788.306987	3118.248561
788.629897	3111.790843
788.952760	3094.827361
789.275579	3081.904363
789.598351	3021.486134
789.921078	2977.812098
790.243759	2971.792960
790.566395	2955.217646
790.888984	2934.432969
791.211529	2914.003693
791.534027	2906.855337
791.856480	2897.163718
792.178888	2880.704351
792.501249	2872.220089
792.823566	2869.397043
793.145836	2866.266486
793.468062	2862.856146
793.790241	2861.242977
794.112375	2867.340252
794.434464	2880.792571
794.756507	2883.303066
795.078505	2886.211812
795.400457	2902.343504
795.722364	2939.660645
796.044226	2963.727114
796.366042	2965.002526
796.687812	2953.821246
797.009538	2975.011737
797.331218	2959.754684
797.652852	2948.296142
797.974442	2928.754109
798.295986	2925.293357
798.617484	2918.361770
798.938938	2907.883732
799.260346	2895.732031
799.581709	2887.368756
799.903026	2877.848537
800.224299	2874.723022
800.545526	2863.478728
800.866708	2847.775534
801.187845	2839.702126
801.508936	2841.456448
801.829983	2848.438446
802.150984	2834.265242
802.471940	2824.694611
802.792851	2822.448777
803.113717	2823.552790
803.434538	2826.506906
803.755314	2821.886688
804.076045	2816.974084
804.396731	2814.420740
804.717372	2815.040802
805.037967	2809.087199
805.358518	2816.159938
805.679024	2826.096052
805.999485	2820.777635
806.319901	2824.341730
806.640272	2821.730413
806.960598	2827.164777
807.280879	2831.790035
807.601115	2840.528875
807.921306	2827.323573
808.241453	2826.297698
808.561554	2831.507731
808.881611	2831.633759
809.201623	2826.078408
809.521590	2826.025476
809.841513	2822.544559
810.161390	2828.793069
810.481223	2820.502892
810.801011	2805.979327
811.120755	2808.366314
811.440453	2810.607107
811.760107	2808.381437
812.079716	2807.037970
812.399281	2794.452729
812.718801	2790.162707
813.038276	2788.806637
813.357707	2794.175466
813.677093	2800.668472
813.996434	2792.895013
814.315731	2789.212450
814.634983	2785.797068
814.954191	2785.855041
815.273354	2800.272741
815.592473	2806.256591
815.911547	2810.216417
816.230577	2816.545586
816.549562	2825.856597
816.868502	2824.432471
817.187399	2835.162567
817.506250	2852.438601
817.825058	2845.756552
818.143821	2856.443798
818.462539	2870.806045
818.781213	2897.345200
819.099843	2934.044800
819.418429	2988.953048
819.736970	3050.165258
820.055466	3120.995990
820.373919	3227.351733
820.692327	3359.500540
821.010691	3523.786703
821.329011	3958.145121
821.647286	4836.130119
821.965517	6183.955697
822.283704	6891.080867
822.601847	6858.215065
822.919945	6244.227732
823.237999	5756.816211
823.556010	5188.985683
823.873976	4652.475843
824.191897	4259.119650
824.509775	3968.214826
824.827609	3709.401988
825.145398	3588.789861
825.463144	3579.257039
825.780845	3668.167870
826.098502	3771.133437
826.416116	4049.132907
826.733685	4353.432077
827.051210	4411.463319
827.368692	4299.355619
827.686129	4041.593862
828.003522	3723.640727
828.320872	3472.505566
828.638177	3284.669653
828.955439	3151.989004
829.272656	3072.122004
829.589830	3007.605317
829.906960	2959.802575
830.224046	2915.894125
830.541088	2884.530587
830.858086	2867.849409
831.175041	2850.318796
831.491952	2850.545648
831.808819	2864.973430
832.125642	2886.975546
832.442421	2929.860642
832.759157	3010.458610
833.075849	3184.940506
833.392497	3458.896971
833.709101	3655.058349
834.025662	3606.020525
834.342179	3446.470527
834.658653	3276.303858
834.975083	3133.029224
835.291469	3033.630273
835.607811	2956.268727
835.924110	2898.179511
836.240366	2850.056656
836.556578	2809.150213
836.872746	2785.688683
837.188871	2764.097421
837.504952	2751.915473
837.820990	2741.472723
838.136984	2728.141392
838.452935	2718.328786
838.768842	2720.168807
839.084706	2736.718915
839.400526	2813.258754
839.716303	2942.478650
840.032037	3018.307686
840.347727	3004.368896
840.663373	2944.142231
840.978977	2873.127497
841.294537	2803.254584
841.610054	2756.843201
841.925527	2736.212279
842.240957	2713.814432
842.556344	2690.814168
842.871687	2677.681962
843.186987	2666.966990
843.502244	2666.702329
843.817458	2663.259221
844.132629	2648.634834
844.447756	2640.468164
844.762840	2634.123872
845.077881	2636.001702
845.392879	2634.358286
845.707833	2630.075826
846.022745	2622.577109
846.337613	2624.606174
846.652438	2623.734054
846.967221	2623.653396
847.281960	2625.352265
847.596656	2622.745988
847.911309	2622.090638
848.225919	2620.419496
848.540485	2616.379011
848.855009	2615.549741
849.169490	2615.310286
849.483928	2613.646705
849.798323	2613.513115
850.112675	2609.633947
850.426984	2614.992693
850.741251	2612.018413
851.055474	2610.972373
851.369654	2618.007303
851.683792	2617.132663
851.997887	2612.845162
852.311938	2612.225100
852.625947	2613.802981
852.939914	2613.349277
853.253837	2616.310955
853.567718	2612.073865
853.881555	2613.674432
854.195350	2618.350102
854.509103	2615.340533
854.822812	2610.521190
855.136479	2610.750562
855.450103	2613.929010
855.763685	2614.879267
856.077224	2614.047477
856.390720	2610.521190
856.704173	2613.767693
857.017584	2616.671398
857.330953	2621.400000
857.644278	2618.352622
857.957561	2620.424537
858.270802	2616.505040
858.584000	2617.062087
858.897155	2619.083590
859.210268	2621.072325
859.523339	2615.111161
859.836367	2612.381376
860.149352	2610.236365
860.462295	2614.377673
860.775195	2612.540172
861.088054	2605.452310
861.400869	2608.035901
861.713642	2605.573298
862.026373	2604.534820
862.339062	2609.583535
862.651708	2615.670729
862.964312	2615.617797
863.276873	2613.495471
863.589392	2617.026799
863.901869	2620.963940
864.214303	2626.199178
864.526696	2628.813017
864.839045	2631.131947
865.151353	2635.283338
865.463619	2631.033645
865.775842	2632.666979
866.088023	2632.374592
866.400162	2633.201341
866.712258	2633.269397
867.024313	2630.310239
867.336325	2627.351082
867.648296	2630.718573
867.960224	2630.776546
868.272110	2632.515744
868.583954	2624.878396
868.895755	2628.205558
869.207515	2633.997843
869.519233	2640.238792
869.830909	2634.776702
870.142542	2628.608850
870.454134	2632.238481
870.765684	2636.601599
871.077191	2637.924902
871.388657	2642.950933
871.700081	2641.902373
872.011463	2639.563277
872.322803	2642.232568
872.634101	2644.727939
872.945357	2651.606594
873.256571	2659.082625
873.567744	2654.104486
873.878874	2653.585247
874.189963	2655.818478
874.501010	2660.216885
874.812015	2663.501196
875.122979	2663.193686
875.433900	2654.653971
875.744780	2652.176244
876.055618	2657.953407
876.366415	2667.985303
876.677169	2664.973213
876.987882	2658.875938
877.298554	2657.005670
877.609183	2668.736435
877.919771	2674.443021
878.230317	2681.772858
878.540822	2688.979188
878.851285	2703.288503
879.161707	2727.160887
879.472087	2763.588265
879.782425	2808.320943
880.092722	2918.225659
880.402977	3100.319698
880.713191	3349.793799
881.023363	3630.757467
881.333494	3810.348573
881.643583	3976.396619
881.953631	3972.177173
882.263637	3804.848674
882.573602	3588.673915
882.883526	3463.663382
883.193408	3356.175899
883.503248	3260.197371
883.813048	3150.751401
884.122806	3040.980276
884.432522	2958.756536
884.742197	2896.399983
885.051831	2862.195755
885.361424	2827.510096
885.670975	2797.361475
885.980485	2765.725714
886.289954	2748.563106
886.599382	2732.507031
886.908768	2722.339023
887.218113	2706.643391
887.527417	2693.894313
887.836680	2685.180678
888.145901	2680.414268
888.455082	2671.970335
888.764221	2661.499858
889.073319	2655.750422
889.382376	2652.531646
889.691392	2656.055412
890.000366	2656.405772
890.309300	2654.459887
890.618193	2654.800165
890.927044	2658.177738
891.235855	2657.620690
891.544625	2657.610608
891.853353	2658.664209
892.162041	2666.195693
892.470687	2683.466686
892.779293	2695.552852
893.087858	2700.780529
893.396381	2723.755588
893.704864	2763.094232
894.013306	2831.981599
894.321707	2920.806730
894.630068	2968.281796
894.938387	2985.507419
895.246665	2978.732108
895.554903	2939.201900
895.863100	2895.716907
896.171256	2841.869822
896.479371	2782.348919
896.787446	2745.850965
897.095480	2727.095352
897.403473	2723.760629
897.711425	2709.284956
898.019336	2692.707121
898.327207	2677.591221
898.635038	2677.374452
898.942827	2675.521828
899.250576	2664.743841
899.558284	2652.047695
899.865952	2649.491830
900.173579	2646.943527
900.481165	2647.286325
900.788711	2637.647639
901.096216	2634.433903
901.403681	2627.784621
901.711105	2627.351082
902.018489	2628.828140
902.325832	2632.820734
902.633135	2631.817544
902.940397	2646.459576
903.247619	2682.506346
903.554800	2750.834146
903.861941	2866.851260
904.169041	2987.992708
904.476101	3045.459341
904.783121	3037.121272
905.090100	2983.564054
905.397039	2913.474372
905.703938	2843.422498
906.010796	2785.628189
906.317614	2737.427197
906.624391	2702.423945
906.931129	2675.486540
907.237826	2655.274033
907.544483	2636.621764
907.851099	2625.122892
908.157675	2616.154679
908.464211	2609.112187
908.770707	2598.568614
909.077163	2591.556369
909.383578	2594.046699
909.689954	2591.700042
909.996289	2586.822726
910.302584	2588.662747
910.608839	2587.490679
910.915054	2585.005390
911.221229	2590.533015
911.527363	2591.188365
911.833458	2589.688622
912.139513	2588.725761
912.445527	2594.013932
912.751502	2597.842688
913.057436	2603.483739
913.363331	2607.085644
913.669186	2618.443363
913.975000	2630.219499
914.280775	2646.061325
914.586510	2662.563542
914.892205	2693.271730
915.197859	2763.676485
915.503475	2840.833865
915.809050	2901.972979
916.114585	2913.789444
916.420081	2926.871238
916.725536	2936.467074
917.030952	2912.047725
917.336328	2869.954090
917.641665	2823.729230
917.946961	2773.768875
918.252218	2742.203690
918.557435	2719.475648
918.862612	2697.513861
919.167750	2682.939886
919.472848	2668.169305
919.777906	2651.452839
920.082925	2639.618730
920.387904	2628.918881
920.692843	2623.529887
920.997743	2620.772376
921.302603	2616.066459
921.607423	2607.050356
921.912204	2604.658328
922.216946	2603.392998
922.521647	2599.407966
922.826310	2595.979982
923.130932	2589.151739
923.435516	2585.282653
923.740059	2583.679566
924.044564	2585.075966
924.349028	2581.421129
924.653454	2571.200190
924.957840	2574.308061
925.262186	2570.411249
925.566493	2570.794377
925.870761	2566.562328
926.174989	2566.559808
926.479178	2563.714077
926.783328	2563.988819
927.087438	2563.245249
927.391509	2561.879097
927.695541	2559.774415
927.999533	2561.599313
928.303486	2556.611091
928.607400	2561.130485
928.911275	2555.512119
929.215110	2556.686708
929.518906	2556.865669
929.822663	2559.534960
930.126381	2557.573951
930.430060	2556.626214
930.733699	2557.415155
931.037299	2557.805844
931.340861	2558.665361
931.644383	2562.504200
931.947866	2560.921277
932.251309	2556.729558
932.554714	2558.660320
932.858080	2557.337017
933.161407	2558.483879
933.464694	2555.272664
933.767943	2555.973385
934.071153	2556.278375
934.374323	2557.886503
934.677455	2557.006821
934.980548	2554.892057
935.283602	2556.762325
935.586617	2556.210319
935.889593	2555.486913
936.192530	2553.853580
936.495428	2557.347099
936.798287	2557.926832
937.101108	2557.657130
937.403890	2560.374312
937.706632	2564.606361
938.009336	2565.642318
938.312002	2571.243040
938.614628	2572.712536
938.917216	2575.540623
939.219765	2576.879050
939.522275	2575.560788
939.824747	2579.240830
940.127179	2570.731363
940.429573	2569.397978
940.731929	2567.623491
941.034246	2568.908986
941.336524	2566.839592
941.638763	2570.086095
941.940964	2570.817062
942.243126	2563.986299
942.545250	2567.177349
942.847335	2564.117369
943.149381	2565.133161
943.451389	2560.311298
943.753359	2560.051678
944.055290	2556.296019
944.357182	2559.635783
944.659036	2559.902964
944.960851	2556.787531
945.262628	2558.803993
945.564367	2557.929353
945.866067	2558.254507
946.167729	2560.941442
946.469352	2561.702656
946.770937	2560.339024
947.072484	2556.462377
947.373992	2559.724003
947.675462	2557.803324
947.976893	2558.040258
948.278286	2557.001780
948.579641	2554.718138
948.880958	2558.012532
949.182236	2557.906667
949.483476	2552.870555
949.784678	2558.635114
950.085841	2554.392983
950.386967	2554.723179
950.688054	2554.700493
950.989103	2556.742161
951.290114	2556.049002
951.591087	2560.596123
951.892021	2559.807182
952.192917	2561.513613
952.493776	2562.393294
952.794596	2563.235167
953.095378	2562.602502
953.396122	2563.635939
953.696828	2562.839436
953.997496	2561.806000
954.298126	2560.891030
954.598718	2559.045968
954.899272	2557.145453
955.199788	2554.725699
955.500266	2554.259392
955.800706	2551.985832
956.101108	2547.226983
956.401472	2548.436860
956.701798	2546.927034
957.002087	2546.405275
957.302337	2551.149001
957.602550	2549.750080
957.902724	2549.069525
958.202861	2545.780172
958.502960	2546.120450
958.803022	2547.355532
959.103045	2545.023999
959.403031	2547.385779
959.702979	2544.915614
960.002889	2543.073072
960.302762	2543.859492
960.602596	2544.376210
960.902393	2541.424615
961.202153	2543.325130
961.501875	2544.726571
961.801559	2543.655325
962.101205	2541.117104
962.400814	2543.103319
962.700385	2545.507949
962.999918	2543.806560
963.299414	2539.080478
963.598873	2543.231868
963.898293	2541.618699
964.197677	2540.655839
964.497022	2543.617517
964.796331	2542.137938
965.095601	2541.361600
965.394835	2543.221786
965.694030	2542.566436
965.993189	2540.857485
966.292309	2541.527958
966.591393	2543.549461
966.890439	2537.961342
967.189447	2541.890922
967.488419	2540.756662
967.787353	2541.129707
968.086249	2543.551982
968.385108	2542.463092
968.683930	2542.884029
968.982714	2541.906045
969.281462	2542.619368
969.580172	2543.914945
969.878844	2542.400078
970.177480	2542.427804
970.476078	2542.107691
970.774639	2543.234389
971.073162	2541.570808
971.371649	2542.269008
971.670098	2537.278266
971.968510	2540.416384
972.266885	2538.962011
972.565223	2542.899152
972.863524	2543.015099
973.161788	2540.635674
973.460014	2543.350336
973.758204	2545.208001
974.056356	2543.302445
974.354471	2544.479554
974.652550	2543.990562
974.950591	2544.701365
975.248595	2541.694317
975.546563	2545.114739
975.844493	2542.909235
976.142386	2544.897970
976.440243	2540.721374
976.738062	2540.696168
977.035845	2540.572660
977.333590	2541.732125
977.631299	2541.911086
977.928971	2542.616848
978.226606	2539.967721
978.524204	2542.536189
978.821765	2541.472506
979.119290	2543.216745
979.416777	2538.263811
979.714228	2542.914276
980.011642	2543.395706
980.309020	2544.557692
980.606360	2541.921168
980.903664	2542.430325
981.200931	2540.371014
981.498162	2542.004347
981.795356	2543.012578
982.092513	2548.227652
982.389633	2550.271840
982.686717	2553.644372
982.983764	2556.235525
983.280775	2555.809547
983.577749	2555.401214
983.874686	2554.899619
984.171587	2552.502550
984.468451	2550.251675
984.765279	2547.708413
985.062070	2546.916952
985.358824	2543.735984
985.655543	2544.862682
985.952224	2544.156920
986.248869	2543.463762
986.545478	2540.456713
986.842050	2537.265663
987.138586	2537.278266
987.435086	2535.208872
987.731549	2533.706608
988.027975	2540.945705
988.324366	2539.826569
988.620719	2540.149203
988.917037	2539.113246
989.213318	2539.486291
989.509563	2538.379758
989.805772	2542.276570
990.101944	2539.292207
990.398080	2539.037628
990.694180	2537.248019
990.990244	2540.507125
991.286271	2538.495704
991.582262	2538.382278
991.878217	2539.498894
992.174136	2538.772968
992.470019	2537.578214
992.765865	2537.525282
993.061676	2538.432690
993.357450	2540.398740
993.653188	2539.556867
993.948890	2539.718184
994.244556	2537.273225
994.540186	2542.518545
994.835780	2538.841023
995.131337	2543.136087
995.426859	2538.142824
995.722345	2540.703730
996.017795	2541.210366
996.313208	2541.112063
996.608586	2544.812270
996.903928	2542.342105
997.199234	2544.020809
997.494504	2542.274049
997.789738	2541.651467
998.084936	2540.343287
998.380099	2542.384955
998.675225	2539.481250
998.970316	2538.576363
999.265371	2540.759182
999.560390	2541.606096
999.855373	2540.411343
1000.150320	2539.385468
1000.445232	2540.393699
1000.740108	2539.390509
1001.034948	2538.626774
1001.329752	2538.775488
1001.624521	2536.890097
1001.919254	2532.287523
1002.213951	2536.887576
1002.508613	2535.347504
1002.803239	2538.689789
1003.097829	2531.818696
1003.392384	2536.837165
1003.686903	2537.116949
1003.981386	2537.532844
1004.275834	2538.684748
1004.570246	2538.621733
1004.864623	2537.530323
1005.158964	2535.627288
1005.453270	2535.702905
1005.747540	2540.582742
1006.041775	2536.116280
1006.335974	2538.452855
1006.630138	2537.507638
1006.924266	2536.640560
1007.218359	2538.304141
1007.512416	2537.668955
1007.806438	2535.922195
1008.100425	2537.878163
1008.394376	2537.396733
1008.688292	2535.864222
1008.982172	2537.187525
1009.276017	2537.258101
1009.569827	2535.934798
1009.863602	2536.837165
1010.157341	2537.752134
1010.451045	2540.038297
1010.744714	2537.694161
1011.038347	2537.280786
1011.331945	2538.470499
1011.625508	2535.460930
1011.919036	2539.214069
1012.212528	2536.993441
1012.505986	2538.094933
1012.799408	2537.825231
1013.092795	2535.095446
1013.386147	2535.503780
1013.679464	2536.040663
1013.972745	2536.743903
1014.265992	2536.534696
1014.559204	2537.623585
1014.852380	2538.120138
1015.145521	2539.705581
1015.438628	2534.833306
1015.731699	2536.736342
1016.024736	2537.056455
1016.317737	2538.934285
1016.610703	2536.370858
1016.903635	2533.144520
1017.196531	2533.109232
1017.489393	2534.427493
1017.782219	2532.700898
1018.075011	2534.409849
1018.367768	2532.431196
1018.660490	2539.027546
1018.953177	2539.027546
1019.245829	2539.027546
