Dividing Wavelength (nm)	Counts (n)	Blue Motor Position (mm): 47.100000	Red Motor Position (mm): 0.000000	
326.493990	2274.855961
326.888308	2274.855961
327.282561	2274.855961
327.676750	2233.400033
328.070874	2232.595968
328.464933	2231.983468
328.858929	2236.117214
329.252859	2242.552247
329.646726	2249.551889
330.040528	2264.002357
330.434265	2276.101126
330.827938	2294.450926
331.221547	2310.973308
331.615091	2326.666420
332.008571	2347.617455
332.401986	2366.612523
332.795338	2383.613814
333.188625	2406.223389
333.581847	2425.672161
333.975006	2442.983483
334.368100	2461.736575
334.761129	2476.076138
335.154095	2496.936432
335.546996	2524.531708
335.939833	2563.088973
336.332606	2579.928948
336.725315	2589.562593
337.117960	2606.420211
337.510540	2616.459669
337.903056	2629.354941
338.295508	2636.427680
338.687896	2644.314565
339.080220	2652.927376
339.472480	2655.944507
339.864676	2662.644200
340.256807	2670.584017
340.648875	2672.933195
341.040879	2676.121725
341.432818	2678.831345
341.824694	2680.590708
342.216506	2682.123219
342.608253	2682.886953
342.999937	2682.574402
343.391557	2682.077848
343.783113	2682.632375
344.174605	2681.850996
344.566033	2680.192457
344.957397	2680.603311
345.348697	2680.699093
345.739934	2676.431756
346.131106	2677.364369
346.522215	2673.674245
346.913260	2669.248112
347.304241	2670.977227
347.695159	2669.366579
348.086012	2668.310457
348.476802	2667.884480
348.867528	2663.370126
349.258191	2657.141781
349.648789	2658.248314
350.039324	2654.979126
350.429796	2658.160094
350.820203	2656.483910
351.210548	2655.631955
351.600828	2652.042654
351.991045	2655.866369
352.381198	2654.785041
352.771288	2651.407468
353.161314	2653.108858
353.551276	2653.348313
353.941175	2651.457880
354.331010	2654.212870
354.720782	2649.552324
355.110490	2653.479382
355.500135	2652.700524
355.889717	2652.110709
356.279235	2650.908394
356.668689	2651.460400
357.058080	2651.135246
357.447408	2651.815802
357.836672	2650.626089
358.225873	2653.277736
358.615010	2655.198416
359.004084	2654.475010
359.393095	2655.064825
359.782043	2657.477017
360.170927	2655.631955
360.559748	2658.021462
360.948505	2656.244455
361.337199	2658.518016
361.725830	2660.393325
362.114398	2660.635300
362.502903	2658.785197
362.891344	2661.663696
363.279722	2661.220074
363.668037	2661.850218
364.056289	2665.106804
364.444478	2665.684016
364.832603	2662.440033
365.220665	2665.121927
365.608665	2665.462205
365.996601	2664.648059
366.384474	2668.260046
366.772284	2667.355158
367.160031	2665.404232
367.547715	2668.602844
367.935336	2668.280210
368.322893	2667.697957
368.710388	2669.112001
369.097820	2668.043276
369.485189	2667.403049
369.872495	2672.363545
370.259738	2671.899759
370.646918	2673.560819
371.034035	2676.005778
371.421090	2677.064421
371.808081	2679.075841
372.195010	2680.376459
372.581875	2687.449198
372.968678	2692.583613
373.355418	2698.116279
373.742096	2710.386448
374.128710	2721.189640
374.515262	2730.112483
374.901751	2745.576222
375.288177	2758.390835
375.674540	2778.663835
376.060841	2798.616722
376.447079	2820.901143
376.833254	2846.311079
377.219367	2866.087525
377.605417	2901.390726
377.991404	2924.476690
378.377329	2959.076649
378.763191	2982.966677
379.148991	3025.733306
379.534727	3065.563462
379.920402	3100.407918
380.306013	3126.679891
380.691563	3190.334541
381.077049	3215.212635
381.462474	3259.224429
381.847835	3316.232317
382.233134	3360.402907
382.618371	3389.951630
383.003545	3456.063842
383.388657	3484.695076
383.773706	3545.652708
384.158693	3582.697627
384.543618	3613.728449
384.928480	3671.653828
385.313280	3727.535018
385.698017	3755.573916
386.082692	3844.658666
386.467305	3845.011547
386.851856	3883.956981
387.236344	3964.917912
387.620770	3992.427488
388.005133	4041.813152
388.389435	4089.154627
388.773674	4097.991770
389.157851	4173.861136
389.541965	4242.980396
389.926018	4209.078636
390.310008	4310.796518
390.693936	4363.184189
391.077802	4401.547370
391.461606	4393.355495
391.845348	4461.343016
392.229027	4521.138662
392.612645	4521.577243
392.996200	4622.959888
393.379694	4682.997509
393.763125	4792.332575
394.146494	4815.403415
394.529801	4871.894585
394.913047	4956.369200
395.296230	4906.403804
395.679351	5013.001523
396.062410	5066.377259
396.445408	5035.651427
396.828343	5097.375314
397.211217	5153.921937
397.594028	5033.995408
397.976778	5152.260877
398.359466	5200.484555
398.742092	5220.843254
399.124656	5143.229650
399.507158	5255.168471
399.889598	5324.340663
400.271977	5448.058141
400.654294	5440.826605
401.036549	5485.193800
401.418742	5411.625722
401.800874	5609.203664
402.182944	5675.386453
402.564952	5776.327997
402.946898	5838.412327
403.328783	5671.109034
403.710606	5693.501839
404.092367	6017.534605
404.474067	6038.278953
404.855705	5934.791627
405.237282	5870.907605
405.618797	6131.348736
406.000250	6102.651968
406.381642	6312.847918
406.762972	6330.885167
407.144240	6391.000926
407.525447	6377.026848
407.906593	6387.361213
408.287677	6559.183901
408.668700	6472.135777
409.049661	6579.469504
409.430560	6609.345902
409.811399	6473.028061
410.192176	6735.896508
410.572891	6749.142140
410.953545	6948.025741
411.334138	6675.377456
411.714669	6845.919691
412.095139	6638.655171
412.475547	6888.822430
412.855894	6956.603264
413.236180	7140.789382
413.616405	6802.961498
413.996568	7019.872266
414.376670	7076.464259
414.756711	6961.805735
415.136691	7063.294244
415.516609	7273.154958
415.896466	7247.021617
416.276262	7454.686908
416.655997	7443.913963
417.035670	7613.899150
417.415283	7962.865463
417.794834	8029.254939
418.174324	7886.789410
418.553753	7814.448853
418.933121	8102.933923
419.312428	8209.524080
419.691674	7982.667115
420.070859	8463.273079
420.449983	8140.908935
420.829045	8512.928444
421.208047	8280.185933
421.586988	8592.641690
421.965867	8614.187581
422.344686	8706.281900
422.723444	8781.579095
423.102141	8111.592104
423.480777	8880.534424
423.859352	8411.397085
424.237866	9018.914097
424.616319	8888.116319
424.994712	9317.075662
425.373044	8855.963840
425.751314	9341.318571
426.129524	9222.828770
426.507673	9301.692581
426.885762	9462.462539
427.263789	9380.309375
427.641756	9316.798398
428.019662	9401.993898
428.397508	9672.378706
428.775292	9330.762395
429.153016	9720.415861
429.530679	9553.130211
429.908282	9560.830574
430.285824	9293.072208
430.663305	9979.783226
431.040726	9435.482283
431.418086	9406.130165
431.795385	9747.333102
432.172624	9836.717800
432.549802	9744.101722
432.926920	9820.893618
433.303977	9690.105923
433.680974	9893.939938
434.057910	9997.013890
434.434786	10070.876876
434.811601	9890.668229
435.188355	10452.701430
435.565050	10205.458040
435.941683	10115.521334
436.318257	10588.253016
436.694770	10774.453074
437.071222	10808.727879
437.447614	10640.522219
437.823946	10575.806407
438.200218	10654.463530
438.576429	10508.149081
438.952580	10756.073027
439.328670	10776.590523
439.704700	10580.913096
440.080670	10568.237114
440.456580	11081.106463
440.832429	10876.458302
441.208218	10470.663061
441.583947	10767.012331
441.959616	10955.284304
442.335224	10769.898392
442.710773	10873.489062
443.086261	11103.065729
443.461689	10364.907215
443.837057	11060.989738
444.212365	11286.324274
444.587612	10924.523183
444.962800	11134.971192
445.337927	10870.761798
445.712995	10559.475589
446.088002	11593.353228
446.462949	11283.463419
446.837837	11254.691034
447.212664	11168.661223
447.587431	11768.498037
447.962139	12537.556303
448.336786	14835.709956
448.711374	15306.465505
449.085901	13116.212709
449.460369	12771.841407
449.834776	12219.449413
450.209124	13157.509841
450.583412	13580.412237
450.957640	14507.107384
451.331808	13534.454558
451.705917	12615.603447
452.079965	11852.392919
452.453954	12767.959719
452.827883	12434.875561
453.201752	12716.645814
453.575562	12270.838935
453.949311	12694.242926
454.323001	12666.156137
454.696632	12908.809557
455.070202	13179.955578
455.443713	13368.792160
455.817164	13875.634809
456.190556	13833.452954
456.563888	14201.028687
456.937160	14336.633205
457.310373	13706.214231
457.683526	13818.337055
458.056619	13333.630112
458.429653	13553.414338
458.802628	12898.513000
459.175542	13316.608656
459.548398	14267.738276
459.921194	14632.823679
460.293930	14708.314958
460.666607	15540.105342
461.039224	16603.597240
461.411782	17332.285946
461.784280	17105.434023
462.156719	17218.691106
462.529099	16882.988068
462.901419	15852.722416
463.273680	15604.934581
463.645882	15515.935530
464.018024	15227.205964
464.390106	15452.893381
464.762130	16176.490521
465.134094	16970.994012
465.505999	19050.701866
465.877845	22325.216114
466.249631	25111.595436
466.621358	24713.679519
466.993026	23297.006903
467.364634	22703.237118
467.736184	21227.157025
468.107674	20441.347004
468.479105	20567.756458
468.850477	20026.785197
469.221790	19632.960177
469.593043	18941.374363
469.964238	18362.740642
470.335373	18001.867123
470.706449	18511.535339
471.077467	18112.764946
471.448425	19980.918259
471.819324	24134.314831
472.190164	25933.716887
472.560945	22239.423238
472.931667	19964.791608
473.302330	19351.474749
473.672934	19012.351288
474.043479	19214.751095
474.413965	19037.781389
474.784393	18618.238922
475.154761	19406.473737
475.525070	19305.287697
475.895321	19040.811122
476.265513	19644.910232
476.635645	20228.524613
477.005719	19989.946966
477.375734	20159.496093
477.745691	20655.371712
478.115588	21203.879497
478.485427	21768.334972
478.855207	22871.215926
479.224928	24671.129660
479.594591	26895.896716
479.964194	26777.341381
480.333739	27015.498091
480.703226	26598.410666
481.072653	26314.122357
481.442022	26949.481661
481.811333	27891.759014
482.180584	27741.305778
482.549777	26807.064024
482.918912	26491.550807
483.287988	26629.615408
483.657005	26236.319709
484.025964	26025.786001
484.394864	25903.913586
484.763706	25540.280035
485.132489	25014.626321
485.501213	25198.192377
485.869879	25110.836742
486.238487	24958.669513
486.607036	25080.899850
486.975527	24834.543703
487.343959	25123.255625
487.712333	25025.752147
488.080648	24701.348856
488.448905	25209.146804
488.817104	24979.267668
489.185244	25687.701018
489.553326	25628.875794
489.921350	26691.528339
490.289315	29048.255159
490.657222	30732.154299
491.025070	31255.045461
491.392861	30995.494094
491.760593	30131.440325
492.128267	29213.791528
492.495883	28138.508372
492.863440	27284.587322
493.230939	26414.642964
493.598380	26248.027788
493.965763	25871.244388
494.333088	25371.255188
494.700354	25354.876479
495.067563	25185.183679
495.434713	24940.702841
495.801805	25125.819051
496.168839	24887.397680
496.535815	24770.359732
496.902733	24983.988708
497.269593	24689.736558
497.636395	24840.933365
498.003139	24778.024806
498.369825	24509.409444
498.736453	24733.723146
499.103023	24598.907569
499.469535	24593.281641
499.835989	24822.243287
500.202385	24844.706669
500.568723	24383.564600
500.935003	24554.126999
501.301226	24264.613534
501.667390	25100.124290
502.033497	25293.646625
502.399546	25037.994590
502.765537	24561.938267
503.131470	24953.409069
503.497345	25101.823159
503.863163	24345.100596
504.228923	24884.708225
504.594625	25130.502283
504.960269	24698.939185
505.325856	25164.419166
505.691385	24562.429780
506.056856	25168.467213
506.422270	25158.210985
506.787625	24676.075032
507.152924	25113.964778
507.518164	25144.219263
507.883347	24977.523429
508.248472	24653.246166
508.613540	25407.803553
508.978550	25215.309614
509.343503	25231.421142
509.708398	25431.960763
510.073236	25590.885658
510.438016	25806.379862
510.802738	25472.887370
511.167403	25727.382460
511.532010	25481.028834
511.896561	26222.517029
512.261053	26175.621696
512.625488	26014.919793
512.989866	25902.033235
513.354186	25739.221610
513.718449	25877.593722
514.082655	26234.678813
514.446803	25958.642873
514.810894	26435.646932
515.174927	25948.116943
515.538904	25983.576419
515.902822	26467.930481
516.266684	26234.383906
516.630488	26137.150130
516.994235	26074.113022
517.357925	26418.741422
517.721558	26574.916368
518.085133	26706.107356
518.448651	26568.761120
518.812112	26347.421698
519.175516	26573.290596
519.538863	26713.175054
519.902152	26517.361515
520.265385	26770.669413
520.628560	26582.828459
520.991678	26546.653139
521.354739	26603.925688
521.717743	26706.389661
522.080690	26481.256771
522.443580	26808.488150
522.806413	26772.582531
523.169189	26901.323518
523.531908	26937.703005
523.894569	26573.948467
524.257174	26673.501173
524.619722	26805.705433
524.982213	26514.803129
525.344647	26522.178338
525.707025	26704.204321
526.069345	26647.156103
526.431608	26626.870500
526.793815	26790.327393
527.155964	26302.888145
527.518057	26476.185370
527.880093	26382.830763
528.242072	26600.996778
528.603995	26326.556362
528.965860	26097.687978
529.327669	26154.123695
529.689421	26139.650543
530.051117	25995.997823
530.412755	26164.039645
530.774337	25931.823934
531.135862	25834.514541
531.497331	26003.551992
531.858743	25630.050383
532.220098	26063.801342
532.581396	25770.892659
532.942638	25650.295656
533.303824	25786.467304
533.664953	25769.886949
534.026025	25440.457628
534.387040	25680.063670
534.747999	25719.004063
535.108902	25874.465686
535.469748	25389.216819
535.830537	25544.806992
536.191270	25675.559399
536.551947	25506.678224
536.912567	25123.825275
537.273131	25575.880664
537.633638	25239.534879
537.994089	25454.837519
538.354483	24945.081083
538.714821	25455.316428
539.075103	25498.372923
539.435328	25276.983091
539.795497	24880.181268
540.155609	25207.689910
540.515665	25524.496183
540.875665	24743.903757
541.235609	25090.846047
541.595496	25017.474573
541.955328	25378.650561
542.315102	25301.082327
542.674821	24806.204856
543.034483	24695.796025
543.394090	24865.856830
543.753640	24680.813716
544.113134	25296.290710
544.472571	24884.756116
544.831953	25189.340110
545.191278	24843.547203
545.550548	24734.635595
545.909761	24931.711943
546.268918	25174.635065
546.628019	25153.926005
546.987064	24819.858822
547.346053	24555.402411
547.704986	24663.618340
548.063863	24818.472504
548.422684	24847.441495
548.781449	24346.817109
549.140158	24750.603450
549.498811	24338.511808
549.857408	24109.499751
550.215949	24484.899354
550.574434	24198.566857
550.932864	24382.689960
551.291237	24578.697583
551.649555	24404.369442
552.007817	24472.919052
552.366022	24324.389016
552.724173	24334.521735
553.082267	24303.627024
553.440305	24781.893892
553.798288	24023.018757
554.156215	24503.551623
554.514086	24660.394523
554.871902	24040.340161
555.229661	24316.970958
555.587365	24151.290916
555.945014	24078.436161
556.302606	24276.588795
556.660143	24274.748774
557.017625	24499.695141
557.375050	24020.654455
557.732421	24404.613938
558.089735	24228.632298
558.446994	24272.301294
558.804197	24310.006604
559.161345	24199.149110
559.518437	24009.752960
559.875474	24159.666793
560.232455	24349.279713
560.589381	24161.017823
560.946251	24164.251723
561.303065	24468.182888
561.659825	24555.793101
562.016528	24173.207332
562.373177	23890.282655
562.729770	24260.250415
563.086307	24102.671508
563.442789	24279.091728
563.799216	24134.392968
564.155587	24118.011739
564.511904	24101.675880
564.868164	24056.597882
565.224370	24025.403222
565.580520	23960.634478
565.936615	24070.662702
566.292654	23789.152068
566.648638	24013.390153
567.004567	23857.192521
567.360441	23786.245843
567.716260	23500.666998
568.072023	23814.355317
568.427732	23616.948773
568.783385	23361.112736
569.138982	23628.863540
569.494525	23651.049658
569.850013	23412.824892
570.205445	23518.946222
570.560823	23340.260003
570.916145	23100.674125
571.271412	23295.706285
571.626625	23042.917626
571.981782	23154.962311
572.336884	22948.554787
572.691931	23095.774124
573.046923	22834.982633
573.401860	22714.037790
573.756743	22748.821752
574.111570	22642.657572
574.466342	22551.082492
574.821059	22634.889154
575.175722	22354.389272
575.530330	22288.713119
575.884882	22297.555303
576.239380	22213.037838
576.593823	22117.487808
576.948211	22099.563986
577.302544	21944.417435
577.656823	21801.533491
578.011047	21916.441552
578.365216	21781.462137
578.719330	21658.483189
579.073389	21542.914737
579.427394	21692.392510
579.781344	21440.733069
580.135239	21341.934016
580.489080	21276.396495
580.842866	21053.025489
581.196597	21282.256836
581.550273	21236.228581
581.903895	21113.451279
582.257463	21428.402407
582.610975	20960.202723
582.964434	21295.799896
583.317837	20957.697269
583.671186	21037.390350
584.024481	21031.771984
584.377721	20798.457302
584.730906	20884.315713
585.084037	20872.844568
585.437113	20798.903444
585.790135	21005.290803
586.143103	20456.462904
586.496016	20486.344344
586.848874	20713.407995
587.201679	20618.130188
587.554428	20332.100159
587.907124	20671.372334
588.259765	20418.261040
588.612352	20476.493929
588.964884	20056.528005
589.317362	20232.791949
589.669786	20282.616193
590.022155	20278.547982
590.374470	20530.368740
590.726731	20275.818197
591.078937	20085.219732
591.431090	20159.455764
591.783188	19926.680485
592.135232	19888.284537
592.487222	19986.062757
592.839157	19996.427369
593.191038	19870.239726
593.542866	19765.045969
593.894639	19466.655032
594.246358	19682.759215
594.598022	19559.288754
594.949633	19323.274534
595.301190	19311.999993
595.652692	19481.178596
596.004141	19689.504279
596.355535	19029.599596
596.706876	19042.928407
597.058162	18947.670764
597.409395	19192.721252
597.760573	19220.273679
598.111698	19002.253857
598.462768	18951.267627
598.813785	18934.513352
599.164748	18728.057938
599.515657	18782.877965
599.866511	18576.649402
600.217312	18932.176777
600.568060	18434.352753
600.918753	18753.987113
601.269392	18651.505496
601.619978	18453.988047
601.970510	18625.354510
602.320988	18587.623994
602.671412	18787.246125
603.021783	18726.003668
603.372100	18416.189476
603.722363	18577.398014
604.072572	18531.841107
604.422728	18667.611982
604.772830	18416.648221
605.122878	18382.023055
605.472872	18358.679992
605.822813	18342.674329
606.172701	18339.095110
606.522534	18497.084871
606.872314	18538.674391
607.222041	18383.273262
607.571714	18597.116487
607.921333	18423.126103
608.270899	18491.970621
608.620411	18639.510070
608.969870	18438.932641
609.319276	18443.474721
609.668627	18457.103480
610.017926	18593.519624
610.367171	18703.535245
610.716362	18763.504811
611.065500	18569.458197
611.414585	18735.085306
611.763616	18711.243169
612.112594	18647.757398
612.461518	18616.686246
612.810389	18803.942427
613.159207	18660.934974
613.507971	18584.979909
613.856682	18818.377771
614.205340	18744.713910
614.553945	18901.841634
614.902496	18646.988622
615.250994	18845.012707
615.599439	18805.429567
615.947830	18787.089849
616.296169	18864.852168
616.644454	18824.538061
616.992686	18794.828020
617.340864	19016.535446
617.688990	18764.268546
618.037063	18946.518860
618.385082	18811.201688
618.733048	19066.757941
619.080961	18968.215986
619.428821	18985.827257
619.776628	18866.805615
620.124382	18798.117373
620.472083	18856.922433
620.819731	18856.128451
621.167326	18550.253921
621.514868	18591.117514
621.862357	18380.984578
622.209793	18375.509885
622.557176	18207.624338
622.904506	18029.177574
623.251783	17979.844843
623.599007	17719.542343
623.946179	17656.779978
624.293297	17588.452179
624.640363	17309.744427
624.987376	17344.165425
625.334336	17139.638252
625.681243	16997.538207
626.028097	17019.870519
626.374899	16926.480623
626.721647	16793.898277
627.068343	16633.670243
627.414987	16565.483596
627.761577	16529.237700
628.108115	16551.945578
628.454600	16296.568285
628.801032	16385.484157
629.147412	16324.123232
629.493739	16326.583315
629.840014	16135.505941
630.186236	16242.217085
630.532405	16003.001732
630.878521	16202.979264
631.224585	16116.374762
631.570597	15937.635611
631.916556	15961.979343
632.262462	15926.262768
632.608316	15860.899167
632.954117	15801.809282
633.299866	15778.188956
633.645562	15702.450661
633.991206	15464.941738
634.336797	15343.701988
634.682336	15307.506504
635.027823	15170.132541
635.373257	15032.730852
635.718639	14961.532115
636.063968	14892.974943
636.409245	14648.736081
636.754470	14690.484396
637.099642	14535.355490
637.444762	14320.841791
637.789829	14358.620197
638.134845	14196.594992
638.479808	14217.598960
638.824719	14125.544970
639.169577	13993.504548
639.514383	14027.789435
639.859137	13853.549514
640.203839	13959.423827
640.548489	13808.358091
640.893086	13802.820383
641.237632	13678.530735
641.582125	13837.001927
641.926566	13645.178461
642.270955	13662.273014
642.615292	13612.494140
642.959576	13622.203403
643.303809	13647.159635
643.647990	13586.827105
643.992118	13650.612825
644.336195	13418.724789
644.680219	13647.820026
645.024192	13553.063977
645.368112	13799.281493
645.711981	13828.852902
646.055797	14018.319628
646.399562	14002.452596
646.743274	14265.500004
647.086935	14531.987999
647.430544	14500.193442
647.774101	14545.314289
648.117606	14676.931254
648.461059	14655.219005
648.804460	14631.097083
649.147810	14357.332183
649.491108	14280.888126
649.834354	14290.194096
650.177548	13972.379593
650.520690	13777.304583
650.863781	13690.710163
651.206820	13750.258792
651.549807	13577.553903
651.892742	13355.443185
652.235626	13303.569712
652.578458	13309.077172
652.921238	13009.156245
653.263967	13212.213922
653.606644	13040.363508
653.949269	13020.708049
654.291843	12812.558807
654.634365	12980.512409
654.976836	12828.503976
655.319255	12813.519147
655.661622	12787.113583
656.003938	12712.534753
656.346203	12624.785908
656.688416	12709.419320
657.030577	12672.155110
657.372687	12565.549830
657.714746	12561.819376
658.056753	12747.769898
658.398708	12554.146740
658.740612	12556.024570
659.082465	12673.586798
659.424266	12645.139567
659.766016	12672.248372
660.107715	12581.409300
660.449362	12659.159016
660.790958	12605.052312
661.132503	12550.310422
661.473996	12634.742187
661.815438	12636.320068
662.156829	12667.464317
662.498168	12634.623720
662.839456	12638.114719
663.180693	12645.200061
663.521879	12746.353333
663.863013	12713.167418
664.204097	12694.416846
664.545129	12833.219976
664.886110	12802.068166
665.227040	12893.134089
665.567918	12886.562945
665.908746	12906.488106
666.249522	12901.943506
666.590248	12956.478708
666.930922	13068.384762
667.271545	13034.840924
667.612118	13126.070685
667.952639	13026.775078
668.293109	13055.391187
668.633528	12993.770643
668.973896	12975.388076
669.314213	13044.083879
669.654480	12773.298301
669.994695	12867.638454
670.334859	12899.188515
670.674973	12831.493381
671.015035	12858.871887
671.355047	12818.398983
671.695008	12778.659568
672.034918	12801.417857
672.374777	12842.193230
672.714585	12742.448960
673.054342	12794.778657
673.394049	12746.706214
673.733705	12842.856141
674.073310	12734.892270
674.412864	12748.417686
674.752368	12598.561826
675.091820	12652.507213
675.431223	12621.168880
675.770574	12483.603354
676.109875	12399.937844
676.449125	12355.880680
676.788324	12319.486070
677.127473	12141.606436
677.466571	12134.304324
677.805619	12023.204855
678.144616	11965.496247
678.483562	11939.544387
678.822458	11805.782410
679.161303	11785.700974
679.500098	11767.978798
679.838842	11726.928682
680.177535	11763.779517
680.516179	11830.045484
680.854771	11766.413519
681.193314	11983.147847
681.531805	12163.111998
681.870247	12598.713061
682.208638	13009.761183
682.546978	13300.058548
682.885268	13317.513543
683.223508	13024.365406
683.561697	12876.601625
683.899836	12787.796659
684.237925	12577.504926
684.575963	12495.066938
684.913951	12401.614027
685.251889	12364.390147
685.589776	12465.873616
685.927614	12374.454811
686.265401	12365.025333
686.603137	12422.146647
686.940824	12569.789440
687.278460	12698.288452
687.616046	12725.180487
687.953582	12877.355278
688.291068	12820.110455
688.628504	13064.495511
688.965889	13073.680494
689.303224	13016.949869
689.640510	12890.419428
689.977745	12576.322776
690.314930	12365.968029
690.652065	12272.094182
690.989150	11966.065897
691.326185	11742.276475
691.663170	11544.194417
692.000105	11308.331431
692.336990	11178.572131
692.673825	10918.715774
693.010610	10811.571090
693.347345	10601.917063
693.684030	10410.784236
694.020665	10350.229896
694.357251	10156.528600
694.693786	10073.825951
695.030272	9934.924518
695.366707	9814.541765
695.703093	9752.931303
696.039429	9742.614582
696.375716	9644.385178
696.711952	9528.035348
697.048139	9578.943440
697.384276	9526.175162
697.720363	9559.144308
698.056400	9485.341816
698.392388	9434.469012
698.728326	9391.079800
699.064214	9336.804218
699.400053	9371.681440
699.735842	9188.770735
700.071581	9158.508688
700.407270	9078.866019
700.742910	8993.370571
701.078501	8896.567814
701.414042	8763.345241
701.749533	8710.319864
702.084974	8574.213752
702.420366	8697.376702
702.755709	8572.466992
703.091002	8428.169004
703.426246	8466.824572
703.761440	8417.343126
704.096584	8376.255202
704.431679	8309.233062
704.766725	8294.800238
705.101721	8254.022345
705.436668	8300.227040
705.771565	8194.544291
706.106413	8278.000593
706.441212	8309.626272
706.775961	8278.406406
707.110661	8325.916760
707.445311	8451.554917
707.779913	8348.186057
708.114465	8472.571487
708.448967	8505.709512
708.783421	8677.030605
709.117825	8841.861212
709.452180	8875.936892
709.786485	8964.603226
710.120742	9254.225076
710.454949	9261.196992
710.789107	9370.617757
711.123216	9594.533208
711.457275	9769.191545
711.791286	9904.022245
712.125247	9914.273432
712.459159	9906.341176
712.793023	10123.456111
713.126837	9696.419968
713.460602	9866.992450
713.794318	9692.765132
714.127985	9713.902690
714.461602	9370.900062
714.795171	9329.744082
715.128691	9074.964166
715.462162	8840.684103
715.795584	8771.438814
716.128957	8604.987475
716.462281	8439.864481
716.795556	8481.247313
717.128782	8276.868854
717.461960	8027.490535
717.795088	8091.238446
718.128167	7998.466092
718.461198	7839.160589
718.794180	7789.653938
719.127113	7779.866537
719.459997	7603.627799
719.792833	7383.319293
720.125619	7457.330994
720.458357	7303.926162
720.791046	7302.476830
721.123686	7290.370499
721.456278	7125.272710
721.788821	7145.283571
722.121315	7052.501134
722.453761	7123.031917
722.786158	7054.295785
723.118506	7064.357928
723.450805	7027.277721
723.783056	7084.542708
724.115259	7007.624782
724.447412	7008.660740
724.779518	7066.928916
725.111574	7061.144192
725.443582	7138.626727
725.775542	7115.389528
726.107453	7303.762324
726.439315	7220.177473
726.771129	7296.067003
727.102895	7477.475444
727.434612	7580.773728
727.766281	7622.995912
728.097901	7691.880759
728.429473	7703.979528
728.760996	7700.256636
729.092471	7667.176584
729.423897	7600.656039
729.755276	7592.585151
730.086606	7505.587439
730.417887	7619.542722
730.749120	7836.788726
731.080305	8029.751492
731.411442	8129.475598
731.742530	8109.255530
732.073570	8218.885502
732.404562	8303.327350
732.735506	8173.968822
733.066401	8299.866598
733.397249	8211.966519
733.728048	7969.892832
734.058798	7635.359342
734.389501	7400.534834
734.720156	7234.592652
735.050762	7018.813623
735.381320	6932.922444
735.711831	6863.989707
736.042293	6763.353152
736.372707	6774.436129
736.703073	6644.724720
737.033391	6688.822213
737.363661	6692.933274
737.693883	6732.065231
738.024056	6815.055226
738.354182	6847.873138
738.684260	6878.805658
739.014290	7007.861717
739.344272	7118.820033
739.674207	7150.672564
740.004093	7228.838175
740.333931	7238.250009
740.663722	7245.141267
740.993464	7321.061043
741.323159	7290.816641
741.652806	7045.771194
741.982405	7089.866166
742.311956	7122.714325
742.641460	6938.271108
742.970915	6754.906699
743.300323	6742.906232
743.629683	6705.200922
743.958996	6563.098357
744.288260	6469.466486
744.617477	6416.524288
744.946647	6413.061016
745.275768	6253.533702
745.604842	6206.582916
745.933869	6184.933681
746.262847	6146.711652
746.591778	6134.141535
746.920662	6094.540751
747.249498	6095.362459
747.578286	6146.759543
747.907027	6214.489966
748.235720	6280.022445
748.564365	6252.434731
748.892963	6300.255116
749.221514	6425.487460
749.550017	6238.634572
749.878473	6129.254136
750.206881	6198.854827
750.535242	6150.053937
750.863555	6079.533236
751.191821	6086.560604
751.520039	6076.926959
751.848210	5986.647456
752.176334	6022.482498
752.504411	6058.675462
752.832440	5986.155943
753.160421	5919.085912
753.488356	5967.112985
753.816243	5993.291697
754.144082	5844.572617
754.471875	5822.149565
754.799620	5865.064907
755.127318	5876.145363
755.454969	5833.802192
755.782572	5802.491585
756.110129	5839.707903
756.437638	5816.929450
756.765100	5768.393221
757.092515	5772.509323
757.419882	5830.374207
757.747203	5799.960926
758.074477	5855.451427
758.401703	5832.622562
758.728882	5804.127440
759.056014	5874.257451
759.383099	5982.140664
759.710138	5998.854610
760.037129	5983.121169
760.364073	5990.597200
760.690970	6063.106636
761.017820	6041.487648
761.344623	6008.147977
761.671379	6117.606550
761.998088	6242.803606
762.324751	6510.660275
762.651366	7158.990468
762.977935	8544.425574
763.304456	10201.203306
763.630931	11047.910465
763.957359	10577.575852
764.283740	9601.532850
764.610074	8730.875169
764.936362	7722.735141
765.262602	7135.642364
765.588796	6613.797241
765.914943	6284.844309
766.241044	6107.148677
766.567097	5891.825873
766.893104	5632.277026
767.219064	5463.002641
767.544978	5401.467797
767.870845	5313.842461
768.196665	5210.304722
768.522438	5139.317714
768.848165	5104.233804
769.173846	5032.611611
769.499479	4987.889015
769.825066	4941.759936
770.150607	4882.148292
770.476101	4859.894118
770.801548	4849.471533
771.126949	4763.136732
771.452303	4711.013722
771.777611	4677.590872
772.102872	4698.678018
772.428087	4663.168131
772.753256	4613.462354
773.078378	4558.662491
773.403453	4497.730064
773.728482	4483.700533
774.053465	4438.856949
774.378401	4425.843211
774.703291	4416.272580
775.028135	4341.834902
775.352932	4299.312770
775.677683	4286.644350
776.002388	4297.087100
776.327046	4303.948111
776.651658	4239.466712
776.976224	4177.203421
777.300743	4180.099563
777.625216	4199.911298
777.949643	4189.309752
778.274024	4152.342970
778.598359	4116.434832
778.922647	4141.834685
779.246889	4131.117192
779.571086	4121.037405
779.895236	4103.262297
780.219339	4094.498251
780.543397	4090.677056
780.867409	4143.372237
781.191374	4156.045698
781.515294	4085.840069
781.839167	4085.227569
782.162995	4110.597175
782.486776	4096.222325
782.810511	4109.276393
783.134201	4090.727467
783.457844	4045.493194
783.781441	3993.629803
784.104993	3999.686750
784.428498	4021.739277
784.751958	4013.870036
785.075372	3992.576202
785.398739	3953.711427
785.722061	3969.475115
786.045337	4014.757279
786.368568	4041.838357
786.691752	3951.790747
787.014891	4011.702340
787.337983	4146.283503
787.661030	4311.600582
787.984031	4469.988595
788.306987	4633.843739
788.629897	4724.037543
788.952760	4676.118855
789.275579	4610.309112
789.598351	4537.862690
789.921078	4381.602044
790.243759	4187.779761
790.566395	4181.259029
790.888984	4170.780991
791.211529	4061.791244
791.534027	4002.640866
791.856480	3985.566478
792.178888	3928.452725
792.501249	3885.093761
792.823566	3896.078435
793.145836	3914.506373
793.468062	3859.363712
793.790241	3820.055315
794.112375	3851.113863
794.434464	3921.057352
794.756507	3938.403963
795.078505	3915.207093
795.400457	3959.266778
795.722364	4105.601392
796.044226	4208.619891
796.366042	4282.109832
796.687812	4252.344339
797.009538	4253.465996
797.331218	4217.333526
797.652852	4194.338303
797.974442	4168.293181
798.295986	4162.884023
798.617484	4082.906117
798.938938	4001.982995
799.260346	4044.376578
799.581709	4030.833519
799.903026	3956.743681
800.224299	3921.032147
800.545526	3916.795057
800.866708	3876.594376
801.187845	3821.880212
801.508936	3853.553782
801.829983	3841.840661
802.150984	3767.985237
802.471940	3765.517592
802.792851	3768.491873
803.113717	3769.858025
803.434538	3767.660082
803.755314	3707.844271
804.076045	3687.306610
804.396731	3713.170250
804.717372	3735.719331
805.037967	3719.063359
805.358518	3708.958366
805.679024	3736.904003
805.999485	3751.961929
806.319901	3759.359822
806.640272	3768.799383
806.960598	3782.276908
807.280879	3757.300511
807.601115	3774.163171
807.921306	3792.782672
808.241453	3826.807940
808.561554	3796.049340
808.881611	3729.455698
809.201623	3777.099643
809.521590	3783.852268
809.841513	3754.394286
810.161390	3787.234883
810.481223	3758.734719
810.801011	3713.225703
811.120755	3708.270249
811.440453	3740.198397
811.760107	3734.716142
812.079716	3691.231149
812.399281	3664.780214
812.718801	3691.778114
813.038276	3662.761232
813.357707	3656.409378
813.677093	3674.093746
813.996434	3618.804891
814.315731	3635.148312
814.634983	3638.412459
814.954191	3652.941065
815.273354	3678.943336
815.592473	3671.056451
815.911547	3687.230993
816.230577	3735.789908
816.549562	3780.993934
816.868502	3822.822908
817.187399	3843.867205
817.506250	3841.114735
817.825058	3824.584791
818.143821	3918.993000
818.462539	4018.626365
818.781213	4059.308476
819.099843	4129.199033
819.418429	4398.711721
819.736970	4643.913444
820.055466	4902.645624
820.373919	5269.727323
820.692327	5688.453123
821.010691	6193.070103
821.329011	7703.051956
821.647286	10635.533998
821.965517	15416.733184
822.283704	19409.821063
822.601847	21354.728464
822.919945	19410.610004
823.237999	16731.995428
823.556010	14201.842833
823.873976	12025.485977
824.191897	9906.366382
824.509775	8583.386131
824.827609	7451.679860
825.145398	6931.306754
825.463144	6812.305277
825.780845	6918.174549
826.098502	7157.591548
826.416116	8130.017522
826.733685	9502.451492
827.051210	10593.508419
827.368692	10509.202682
827.686129	9162.632352
828.003522	7658.243660
828.320872	6630.009592
828.638177	5914.977372
828.955439	5338.738199
829.272656	4831.703986
829.589830	4568.679264
829.906960	4387.636306
830.224046	4196.558931
830.541088	4070.683840
830.858086	4020.209287
831.175041	3943.646763
831.491952	3936.153088
831.808819	3945.501907
832.125642	4026.483003
832.442421	4187.527704
832.759157	4487.257067
833.075849	5077.044341
833.392497	5980.406507
833.709101	6769.422702
834.025662	7069.963691
834.342179	6636.646271
834.658653	5953.965655
834.975083	5292.901508
835.291469	4705.060119
835.607811	4309.957166
835.924110	4163.403262
836.240366	3959.796099
836.556578	3754.936210
836.872746	3645.447389
837.188871	3603.134465
837.504952	3534.509237
837.820990	3449.165023
838.136984	3411.830238
838.452935	3435.745472
838.768842	3427.301539
839.084706	3453.896146
839.400526	3625.423926
839.716303	3997.450998
840.032037	4553.316347
840.347727	4778.527375
840.663373	4457.378148
840.978977	4068.337183
841.294537	3758.006273
841.610054	3530.420862
841.925527	3427.404883
842.240957	3358.222608
842.556344	3302.699339
842.871687	3236.690471
843.186987	3189.583409
843.502244	3154.839777
843.817458	3116.161524
844.132629	3091.467432
844.447756	3097.453802
844.762840	3077.785740
845.077881	3045.338353
845.392879	3029.811599
845.707833	3030.091383
846.022745	3025.894623
846.337613	3025.337575
846.652438	3012.507839
846.967221	3010.577077
847.281960	2994.682319
847.596656	2991.498830
847.911309	2993.220384
848.225919	2985.089003
848.540485	2982.896101
848.855009	2981.096409
849.169490	2971.472847
849.483928	2963.848101
849.798323	2960.117648
850.112675	2959.134623
850.426984	2974.187508
850.741251	2966.300623
851.055474	2953.455763
851.369654	2952.964250
851.683792	2956.704786
851.997887	2966.580407
852.311938	2968.402784
852.625947	2955.351237
852.939914	2957.307204
853.253837	2961.841722
853.567718	2949.437963
853.881555	2948.573405
854.195350	2964.763071
854.509103	2957.087914
854.822812	2951.404013
855.136479	2942.471088
855.450103	2951.245217
855.763685	2943.292797
856.077224	2941.926644
856.390720	2954.325362
856.704173	2961.332566
857.017584	2951.608180
857.330953	2954.877368
857.644278	2961.493883
857.957561	2971.571149
858.270802	2973.519555
858.584000	2969.358083
858.897155	2957.672688
859.210268	2958.030610
859.523339	2955.126905
859.836367	2955.676391
860.149352	2952.555917
860.462295	2945.818415
860.775195	2952.470217
861.088054	2952.510546
861.400869	2935.516817
861.713642	2934.075047
862.026373	2951.590536
862.339062	2951.454425
862.651708	2956.520784
862.964312	2960.155456
863.276873	2952.155145
863.589392	2964.619398
863.901869	2977.111377
864.214303	3001.293792
864.526696	3015.381297
864.839045	3010.461130
865.151353	3008.968949
865.463619	3009.286542
865.775842	3010.516583
866.088023	3035.377033
866.400162	3033.801673
866.712258	3003.842095
867.024313	2996.240035
867.336325	3006.032477
867.648296	3030.600540
867.960224	3020.563603
868.272110	3001.555932
868.583954	3009.599093
868.895755	3023.520239
869.207515	3011.305524
869.519233	3016.563447
869.830909	3030.701363
870.142542	3036.110521
870.454134	3036.072713
870.765684	3036.329811
871.077191	3037.383412
871.388657	3050.319013
871.700081	3064.162022
872.011463	3072.923547
872.322803	3072.477405
872.634101	3071.176787
872.945357	3089.503902
873.256571	3118.079683
873.567744	3107.694906
873.878874	3104.723146
874.189963	3126.833646
874.501010	3125.878348
874.812015	3114.152624
875.122979	3115.417953
875.433900	3113.285545
875.744780	3121.963892
876.055618	3130.233905
876.366415	3124.383646
876.677169	3135.504431
876.987882	3130.281796
877.298554	3129.946559
877.609183	3154.680980
877.919771	3177.517407
878.230317	3204.122097
878.540822	3259.907505
878.851285	3296.072743
879.161707	3344.878674
879.472087	3462.186324
879.782425	3719.171744
880.092722	4180.840613
880.402977	4726.404365
880.713191	5396.671139
881.023363	6638.052753
881.333494	7956.024617
881.643583	8470.229871
881.953631	8130.340156
882.263637	7435.409536
882.573602	6802.530479
882.883526	6215.445264
883.193408	5645.026104
883.503248	5195.584553
883.813048	4872.494482
884.122806	4539.440571
884.432522	4214.661714
884.742197	3970.690033
885.051831	3781.999644
885.361424	3652.943585
885.670975	3577.689241
885.980485	3484.221207
886.289954	3402.342786
886.599382	3357.479038
886.908768	3320.499654
887.218113	3273.188425
887.527417	3215.802450
887.836680	3166.467198
888.145901	3163.923936
888.455082	3149.170999
888.764221	3091.779983
889.073319	3068.676375
889.382376	3061.689336
889.691392	3069.651838
890.000366	3065.190417
890.309300	3056.620456
890.618193	3064.892989
890.927044	3084.001483
891.235855	3084.177923
891.544625	3072.167374
891.853353	3083.368818
892.162041	3102.772219
892.470687	3144.578508
892.779293	3192.519881
893.087858	3244.728591
893.396381	3321.659119
893.704864	3455.912608
894.013306	3715.244685
894.321707	4028.199516
894.630068	4222.682190
894.938387	4210.076785
895.246665	4166.632121
895.554903	4035.204199
895.863100	3829.946058
896.171256	3654.874347
896.479371	3511.125845
896.787446	3380.247409
897.095480	3279.928448
897.403473	3214.133828
897.711425	3179.024712
898.019336	3168.241684
898.327207	3133.843371
898.635038	3096.697629
898.942827	3083.535176
899.250576	3072.593352
899.558284	3040.944988
899.865952	3021.559231
900.173579	2997.661641
900.481165	2992.834736
900.788711	2975.934268
901.096216	2950.816719
901.403681	2944.351439
901.711105	2951.451904
902.018489	2948.548199
902.325832	2950.685649
902.633135	2960.586475
902.940397	2997.490242
903.247619	3085.110537
903.554800	3298.767239
903.861941	3674.149199
904.169041	4128.097541
904.476101	4419.357766
904.783121	4340.625025
905.090100	4074.653748
905.397039	3784.605921
905.703938	3530.723331
906.010796	3344.805577
906.317614	3233.867425
906.624391	3131.337917
906.931129	3057.399314
907.237826	2995.420848
907.544483	2946.723302
907.851099	2917.187181
908.157675	2896.251269
908.464211	2874.917106
908.770707	2861.918491
909.077163	2848.274608
909.383578	2832.745334
909.689954	2823.804847
909.996289	2822.887357
910.302584	2822.511792
910.608839	2822.693273
910.915054	2813.314206
911.221229	2807.012764
911.527363	2810.110553
911.833458	2820.472645
912.139513	2820.480207
912.445527	2828.828357
912.751502	2834.620643
913.057436	2846.328723
913.363331	2859.115610
913.669186	2886.005124
913.975000	2924.196906
914.280775	2986.825681
914.586510	3057.048954
914.892205	3141.440390
915.197859	3281.997841
915.503475	3495.256293
915.809050	3721.888926
916.114585	3867.253117
916.420081	3871.785115
916.725536	3806.303047
917.030952	3679.311340
917.336328	3547.684293
917.641665	3414.186977
917.946961	3311.808704
918.252218	3231.687126
918.557435	3150.247285
918.862612	3086.902667
919.167750	3037.118752
919.472848	2996.711383
919.777906	2969.937815
920.082925	2942.924792
920.387904	2910.605955
920.692843	2894.365878
920.997743	2881.894063
921.302603	2869.633977
921.607423	2858.213243
921.912204	2842.850327
922.216946	2831.031342
922.521647	2824.145125
922.826310	2815.265133
923.130932	2805.956642
923.435516	2799.030097
923.740059	2790.618932
924.044564	2778.421860
924.349028	2776.506222
924.653454	2769.093205
924.957840	2762.131371
925.262186	2757.380084
925.566493	2753.695000
925.870761	2746.496233
926.174989	2745.162847
926.479178	2739.670510
926.783328	2735.743452
927.087438	2733.119531
927.391509	2732.451578
927.695541	2727.917060
927.999533	2723.652244
928.303486	2724.358006
928.607400	2723.236349
928.911275	2720.380535
929.215110	2720.181410
929.518906	2719.692418
929.822663	2720.604867
930.126381	2721.391287
930.430060	2719.883982
930.733699	2723.513612
931.037299	2721.819785
931.340861	2720.700648
931.644383	2723.768191
931.947866	2721.411451
932.251309	2723.959754
932.554714	2719.306769
932.858080	2718.202757
933.161407	2716.072869
933.464694	2715.160420
933.767943	2711.606407
934.071153	2715.155379
934.374323	2713.569936
934.677455	2713.249823
934.980548	2711.407281
935.283602	2711.225800
935.586617	2711.576160
935.889593	2712.556664
936.192530	2710.512477
936.495428	2710.726726
936.798287	2713.627910
937.101108	2718.543035
937.403890	2721.446739
937.706632	2724.733572
938.009336	2731.695405
938.312002	2740.368710
938.614628	2750.922366
938.917216	2756.777666
939.219765	2757.516195
939.522275	2756.515526
939.824747	2753.526122
940.127179	2750.219125
940.429573	2747.270050
940.731929	2746.864237
941.034246	2741.628999
941.336524	2738.017012
941.638763	2735.841754
941.940964	2734.221023
942.243126	2736.308061
942.545250	2732.663307
942.847335	2730.054509
943.149381	2723.067470
943.451389	2722.442367
943.753359	2717.817108
944.055290	2716.171172
944.357182	2717.131512
944.659036	2715.367108
944.960851	2711.240923
945.262628	2714.489947
945.564367	2713.837117
945.866067	2714.326109
946.167729	2715.863661
946.469352	2715.084803
946.770937	2714.815101
947.072484	2710.971222
947.373992	2712.344936
947.675462	2710.477188
947.976893	2707.298741
948.278286	2708.957281
948.579641	2705.458720
948.880958	2705.738504
949.182236	2705.337732
949.483476	2705.524255
949.784678	2705.030222
950.085841	2705.751107
950.386967	2705.816642
950.688054	2707.301262
950.989103	2709.985676
951.290114	2709.136242
951.591087	2710.633464
951.892021	2714.258054
952.192917	2715.929196
952.493776	2714.132025
952.794596	2719.337016
953.095378	2716.347612
953.396122	2717.998590
953.696828	2713.186809
953.997496	2713.121274
954.298126	2709.799153
954.598718	2710.262939
954.899272	2705.995603
955.199788	2703.235571
955.500266	2699.671475
955.800706	2700.087370
956.101108	2696.220805
956.401472	2694.685774
956.701798	2693.180990
957.002087	2690.988088
957.302337	2689.563962
957.602550	2689.087573
957.902724	2687.224866
958.202861	2684.837880
958.502960	2685.152952
958.803022	2685.062211
959.103045	2682.755883
959.403031	2682.536593
959.702979	2682.423167
960.002889	2681.359484
960.302762	2683.128929
960.602596	2680.779751
960.902393	2679.446366
961.202153	2680.240348
961.501875	2679.194308
961.801559	2678.516273
962.101205	2678.546520
962.400814	2679.227076
962.700385	2681.019206
962.999918	2674.876560
963.299414	2673.989317
963.598873	2676.494770
963.898293	2672.965963
964.197677	2676.267918
964.497022	2676.870336
964.796331	2676.885460
965.095601	2674.884122
965.394835	2676.656087
965.694030	2675.315140
965.993189	2678.223886
966.292309	2674.495953
966.591393	2676.197342
966.890439	2676.421674
967.189447	2676.499812
967.488419	2674.465706
967.787353	2674.059893
968.086249	2678.664987
968.385108	2675.670542
968.683930	2675.844462
968.982714	2674.742969
969.281462	2676.431756
969.580172	2675.763803
969.878844	2674.987465
970.177480	2674.954698
970.476078	2676.247754
970.774639	2674.851354
971.073162	2676.048628
971.371649	2676.209945
971.670098	2676.653567
971.968510	2675.161385
972.266885	2675.796571
972.565223	2674.863957
972.863524	2676.099040
973.161788	2678.097857
973.460014	2675.509225
973.758204	2675.665501
974.056356	2675.771365
974.354471	2677.298834
974.652550	2677.404699
974.950591	2677.412260
975.248595	2676.182219
975.546563	2677.276149
975.844493	2676.091478
976.142386	2675.224400
976.440243	2677.757579
976.738062	2675.199194
977.035845	2674.357321
977.333590	2676.066272
977.631299	2672.305572
977.928971	2672.313133
978.226606	2670.861281
978.524204	2670.510921
978.821765	2669.573266
979.119290	2673.157527
979.416777	2673.182732
979.714228	2673.558298
980.011642	2672.950839
980.309020	2675.310099
980.606360	2673.628874
980.903664	2676.535100
981.200931	2676.434277
981.498162	2674.899245
981.795356	2676.845131
982.092513	2676.401509
982.389633	2681.404854
982.686717	2684.621110
982.983764	2688.853159
983.280775	2690.100845
983.577749	2690.045392
983.874686	2690.299970
984.171587	2687.398786
984.468451	2688.273426
984.765279	2682.803774
985.062070	2681.601459
985.358824	2682.224042
985.655543	2680.278156
985.952224	2677.659277
986.248869	2675.635254
986.545478	2674.614420
986.842050	2673.349090
987.138586	2672.633247
987.435086	2673.580983
987.731549	2671.645180
988.027975	2673.848165
988.324366	2670.755417
988.620719	2670.503359
988.917037	2670.946981
989.213318	2670.049655
989.509563	2671.746003
989.805772	2671.937567
990.101944	2671.251970
990.398080	2668.287772
990.694180	2667.950015
990.990244	2672.837413
991.286271	2669.437155
991.582262	2669.543019
991.878217	2667.939932
992.174136	2669.326250
992.470019	2669.729542
992.765865	2668.050838
993.061676	2666.924140
993.357450	2665.434479
993.653188	2666.495642
993.948890	2672.098884
994.244556	2669.134686
994.540186	2671.186435
994.835780	2671.345232
995.131337	2670.805828
995.426859	2672.666014
995.722345	2673.081909
996.017795	2671.501507
996.313208	2672.398833
996.608586	2676.325892
996.903928	2675.577280
997.199234	2674.170798
997.494504	2674.894204
997.789738	2675.073165
998.084936	2675.678103
998.380099	2676.018381
998.675225	2675.163906
998.970316	2673.747342
999.265371	2672.769358
999.560390	2672.519821
999.855373	2670.515962
1000.150320	2668.814572
1000.445232	2669.550581
1000.740108	2670.863802
1001.034948	2670.548729
1001.329752	2666.132679
1001.624521	2670.145437
1001.919254	2669.364058
1002.213951	2669.298523
1002.508613	2669.608554
1002.803239	2668.141578
1003.097829	2668.260046
1003.392384	2669.132165
1003.686903	2667.448420
1003.981386	2668.575118
1004.275834	2667.723163
1004.570246	2668.696105
1004.864623	2667.965138
1005.158964	2665.449602
1005.453270	2667.244253
1005.747540	2667.740807
1006.041775	2666.944304
1006.335974	2669.638801
1006.630138	2668.456651
1006.924266	2669.321208
1007.218359	2667.390447
1007.512416	2666.170487
1007.806438	2664.673265
1008.100425	2664.403563
1008.394376	2663.261742
1008.688292	2667.133348
1008.982172	2666.717452
1009.276017	2667.932371
1009.569827	2667.355158
1009.863602	2668.759120
1010.157341	2667.554284
1010.451045	2666.445230
1010.744714	2670.019408
1011.038347	2668.834737
1011.331945	2669.195180
1011.625508	2668.408760
1011.919036	2666.150323
1012.212528	2667.786177
1012.505986	2667.655107
1012.799408	2666.185611
1013.092795	2664.950528
1013.386147	2668.214675
1013.679464	2667.929850
1013.972745	2668.844819
1014.265992	2666.760302
1014.559204	2667.458502
1014.852380	2667.178718
1015.145521	2666.644356
1015.438628	2666.044458
1015.731699	2668.910354
1016.024736	2666.674603
1016.317737	2668.318019
1016.610703	2665.464726
1016.903635	2668.930519
1017.196531	2668.151661
1017.489393	2665.278203
1017.782219	2664.978254
1018.075011	2667.629901
1018.367768	2665.704181
1018.660490	2663.717966
1018.953177	2663.717966
1019.245829	2663.717966
